BestFit value for E:\RC_data\Compressed_For_Future_Analysis_Full\0007_2025-12-09_12-08-33\Interpretation_History\2025-12-09_15-23-24\ResultsGraphs\BestFit\(Run)spectra_12-09-14-480_BestFit.txt
600.338 0.0245144
601.113 0.0245003
601.888 0.0244860
602.663 0.0244716
603.437 0.0244571
604.211 0.0244426
604.984 0.0244279
605.757 0.0244131
606.530 0.0243983
607.302 0.0243834
608.074 0.0243686
608.845 0.0243537
609.616 0.0243389
610.387 0.0243241
611.158 0.0243094
611.928 0.0242949
612.697 0.0242805
613.467 0.0242663
614.236 0.0242523
615.004 0.0242385
615.773 0.0242250
616.541 0.0242117
617.308 0.0241987
618.076 0.0241859
618.843 0.0241734
619.609 0.0241612
620.375 0.0241493
621.141 0.0241376
621.907 0.0241261
622.672 0.0241149
623.437 0.0241039
624.202 0.0240930
624.966 0.0240822
625.730 0.0240716
626.493 0.0240610
627.257 0.0240504
628.020 0.0240399
628.782 0.0240293
629.545 0.0240187
630.307 0.0240079
631.068 0.0239971
631.830 0.0239861
632.591 0.0239749
633.352 0.0239635
634.112 0.0239519
634.872 0.0239401
635.632 0.0239281
636.392 0.0239159
637.151 0.0239035
637.910 0.0238908
638.668 0.0238780
639.427 0.0238650
640.185 0.0238519
640.943 0.0238387
641.700 0.0238254
642.457 0.0238120
643.214 0.0237986
643.971 0.0237852
644.727 0.0237720
645.483 0.0237588
646.239 0.0237457
646.994 0.0237328
647.750 0.0237201
648.505 0.0237077
649.259 0.0236955
650.014 0.0236837
650.768 0.0236721
651.521 0.0236609
652.275 0.0236501
653.028 0.0236396
653.781 0.0236294
654.534 0.0236196
655.286 0.0236102
656.039 0.0236011
656.791 0.0235924
657.542 0.0235839
658.294 0.0235757
659.045 0.0235678
659.796 0.0235600
660.546 0.0235525
661.297 0.0235450
662.047 0.0235377
662.796 0.0235304
663.546 0.0235231
664.295 0.0235158
665.044 0.0235084
665.793 0.0235008
666.542 0.0234931
667.290 0.0234852
668.038 0.0234771
668.786 0.0234687
669.533 0.0234600
670.281 0.0234510
671.028 0.0234417
671.774 0.0234320
672.521 0.0234220
673.267 0.0234117
674.013 0.0234010
674.759 0.0233900
675.505 0.0233786
676.250 0.0233670
676.995 0.0233551
677.740 0.0233430
678.484 0.0233306
679.229 0.0233181
679.973 0.0233055
680.717 0.0232928
681.460 0.0232800
682.204 0.0232673
682.947 0.0232546
683.690 0.0232420
684.433 0.0232296
685.175 0.0232174
685.917 0.0232054
686.659 0.0231937
687.401 0.0231823
688.142 0.0231713
688.884 0.0231607
689.625 0.0231505
690.365 0.0231407
691.106 0.0231314
691.846 0.0231226
692.586 0.0231142
693.326 0.0231064
694.066 0.0230990
694.805 0.0230920
695.545 0.0230856
696.284 0.0230795
697.022 0.0230739
697.761 0.0230686
698.499 0.0230637
699.237 0.0230590
699.975 0.0230547
700.713 0.0230505
701.450 0.0230465
702.187 0.0230426
702.924 0.0230388
703.661 0.0230350
704.397 0.0230311
705.133 0.0230272
705.869 0.0230231
706.605 0.0230188
707.341 0.0230143
708.076 0.0230095
708.811 0.0230043
709.546 0.0229988
710.281 0.0229929
711.015 0.0229865
711.749 0.0229797
712.483 0.0229725
713.217 0.0229647
713.950 0.0229565
714.684 0.0229478
715.417 0.0229385
716.150 0.0229288
716.882 0.0229186
717.615 0.0229080
718.347 0.0228970
719.079 0.0228855
719.811 0.0228737
720.542 0.0228616
721.273 0.0228492
722.005 0.0228366
722.735 0.0228238
723.466 0.0228108
724.196 0.0227978
724.927 0.0227848
725.656 0.0227718
726.386 0.0227589
727.116 0.0227461
727.845 0.0227336
728.574 0.0227213
729.303 0.0227093
730.031 0.0226976
730.760 0.0226864
731.488 0.0226756
732.216 0.0226653
732.944 0.0226555
733.671 0.0226463
734.398 0.0226376
735.125 0.0226296
735.852 0.0226221
736.579 0.0226153
737.305 0.0226090
738.031 0.0226034
738.757 0.0225984
739.483 0.0225940
740.208 0.0225902
740.933 0.0225870
741.658 0.0225842
742.383 0.0225820
743.108 0.0225802
743.832 0.0225788
744.556 0.0225778
745.280 0.0225771
746.004 0.0225767
746.727 0.0225765
747.450 0.0225765
748.173 0.0225765
748.896 0.0225766
749.618 0.0225766
750.340 0.0225766
751.062 0.0225764
751.784 0.0225760
752.506 0.0225754
753.227 0.0225745
753.948 0.0225732
754.669 0.0225715
755.389 0.0225694
756.110 0.0225667
756.830 0.0225635
757.550 0.0225598
758.269 0.0225555
758.989 0.0225505
759.708 0.0225450
760.427 0.0225387
761.146 0.0225319
761.864 0.0225244
762.582 0.0225162
763.300 0.0225074
764.018 0.0224979
764.736 0.0224879
765.453 0.0224772
766.170 0.0224661
766.887 0.0224544
767.603 0.0224422
768.320 0.0224296
769.036 0.0224165
769.751 0.0224032
770.467 0.0223895
771.182 0.0223757
771.897 0.0223616
772.612 0.0223474
773.327 0.0223332
774.041 0.0223190
774.755 0.0223048
775.469 0.0222908
776.183 0.0222769
776.896 0.0222633
777.609 0.0222500
778.322 0.0222370
779.035 0.0222245
779.747 0.0222124
780.459 0.0222009
781.171 0.0221899
781.882 0.0221795
782.594 0.0221697
783.305 0.0221606
784.016 0.0221522
784.726 0.0221445
785.436 0.0221376
786.147 0.0221314
786.856 0.0221260
787.566 0.0221213
788.275 0.0221174
788.984 0.0221142
789.693 0.0221118
790.401 0.0221102
791.110 0.0221092
791.818 0.0221089
792.525 0.0221092
793.233 0.0221102
793.940 0.0221117
794.647 0.0221138
795.353 0.0221164
796.060 0.0221194
796.766 0.0221227
797.472 0.0221264
798.177 0.0221304
798.883 0.0221346
799.588 0.0221389
800.292 0.0221433
800.997 0.0221478
801.701 0.0221522
802.405 0.0221565
803.109 0.0221606
803.812 0.0221646
804.515 0.0221682
805.218 0.0221715
805.921 0.0221745
806.623 0.0221770
807.325 0.0221790
808.027 0.0221804
808.728 0.0221813
809.429 0.0221816
810.130 0.0221811
810.831 0.0221800
811.531 0.0221782
812.231 0.0221757
812.931 0.0221723
813.630 0.0221682
814.330 0.0221633
815.029 0.0221576
815.727 0.0221511
816.426 0.0221438
817.124 0.0221357
817.821 0.0221269
818.519 0.0221173
819.216 0.0221070
819.913 0.0220959
820.609 0.0220843
821.306 0.0220719
822.002 0.0220589
822.697 0.0220454
823.393 0.0220314
824.088 0.0220169
824.783 0.0220020
825.477 0.0219867
826.171 0.0219711
826.865 0.0219553
827.559 0.0219392
828.252 0.0219231
828.945 0.0219068
829.638 0.0218905
830.330 0.0218743
831.023 0.0218582
831.714 0.0218423
832.406 0.0218265
833.097 0.0218111
833.788 0.0217960
834.479 0.0217813
835.169 0.0217671
835.859 0.0217533
836.548 0.0217402
837.238 0.0217276
837.927 0.0217156
838.615 0.0217044
839.304 0.0216938
839.992 0.0216841
840.680 0.0216751
841.367 0.0216669
842.054 0.0216595
842.741 0.0216530
843.428 0.0216473
844.114 0.0216425
844.800 0.0216386
845.485 0.0216356
846.170 0.0216334
846.855 0.0216321
847.540 0.0216317
848.224 0.0216321
848.908 0.0216333
849.592 0.0216353
850.275 0.0216381
850.958 0.0216416
851.641 0.0216459
852.323 0.0216508
853.005 0.0216563
853.687 0.0216624
854.368 0.0216691
855.049 0.0216762
855.730 0.0216838
856.410 0.0216918
857.090 0.0217002
857.769 0.0217088
858.449 0.0217176
859.128 0.0217266
859.806 0.0217357
860.485 0.0217449
861.163 0.0217541
861.840 0.0217631
862.518 0.0217721
863.195 0.0217809
863.871 0.0217895
864.548 0.0217978
865.224 0.0218057
865.899 0.0218132
866.574 0.0218203
867.249 0.0218268
867.924 0.0218329
868.598 0.0218383
869.272 0.0218431
869.946 0.0218473
870.619 0.0218507
871.292 0.0218534
871.964 0.0218553
872.636 0.0218565
873.308 0.0218568
873.979 0.0218563
874.651 0.0218549
875.321 0.0218526
875.992 0.0218495
876.662 0.0218455
877.331 0.0218406
878.001 0.0218348
878.670 0.0218282
879.338 0.0218207
880.007 0.0218123
880.675 0.0218030
881.342 0.0217930
882.009 0.0217821
882.676 0.0217704
883.343 0.0217580
884.009 0.0217449
884.675 0.0217311
885.340 0.0217166
886.005 0.0217015
886.670 0.0216859
887.334 0.0216697
887.998 0.0216530
888.662 0.0216359
889.325 0.0216184
889.988 0.0216006
890.650 0.0215825
891.312 0.0215641
891.974 0.0215455
892.636 0.0215268
893.297 0.0215080
893.957 0.0214893
894.618 0.0214705
895.278 0.0214518
895.937 0.0214333
896.596 0.0214149
897.255 0.0213968
897.914 0.0213790
898.572 0.0213615
899.230 0.0213444
899.887 0.0213278
900.544 0.0213116
901.201 0.0212960
901.857 0.0212809
902.513 0.0212665
903.168 0.0212527
903.823 0.0212397
904.478 0.0212273
905.132 0.0212157
905.786 0.0212048
906.440 0.0211948
907.093 0.0211856
907.746 0.0211773
908.399 0.0211698
909.051 0.0211633
909.703 0.0211576
910.354 0.0211528
911.005 0.0211490
911.656 0.0211460
912.306 0.0211440
912.956 0.0211429
913.605 0.0211427
914.254 0.0211434
914.903 0.0211450
915.551 0.0211475
916.199 0.0211508
916.847 0.0211550
917.494 0.0211600
918.141 0.0211658
918.788 0.0211724
919.434 0.0211797
920.079 0.0211877
920.725 0.0211964
921.370 0.0212057
922.014 0.0212156
922.658 0.0212261
923.302 0.0212371
923.946 0.0212486
924.589 0.0212606
925.231 0.0212729
925.873 0.0212856
926.515 0.0212986
927.157 0.0213119
927.798 0.0213253
928.439 0.0213390
929.079 0.0213527
929.719 0.0213665
930.359 0.0213804
930.998 0.0213942
931.637 0.0214079
932.275 0.0214215
932.913 0.0214349
933.551 0.0214482
934.188 0.0214611
934.825 0.0214737
935.462 0.0214860
936.098 0.0214979
936.733 0.0215094
937.369 0.0215203
938.004 0.0215308
938.638 0.0215407
939.273 0.0215500
939.907 0.0215587
940.540 0.0215667
941.173 0.0215741
941.806 0.0215807
942.438 0.0215866
943.070 0.0215917
943.702 0.0215960
944.333 0.0215996
944.964 0.0216023
945.594 0.0216041
946.224 0.0216051
946.854 0.0216053
947.483 0.0216045
948.112 0.0216029
948.741 0.0216004
949.369 0.0215971
949.996 0.0215928
950.624 0.0215876
951.251 0.0215816
951.878 0.0215747
952.504 0.0215669
953.130 0.0215583
953.755 0.0215489
954.380 0.0215386
955.005 0.0215275
955.629 0.0215156
956.253 0.0215030
956.877 0.0214896
957.500 0.0214755
958.123 0.0214607
958.746 0.0214453
959.368 0.0214292
959.990 0.0214125
960.611 0.0213960
961.232 0.0213791
961.853 0.0213615
962.473 0.0213436
963.093 0.0213252
963.712 0.0213064
964.331 0.0212873
964.950 0.0212679
965.569 0.0212481
966.187 0.0212282
966.804 0.0212080
967.422 0.0211877
968.039 0.0211673
968.655 0.0211468
969.272 0.0211263
969.887 0.0211058
970.503 0.0210853
971.118 0.0210650
971.733 0.0210447
972.347 0.0210247
972.961 0.0210049
973.575 0.0209853
974.188 0.0209660
974.801 0.0209471
975.414 0.0209285
976.026 0.0209103
976.638 0.0208926
977.250 0.0208753
977.861 0.0208586
978.472 0.0208423
979.083 0.0208267
979.693 0.0208116
980.303 0.0207972
980.912 0.0207834
981.521 0.0207703
982.130 0.0207579
982.738 0.0207463
983.346 0.0207354
983.954 0.0207252
984.562 0.0207158
985.169 0.0207072
985.775 0.0206995
986.382 0.0206925
986.988 0.0206864
987.594 0.0206811
988.199 0.0206767
988.804 0.0206731
989.409 0.0206704
990.013 0.0206686
990.617 0.0206676
991.221 0.0206675
991.824 0.0206682
992.427 0.0206698
993.030 0.0206723
993.632 0.0206755
994.234 0.0206797
994.836 0.0206846
995.438 0.0206903
996.039 0.0206969
996.640 0.0207042
997.240 0.0207122
997.840 0.0207210
998.440 0.0207306
999.040 0.0207408
999.639 0.0207517
1000.238 0.0207630
1000.836 0.0207746
1001.435 0.0207868
1002.033 0.0207996
1002.63 0.0208129
1003.228 0.0208268
1003.825 0.0208411
1004.422 0.0208559
1005.018 0.0208712
1005.614 0.0208868
1006.21 0.0209028
1006.806 0.0209192
1007.401 0.0209359
1007.996 0.0209528
1008.591 0.0209700
1009.186 0.0209874
1009.78 0.0210049
1010.374 0.0210226
1010.967 0.0210403
1011.561 0.0210581
1012.154 0.0210760
1012.746 0.0210938
1013.339 0.0211116
1013.931 0.0211293
1014.523 0.0211469
1015.115 0.0211644
1015.706 0.0211816
1016.298 0.0211987
1016.888 0.0212155
1017.479 0.0212320
1018.069 0.0212482
1018.66 0.0212640
1019.25 0.0212795
1019.839 0.0212946
1020.429 0.0213092
1021.018 0.0213234
1021.607 0.0213371
1022.195 0.0213502
1022.784 0.0213629
1023.372 0.0213749
1023.96 0.0213864
1024.547 0.0213972
1025.135 0.0214074
1025.722 0.0214170
1026.309 0.0214259
1026.896 0.0214340
1027.483 0.0214415
1028.069 0.0214483
1028.655 0.0214543
1029.241 0.0214595
1029.827 0.0214640
1030.412 0.0214677
1030.997 0.0214706
1031.582 0.0214727
1032.167 0.0214740
1032.752 0.0214745
1033.336 0.0214742
1033.921 0.0214730
1034.505 0.0214711
1035.089 0.0214683
1035.672 0.0214647
1036.256 0.0214603
1036.839 0.0214551
1037.422 0.0214490
1038.005 0.0214422
1038.588 0.0214345
1039.171 0.0214261
1039.753 0.0214169
1040.335 0.0214069
1040.918 0.0213961
1041.50 0.0213846
1042.081 0.0213723
1042.663 0.0213594
1043.244 0.0213457
1043.826 0.0213313
1044.407 0.0213163
1044.988 0.0213006
1045.569 0.0212843
1046.15 0.0212673
1046.73 0.0212498
1047.311 0.0212317
1047.891 0.0212131
1048.471 0.0211939
1049.052 0.0211742
1049.632 0.0211540
1050.211 0.0211335
1050.791 0.0211124
1051.371 0.0210910
1051.95 0.0210692
1052.53 0.0210471
1053.109 0.0210247
1053.688 0.0210019
1054.268 0.0209789
1054.847 0.0209557
1055.426 0.0209323
1056.005 0.0209087
1056.583 0.0208850
1057.162 0.0208612
1057.741 0.0208373
1058.319 0.0208133
1058.898 0.0207893
1059.476 0.0207654
1060.055 0.0207414
1060.633 0.0207176
1061.211 0.0206939
1061.79 0.0206702
1062.368 0.0206468
1062.946 0.0206235
1063.524 0.0206005
1064.102 0.0205777
1064.68 0.0205552
1065.258 0.0205330
1065.836 0.0205111
1066.414 0.0204896
1066.992 0.0204685
1067.57 0.0204477
1068.148 0.0204274
1068.726 0.0204076
1069.304 0.0203883
1069.882 0.0203695
1070.46 0.0203512
1071.038 0.0203334
1071.616 0.0203163
1072.194 0.0202997
1072.772 0.0202837
1073.35 0.0202684
1073.928 0.0202538
1074.506 0.0202398
1075.084 0.0202265
1075.662 0.0202139
1076.24 0.0202020
1076.819 0.0201909
1077.397 0.0201805
1077.976 0.0201708
1078.554 0.0201619
1079.133 0.0201538
1079.711 0.0201465
1080.29 0.0201400
1080.869 0.0201343
1081.448 0.0201294
1082.027 0.0201252
1082.606 0.0201220
1083.185 0.0201195
1083.764 0.0201178
1084.343 0.0201170
1084.923 0.0201170
1085.502 0.0201178
1086.082 0.0201195
1086.662 0.0201219
1087.242 0.0201252
1087.822 0.0201292
1088.402 0.0201341
1088.983 0.0201398
1089.563 0.0201462
1090.144 0.0201534
1090.725 0.0201614
1091.306 0.0201701
1091.887 0.0201796
1092.469 0.0201898
1093.05 0.0202007
1093.632 0.0202124
1094.214 0.0202247
1094.796 0.0202377
1095.379 0.0202513
1095.961 0.0202656
1096.544 0.0202805
1097.127 0.0202959
1097.71 0.0203120
1098.294 0.0203286
1098.877 0.0203458
1099.461 0.0203634
1100.046 0.0203816
1100.63 0.0204002
1101.215 0.0204193
1101.80 0.0204388
1102.385 0.0204587
1102.97 0.0204789
1103.556 0.0204995
1104.142 0.0205204
1104.728 0.0205416
1105.315 0.0205631
1105.902 0.0205848
1106.489 0.0206067
1107.077 0.0206288
1107.664 0.0206510
1108.253 0.0206734
1108.841 0.0206958
1109.43 0.0207184
1110.019 0.0207409
1110.609 0.0207635
1111.198 0.0207861
1111.789 0.0208086
1112.379 0.0208310
1112.97 0.0208533
1113.561 0.0208755
1114.153 0.0208975
1114.745 0.0209194
1115.338 0.0209410
1115.931 0.0209624
1116.524 0.0209834
1117.117 0.0210042
1117.712 0.0210247
1118.306 0.0210447
1118.901 0.0210644
1119.496 0.0210837
1120.092 0.0211026
1120.689 0.0211210
1121.285 0.0211388
1121.882 0.0211562
1122.48 0.0211731
1123.078 0.0211893
1123.677 0.0212051
1124.276 0.0212201
1124.875 0.0212346
1125.476 0.0212484
1126.076 0.0212616
1126.677 0.0212740
1127.279 0.0212858
1127.881 0.0212968
1128.484 0.0213071
1129.087 0.0213166
1129.691 0.0213254
1130.295 0.0213333
1130.90 0.0213405
1131.505 0.0213468
1132.111 0.0213523
1132.718 0.0213570
1133.325 0.0213608
1133.933 0.0213638
1134.541 0.0213659
1135.15 0.0213671
1135.76 0.0213674
1136.37 0.0213668
1136.981 0.0213654
1137.592 0.0213630
1138.204 0.0213597
1138.817 0.0213556
1139.431 0.0213505
1140.045 0.0213445
1140.66 0.0213376
1141.275 0.0213299
1141.891 0.0213212
1142.508 0.0213116
1143.126 0.0213011
1143.744 0.0212898
1144.363 0.0212776
1144.983 0.0212645
