BestFit value for E:\RC_data\Compressed_For_Future_Analysis_Lite\test_shlomo\aqueous_test\GoodSpectraLarge_Full\0012_2025-06-24_09-45-30\Interpretation_History\2025-07-21_16-23-34\ResultsGraphs\BestFit\(Run)spectra_09-46-17-302_BestFit.txt
600.203 0.0472337
600.975 0.0471749
601.747 0.0471162
602.518 0.0470577
603.289 0.0469993
604.059 0.0469409
604.829 0.0468825
605.599 0.0468241
606.369 0.0467655
607.138 0.0467069
607.906 0.0466482
608.675 0.0465893
609.443 0.0465302
610.210 0.0464710
610.977 0.0464116
611.744 0.0463521
612.511 0.0462923
613.277 0.0462324
614.043 0.0461724
614.809 0.0461122
615.574 0.0460520
616.339 0.0459918
617.104 0.0459316
617.868 0.0458714
618.632 0.0458114
619.395 0.0457515
620.159 0.0456917
620.922 0.0456323
621.684 0.0455731
622.447 0.0455143
623.209 0.0454558
623.970 0.0453979
624.732 0.0453404
625.493 0.0452834
626.254 0.0452270
627.014 0.0451712
627.774 0.0451160
628.534 0.0450614
629.294 0.0450074
630.053 0.0449541
630.812 0.0449014
631.571 0.0448494
632.329 0.0447980
633.087 0.0447472
633.845 0.0446970
634.602 0.0446473
635.359 0.0445982
636.116 0.0445495
636.873 0.0445012
637.629 0.0444533
638.385 0.0444057
639.141 0.0443584
639.897 0.0443113
640.652 0.0442643
641.407 0.0442174
642.161 0.0441706
642.916 0.0441237
643.670 0.0440768
644.424 0.0440297
645.177 0.0439825
645.931 0.0439349
646.684 0.0438872
647.436 0.0438392
648.189 0.0437908
648.941 0.0437421
649.693 0.0436929
650.445 0.0436434
651.196 0.0435935
651.947 0.0435433
652.698 0.0434926
653.449 0.0434415
654.199 0.0433902
654.949 0.0433384
655.699 0.0432864
656.449 0.0432341
657.198 0.0431817
657.947 0.0431291
658.696 0.0430763
659.445 0.0430235
660.193 0.0429707
660.941 0.0429180
661.689 0.0428653
662.436 0.0428129
663.184 0.0427607
663.931 0.0427088
664.678 0.0426573
665.424 0.0426063
666.171 0.0425556
666.917 0.0425056
667.663 0.0424561
668.408 0.0424073
669.154 0.0423591
669.899 0.0423116
670.644 0.0422649
671.388 0.0422189
672.133 0.0421737
672.877 0.0421293
673.621 0.0420856
674.365 0.0420428
675.108 0.0420007
675.851 0.0419594
676.594 0.0419188
677.337 0.0418789
678.080 0.0418397
678.822 0.0418011
679.564 0.0417632
680.306 0.0417257
681.047 0.0416887
681.789 0.0416522
682.530 0.0416160
683.271 0.0415801
684.012 0.0415444
684.752 0.0415089
685.492 0.0414736
686.232 0.0414382
686.972 0.0414028
687.712 0.0413672
688.451 0.0413316
689.190 0.0412957
689.929 0.0412594
690.667 0.0412229
691.406 0.0411859
692.144 0.0411485
692.882 0.0411106
693.620 0.0410722
694.357 0.0410332
695.095 0.0409936
695.832 0.0409535
696.569 0.0409127
697.305 0.0408713
698.042 0.0408292
698.778 0.0407866
699.514 0.0407433
700.249 0.0406995
700.985 0.0406550
701.720 0.0406101
702.455 0.0405647
703.190 0.0405188
703.925 0.0404725
704.659 0.0404259
705.393 0.0403790
706.127 0.0403318
706.861 0.0402844
707.595 0.0402369
708.328 0.0401895
709.061 0.0401420
709.794 0.0400947
710.527 0.0400475
711.259 0.0400006
711.991 0.0399539
712.723 0.0399077
713.455 0.0398619
714.186 0.0398166
714.918 0.0397719
715.649 0.0397278
716.380 0.0396845
717.110 0.0396419
717.841 0.0396000
718.571 0.0395589
719.301 0.0395188
720.031 0.0394795
720.760 0.0394412
721.490 0.0394037
722.219 0.0393672
722.948 0.0393317
723.676 0.0392971
724.405 0.0392635
725.133 0.0392308
725.861 0.0391990
726.589 0.0391680
727.317 0.0391380
728.044 0.0391088
728.771 0.0390803
729.498 0.0390526
730.225 0.0390255
730.951 0.0389991
731.677 0.0389733
732.403 0.0389479
733.129 0.0389230
733.855 0.0388984
734.580 0.0388742
735.305 0.0388502
736.030 0.0388263
736.755 0.0388025
737.479 0.0387787
738.203 0.0387548
738.927 0.0387308
739.651 0.0387066
740.375 0.0386821
741.098 0.0386573
741.821 0.0386320
742.544 0.0386063
743.267 0.0385800
743.989 0.0385531
744.711 0.0385257
745.433 0.0384975
746.155 0.0384686
746.877 0.0384389
747.598 0.0384085
748.319 0.0383773
749.040 0.0383452
749.760 0.0383123
750.481 0.0382785
751.201 0.0382440
751.921 0.0382085
752.640 0.0381723
753.360 0.0381352
754.079 0.0380973
754.798 0.0380587
755.517 0.0380193
756.235 0.0379793
756.953 0.0379386
757.671 0.0378973
758.389 0.0378554
759.107 0.0378130
759.824 0.0377702
760.541 0.0377271
761.258 0.0376836
761.974 0.0376399
762.691 0.0375959
763.407 0.0375519
764.123 0.0375079
764.838 0.0374639
765.554 0.0374200
766.269 0.0373763
766.984 0.0373329
767.699 0.0372898
768.413 0.0372471
769.127 0.0372049
769.841 0.0371632
770.555 0.0371221
771.268 0.0370818
771.982 0.0370421
772.694 0.0370032
773.407 0.0369652
774.120 0.0369280
774.832 0.0368918
775.544 0.0368565
776.256 0.0368222
776.967 0.0367890
777.678 0.0367568
778.389 0.0367257
779.100 0.0366957
779.810 0.0366667
780.521 0.0366389
781.231 0.0366121
781.940 0.0365865
782.650 0.0365620
783.359 0.0365385
784.068 0.0365160
784.776 0.0364946
785.485 0.0364741
786.193 0.0364546
786.901 0.0364360
787.609 0.0364182
788.316 0.0364013
789.023 0.0363851
789.730 0.0363696
790.436 0.0363547
791.143 0.0363404
791.849 0.0363267
792.555 0.0363134
793.260 0.0363005
793.965 0.0362879
794.670 0.0362755
795.375 0.0362633
796.080 0.0362511
796.784 0.0362390
797.488 0.0362269
798.191 0.0362146
798.895 0.0362022
799.598 0.0361895
800.301 0.0361764
801.003 0.0361630
801.705 0.0361491
802.408 0.0361347
803.109 0.0361197
803.811 0.0361040
804.512 0.0360877
805.213 0.0360707
805.913 0.0360528
806.614 0.0360342
807.314 0.0360146
808.014 0.0359942
808.713 0.0359728
809.412 0.0359505
810.111 0.0359273
810.810 0.0359030
811.508 0.0358777
812.206 0.0358515
812.904 0.0358242
813.602 0.0357958
814.299 0.0357665
814.996 0.0357363
815.692 0.0357050
816.389 0.0356728
817.085 0.0356396
817.781 0.0356055
818.476 0.0355706
819.171 0.0355349
819.866 0.0354983
820.561 0.0354610
821.255 0.0354230
821.949 0.0353843
822.643 0.0353450
823.336 0.0353052
824.029 0.0352649
824.722 0.0352242
825.415 0.0351830
826.107 0.0351416
826.799 0.0350999
827.490 0.0350581
828.182 0.0350161
828.873 0.0349742
829.563 0.0349322
830.254 0.0348903
830.944 0.0348486
831.634 0.0348072
832.323 0.0347660
833.012 0.0347252
833.701 0.0346848
834.390 0.0346449
835.078 0.0346055
835.766 0.0345668
836.453 0.0345288
837.141 0.0344914
837.828 0.0344548
838.514 0.0344191
839.201 0.0343842
839.887 0.0343502
840.572 0.0343173
841.258 0.0342852
841.943 0.0342543
842.628 0.0342244
843.312 0.0341955
843.996 0.0341678
844.680 0.0341412
845.363 0.0341158
846.046 0.0340916
846.729 0.0340684
847.412 0.0340465
848.094 0.0340257
848.776 0.0340061
849.457 0.0339877
850.139 0.0339704
850.819 0.0339543
851.500 0.0339392
852.180 0.0339253
852.860 0.0339125
853.540 0.0339006
854.219 0.0338898
854.898 0.0338800
855.576 0.0338711
856.254 0.0338632
856.932 0.0338560
857.610 0.0338497
858.287 0.0338442
858.964 0.0338393
859.640 0.0338352
860.317 0.0338316
860.993 0.0338286
861.668 0.0338260
862.343 0.0338240
863.018 0.0338222
863.693 0.0338208
864.367 0.0338197
865.041 0.0338187
865.714 0.0338179
866.387 0.0338171
867.060 0.0338164
867.732 0.0338156
868.404 0.0338147
869.076 0.0338136
869.748 0.0338122
870.419 0.0338106
871.089 0.0338086
871.760 0.0338063
872.430 0.0338034
873.099 0.0338000
873.769 0.0337961
874.438 0.0337916
875.106 0.0337864
875.774 0.0337804
876.442 0.0337738
877.110 0.0337663
877.777 0.0337580
878.444 0.0337489
879.110 0.0337389
879.776 0.0337279
880.442 0.0337160
881.108 0.0337031
881.773 0.0336892
882.437 0.0336743
883.102 0.0336583
883.766 0.0336414
884.429 0.0336234
885.093 0.0336043
885.755 0.0335841
886.418 0.0335629
887.080 0.0335407
887.742 0.0335174
888.403 0.0334930
889.064 0.0334677
889.725 0.0334413
890.385 0.0334139
891.045 0.0333855
891.705 0.0333562
892.364 0.0333260
893.023 0.0332948
893.682 0.0332628
894.340 0.0332299
894.998 0.0331963
895.655 0.0331619
896.312 0.0331268
896.969 0.0330909
897.625 0.0330545
898.281 0.0330174
898.937 0.0329797
899.592 0.0329416
900.247 0.0329030
900.901 0.0328640
901.555 0.0328247
902.209 0.0327850
902.862 0.0327451
903.515 0.0327050
904.168 0.0326647
904.820 0.0326243
905.472 0.0325839
906.123 0.0325435
906.774 0.0325031
907.425 0.0324629
908.076 0.0324228
908.726 0.0323829
909.375 0.0323434
910.024 0.0323042
910.673 0.0322653
911.322 0.0322268
911.970 0.0321888
912.618 0.0321514
913.265 0.0321145
913.912 0.0320782
914.558 0.0320426
915.205 0.0320076
915.850 0.0319734
916.496 0.0319400
917.141 0.0319074
917.786 0.0318756
918.430 0.0318447
919.074 0.0318147
919.718 0.0317856
920.361 0.0317575
921.004 0.0317304
921.646 0.0317043
922.288 0.0316792
922.930 0.0316552
923.571 0.0316322
924.212 0.0316104
924.853 0.0315896
925.493 0.0315699
926.133 0.0315513
926.772 0.0315338
927.411 0.0315174
928.050 0.0315022
928.688 0.0314880
929.326 0.0314750
929.963 0.0314630
930.600 0.0314522
931.237 0.0314424
931.874 0.0314336
932.510 0.0314260
933.145 0.0314193
933.780 0.0314137
934.415 0.0314091
935.050 0.0314054
935.684 0.0314027
936.318 0.0314008
936.951 0.0313999
937.584 0.0313999
938.217 0.0314006
938.849 0.0314022
939.481 0.0314045
940.112 0.0314076
940.743 0.0314113
941.374 0.0314157
942.004 0.0314207
942.634 0.0314263
943.264 0.0314324
943.893 0.0314390
944.522 0.0314460
945.150 0.0314535
945.778 0.0314613
946.406 0.0314694
947.033 0.0314779
947.660 0.0314865
948.287 0.0314954
948.913 0.0315043
949.539 0.0315134
950.165 0.0315226
950.790 0.0315317
951.414 0.0315408
952.039 0.0315499
952.663 0.0315588
953.286 0.0315676
953.910 0.0315761
954.533 0.0315844
955.155 0.0315924
955.777 0.0316001
956.399 0.0316074
957.020 0.0316143
957.641 0.0316208
958.262 0.0316268
958.882 0.0316323
959.502 0.0316372
960.122 0.0316424
960.741 0.0316509
961.360 0.0316587
961.979 0.0316659
962.597 0.0316723
963.214 0.0316779
963.832 0.0316828
964.449 0.0316869
965.066 0.0316902
965.682 0.0316927
966.298 0.0316943
966.914 0.0316950
967.529 0.0316949
968.144 0.0316938
968.758 0.0316918
969.373 0.0316889
969.986 0.0316850
970.600 0.0316802
971.213 0.0316744
971.826 0.0316677
972.438 0.0316600
973.050 0.0316513
973.662 0.0316417
974.274 0.0316311
974.885 0.0316195
975.495 0.0316069
976.106 0.0315934
976.716 0.0315789
977.325 0.0315635
977.935 0.0315472
978.544 0.0315299
979.152 0.0315117
979.761 0.0314926
980.369 0.0314726
980.976 0.0314518
981.584 0.0314301
982.191 0.0314076
982.797 0.0313842
983.404 0.0313601
984.010 0.0313352
984.615 0.0313095
985.221 0.0312831
985.826 0.0312561
986.430 0.0312284
987.035 0.0311999
987.639 0.0311709
988.243 0.0311413
988.846 0.0311112
989.449 0.0310805
990.052 0.0310494
990.654 0.0310177
991.256 0.0309857
991.858 0.0309532
992.460 0.0309203
993.061 0.0308872
993.662 0.0308537
994.262 0.0308200
994.863 0.0307860
995.463 0.0307518
996.062 0.0307175
996.662 0.0306830
997.261 0.0306485
997.860 0.0306139
998.458 0.0305793
999.056 0.0305447
999.654 0.0305101
1000.252 0.0304738
1000.849 0.0304352
1001.446 0.0303967
1002.043 0.0303585
1002.639 0.0303205
1003.235 0.0302827
1003.831 0.0302452
1004.427 0.0302081
1005.022 0.0301713
1005.617 0.0301350
1006.212 0.0300990
1006.806 0.0300635
1007.401 0.0300285
1007.995 0.0299940
1008.588 0.0299601
1009.182 0.0299267
1009.775 0.0298939
1010.368 0.0298618
1010.96 0.0298303
1011.553 0.0297994
1012.145 0.0297693
1012.737 0.0297399
1013.328 0.0297112
1013.92 0.0296833
1014.511 0.0296561
1015.102 0.0296298
1015.692 0.0296043
1016.283 0.0295795
1016.873 0.0295556
1017.463 0.0295326
1018.052 0.0295105
1018.642 0.0294892
1019.231 0.0294689
1019.82 0.0294494
1020.409 0.0294308
1020.997 0.0294132
1021.585 0.0293965
1022.173 0.0293808
1022.761 0.0293659
1023.349 0.0293520
1023.936 0.0293390
1024.524 0.0293270
1025.111 0.0293159
1025.697 0.0293058
1026.284 0.0292966
1026.87 0.0292883
1027.457 0.0292809
1028.043 0.0292745
1028.628 0.0292690
1029.214 0.0292644
1029.80 0.0292607
1030.385 0.0292579
1030.97 0.0292560
1031.555 0.0292549
1032.139 0.0292547
1032.724 0.0292553
1033.308 0.0292568
1033.893 0.0292591
1034.477 0.0292622
1035.06 0.0292660
1035.644 0.0292706
1036.228 0.0292760
1036.811 0.0292821
1037.394 0.0292889
1037.977 0.0292964
1038.56 0.0293045
1039.143 0.0293133
1039.726 0.0293227
1040.308 0.0293327
1040.891 0.0293433
1041.473 0.0293545
1042.055 0.0293661
1042.637 0.0293783
1043.219 0.0293909
1043.801 0.0294040
1044.382 0.0294175
1044.964 0.0294314
1045.545 0.0294456
1046.127 0.0294603
1046.708 0.0294752
1047.289 0.0294904
1047.87 0.0295058
1048.451 0.0295215
1049.032 0.0295374
1049.612 0.0295535
1050.193 0.0295697
1050.774 0.0295860
1051.354 0.0296024
1051.935 0.0296189
1052.515 0.0296354
1053.095 0.0296519
1053.675 0.0296683
1054.256 0.0296848
1054.836 0.0297011
1055.416 0.0297173
1055.996 0.0297334
1056.576 0.0297493
1057.156 0.0297650
1057.735 0.0297804
1058.315 0.0297957
1058.895 0.0298107
1059.475 0.0298253
1060.055 0.0298397
1060.634 0.0298536
1061.214 0.0298672
1061.794 0.0298804
1062.373 0.0298932
1062.953 0.0299055
1063.533 0.0299174
1064.113 0.0299287
1064.692 0.0299395
1065.272 0.0299498
1065.852 0.0299596
1066.431 0.0299687
1067.011 0.0299773
1067.591 0.0299852
1068.171 0.0299925
1068.751 0.0299991
1069.331 0.0300051
1069.91 0.0300104
1070.49 0.0300149
1071.071 0.0300188
1071.651 0.0300219
1072.231 0.0300242
1072.811 0.0300258
1073.391 0.0300267
1073.972 0.0300267
1074.552 0.0300259
1075.133 0.0300244
1075.713 0.0300220
1076.294 0.0300188
1076.875 0.0300148
1077.456 0.0300099
1078.037 0.0300042
1078.618 0.0299976
1079.199 0.0299902
1079.78 0.0299819
1080.362 0.0299728
1080.943 0.0299628
1081.525 0.0299519
1082.107 0.0299401
1082.689 0.0299275
1083.271 0.0299141
1083.853 0.0298998
1084.436 0.0298846
1085.018 0.0298686
1085.601 0.0298517
1086.184 0.0298339
1086.767 0.0298153
1087.351 0.0297959
1087.934 0.0297757
1088.518 0.0297546
1089.102 0.0297327
1089.686 0.0297101
1090.27 0.0296866
1090.855 0.0296623
1091.439 0.0296374
1092.024 0.0296116
1092.609 0.0295851
1093.195 0.0295578
1093.78 0.0295299
1094.366 0.0295012
1094.952 0.0294719
1095.539 0.0294418
1096.125 0.0294112
1096.712 0.0293799
1097.299 0.0293479
1097.887 0.0293154
1098.475 0.0292823
1099.063 0.0292486
1099.651 0.0292144
1100.239 0.0291797
1100.828 0.0291444
1101.417 0.0291087
1102.007 0.0290725
1102.597 0.0290359
1103.187 0.0289989
1103.777 0.0289615
1104.368 0.0289237
1104.959 0.0288856
1105.551 0.0288471
1106.143 0.0288084
1106.735 0.0287694
1107.328 0.0287301
1107.921 0.0286906
1108.514 0.0286510
1109.108 0.0286111
1109.702 0.0285711
1110.296 0.0285310
1110.891 0.0284908
1111.486 0.0284506
1112.082 0.0284103
1112.678 0.0283700
1113.275 0.0283296
1113.872 0.0282893
1114.469 0.0282492
1115.067 0.0282091
1115.665 0.0281691
1116.264 0.0281292
1116.864 0.0280895
1117.463 0.0280500
1118.063 0.0280108
1118.664 0.0279718
1119.265 0.0279330
1119.867 0.0278946
1120.469 0.0278565
1121.072 0.0278187
1121.675 0.0277813
1122.279 0.0277443
1122.883 0.0277078
1123.488 0.0276716
1124.093 0.0276360
1124.699 0.0276009
1125.305 0.0275663
1125.912 0.0275322
1126.52 0.0274987
1127.128 0.0274658
1127.737 0.0274334
1128.346 0.0274018
1128.956 0.0273707
1129.567 0.0273403
1130.178 0.0273107
1130.79 0.0272817
1131.402 0.0272535
1132.015 0.0272260
1132.629 0.0271992
1133.243 0.0271733
1133.858 0.0271482
1134.474 0.0271238
1135.09 0.0271003
1135.707 0.0270777
1136.325 0.0270559
1136.943 0.0270350
1137.562 0.0270149
1138.182 0.0269957
1138.802 0.0269775
1139.423 0.0269602
1140.045 0.0269438
1140.668 0.0269283
1141.291 0.0269138
1141.916 0.0269002
1142.54 0.0268876
1143.166 0.0268759
1143.793 0.0268652
1144.42 0.0268555
1145.048 0.0268468
