BestFit value for E:\RC_data\Compressed_For_Future_Analysis_Full\0007_2025-12-10_09-57-49\Interpretation_History\2025-12-10_17-34-38\ResultsGraphs\BestFit\(Run)spectra_09-58-52-408_BestFit.txt
600.338 0.0576536
601.113 0.0576633
601.888 0.0576724
602.663 0.0576811
603.437 0.0576895
604.211 0.0576976
604.984 0.0577056
605.757 0.0577136
606.530 0.0577216
607.302 0.0577298
608.074 0.0577381
608.845 0.0577467
609.616 0.0577553
610.387 0.0577641
611.158 0.0577731
611.928 0.0577819
612.697 0.0577907
613.467 0.0577993
614.236 0.0578076
615.004 0.0578154
615.773 0.0578227
616.541 0.0578293
617.308 0.0578351
618.076 0.0578401
618.843 0.0578441
619.609 0.0578472
620.375 0.0578493
621.141 0.0578504
621.907 0.0578506
622.672 0.0578499
623.437 0.0578484
624.202 0.0578463
624.966 0.0578435
625.730 0.0578404
626.493 0.0578370
627.257 0.0578335
628.020 0.0578299
628.782 0.0578265
629.545 0.0578233
630.307 0.0578204
631.068 0.0578180
631.830 0.0578160
632.591 0.0578144
633.352 0.0578134
634.112 0.0578127
634.872 0.0578124
635.632 0.0578124
636.392 0.0578126
637.151 0.0578127
637.910 0.0578128
638.668 0.0578126
639.427 0.0578121
640.185 0.0578109
640.943 0.0578091
641.700 0.0578065
642.457 0.0578029
643.214 0.0577984
643.971 0.0577928
644.727 0.0577860
645.483 0.0577782
646.239 0.0577693
646.994 0.0577593
647.750 0.0577484
648.505 0.0577367
649.259 0.0577242
650.014 0.0577112
650.768 0.0576978
651.521 0.0576842
652.275 0.0576704
653.028 0.0576568
653.781 0.0576434
654.534 0.0576304
655.286 0.0576180
656.039 0.0576061
656.791 0.0575950
657.542 0.0575847
658.294 0.0575751
659.045 0.0575663
659.796 0.0575583
660.546 0.0575509
661.297 0.0575441
662.047 0.0575377
662.796 0.0575317
663.546 0.0575257
664.295 0.0575198
665.044 0.0575137
665.793 0.0575071
666.542 0.0575001
667.290 0.0574922
668.038 0.0574836
668.786 0.0574739
669.533 0.0574630
670.281 0.0574510
671.028 0.0574377
671.774 0.0574231
672.521 0.0574072
673.267 0.0573901
674.013 0.0573717
674.759 0.0573523
675.505 0.0573320
676.250 0.0573108
676.995 0.0572889
677.740 0.0572666
678.484 0.0572441
679.229 0.0572214
679.973 0.0571989
680.717 0.0571766
681.460 0.0571549
682.204 0.0571338
682.947 0.0571136
683.690 0.0570942
684.433 0.0570759
685.175 0.0570587
685.917 0.0570426
686.659 0.0570276
687.401 0.0570137
688.142 0.0570008
688.884 0.0569888
689.625 0.0569777
690.365 0.0569673
691.106 0.0569573
691.846 0.0569477
692.586 0.0569382
693.326 0.0569286
694.066 0.0569187
694.805 0.0569083
695.545 0.0568972
696.284 0.0568852
697.022 0.0568722
697.761 0.0568579
698.499 0.0568423
699.237 0.0568253
699.975 0.0568068
700.713 0.0567868
701.450 0.0567652
702.187 0.0567422
702.924 0.0567177
703.661 0.0566919
704.397 0.0566648
705.133 0.0566367
705.869 0.0566077
706.605 0.0565780
707.341 0.0565478
708.076 0.0565173
708.811 0.0564868
709.546 0.0564565
710.281 0.0564265
711.015 0.0563971
711.749 0.0563685
712.483 0.0563409
713.217 0.0563145
713.950 0.0562893
714.684 0.0562654
715.417 0.0562430
716.150 0.0562221
716.882 0.0562026
717.615 0.0561846
718.347 0.0561680
719.079 0.0561527
719.811 0.0561386
720.542 0.0561256
721.273 0.0561134
722.005 0.0561018
722.735 0.0560908
723.466 0.0560800
724.196 0.0560692
724.927 0.0560582
725.656 0.0560468
726.386 0.0560347
727.116 0.0560216
727.845 0.0560075
728.574 0.0559922
729.303 0.0559754
730.031 0.0559570
730.760 0.0559370
731.488 0.0559152
732.216 0.0558916
732.944 0.0558662
733.671 0.0558391
734.398 0.0558102
735.125 0.0557796
735.852 0.0557476
736.579 0.0557141
737.305 0.0556794
738.031 0.0556437
738.757 0.0556072
739.483 0.0555701
740.208 0.0555327
740.933 0.0554952
741.658 0.0554577
742.383 0.0554207
743.108 0.0553842
743.832 0.0553486
744.556 0.0553141
745.280 0.0552808
746.004 0.0552489
746.727 0.0552185
747.450 0.0551899
748.173 0.0551629
748.896 0.0551378
749.618 0.0551146
750.340 0.0550932
751.062 0.0550736
751.784 0.0550557
752.506 0.0550394
753.227 0.0550247
753.948 0.0550113
754.669 0.0549990
755.389 0.0549877
756.110 0.0549771
756.830 0.0549670
757.550 0.0549572
758.269 0.0549475
758.989 0.0549374
759.708 0.0549269
760.427 0.0549157
761.146 0.0549035
761.864 0.0548901
762.582 0.0548754
763.300 0.0548591
764.018 0.0548411
764.736 0.0548212
765.453 0.0547993
766.170 0.0547755
766.887 0.0547495
767.603 0.0547215
768.320 0.0546914
769.036 0.0546593
769.751 0.0546253
770.467 0.0545894
771.182 0.0545518
771.897 0.0545127
772.612 0.0544722
773.327 0.0544306
774.041 0.0543881
774.755 0.0543449
775.469 0.0543012
776.183 0.0542574
776.896 0.0542136
777.609 0.0541702
778.322 0.0541273
779.035 0.0540852
779.747 0.0540443
780.459 0.0540046
781.171 0.0539663
781.882 0.0539297
782.594 0.0538949
783.305 0.0538621
784.016 0.0538312
784.726 0.0538026
785.436 0.0537761
786.147 0.0537517
786.856 0.0537295
787.566 0.0537095
788.275 0.0536915
788.984 0.0536755
789.693 0.0536613
790.401 0.0536487
791.110 0.0536377
791.818 0.0536279
792.525 0.0536193
793.233 0.0536115
793.940 0.0536043
794.647 0.0535975
795.353 0.0535908
796.060 0.0535840
796.766 0.0535768
797.472 0.0535689
798.177 0.0535601
798.883 0.0535502
799.588 0.0535389
800.292 0.0535261
800.997 0.0535115
801.701 0.0534951
802.405 0.0534766
803.109 0.0534559
803.812 0.0534331
804.515 0.0534079
805.218 0.0533803
805.921 0.0533504
806.623 0.0533183
807.325 0.0532838
808.027 0.0532471
808.728 0.0532084
809.429 0.0531677
810.130 0.0531252
810.831 0.0530810
811.531 0.0530354
812.231 0.0529886
812.931 0.0529408
813.630 0.0528922
814.330 0.0528430
815.029 0.0527936
815.727 0.0527443
816.426 0.0526951
817.124 0.0526465
817.821 0.0525986
818.519 0.0525517
819.216 0.0525060
819.913 0.0524617
820.609 0.0524191
821.306 0.0523782
822.002 0.0523394
822.697 0.0523027
823.393 0.0522682
824.088 0.0522360
824.783 0.0522063
825.477 0.0521790
826.171 0.0521541
826.865 0.0521317
827.559 0.0521117
828.252 0.0520941
828.945 0.0520787
829.638 0.0520655
830.330 0.0520543
831.023 0.0520450
831.714 0.0520374
832.406 0.0520312
833.097 0.0520264
833.788 0.0520226
834.479 0.0520197
835.169 0.0520174
835.859 0.0520154
836.548 0.0520136
837.238 0.0520116
837.927 0.0520092
838.615 0.0520062
839.304 0.0520023
839.992 0.0519973
840.680 0.0519910
841.367 0.0519832
842.054 0.0519736
842.741 0.0519621
843.428 0.0519486
844.114 0.0519329
844.800 0.0519149
845.485 0.0518946
846.170 0.0518717
846.855 0.0518464
847.540 0.0518184
848.224 0.0517880
848.908 0.0517551
849.592 0.0517197
850.275 0.0516819
850.958 0.0516418
851.641 0.0515995
852.323 0.0515553
853.005 0.0515091
853.687 0.0514611
854.368 0.0514117
855.049 0.0513609
855.730 0.0513089
856.410 0.0512561
857.090 0.0512026
857.769 0.0511487
858.449 0.0510946
859.128 0.0510405
859.806 0.0509867
860.485 0.0509334
861.163 0.0508809
861.840 0.0508294
862.518 0.0507790
863.195 0.0507301
863.871 0.0506828
864.548 0.0506373
865.224 0.0505937
865.899 0.0505523
866.574 0.0505132
867.249 0.0504763
867.924 0.0504420
868.598 0.0504101
869.272 0.0503809
869.946 0.0503543
870.619 0.0503303
871.292 0.0503089
871.964 0.0502901
872.636 0.0502739
873.308 0.0502601
873.979 0.0502487
874.651 0.0502395
875.321 0.0502325
875.992 0.0502275
876.662 0.0502243
877.331 0.0502228
878.001 0.0502227
878.670 0.0502239
879.338 0.0502261
880.007 0.0502292
880.675 0.0502330
881.342 0.0502371
882.009 0.0502414
882.676 0.0502457
883.343 0.0502496
884.009 0.0502531
884.675 0.0502558
885.340 0.0502576
886.005 0.0502582
886.670 0.0502575
887.334 0.0502552
887.998 0.0502513
888.662 0.0502454
889.325 0.0502376
889.988 0.0502275
890.650 0.0502152
891.312 0.0502006
891.974 0.0501834
892.636 0.0501638
893.297 0.0501415
893.957 0.0501167
894.618 0.0500892
895.278 0.0500592
895.937 0.0500265
896.596 0.0499914
897.255 0.0499537
897.914 0.0499137
898.572 0.0498713
899.230 0.0498268
899.887 0.0497803
900.544 0.0497318
901.201 0.0496815
901.857 0.0496296
902.513 0.0495763
903.168 0.0495218
903.823 0.0494662
904.478 0.0494098
905.132 0.0493527
905.786 0.0492952
906.440 0.0492374
907.093 0.0491797
907.746 0.0491222
908.399 0.0490650
909.051 0.0490085
909.703 0.0489528
910.354 0.0488981
911.005 0.0488447
911.656 0.0487926
912.306 0.0487421
912.956 0.0486934
913.605 0.0486465
914.254 0.0486017
914.903 0.0485590
915.551 0.0485187
916.199 0.0484806
916.847 0.0484451
917.494 0.0484120
918.141 0.0483816
918.788 0.0483537
919.434 0.0483286
920.079 0.0483061
920.725 0.0482862
921.370 0.0482690
922.014 0.0482543
922.658 0.0482422
923.302 0.0482325
923.946 0.0482253
924.589 0.0482203
925.231 0.0482174
925.873 0.0482167
926.515 0.0482178
927.157 0.0482207
927.798 0.0482252
928.439 0.0482312
929.079 0.0482385
929.719 0.0482469
930.359 0.0482562
930.998 0.0482662
931.637 0.0482768
932.275 0.0482878
932.913 0.0482989
933.551 0.0483100
934.188 0.0483208
934.825 0.0483313
935.462 0.0483411
936.098 0.0483502
936.733 0.0483583
937.369 0.0483652
938.004 0.0483709
938.638 0.0483751
939.273 0.0483776
939.907 0.0483784
940.540 0.0483774
941.173 0.0483743
941.806 0.0483691
942.438 0.0483617
943.070 0.0483520
943.702 0.0483399
944.333 0.0483253
944.964 0.0483083
945.594 0.0482888
946.224 0.0482667
946.854 0.0482421
947.483 0.0482149
948.112 0.0481852
948.741 0.0481530
949.369 0.0481184
949.996 0.0480814
950.624 0.0480420
951.251 0.0480003
951.878 0.0479565
952.504 0.0479106
953.130 0.0478628
953.755 0.0478132
954.380 0.0477618
955.005 0.0477088
955.629 0.0476545
956.253 0.0475988
956.877 0.0475420
957.500 0.0474843
958.123 0.0474257
958.746 0.0473665
959.368 0.0473069
959.990 0.0472469
960.611 0.0471975
961.232 0.0471482
961.853 0.0470992
962.473 0.0470505
963.093 0.0470023
963.712 0.0469549
964.331 0.0469084
964.950 0.0468628
965.569 0.0468184
966.187 0.0467753
966.804 0.0467338
967.422 0.0466937
968.039 0.0466554
968.655 0.0466190
969.272 0.0465845
969.887 0.0465521
970.503 0.0465218
971.118 0.0464937
971.733 0.0464679
972.347 0.0464445
972.961 0.0464235
973.575 0.0464049
974.188 0.0463888
974.801 0.0463752
975.414 0.0463641
976.026 0.0463555
976.638 0.0463493
977.250 0.0463457
977.861 0.0463445
978.472 0.0463456
979.083 0.0463491
979.693 0.0463549
980.303 0.0463629
980.912 0.0463730
981.521 0.0463851
982.130 0.0463991
982.738 0.0464150
983.346 0.0464325
983.954 0.0464517
984.562 0.0464723
985.169 0.0464943
985.775 0.0465175
986.382 0.0465417
986.988 0.0465669
987.594 0.0465928
988.199 0.0466193
988.804 0.0466464
989.409 0.0466737
990.013 0.0467012
990.617 0.0467287
991.221 0.0467561
991.824 0.0467832
992.427 0.0468098
993.030 0.0468359
993.632 0.0468612
994.234 0.0468857
994.836 0.0469091
995.438 0.0469314
996.039 0.0469524
996.640 0.0469721
997.240 0.0469902
997.840 0.0470066
998.440 0.0470214
999.040 0.0470343
999.639 0.0470453
1000.238 0.0470505
1000.836 0.0470478
1001.435 0.0470430
1002.033 0.0470360
1002.63 0.0470267
1003.228 0.0470151
1003.825 0.0470012
1004.422 0.0469849
1005.018 0.0469662
1005.614 0.0469451
1006.21 0.0469217
1006.806 0.0468958
1007.401 0.0468676
1007.996 0.0468370
1008.591 0.0468040
1009.186 0.0467688
1009.78 0.0467315
1010.374 0.0466919
1010.967 0.0466502
1011.561 0.0466065
1012.154 0.0465608
1012.746 0.0465134
1013.339 0.0464640
1013.931 0.0464131
1014.523 0.0463605
1015.115 0.0463064
1015.706 0.0462511
1016.298 0.0461944
1016.888 0.0461367
1017.479 0.0460779
1018.069 0.0460183
1018.66 0.0459578
1019.25 0.0458968
1019.839 0.0458354
1020.429 0.0457735
1021.018 0.0457115
1021.607 0.0456494
1022.195 0.0455875
1022.784 0.0455256
1023.372 0.0454641
1023.96 0.0454031
1024.547 0.0453427
1025.135 0.0452829
1025.722 0.0452241
1026.309 0.0451662
1026.896 0.0451094
1027.483 0.0450538
1028.069 0.0449996
1028.655 0.0449468
1029.241 0.0448955
1029.827 0.0448458
1030.412 0.0447979
1030.997 0.0447518
1031.582 0.0447076
1032.167 0.0446653
1032.752 0.0446251
1033.336 0.0445870
1033.921 0.0445510
1034.505 0.0445172
1035.089 0.0444857
1035.672 0.0444565
1036.256 0.0444296
1036.839 0.0444050
1037.422 0.0443828
1038.005 0.0443629
1038.588 0.0443453
1039.171 0.0443301
1039.753 0.0443173
1040.335 0.0443067
1040.918 0.0442984
1041.50 0.0442924
1042.081 0.0442886
1042.663 0.0442870
1043.244 0.0442874
1043.826 0.0442899
1044.407 0.0442944
1044.988 0.0443008
1045.569 0.0443090
1046.15 0.0443190
1046.73 0.0443307
1047.311 0.0443440
1047.891 0.0443587
1048.471 0.0443748
1049.052 0.0443922
1049.632 0.0444108
1050.211 0.0444304
1050.791 0.0444510
1051.371 0.0444724
1051.95 0.0444946
1052.53 0.0445174
1053.109 0.0445406
1053.688 0.0445643
1054.268 0.0445882
1054.847 0.0446122
1055.426 0.0446362
1056.005 0.0446601
1056.583 0.0446837
1057.162 0.0447070
1057.741 0.0447299
1058.319 0.0447521
1058.898 0.0447737
1059.476 0.0447944
1060.055 0.0448142
1060.633 0.0448329
1061.211 0.0448505
1061.79 0.0448669
1062.368 0.0448820
1062.946 0.0448956
1063.524 0.0449077
1064.102 0.0449182
1064.68 0.0449270
1065.258 0.0449340
1065.836 0.0449392
1066.414 0.0449425
1066.992 0.0449438
1067.57 0.0449431
1068.148 0.0449404
1068.726 0.0449355
1069.304 0.0449285
1069.882 0.0449193
1070.46 0.0449079
1071.038 0.0448942
1071.616 0.0448783
1072.194 0.0448601
1072.772 0.0448396
1073.35 0.0448169
1073.928 0.0447919
1074.506 0.0447647
1075.084 0.0447352
1075.662 0.0447036
1076.24 0.0446697
1076.819 0.0446337
1077.397 0.0445956
1077.976 0.0445554
1078.554 0.0445133
1079.133 0.0444691
1079.711 0.0444232
1080.29 0.0443753
1080.869 0.0443258
1081.448 0.0442745
1082.027 0.0442216
1082.606 0.0441673
1083.185 0.0441115
1083.764 0.0440544
1084.343 0.0439960
1084.923 0.0439364
1085.502 0.0438759
1086.082 0.0438143
1086.662 0.0437519
1087.242 0.0436888
1087.822 0.0436250
1088.402 0.0435608
1088.983 0.0434960
1089.563 0.0434311
1090.144 0.0433658
1090.725 0.0433006
1091.306 0.0432353
1091.887 0.0431703
1092.469 0.0431054
1093.05 0.0430411
1093.632 0.0429771
1094.214 0.0429138
1094.796 0.0428512
1095.379 0.0427893
1095.961 0.0427284
1096.544 0.0426686
1097.127 0.0426098
1097.71 0.0425523
1098.294 0.0424961
1098.877 0.0424414
1099.461 0.0423881
1100.046 0.0423363
1100.63 0.0422863
1101.215 0.0422380
1101.80 0.0421916
1102.385 0.0421470
1102.97 0.0421045
1103.556 0.0420639
1104.142 0.0420253
1104.728 0.0419890
1105.315 0.0419547
1105.902 0.0419227
1106.489 0.0418930
1107.077 0.0418655
1107.664 0.0418404
1108.253 0.0418175
1108.841 0.0417970
1109.43 0.0417789
1110.019 0.0417631
1110.609 0.0417496
1111.198 0.0417385
1111.789 0.0417297
1112.379 0.0417233
1112.97 0.0417191
1113.561 0.0417172
1114.153 0.0417176
1114.745 0.0417201
1115.338 0.0417247
1115.931 0.0417315
1116.524 0.0417403
1117.117 0.0417510
1117.712 0.0417637
1118.306 0.0417783
1118.901 0.0417946
1119.496 0.0418126
1120.092 0.0418322
1120.689 0.0418534
1121.285 0.0418760
1121.882 0.0418999
1122.48 0.0419252
1123.078 0.0419515
1123.677 0.0419790
1124.276 0.0420074
1124.875 0.0420366
1125.476 0.0420666
1126.076 0.0420972
1126.677 0.0421283
1127.279 0.0421598
1127.881 0.0421916
1128.484 0.0422236
1129.087 0.0422556
1129.691 0.0422876
1130.295 0.0423194
1130.90 0.0423509
1131.505 0.0423819
1132.111 0.0424125
1132.718 0.0424424
1133.325 0.0424716
1133.933 0.0424999
1134.541 0.0425272
1135.15 0.0425534
1135.76 0.0425785
1136.37 0.0426022
1136.981 0.0426246
1137.592 0.0426454
1138.204 0.0426646
1138.817 0.0426822
1139.431 0.0426980
1140.045 0.0427119
1140.66 0.0427239
1141.275 0.0427338
1141.891 0.0427417
1142.508 0.0427474
1143.126 0.0427509
1143.744 0.0427521
1144.363 0.0427509
1144.983 0.0427474
