Measurement Sequence started on: 21-50-40-182
Integration time: 36
Scans to Average: 2 
>>>>>Begin Spectral Data<<<<<
433.946 .0595785
434.870 .0562257
435.793 .0587274
436.715 .0580048
437.635 .0575828
438.555 .0567852
439.473 .0562734
440.389 .0558182
441.305 .0552989
442.219 .0548591
443.132 .0545027
444.044 .0542289
444.954 .0540375
445.863 .0539138
446.771 .0538180
447.678 .0537280
448.584 .0536246
449.488 .0535138
450.391 .0533909
451.293 .0532613
452.194 .0531335
453.094 .0530071
453.992 .0528894
454.890 .0527928
455.786 .0527014
456.681 .0526142
457.575 .0525115
458.468 .0524064
459.360 .0522924
460.250 .0521732
461.140 .0520516
462.028 .0519278
462.915 .0518133
463.801 .0517091
464.687 .0516110
465.571 .0515213
466.454 .0514351
467.335 .0513510
468.216 .0512632
469.096 .0511716
469.975 .0510742
470.853 .0509796
471.729 .0508851
472.605 .0508002
473.479 .0507176
474.353 .0506416
475.226 .0505645
476.097 .0504880
476.968 .0504121
477.838 .0503321
478.706 .0502459
479.574 .0501636
480.441 .0500851
481.306 .0500140
482.171 .0499515
483.035 .0498999
483.898 .0498550
484.760 .0498152
485.621 .0497710
486.481 .0497251
487.340 .0496755
488.198 .0496261
489.055 .0495748
489.912 .0495300
490.767 .0494919
491.622 .0494580
492.476 .0494282
493.329 .0494047
494.180 .0493838
495.032 .0493626
495.882 .0493394
496.731 .0493162
497.580 .0492936
498.427 .0492748
499.274 .0492619
500.120 .0492586
500.965 .0492628
501.809 .0492737
502.653 .0492869
503.495 .0493017
504.337 .0493172
505.178 .0493323
506.018 .0493511
506.858 .0493770
507.696 .0494089
508.534 .0494477
509.371 .0494951
510.208 .0495549
511.043 .0496214
511.878 .0496977
512.712 .0497820
513.545 .0498727
514.377 .0499727
515.209 .0500810
516.040 .0501937
516.870 .0503175
517.699 .0504495
518.528 .0505870
519.356 .0507253
520.183 .0508693
521.010 .0510090
521.836 .0511477
522.661 .0512798
523.485 .0514034
524.309 .0515118
525.132 .0516063
525.954 .0516759
526.776 .0517290
527.597 .0517686
528.417 .0517907
529.237 .0517993
530.056 .0518024
530.874 .0517945
531.692 .0517817
532.508 .0517596
533.325 .0517295
534.140 .0516848
534.955 .0516274
535.770 .0515480
536.583 .0514501
537.397 .0513396
538.209 .0512144
539.021 .0510750
539.832 .0509331
540.643 .0507770
541.453 .0506078
542.262 .0504267
543.071 .0502300
543.879 .0500140
544.687 .0497825
545.494 .0495348
546.300 .0492806
547.106 .0490200
547.911 .0487600
548.716 .0485007
549.520 .0482559
550.323 .0480179
551.126 .0477864
551.929 .0475650
552.731 .0473544
553.532 .0471465
554.332 .0469486
555.133 .0467557
555.932 .0465682
556.731 .0463892
557.530 .0462191
558.328 .0460538
559.125 .0458994
559.922 .0457486
560.719 .0456001
561.515 .0454483
562.310 .0452967
563.105 .0451370
563.899 .0449774
564.693 .0448213
565.487 .0446650
566.280 .0445135
567.072 .0443767
567.864 .0442470
568.655 .0441274
569.446 .0440140
570.236 .0439023
571.026 .0437895
571.816 .0436755
572.605 .0435563
573.393 .0434359
574.181 .0433183
574.969 .0432054
575.756 .0430978
576.543 .0430016
577.329 .0429138
578.115 .0428316
578.900 .0427564
579.685 .0426833
580.469 .0426081
581.253 .0425310
582.036 .0424518
582.820 .0423717
583.602 .0422921
584.384 .0422142
585.166 .0421396
585.947 .0420686
586.728 .0420016
587.509 .0419369
588.289 .0418737
589.069 .0418118
589.848 .0417487
590.627 .0416845
591.405 .0416182
592.183 .0415516
592.961 .0414856
593.738 .0414208
594.515 .0413580
595.291 .0412984
596.067 .0412424
596.843 .0411906
597.618 .0411417
598.393 .0410956
599.167 .0410511
599.941 .0410078
600.715 .0409647
601.488 .0409225
602.261 .0408821
603.034 .0408439
603.806 .0408072
604.578 .0407731
605.349 .0407403
606.121 .0407086
606.891 .0406774
607.662 .0406464
608.432 .0406146
609.201 .0405822
609.971 .0405486
610.740 .0405142
611.508 .0404790
612.277 .0404437
613.045 .0404073
613.812 .0403708
614.579 .0403332
615.346 .0402943
616.113 .0402544
616.879 .0402138
617.645 .0401728
618.411 .0401316
619.176 .0400906
619.941 .0400505
620.705 .0400116
621.470 .0399735
622.233 .0399357
622.997 .0398982
623.760 .0398605
624.523 .0398219
625.286 .0397828
626.048 .0397433
626.810 .0397042
627.572 .0396661
628.333 .0396287
629.095 .0395924
629.855 .0395572
630.616 .0395223
631.376 .0394875
632.136 .0394523
632.895 .0394158
633.655 .0393784
634.414 .0393405
635.172 .0393027
635.931 .0392654
636.689 .0392296
637.447 .0391953
638.204 .0391629
638.962 .0391321
639.718 .0391015
640.475 .0390713
641.231 .0390408
641.988 .0390087
642.743 .0389761
643.499 .0389429
644.254 .0389099
645.009 .0388777
645.764 .0388469
646.518 .0388167
647.272 .0387870
648.026 .0387575
648.780 .0387273
649.533 .0386961
650.286 .0386642
651.039 .0386308
651.792 .0385973
652.544 .0385642
653.296 .0385315
654.048 .0384994
654.799 .0384684
655.550 .0384378
656.301 .0384078
657.052 .0383778
657.802 .0383477
658.552 .0383170
659.302 .0382855
660.052 .0382535
660.801 .0382210
661.550 .0381886
662.299 .0381569
663.048 .0381257
663.796 .0380954
664.544 .0380655
665.292 .0380360
666.040 .0380061
666.787 .0379753
667.534 .0379433
668.281 .0379094
669.028 .0378734
669.774 .0378358
670.521 .0377964
671.266 .0377570
672.012 .0377182
672.758 .0376803
673.503 .0376438
674.248 .0376085
674.992 .0375740
675.737 .0375397
676.481 .0375054
677.225 .0374703
677.969 .0374342
678.712 .0373981
679.455 .0373628
680.199 .0373292
680.941 .0372981
681.684 .0372693
682.426 .0372435
683.168 .0372198
683.910 .0371971
684.652 .0371749
685.393 .0371532
686.134 .0371315
686.875 .0371098
687.616 .0370878
688.356 .0370662
689.097 .0370449
689.837 .0370241
690.576 .0370034
691.316 .0369828
692.055 .0369620
692.794 .0369408
693.533 .0369197
694.272 .0368985
695.010 .0368769
695.748 .0368550
696.486 .0368326
697.224 .0368098
697.962 .0367854
698.699 .0367597
699.436 .0367328
700.173 .0367053
700.909 .0366773
701.646 .0366491
702.382 .0366210
703.118 .0365936
703.853 .0365671
704.589 .0365411
705.324 .0365154
706.059 .0364896
706.794 .0364631
707.529 .0364359
708.263 .0364079
708.997 .0363789
709.731 .0363488
710.465 .0363185
711.198 .0362877
711.931 .0362567
712.664 .0362260
713.397 .0361954
714.130 .0361653
714.862 .0361350
715.594 .0361045
716.326 .0360733
717.058 .0360415
717.789 .0360090
718.520 .0359760
719.251 .0359431
719.982 .0359106
720.713 .0358786
721.443 .0358473
722.173 .0358164
722.903 .0357859
723.633 .0357550
724.362 .0357230
725.091 .0356900
725.820 .0356556
726.549 .0356199
727.278 .0355837
728.006 .0355472
728.734 .0355107
729.462 .0354745
730.190 .0354386
730.917 .0354029
731.644 .0353676
732.371 .0353330
733.098 .0352996
733.825 .0352678
734.551 .0352379
735.277 .0352103
736.003 .0351852
736.728 .0351627
737.454 .0351417
738.179 .0351226
738.904 .0351042
739.629 .0350864
740.353 .0350695
741.077 .0350524
741.801 .0350361
742.525 .0350196
743.249 .0350029
743.972 .0349859
744.695 .0349686
745.418 .0349507
746.141 .0349319
746.863 .0349125
747.585 .0348922
748.307 .0348710
749.029 .0348494
749.750 .0348267
750.472 .0348033
751.193 .0347796
751.913 .0347555
752.634 .0347308
753.354 .0347067
754.074 .0346833
754.794 .0346614
755.514 .0346411
756.233 .0346227
756.952 .0346057
757.671 .0345902
758.390 .0345758
759.108 .0345621
759.826 .0345487
760.544 .0345357
761.262 .0345227
761.979 .0345104
762.697 .0344987
763.414 .0344877
764.130 .0344770
764.847 .0344670
765.563 .0344567
766.279 .0344456
766.995 .0344330
767.710 .0344185
768.426 .0344014
769.141 .0343815
769.855 .0343584
770.570 .0343324
771.284 .0343037
771.998 .0342734
772.712 .0342414
773.426 .0342087
774.139 .0341755
774.852 .0341419
775.565 .0341083
776.277 .0340750
776.990 .0340411
777.702 .0340073
778.414 .0339738
779.125 .0339412
779.836 .0339094
780.547 .0338791
781.258 .0338508
781.969 .0338246
782.679 .0338003
783.389 .0337778
784.099 .0337560
784.808 .0337346
785.517 .0337125
786.226 .0336898
786.935 .0336657
787.643 .0336402
788.352 .0336134
789.060 .0335857
789.767 .0335576
790.475 .0335292
791.182 .0335003
791.889 .0334713
792.595 .0334419
793.301 .0334120
794.008 .0333808
794.713 .0333493
795.419 .0333173
796.124 .0332855
796.829 .0332543
797.534 .0332246
798.238 .0331964
798.942 .0331706
799.646 .0331467
800.350 .0331251
801.053 .0331050
801.756 .0330858
802.459 .0330666
803.162 .0330474
803.864 .0330278
804.566 .0330084
805.267 .0329882
805.969 .0329684
806.670 .0329489
807.371 .0329302
808.071 .0329124
808.772 .0328956
809.472 .0328797
810.171 .0328649
810.871 .0328502
811.570 .0328363
812.269 .0328225
812.967 .0328094
813.666 .0327967
814.364 .0327848
815.061 .0327737
815.759 .0327634
816.456 .0327539
817.153 .0327454
817.849 .0327371
818.545 .0327288
819.241 .0327200
819.937 .0327105
820.632 .0327001
821.327 .0326881
822.022 .0326747
822.717 .0326605
823.411 .0326454
824.105 .0326299
824.798 .0326139
825.491 .0325971
826.184 .0325798
826.877 .0325616
827.569 .0325428
828.261 .0325232
828.953 .0325034
829.645 .0324841
830.336 .0324655
831.027 .0324484
831.717 .0324329
832.407 .0324190
833.097 .0324066
833.787 .0323945
834.476 .0323820
835.165 .0323690
835.854 .0323552
836.542 .0323408
837.230 .0323261
837.918 .0323116
838.605 .0322980
839.292 .0322851
839.979 .0322732
840.665 .0322616
841.352 .0322501
842.037 .0322376
842.723 .0322236
843.408 .0322079
844.093 .0321906
844.777 .0321721
845.462 .0321531
846.145 .0321341
846.829 .0321149
847.512 .0320954
848.195 .0320754
848.878 .0320544
849.560 .0320318
850.242 .0320070
850.923 .0319802
851.605 .0319513
852.286 .0319214
852.966 .0318904
853.646 .0318595
854.326 .0318295
855.006 .0318005
855.685 .0317723
856.364 .0317446
857.043 .0317173
857.721 .0316901
858.399 .0316626
859.077 .0316348
859.754 .0316067
860.431 .0315790
861.107 .0315515
861.784 .0315249
862.459 .0314991
863.135 .0314741
863.810 .0314495
864.485 .0314251
865.160 .0313999
865.834 .0313738
866.508 .0313468
867.181 .0313194
867.854 .0312915
868.527 .0312633
869.199 .0312349
869.872 .0312066
870.543 .0311787
871.215 .0311505
871.886 .0311221
872.557 .0310942
873.227 .0310664
873.897 .0310388
874.567 .0310121
875.236 .0309865
875.905 .0309621
876.573 .0309390
877.242 .0309167
877.909 .0308946
878.577 .0308726
879.244 .0308506
879.911 .0308285
880.577 .0308067
881.243 .0307857
881.909 .0307656
882.575 .0307472
883.240 .0307303
883.904 .0307148
884.569 .0307007
885.232 .0306877
885.896 .0306753
886.559 .0306632
887.222 .0306515
887.885 .0306402
888.547 .0306294
889.208 .0306196
889.870 .0306108
890.531 .0306031
891.192 .0305963
891.852 .0305906
892.512 .0305858
893.171 .0305819
893.830 .0305792
894.489 .0305777
895.148 .0305768
895.806 .0305769
896.464 .0305774
897.121 .0305783
897.778 .0305791
898.434 .0305796
899.091 .0305795
899.747 .0305793
900.402 .0305791
901.057 .0305789
901.712 .0305795
902.366 .0305813
903.020 .0305834
903.674 .0305861
904.327 .0305887
904.980 .0305906
905.633 .0305915
906.285 .0305915
906.936 .0305905
907.588 .0305894
908.239 .0305882
908.889 .0305870
909.540 .0305867
910.190 .0305874
910.839 .0305883
911.488 .0305893
912.137 .0305901
912.785 .0305900
913.433 .0305887
914.081 .0305862
914.728 .0305820
915.375 .0305774
916.021 .0305728
916.668 .0305681
917.313 .0305638
917.959 .0305600
918.604 .0305562
919.248 .0305524
919.892 .0305478
920.536 .0305419
921.180 .0305346
921.823 .0305258
922.465 .0305154
923.108 .0305037
923.750 .0304909
924.391 .0304775
925.032 .0304637
925.673 .0304495
926.313 .0304342
926.953 .0304183
927.593 .0304011
928.232 .0303827
928.871 .0303623
929.510 .0303401
930.148 .0303158
930.786 .0302902
931.423 .0302633
932.060 .0302357
932.697 .0302076
933.333 .0301800
933.969 .0301523
934.604 .0301251
935.239 .0300977
935.874 .0300702
936.508 .0300424
937.142 .0300139
937.776 .0299838
938.409 .0299522
939.042 .0299189
939.674 .0298844
940.306 .0298485
940.938 .0298119
941.569 .0297753
942.200 .0297389
942.830 .0297031
943.460 .0296675
944.090 .0296315
944.720 .0295948
945.349 .0295565
945.977 .0295165
946.606 .0294751
947.233 .0294335
947.861 .0293923
948.488 .0293522
949.115 .0293143
949.741 .0292779
950.367 .0292430
950.993 .0292096
951.618 .0291765
952.243 .0291437
952.868 .0291106
953.492 .0290769
954.115 .0290427
954.739 .0290088
955.362 .0289754
955.984 .0289429
956.607 .0289120
957.229 .0288828
957.850 .0288547
958.471 .0288281
959.092 .0288029
959.713 .0287788
960.333 .0287560
960.952 .0287344
961.572 .0287137
962.191 .0286942
962.809 .0286753
963.428 .0286572
964.045 .0286398
964.663 .0286236
965.280 .0286079
965.897 .0285931
966.513 .0285792
967.129 .0285663
967.745 .0285543
968.361 .0285429
968.976 .0285317
969.590 .0285204
970.205 .0285088
970.818 .0284969
971.432 .0284848
972.045 .0284735
972.658 .0284628
973.271 .0284530
973.883 .0284442
974.495 .0284359
975.106 .0284276
975.717 .0284196
976.328 .0284115
976.938 .0284032
977.548 .0283951
978.158 .0283874
978.768 .0283802
979.377 .0283732
979.985 .0283662
980.594 .0283590
981.202 .0283515
981.809 .0283437
982.417 .0283354
983.024 .0283271
983.631 .0283193
984.237 .0283122
984.843 .0283065
985.449 .0283021
986.054 .0282995
986.659 .0282984
987.264 .0282988
987.868 .0283005
988.472 .0283032
989.076 .0283069
989.679 .0283115
990.282 .0283175
990.885 .0283241
991.487 .0283314
992.090 .0283396
992.691 .0283485
993.293 .0283581
993.894 .0283687
994.495 .0283798
995.095 .0283916
995.696 .0284041
996.296 .0284166
996.895 .0284295
997.494 .0284431
998.093 .0284566
998.692 .0284700
999.291 .0284829
999.889 .0284958
1000.487 .0285083
1001.084 .0285208
1001.681 .0285331
1002.278 .0285456
1002.875 .0285584
1003.471 .0285710
1004.067 .0285831
1004.663 .0285951
1005.258 .0286066
1005.854 .0286168
1006.449 .0286257
1007.043 .0286334
1007.638 .0286396
1008.232 .0286450
1008.826 .0286497
1009.419 .0286541
1010.012 .0286578
1010.605 .0286613
1011.198 .0286650
1011.791 .0286682
1012.383 .0286714
1012.975 .0286744
1013.566 .0286779
1014.158 .0286821
1014.749 .0286870
1015.340 .0286928
1015.931 .0287004
1016.521 .0287096
1017.111 .0287196
1017.701 .0287298
1018.291 .0287394
1018.880 .0287489
1019.470 .0287576
1020.059 .0287659
1020.647 .0287739
1021.236 .0287815
1021.824 .0287896
1022.412 .0287979
1023.000 .0288065
1023.588 .0288145
1024.175 .0288217
1024.762 .0288282
1025.349 .0288330
1025.936 .0288363
1026.523 .0288387
1027.109 .0288414
1027.695 .0288442
1028.281 .0288475
1028.867 .0288509
1029.452 .0288553
1030.038 .0288601
1030.623 .0288637
1031.208 .0288662
1031.792 .0288675
1032.377 .0288669
1032.961 .0288642
1033.546 .0288600
1034.130 .0288547
1034.714 .0288486
1035.297 .0288413
1035.881 .0288324
1036.464 .0288224
1037.047 .0288107
1037.630 .0287972
1038.213 .0287821
1038.796 .0287659
1039.378 .0287493
1039.961 .0287327
1040.543 .0287178
1041.125 .0287035
1041.707 .0286906
1042.289 .0286784
1042.871 .0286663
1043.452 .0286540
1044.034 .0286413
1044.615 .0286278
1045.196 .0286148
1045.777 .0286020
1046.358 .0285901
1046.939 .0285787
1047.520 .0285681
1048.101 .0285579
1048.681 .0285473
1049.262 .0285352
1049.842 .0285219
1050.422 .0285067
1051.002 .0284914
1051.582 .0284751
1052.162 .0284593
1052.742 .0284440
1053.322 .0284298
1053.902 .0284164
1054.482 .0284026
1055.061 .0283880
1055.641 .0283723
1056.220 .0283542
1056.800 .0283342
1057.379 .0283120
1057.958 .0282889
1058.538 .0282656
1059.117 .0282436
1059.696 .0282219
1060.275 .0282019
1060.854 .0281823
1061.433 .0281624
1062.012 .0281425
1062.592 .0281223
1063.171 .0281010
1063.750 .0280793
1064.329 .0280582
1064.908 .0280383
1065.487 .0280204
1066.066 .0280054
1066.645 .0279916
1067.224 .0279807
1067.803 .0279709
1068.382 .0279609
1068.961 .0279509
1069.540 .0279417
1070.119 .0279323
1070.698 .0279227
1071.278 .0279133
1071.857 .0279027
1072.436 .0278925
1073.016 .0278829
1073.595 .0278725
1074.175 .0278634
1074.754 .0278542
1075.334 .0278447
1075.913 .0278348
1076.493 .0278254
1077.073 .0278151
1077.653 .0278040
1078.233 .0277929
1078.813 .0277802
1079.393 .0277666
1079.974 .0277536
1080.554 .0277407
1081.135 .0277292
1081.716 .0277194
1082.296 .0277094
1082.877 .0277000
1083.458 .0276913
1084.040 .0276821
1084.621 .0276745
1085.202 .0276679
1085.784 .0276633
1086.366 .0276610
1086.948 .0276617
1087.530 .0276652
1088.112 .0276697
1088.695 .0276754
1089.277 .0276790
1089.860 .0276791
1090.443 .0276761
1091.026 .0276688
1091.610 .0276591
1092.193 .0276488
1092.777 .0276385
1093.361 .0276290
1093.946 .0276208
1094.530 .0276139
1095.115 .0276077
1095.700 .0276020
1096.285 .0275961
1096.871 .0275879
1097.456 .0275798
1098.042 .0275729
1098.628 .0275660
1099.215 .0275609
1099.802 .0275610
1100.389 .0275659
1100.976 .0275766
1101.564 .0275913
1102.152 .0276103
1102.740 .0276332
1103.329 .0276610
1103.917 .0276898
1104.507 .0277200
1105.096 .0277537
1105.686 .0277879
1106.276 .0278213
1106.867 .0278565
1107.457 .0278907
1108.049 .0279255
1108.640 .0279607
1109.232 .0279977
1109.825 .0280337
1110.417 .0280724
1111.010 .0281146
1111.604 .0281601
1112.198 .0282078
1112.792 .0282578
1113.387 .0283046
1113.982 .0283496
1114.577 .0283896
1115.173 .0284215
1115.769 .0284468
1116.366 .0284685
1116.963 .0284860
1117.561 .0285012
1118.159 .0285152
1118.758 .0285317
1119.357 .0285498
1119.957 .0285727
1120.557 .0285971
1121.157 .0286218
1121.758 .0286489
1122.360 .0286788
1122.962 .0287105
1123.564 .0287472
1124.167 .0287878
1124.771 .0288343
1125.375 .0288852
1125.980 .0289394
1126.585 .0289975
1127.191 .0290615
1127.797 .0291306
1128.404 .0292041
1129.012 .0292815
1129.620 .0293642
1130.229 .0294482
1130.838 .0295370
1131.448 .0296272
1132.058 .0297188
1132.669 .0298106
1133.281 .0299057
1133.894 .0300029
1134.507 .0301100
1135.120 .0302250
1135.735 .0303525
1136.350 .0304917
1136.965 .0306441
1137.582 .0308002
1138.199 .0309633
1138.816 .0311289
1139.435 .0312969
1140.054 .0314670
1140.674 .0316397
1141.294 .0318065
1141.916 .0319650
1142.538 .0321542
1143.160 .0324296
1143.784 .0325639
1144.408 .0325543
1145.033 .0324550
