Measurement Sequence started on: 09-46-08-630
Integration time: 30
Scans to Average: 2 
>>>>>Begin Spectral Data<<<<<
434.745 .1160381
435.665 .1090444
436.585 .1037594
437.503 .0957319
438.420 .0869275
439.335 .0862520
440.249 .0820511
441.162 .0786252
442.074 .0758762
442.984 .0737779
443.894 .0721939
444.802 .0709049
445.708 .0698468
446.614 .0689345
447.518 .0681444
448.422 .0674470
449.324 .0668381
450.224 .0663240
451.124 .0658812
452.022 .0655021
452.920 .0651605
453.816 .0648415
454.711 .0645425
455.605 .0643280
456.497 .0641675
457.389 .0640668
458.279 .0640315
459.169 .0640498
460.057 .0640858
460.944 .0641145
461.830 .0641132
462.715 .0640642
463.599 .0639709
464.482 .0638357
465.363 .0636456
466.244 .0634730
467.124 .0633127
468.002 .0631666
468.880 .0630435
469.756 .0629306
470.632 .0627894
471.506 .0626356
472.379 .0624638
473.252 .0622721
474.123 .0620682
474.994 .0618748
475.863 .0617151
476.731 .0616031
477.599 .0615478
478.465 .0615435
479.331 .0615935
480.195 .0616934
481.059 .0617996
481.921 .0619080
482.783 .0620164
483.643 .0621152
484.503 .0622046
485.362 .0622817
486.220 .0623522
487.077 .0624146
487.933 .0624717
488.788 .0625273
489.642 .0625843
490.496 .0626337
491.348 .0626798
492.200 .0627187
493.050 .0627542
493.900 .0627788
494.749 .0627943
495.597 .0627988
496.445 .0627999
497.291 .0627956
498.136 .0627887
498.981 .0627880
499.825 .0627927
500.668 .0627954
501.510 .0628060
502.352 .0628222
503.192 .0628412
504.032 .0628616
504.871 .0628877
505.709 .0629164
506.546 .0629510
507.383 .0629925
508.219 .0630454
509.054 .0631224
509.888 .0632363
510.722 .0633800
511.554 .0635705
512.386 .0638132
513.217 .0640955
514.048 .0644195
514.877 .0647907
515.706 .0651879
516.535 .0656124
517.362 .0660569
518.189 .0665173
519.015 .0669846
519.840 .0674582
520.665 .0679261
521.489 .0683886
522.312 .0688532
523.134 .0693163
523.956 .0697623
524.777 .0702258
525.598 .0706784
526.417 .0711134
527.236 .0715463
528.055 .0719564
528.872 .0723259
529.690 .0726543
530.506 .0729378
531.322 .0731811
532.137 .0733936
532.951 .0735948
533.765 .0737656
534.578 .0739398
535.391 .0741004
536.203 .0742112
537.014 .0742706
537.824 .0742689
538.634 .0741707
539.444 .0739789
540.253 .0737083
541.061 .0733652
541.868 .0729856
542.675 .0725869
543.482 .0721822
544.288 .0717897
545.093 .0714016
545.897 .0710090
546.702 .0705957
547.505 .0701655
548.308 .0696989
549.110 .0692045
549.912 .0686929
550.713 .0681708
551.514 .0676637
552.314 .0671683
553.114 .0667031
553.913 .0662788
554.711 .0658909
555.509 .0655365
556.306 .0652131
557.103 .0649175
557.900 .0646313
558.695 .0643622
559.491 .0640967
560.285 .0638335
561.080 .0635787
561.873 .0633318
562.667 .0630935
563.459 .0628778
564.252 .0626764
565.043 .0624806
565.835 .0622913
566.625 .0621051
567.416 .0619070
568.205 .0616916
568.995 .0614584
569.783 .0612106
570.572 .0609595
571.360 .0607108
572.147 .0604633
572.934 .0602340
573.720 .0600167
574.506 .0598045
575.292 .0595892
576.077 .0593714
576.862 .0591482
577.646 .0589190
578.429 .0586882
579.213 .0584622
579.996 .0582488
580.778 .0580553
581.560 .0578823
582.341 .0577300
583.123 .0575921
583.903 .0574636
584.684 .0573396
585.463 .0572188
586.243 .0571019
587.022 .0569915
587.800 .0568874
588.578 .0567985
589.356 .0567210
590.134 .0566513
590.911 .0565924
591.687 .0565398
592.463 .0564907
593.239 .0564433
594.014 .0563946
594.789 .0563467
595.564 .0563005
596.338 .0562565
597.112 .0562122
597.885 .0561699
598.658 .0561298
599.431 .0560900
600.203 .0560506
600.975 .0560120
601.747 .0559727
602.518 .0559355
603.289 .0558991
604.059 .0558624
604.829 .0558266
605.599 .0557911
606.369 .0557545
607.138 .0557176
607.906 .0556779
608.675 .0556357
609.443 .0555919
610.210 .0555489
610.977 .0555065
611.744 .0554663
612.511 .0554294
613.277 .0553949
614.043 .0553622
614.809 .0553316
615.574 .0553002
616.339 .0552689
617.104 .0552379
617.868 .0552060
618.632 .0551737
619.395 .0551424
620.159 .0551126
620.922 .0550866
621.684 .0550630
622.447 .0550428
623.209 .0550237
623.970 .0550060
624.732 .0549878
625.493 .0549682
626.254 .0549474
627.014 .0549258
627.774 .0549033
628.534 .0548812
629.294 .0548600
630.053 .0548407
630.812 .0548234
631.571 .0548070
632.329 .0547911
633.087 .0547751
633.845 .0547568
634.602 .0547379
635.359 .0547168
636.116 .0546953
636.873 .0546735
637.629 .0546516
638.385 .0546297
639.141 .0546075
639.897 .0545856
640.652 .0545623
641.407 .0545375
642.161 .0545112
642.916 .0544829
643.670 .0544528
644.424 .0544222
645.177 .0543909
645.931 .0543591
646.684 .0543280
647.436 .0542959
648.189 .0542639
648.941 .0542306
649.693 .0541963
650.445 .0541613
651.196 .0541254
651.947 .0540880
652.698 .0540487
653.449 .0540085
654.199 .0539664
654.949 .0539221
655.699 .0538766
656.449 .0538286
657.198 .0537794
657.947 .0537291
658.696 .0536786
659.445 .0536285
660.193 .0535800
660.941 .0535317
661.689 .0534842
662.436 .0534366
663.184 .0533884
663.931 .0533400
664.678 .0532919
665.424 .0532447
666.171 .0531981
666.917 .0531542
667.663 .0531125
668.408 .0530724
669.154 .0530338
669.899 .0529961
670.644 .0529584
671.388 .0529200
672.133 .0528809
672.877 .0528417
673.621 .0528030
674.365 .0527657
675.108 .0527292
675.851 .0526946
676.594 .0526610
677.337 .0526281
678.080 .0525956
678.822 .0525638
679.564 .0525318
680.306 .0525008
681.047 .0524711
681.789 .0524436
682.530 .0524180
683.271 .0523948
684.012 .0523742
684.752 .0523549
685.492 .0523365
686.232 .0523179
686.972 .0522993
687.712 .0522805
688.451 .0522609
689.190 .0522408
689.929 .0522204
690.667 .0521996
691.406 .0521783
692.144 .0521563
692.882 .0521344
693.620 .0521118
694.357 .0520891
695.095 .0520663
695.832 .0520438
696.569 .0520209
697.305 .0519980
698.042 .0519744
698.778 .0519501
699.514 .0519245
700.249 .0518983
700.985 .0518709
701.720 .0518427
702.455 .0518139
703.190 .0517847
703.925 .0517551
704.659 .0517252
705.393 .0516937
706.127 .0516607
706.861 .0516260
707.595 .0515897
708.328 .0515519
709.061 .0515133
709.794 .0514741
710.527 .0514350
711.259 .0513963
711.991 .0513582
712.723 .0513204
713.455 .0512833
714.186 .0512469
714.918 .0512104
715.649 .0511740
716.380 .0511380
717.110 .0511030
717.841 .0510692
718.571 .0510362
719.301 .0510039
720.031 .0509721
720.760 .0509400
721.490 .0509070
722.219 .0508729
722.948 .0508375
723.676 .0508005
724.405 .0507622
725.133 .0507226
725.861 .0506816
726.589 .0506400
727.317 .0505984
728.044 .0505562
728.771 .0505136
729.498 .0504706
730.225 .0504271
730.951 .0503838
731.677 .0503411
732.403 .0502991
733.129 .0502583
733.855 .0502192
734.580 .0501812
735.305 .0501442
736.030 .0501081
736.755 .0500725
737.479 .0500369
738.203 .0500019
738.927 .0499673
739.651 .0499335
740.375 .0499015
741.098 .0498712
741.821 .0498425
742.544 .0498155
743.267 .0497893
743.989 .0497640
744.711 .0497386
745.433 .0497132
746.155 .0496875
746.877 .0496625
747.598 .0496384
748.319 .0496154
749.040 .0495939
749.760 .0495742
750.481 .0495554
751.201 .0495376
751.921 .0495202
752.640 .0495027
753.360 .0494843
754.079 .0494653
754.798 .0494455
755.517 .0494250
756.235 .0494040
756.953 .0493829
757.671 .0493622
758.389 .0493419
759.107 .0493218
759.824 .0493021
760.541 .0492836
761.258 .0492658
761.974 .0492484
762.691 .0492315
763.407 .0492146
764.123 .0491972
764.838 .0491790
765.554 .0491597
766.269 .0491393
766.984 .0491178
767.699 .0490951
768.413 .0490710
769.127 .0490461
769.841 .0490200
770.555 .0489922
771.268 .0489635
771.982 .0489334
772.694 .0489017
773.407 .0488695
774.120 .0488374
774.832 .0488053
775.544 .0487738
776.256 .0487431
776.967 .0487127
777.678 .0486830
778.389 .0486535
779.100 .0486234
779.810 .0485930
780.521 .0485623
781.231 .0485311
781.940 .0484995
782.650 .0484681
783.359 .0484362
784.068 .0484042
784.776 .0483722
785.485 .0483394
786.193 .0483058
786.901 .0482717
787.609 .0482372
788.316 .0482024
789.023 .0481681
789.730 .0481345
790.436 .0481013
791.143 .0480689
791.849 .0480366
792.555 .0480043
793.260 .0479712
793.965 .0479368
794.670 .0479009
795.375 .0478637
796.080 .0478260
796.784 .0477875
797.488 .0477488
798.191 .0477108
798.895 .0476731
799.598 .0476360
800.301 .0475991
801.003 .0475627
801.705 .0475262
802.408 .0474896
803.109 .0474534
803.811 .0474181
804.512 .0473840
805.213 .0473517
805.913 .0473210
806.614 .0472923
807.314 .0472655
808.014 .0472399
808.713 .0472148
809.412 .0471901
810.111 .0471646
810.810 .0471376
811.508 .0471090
812.206 .0470795
812.904 .0470487
813.602 .0470170
814.299 .0469852
814.996 .0469536
815.692 .0469226
816.389 .0468920
817.085 .0468621
817.781 .0468329
818.476 .0468038
819.171 .0467744
819.866 .0467445
820.561 .0467146
821.255 .0466845
821.949 .0466547
822.643 .0466259
823.336 .0465987
824.029 .0465732
824.722 .0465490
825.415 .0465261
826.107 .0465044
826.799 .0464828
827.490 .0464610
828.182 .0464394
828.873 .0464175
829.563 .0463959
830.254 .0463755
830.944 .0463567
831.634 .0463400
832.323 .0463254
833.012 .0463127
833.701 .0463008
834.390 .0462898
835.078 .0462785
835.766 .0462669
836.453 .0462554
837.141 .0462442
837.828 .0462335
838.514 .0462244
839.201 .0462166
839.887 .0462101
840.572 .0462049
841.258 .0461997
841.943 .0461938
842.628 .0461869
843.312 .0461779
843.996 .0461677
844.680 .0461560
845.363 .0461437
846.046 .0461307
846.729 .0461175
847.412 .0461040
848.094 .0460900
848.776 .0460759
849.457 .0460605
850.139 .0460437
850.819 .0460261
851.500 .0460070
852.180 .0459867
852.860 .0459660
853.540 .0459453
854.219 .0459249
854.898 .0459050
855.576 .0458849
856.254 .0458652
856.932 .0458455
857.610 .0458255
858.287 .0458050
858.964 .0457833
859.640 .0457609
860.317 .0457375
860.993 .0457134
861.668 .0456886
862.343 .0456629
863.018 .0456367
863.693 .0456096
864.367 .0455823
865.041 .0455546
865.714 .0455271
866.387 .0455001
867.060 .0454737
867.732 .0454476
868.404 .0454215
869.076 .0453953
869.748 .0453684
870.419 .0453403
871.089 .0453106
871.760 .0452792
872.430 .0452465
873.099 .0452128
873.769 .0451793
874.438 .0451460
875.106 .0451133
875.774 .0450812
876.442 .0450491
877.110 .0450167
877.777 .0449836
878.444 .0449498
879.110 .0449156
879.776 .0448818
880.442 .0448488
881.108 .0448175
881.773 .0447888
882.437 .0447629
883.102 .0447389
883.766 .0447165
884.429 .0446948
885.093 .0446723
885.755 .0446491
886.418 .0446250
887.080 .0445995
887.742 .0445736
888.403 .0445471
889.064 .0445200
889.725 .0444925
890.385 .0444642
891.045 .0444343
891.705 .0444029
892.364 .0443697
893.023 .0443343
893.682 .0442972
894.340 .0442594
894.998 .0442209
895.655 .0441823
896.312 .0441444
896.969 .0441067
897.625 .0440694
898.281 .0440324
898.937 .0439952
899.592 .0439581
900.247 .0439215
900.901 .0438852
901.555 .0438498
902.209 .0438158
902.862 .0437832
903.515 .0437524
904.168 .0437238
904.820 .0436976
905.472 .0436730
906.123 .0436505
906.774 .0436305
907.425 .0436120
908.076 .0435953
908.726 .0435797
909.375 .0435652
910.024 .0435513
910.673 .0435370
911.322 .0435222
911.970 .0435068
912.618 .0434909
913.265 .0434739
913.912 .0434559
914.558 .0434375
915.205 .0434186
915.850 .0433992
916.496 .0433791
917.141 .0433582
917.786 .0433363
918.430 .0433135
919.074 .0432897
919.718 .0432656
920.361 .0432409
921.004 .0432159
921.646 .0431910
922.288 .0431659
922.930 .0431404
923.571 .0431140
924.212 .0430871
924.853 .0430599
925.493 .0430318
926.133 .0430038
926.772 .0429756
927.411 .0429480
928.050 .0429202
928.688 .0428921
929.326 .0428639
929.963 .0428355
930.600 .0428073
931.237 .0427797
931.874 .0427537
932.510 .0427302
933.145 .0427094
933.780 .0426919
934.415 .0426773
935.050 .0426655
935.684 .0426555
936.318 .0426469
936.951 .0426390
937.584 .0426317
938.217 .0426244
938.849 .0426171
939.481 .0426099
940.112 .0426025
940.743 .0425950
941.374 .0425867
942.004 .0425778
942.634 .0425677
943.264 .0425557
943.893 .0425425
944.522 .0425282
945.150 .0425131
945.778 .0424977
946.406 .0424827
947.033 .0424682
947.660 .0424545
948.287 .0424412
948.913 .0424290
949.539 .0424175
950.165 .0424066
950.790 .0423963
951.414 .0423868
952.039 .0423779
952.663 .0423692
953.286 .0423603
953.910 .0423512
954.533 .0423407
955.155 .0423286
955.777 .0423142
956.399 .0422984
957.020 .0422813
957.641 .0422634
958.262 .0422452
958.882 .0422275
959.502 .0422099
960.122 .0421935
960.741 .0421781
961.360 .0421637
961.979 .0421500
962.597 .0421374
963.214 .0421253
963.832 .0421145
964.449 .0421046
965.066 .0420960
965.682 .0420891
966.298 .0420840
966.914 .0420795
967.529 .0420758
968.144 .0420721
968.758 .0420677
969.373 .0420617
969.986 .0420542
970.600 .0420442
971.213 .0420323
971.826 .0420182
972.438 .0420020
973.050 .0419837
973.662 .0419635
974.274 .0419412
974.885 .0419173
975.495 .0418922
976.106 .0418662
976.716 .0418392
977.325 .0418123
977.935 .0417849
978.544 .0417568
979.152 .0417277
979.761 .0416971
980.369 .0416647
980.976 .0416306
981.584 .0415952
982.191 .0415593
982.797 .0415237
983.404 .0414893
984.010 .0414565
984.615 .0414253
985.221 .0413955
985.826 .0413667
986.430 .0413382
987.035 .0413096
987.639 .0412806
988.243 .0412517
988.846 .0412236
989.449 .0411959
990.052 .0411698
990.654 .0411454
991.256 .0411224
991.858 .0411006
992.460 .0410792
993.061 .0410587
993.662 .0410389
994.262 .0410195
994.863 .0410006
995.463 .0409819
996.062 .0409638
996.662 .0409454
997.261 .0409270
997.860 .0409085
998.458 .0408890
999.056 .0408694
999.654 .0408499
1000.252 .0408301
1000.849 .0408105
1001.446 .0407910
1002.043 .0407718
1002.639 .0407524
1003.235 .0407329
1003.831 .0407126
1004.427 .0406929
1005.022 .0406734
1005.617 .0406543
1006.212 .0406353
1006.806 .0406167
1007.401 .0405977
1007.995 .0405781
1008.588 .0405582
1009.182 .0405374
1009.775 .0405157
1010.368 .0404938
1010.960 .0404708
1011.553 .0404473
1012.145 .0404227
1012.737 .0403982
1013.328 .0403726
1013.920 .0403464
1014.511 .0403189
1015.102 .0402908
1015.692 .0402623
1016.283 .0402335
1016.873 .0402047
1017.463 .0401763
1018.052 .0401481
1018.642 .0401196
1019.231 .0400906
1019.820 .0400624
1020.409 .0400343
1020.997 .0400073
1021.585 .0399814
1022.173 .0399576
1022.761 .0399350
1023.349 .0399135
1023.936 .0398928
1024.524 .0398719
1025.111 .0398505
1025.697 .0398276
1026.284 .0398033
1026.870 .0397788
1027.457 .0397552
1028.043 .0397336
1028.628 .0397145
1029.214 .0396983
1029.800 .0396845
1030.385 .0396728
1030.970 .0396628
1031.555 .0396527
1032.139 .0396425
1032.724 .0396322
1033.308 .0396210
1033.893 .0396092
1034.477 .0395970
1035.060 .0395848
1035.644 .0395737
1036.228 .0395625
1036.811 .0395515
1037.394 .0395408
1037.977 .0395305
1038.560 .0395200
1039.143 .0395092
1039.726 .0394978
1040.308 .0394849
1040.891 .0394694
1041.473 .0394517
1042.055 .0394310
1042.637 .0394086
1043.219 .0393848
1043.801 .0393620
1044.382 .0393416
1044.964 .0393240
1045.545 .0393099
1046.127 .0393008
1046.708 .0392947
1047.289 .0392904
1047.870 .0392866
1048.451 .0392827
1049.032 .0392784
1049.612 .0392747
1050.193 .0392715
1050.774 .0392714
1051.354 .0392755
1051.935 .0392831
1052.515 .0392936
1053.095 .0393077
1053.675 .0393225
1054.256 .0393361
1054.836 .0393484
1055.416 .0393577
1055.996 .0393638
1056.576 .0393686
1057.156 .0393728
1057.735 .0393776
1058.315 .0393843
1058.895 .0393939
1059.475 .0394049
1060.055 .0394183
1060.634 .0394317
1061.214 .0394447
1061.794 .0394578
1062.373 .0394702
1062.953 .0394819
1063.533 .0394936
1064.113 .0395063
1064.692 .0395194
1065.272 .0395322
1065.852 .0395453
1066.431 .0395557
1067.011 .0395634
1067.591 .0395678
1068.171 .0395694
1068.751 .0395687
1069.331 .0395665
1069.910 .0395635
1070.490 .0395610
1071.071 .0395599
1071.651 .0395593
1072.231 .0395596
1072.811 .0395615
1073.391 .0395639
1073.972 .0395661
1074.552 .0395691
1075.133 .0395726
1075.713 .0395758
1076.294 .0395804
1076.875 .0395840
1077.456 .0395884
1078.037 .0395936
1078.618 .0395990
1079.199 .0396053
1079.780 .0396126
1080.362 .0396212
1080.943 .0396287
1081.525 .0396370
1082.107 .0396451
1082.689 .0396508
1083.271 .0396563
1083.853 .0396601
1084.436 .0396630
1085.018 .0396664
1085.601 .0396712
1086.184 .0396779
1086.767 .0396869
1087.351 .0396970
1087.934 .0397063
1088.518 .0397135
1089.102 .0397182
1089.686 .0397204
1090.270 .0397209
1090.855 .0397223
1091.439 .0397257
1092.024 .0397320
1092.609 .0397436
1093.195 .0397590
1093.780 .0397779
1094.366 .0397978
1094.952 .0398178
1095.539 .0398366
1096.125 .0398513
1096.712 .0398661
1097.299 .0398810
1097.887 .0398976
1098.475 .0399161
1099.063 .0399357
1099.651 .0399553
1100.239 .0399711
1100.828 .0399842
1101.417 .0399910
1102.007 .0399938
1102.597 .0399937
1103.187 .0399900
1103.777 .0399858
1104.368 .0399829
1104.959 .0399840
1105.551 .0399865
1106.143 .0399912
1106.735 .0399976
1107.328 .0400004
1107.921 .0400014
1108.514 .0400022
1109.108 .0400026
1109.702 .0400033
1110.296 .0400076
1110.891 .0400135
1111.486 .0400221
1112.082 .0400351
1112.678 .0400505
1113.275 .0400675
1113.872 .0400862
1114.469 .0401031
1115.067 .0401145
1115.665 .0401239
1116.264 .0401314
1116.864 .0401354
1117.463 .0401416
1118.063 .0401510
1118.664 .0401629
1119.265 .0401821
1119.867 .0402102
1120.469 .0402456
1121.072 .0402883
1121.675 .0403373
1122.279 .0403875
1122.883 .0404369
1123.488 .0404860
1124.093 .0405335
1124.699 .0405817
1125.305 .0406325
1125.912 .0406883
1126.520 .0407508
1127.128 .0408201
1127.737 .0408967
1128.346 .0409746
1128.956 .0410562
1129.567 .0411345
1130.178 .0412052
1130.790 .0412700
1131.402 .0413292
1132.015 .0413851
1132.629 .0414402
1133.243 .0415005
1133.858 .0415698
1134.474 .0416484
1135.090 .0417404
1135.707 .0418417
1136.325 .0419542
1136.943 .0420763
1137.562 .0422025
1138.182 .0423339
1138.802 .0424681
1139.423 .0426033
1140.045 .0427465
1140.668 .0428957
1141.291 .0430545
1141.916 .0432176
1142.540 .0433157
1143.166 .0436381
1143.793 .0437698
1144.420 .0439749
1145.048 .0440460
