BestFit value for E:\RC_data\Compressed_For_Future_Analysis_Lite\test_shlomo\aqueous_test\GoodSpectraLarge_Full\0012_2025-06-24_09-45-30\Interpretation_History\2025-07-21_16-23-34\ResultsGraphs\BestFit\(Run)spectra_09-46-32-072_BestFit.txt
600.203 0.0586509
600.975 0.0586454
601.747 0.0586396
602.518 0.0586333
603.289 0.0586266
604.059 0.0586194
604.829 0.0586119
605.599 0.0586039
606.369 0.0585955
607.138 0.0585868
607.906 0.0585777
608.675 0.0585682
609.443 0.0585584
610.210 0.0585483
610.977 0.0585378
611.744 0.0585271
612.511 0.0585160
613.277 0.0585047
614.043 0.0584932
614.809 0.0584814
615.574 0.0584694
616.339 0.0584572
617.104 0.0584449
617.868 0.0584323
618.632 0.0584197
619.395 0.0584068
620.159 0.0583939
620.922 0.0583808
621.684 0.0583677
622.447 0.0583545
623.209 0.0583411
623.970 0.0583278
624.732 0.0583143
625.493 0.0583008
626.254 0.0582872
627.014 0.0582736
627.774 0.0582599
628.534 0.0582461
629.294 0.0582323
630.053 0.0582184
630.812 0.0582045
631.571 0.0581904
632.329 0.0581763
633.087 0.0581621
633.845 0.0581477
634.602 0.0581333
635.359 0.0581187
636.116 0.0581039
636.873 0.0580890
637.629 0.0580739
638.385 0.0580586
639.141 0.0580431
639.897 0.0580274
640.652 0.0580115
641.407 0.0579952
642.161 0.0579788
642.916 0.0579620
643.670 0.0579450
644.424 0.0579276
645.177 0.0579099
645.931 0.0578919
646.684 0.0578735
647.436 0.0578548
648.189 0.0578357
648.941 0.0578163
649.693 0.0577965
650.445 0.0577763
651.196 0.0577558
651.947 0.0577349
652.698 0.0577136
653.449 0.0576920
654.199 0.0576700
654.949 0.0576476
655.699 0.0576249
656.449 0.0576019
657.198 0.0575785
657.947 0.0575549
658.696 0.0575309
659.445 0.0575067
660.193 0.0574822
660.941 0.0574574
661.689 0.0574325
662.436 0.0574073
663.184 0.0573819
663.931 0.0573564
664.678 0.0573307
665.424 0.0573050
666.171 0.0572791
666.917 0.0572531
667.663 0.0572271
668.408 0.0572011
669.154 0.0571750
669.899 0.0571490
670.644 0.0571230
671.388 0.0570970
672.133 0.0570711
672.877 0.0570453
673.621 0.0570196
674.365 0.0569940
675.108 0.0569686
675.851 0.0569433
676.594 0.0569181
677.337 0.0568931
678.080 0.0568683
678.822 0.0568436
679.564 0.0568192
680.306 0.0567949
681.047 0.0567708
681.789 0.0567469
682.530 0.0567232
683.271 0.0566996
684.012 0.0566763
684.752 0.0566531
685.492 0.0566300
686.232 0.0566071
686.972 0.0565843
687.712 0.0565616
688.451 0.0565390
689.190 0.0565166
689.929 0.0564941
690.667 0.0564718
691.406 0.0564494
692.144 0.0564270
692.882 0.0564047
693.620 0.0563823
694.357 0.0563598
695.095 0.0563373
695.832 0.0563146
696.569 0.0562918
697.305 0.0562689
698.042 0.0562458
698.778 0.0562225
699.514 0.0561990
700.249 0.0561753
700.985 0.0561512
701.720 0.0561270
702.455 0.0561024
703.190 0.0560775
703.925 0.0560522
704.659 0.0560267
705.393 0.0560008
706.127 0.0559745
706.861 0.0559478
707.595 0.0559207
708.328 0.0558933
709.061 0.0558654
709.794 0.0558371
710.527 0.0558084
711.259 0.0557794
711.991 0.0557499
712.723 0.0557200
713.455 0.0556897
714.186 0.0556591
714.918 0.0556280
715.649 0.0555966
716.380 0.0555648
717.110 0.0555327
717.841 0.0555002
718.571 0.0554674
719.301 0.0554344
720.031 0.0554010
720.760 0.0553675
721.490 0.0553336
722.219 0.0552996
722.948 0.0552653
723.676 0.0552310
724.405 0.0551964
725.133 0.0551618
725.861 0.0551271
726.589 0.0550923
727.317 0.0550575
728.044 0.0550227
728.771 0.0549879
729.498 0.0549532
730.225 0.0549185
730.951 0.0548840
731.677 0.0548496
732.403 0.0548154
733.129 0.0547813
733.855 0.0547474
734.580 0.0547138
735.305 0.0546804
736.030 0.0546472
736.755 0.0546144
737.479 0.0545819
738.203 0.0545497
738.927 0.0545179
739.651 0.0544863
740.375 0.0544552
741.098 0.0544244
741.821 0.0543941
742.544 0.0543641
743.267 0.0543345
743.989 0.0543054
744.711 0.0542766
745.433 0.0542483
746.155 0.0542203
746.877 0.0541928
747.598 0.0541656
748.319 0.0541389
749.040 0.0541125
749.760 0.0540865
750.481 0.0540609
751.201 0.0540356
751.921 0.0540107
752.640 0.0539861
753.360 0.0539617
754.079 0.0539377
754.798 0.0539139
755.517 0.0538904
756.235 0.0538671
756.953 0.0538440
757.671 0.0538210
758.389 0.0537982
759.107 0.0537755
759.824 0.0537529
760.541 0.0537304
761.258 0.0537080
761.974 0.0536855
762.691 0.0536630
763.407 0.0536405
764.123 0.0536179
764.838 0.0535953
765.554 0.0535724
766.269 0.0535495
766.984 0.0535263
767.699 0.0535030
768.413 0.0534794
769.127 0.0534556
769.841 0.0534315
770.555 0.0534071
771.268 0.0533824
771.982 0.0533573
772.694 0.0533318
773.407 0.0533060
774.120 0.0532798
774.832 0.0532531
775.544 0.0532260
776.256 0.0531985
776.967 0.0531705
777.678 0.0531421
778.389 0.0531132
779.100 0.0530837
779.810 0.0530539
780.521 0.0530234
781.231 0.0529925
781.940 0.0529612
782.650 0.0529293
783.359 0.0528969
784.068 0.0528640
784.776 0.0528307
785.485 0.0527968
786.193 0.0527625
786.901 0.0527277
787.609 0.0526925
788.316 0.0526569
789.023 0.0526208
789.730 0.0525843
790.436 0.0525475
791.143 0.0525103
791.849 0.0524727
792.555 0.0524348
793.260 0.0523966
793.965 0.0523582
794.670 0.0523194
795.375 0.0522805
796.080 0.0522413
796.784 0.0522019
797.488 0.0521624
798.191 0.0521228
798.895 0.0520831
799.598 0.0520433
800.301 0.0520034
801.003 0.0519636
801.705 0.0519238
802.408 0.0518840
803.109 0.0518443
803.811 0.0518047
804.512 0.0517652
805.213 0.0517259
805.913 0.0516868
806.614 0.0516478
807.314 0.0516092
808.014 0.0515708
808.713 0.0515327
809.412 0.0514949
810.111 0.0514575
810.810 0.0514204
811.508 0.0513838
812.206 0.0513475
812.904 0.0513117
813.602 0.0512762
814.299 0.0512413
814.996 0.0512069
815.692 0.0511730
816.389 0.0511396
817.085 0.0511067
817.781 0.0510743
818.476 0.0510425
819.171 0.0510113
819.866 0.0509806
820.561 0.0509505
821.255 0.0509210
821.949 0.0508920
822.643 0.0508636
823.336 0.0508359
824.029 0.0508087
824.722 0.0507820
825.415 0.0507559
826.107 0.0507305
826.799 0.0507055
827.490 0.0506812
828.182 0.0506573
828.873 0.0506340
829.563 0.0506113
830.254 0.0505890
830.944 0.0505672
831.634 0.0505459
832.323 0.0505251
833.012 0.0505047
833.701 0.0504847
834.390 0.0504651
835.078 0.0504459
835.766 0.0504271
836.453 0.0504087
837.141 0.0503905
837.828 0.0503726
838.514 0.0503550
839.201 0.0503376
839.887 0.0503205
840.572 0.0503036
841.258 0.0502868
841.943 0.0502701
842.628 0.0502536
843.312 0.0502372
843.996 0.0502208
844.680 0.0502044
845.363 0.0501881
846.046 0.0501717
846.729 0.0501552
847.412 0.0501387
848.094 0.0501221
848.776 0.0501054
849.457 0.0500885
850.139 0.0500714
850.819 0.0500541
851.500 0.0500366
852.180 0.0500188
852.860 0.0500007
853.540 0.0499823
854.219 0.0499637
854.898 0.0499446
855.576 0.0499252
856.254 0.0499054
856.932 0.0498852
857.610 0.0498646
858.287 0.0498435
858.964 0.0498220
859.640 0.0498000
860.317 0.0497775
860.993 0.0497546
861.668 0.0497311
862.343 0.0497071
863.018 0.0496825
863.693 0.0496574
864.367 0.0496318
865.041 0.0496056
865.714 0.0495789
866.387 0.0495516
867.060 0.0495237
867.732 0.0494953
868.404 0.0494663
869.076 0.0494368
869.748 0.0494066
870.419 0.0493759
871.089 0.0493447
871.760 0.0493129
872.430 0.0492805
873.099 0.0492477
873.769 0.0492142
874.438 0.0491803
875.106 0.0491459
875.774 0.0491110
876.442 0.0490755
877.110 0.0490396
877.777 0.0490032
878.444 0.0489664
879.110 0.0489292
879.776 0.0488916
880.442 0.0488536
881.108 0.0488151
881.773 0.0487764
882.437 0.0487373
883.102 0.0486978
883.766 0.0486581
884.429 0.0486182
885.093 0.0485779
885.755 0.0485375
886.418 0.0484968
887.080 0.0484560
887.742 0.0484149
888.403 0.0483738
889.064 0.0483326
889.725 0.0482912
890.385 0.0482498
891.045 0.0482084
891.705 0.0481669
892.364 0.0481255
893.023 0.0480840
893.682 0.0480427
894.340 0.0480014
894.998 0.0479602
895.655 0.0479192
896.312 0.0478784
896.969 0.0478376
897.625 0.0477972
898.281 0.0477569
898.937 0.0477169
899.592 0.0476771
900.247 0.0476377
900.901 0.0475986
901.555 0.0475598
902.209 0.0475214
902.862 0.0474833
903.515 0.0474457
904.168 0.0474084
904.820 0.0473716
905.472 0.0473352
906.123 0.0472994
906.774 0.0472640
907.425 0.0472290
908.076 0.0471946
908.726 0.0471607
909.375 0.0471274
910.024 0.0470947
910.673 0.0470625
911.322 0.0470308
911.970 0.0469998
912.618 0.0469693
913.265 0.0469394
913.912 0.0469102
914.558 0.0468816
915.205 0.0468535
915.850 0.0468262
916.496 0.0467994
917.141 0.0467733
917.786 0.0467478
918.430 0.0467230
919.074 0.0466987
919.718 0.0466751
920.361 0.0466522
921.004 0.0466299
921.646 0.0466082
922.288 0.0465872
922.930 0.0465667
923.571 0.0465469
924.212 0.0465277
924.853 0.0465090
925.493 0.0464910
926.133 0.0464736
926.772 0.0464567
927.411 0.0464405
928.050 0.0464247
928.688 0.0464095
929.326 0.0463949
929.963 0.0463807
930.600 0.0463671
931.237 0.0463540
931.874 0.0463413
932.510 0.0463291
933.145 0.0463174
933.780 0.0463060
934.415 0.0462951
935.050 0.0462846
935.684 0.0462745
936.318 0.0462648
936.951 0.0462553
937.584 0.0462463
938.217 0.0462375
938.849 0.0462290
939.481 0.0462208
940.112 0.0462129
940.743 0.0462051
941.374 0.0461976
942.004 0.0461903
942.634 0.0461831
943.264 0.0461761
943.893 0.0461693
944.522 0.0461625
945.150 0.0461559
945.778 0.0461493
946.406 0.0461427
947.033 0.0461362
947.660 0.0461297
948.287 0.0461232
948.913 0.0461167
949.539 0.0461101
950.165 0.0461034
950.790 0.0460967
951.414 0.0460898
952.039 0.0460828
952.663 0.0460757
953.286 0.0460684
953.910 0.0460609
954.533 0.0460532
955.155 0.0460453
955.777 0.0460371
956.399 0.0460287
957.020 0.0460201
957.641 0.0460111
958.262 0.0460018
958.882 0.0459923
959.502 0.0459823
960.122 0.0459741
960.741 0.0459735
961.360 0.0459725
961.979 0.0459712
962.597 0.0459694
963.214 0.0459672
963.832 0.0459645
964.449 0.0459614
965.066 0.0459578
965.682 0.0459538
966.298 0.0459493
966.914 0.0459442
967.529 0.0459387
968.144 0.0459327
968.758 0.0459261
969.373 0.0459190
969.986 0.0459114
970.600 0.0459033
971.213 0.0458946
971.826 0.0458854
972.438 0.0458756
973.050 0.0458653
973.662 0.0458544
974.274 0.0458429
974.885 0.0458310
975.495 0.0458184
976.106 0.0458053
976.716 0.0457916
977.325 0.0457774
977.935 0.0457626
978.544 0.0457473
979.152 0.0457314
979.761 0.0457149
980.369 0.0456980
980.976 0.0456804
981.584 0.0456624
982.191 0.0456438
982.797 0.0456246
983.404 0.0456050
984.010 0.0455848
984.615 0.0455642
985.221 0.0455430
985.826 0.0455213
986.430 0.0454992
987.035 0.0454765
987.639 0.0454534
988.243 0.0454298
988.846 0.0454059
989.449 0.0453814
990.052 0.0453565
990.654 0.0453313
991.256 0.0453056
991.858 0.0452795
992.460 0.0452530
993.061 0.0452262
993.662 0.0451990
994.262 0.0451715
994.863 0.0451436
995.463 0.0451154
996.062 0.0450870
996.662 0.0450582
997.261 0.0450291
997.860 0.0449998
998.458 0.0449703
999.056 0.0449405
999.654 0.0449105
1000.252 0.0448764
1000.849 0.0448370
1001.446 0.0447974
1002.043 0.0447576
1002.639 0.0447177
1003.235 0.0446778
1003.831 0.0446377
1004.427 0.0445975
1005.022 0.0445573
1005.617 0.0445171
1006.212 0.0444768
1006.806 0.0444365
1007.401 0.0443962
1007.995 0.0443559
1008.588 0.0443157
1009.182 0.0442755
1009.775 0.0442354
1010.368 0.0441953
1010.96 0.0441554
1011.553 0.0441156
1012.145 0.0440759
1012.737 0.0440363
1013.328 0.0439970
1013.92 0.0439577
1014.511 0.0439187
1015.102 0.0438798
1015.692 0.0438413
1016.283 0.0438028
1016.873 0.0437647
1017.463 0.0437268
1018.052 0.0436893
1018.642 0.0436519
1019.231 0.0436149
1019.82 0.0435782
1020.409 0.0435418
1020.997 0.0435057
1021.585 0.0434701
1022.173 0.0434347
1022.761 0.0433997
1023.349 0.0433651
1023.936 0.0433309
1024.524 0.0432971
1025.111 0.0432637
1025.697 0.0432308
1026.284 0.0431982
1026.87 0.0431661
1027.457 0.0431345
1028.043 0.0431033
1028.628 0.0430726
1029.214 0.0430424
1029.80 0.0430126
1030.385 0.0429833
1030.97 0.0429545
1031.555 0.0429263
1032.139 0.0428985
1032.724 0.0428713
1033.308 0.0428446
1033.893 0.0428183
1034.477 0.0427927
1035.06 0.0427676
1035.644 0.0427429
1036.228 0.0427189
1036.811 0.0426954
1037.394 0.0426724
1037.977 0.0426500
1038.56 0.0426281
1039.143 0.0426068
1039.726 0.0425860
1040.308 0.0425658
1040.891 0.0425461
1041.473 0.0425270
1042.055 0.0425085
1042.637 0.0424905
1043.219 0.0424731
1043.801 0.0424562
1044.382 0.0424398
1044.964 0.0424240
1045.545 0.0424088
1046.127 0.0423941
1046.708 0.0423799
1047.289 0.0423663
1047.87 0.0423532
1048.451 0.0423406
1049.032 0.0423286
1049.612 0.0423170
1050.193 0.0423060
1050.774 0.0422955
1051.354 0.0422855
1051.935 0.0422760
1052.515 0.0422670
1053.095 0.0422584
1053.675 0.0422504
1054.256 0.0422428
1054.836 0.0422356
1055.416 0.0422290
1055.996 0.0422227
1056.576 0.0422169
1057.156 0.0422116
1057.735 0.0422066
1058.315 0.0422021
1058.895 0.0421980
1059.475 0.0421942
1060.055 0.0421909
1060.634 0.0421879
1061.214 0.0421853
1061.794 0.0421830
1062.373 0.0421811
1062.953 0.0421795
1063.533 0.0421782
1064.113 0.0421773
1064.692 0.0421766
1065.272 0.0421762
1065.852 0.0421761
1066.431 0.0421763
1067.011 0.0421767
1067.591 0.0421773
1068.171 0.0421782
1068.751 0.0421793
1069.331 0.0421806
1069.91 0.0421821
1070.49 0.0421838
1071.071 0.0421856
1071.651 0.0421876
1072.231 0.0421897
1072.811 0.0421920
1073.391 0.0421944
1073.972 0.0421968
1074.552 0.0421994
1075.133 0.0422020
1075.713 0.0422047
1076.294 0.0422075
1076.875 0.0422103
1077.456 0.0422131
1078.037 0.0422159
1078.618 0.0422187
1079.199 0.0422216
1079.78 0.0422243
1080.362 0.0422271
1080.943 0.0422298
1081.525 0.0422324
1082.107 0.0422349
1082.689 0.0422374
1083.271 0.0422397
1083.853 0.0422420
1084.436 0.0422441
1085.018 0.0422460
1085.601 0.0422478
1086.184 0.0422495
1086.767 0.0422509
1087.351 0.0422522
1087.934 0.0422532
1088.518 0.0422541
1089.102 0.0422547
1089.686 0.0422551
1090.27 0.0422552
1090.855 0.0422551
1091.439 0.0422547
1092.024 0.0422540
1092.609 0.0422531
1093.195 0.0422518
1093.78 0.0422502
1094.366 0.0422483
1094.952 0.0422460
1095.539 0.0422434
1096.125 0.0422404
1096.712 0.0422371
1097.299 0.0422334
1097.887 0.0422293
1098.475 0.0422249
1099.063 0.0422200
1099.651 0.0422147
1100.239 0.0422090
1100.828 0.0422029
1101.417 0.0421963
1102.007 0.0421893
1102.597 0.0421818
1103.187 0.0421739
1103.777 0.0421655
1104.368 0.0421567
1104.959 0.0421474
1105.551 0.0421375
1106.143 0.0421272
1106.735 0.0421164
1107.328 0.0421051
1107.921 0.0420933
1108.514 0.0420810
1109.108 0.0420682
1109.702 0.0420548
1110.296 0.0420409
1110.891 0.0420265
1111.486 0.0420116
1112.082 0.0419961
1112.678 0.0419801
1113.275 0.0419635
1113.872 0.0419464
1114.469 0.0419288
1115.067 0.0419105
1115.665 0.0418918
1116.264 0.0418725
1116.864 0.0418526
1117.463 0.0418322
1118.063 0.0418112
1118.664 0.0417897
1119.265 0.0417676
1119.867 0.0417450
1120.469 0.0417218
1121.072 0.0416981
1121.675 0.0416738
1122.279 0.0416489
1122.883 0.0416235
1123.488 0.0415976
1124.093 0.0415711
1124.699 0.0415440
1125.305 0.0415165
1125.912 0.0414884
1126.52 0.0414597
1127.128 0.0414306
1127.737 0.0414009
1128.346 0.0413706
1128.956 0.0413399
1129.567 0.0413086
1130.178 0.0412769
1130.79 0.0412446
1131.402 0.0412119
1132.015 0.0411787
1132.629 0.0411449
1133.243 0.0411107
1133.858 0.0410761
1134.474 0.0410409
1135.09 0.0410053
1135.707 0.0409693
1136.325 0.0409328
1136.943 0.0408959
1137.562 0.0408586
1138.182 0.0408208
1138.802 0.0407827
1139.423 0.0407441
1140.045 0.0407052
1140.668 0.0406658
1141.291 0.0406262
1141.916 0.0405861
1142.54 0.0405457
1143.166 0.0405050
1143.793 0.0404639
1144.42 0.0404225
1145.048 0.0403808
