Measurement Sequence started on: 09-46-08-630
Integration time: 30
Scans to Average: 2 
>>>>>Begin Spectral Data<<<<<
434.745 .0858752
435.665 .0852049
436.585 .0894729
437.503 .0867062
438.420 .0836188
439.335 .0807930
440.249 .0789691
441.162 .0771346
442.074 .0752798
442.984 .0736519
443.894 .0722344
444.802 .0709784
445.708 .0698652
446.614 .0688576
447.518 .0679341
448.422 .0670795
449.324 .0663153
450.224 .0656388
451.124 .0650494
452.022 .0645399
452.920 .0640937
453.816 .0636951
454.711 .0633349
455.605 .0630058
456.497 .0627092
457.389 .0624433
458.279 .0622062
459.169 .0620031
460.057 .0618316
460.944 .0616838
461.830 .0615621
462.715 .0614536
463.599 .0613457
464.482 .0612354
465.363 .0611138
466.244 .0609810
467.124 .0608381
468.002 .0606897
468.880 .0605397
469.756 .0603924
470.632 .0602518
471.506 .0601154
472.379 .0599866
473.252 .0598728
474.123 .0597708
474.994 .0596841
475.863 .0596165
476.731 .0595612
477.599 .0595168
478.465 .0594832
479.331 .0594539
480.195 .0594253
481.059 .0593991
481.921 .0593748
482.783 .0593539
483.643 .0593364
484.503 .0593286
485.362 .0593278
486.220 .0593352
487.077 .0593445
487.933 .0593447
488.788 .0593376
489.642 .0593216
490.496 .0592906
491.348 .0592503
492.200 .0592066
493.050 .0591690
493.900 .0591429
494.749 .0591343
495.597 .0591405
496.445 .0591615
497.291 .0591897
498.136 .0592213
498.981 .0592505
499.825 .0592748
500.668 .0592961
501.510 .0593172
502.352 .0593403
503.192 .0593667
504.032 .0593966
504.871 .0594358
505.709 .0594845
506.546 .0595445
507.383 .0596070
508.219 .0596720
509.054 .0597430
509.888 .0598232
510.722 .0599111
511.554 .0600175
512.386 .0601405
513.217 .0602858
514.048 .0604556
514.877 .0606473
515.706 .0608518
516.535 .0610711
517.362 .0613023
518.189 .0615341
519.015 .0617614
519.840 .0619863
520.665 .0622048
521.489 .0624308
522.312 .0626565
523.134 .0628884
523.956 .0631175
524.777 .0633581
525.598 .0636042
526.417 .0638515
527.236 .0640949
528.055 .0643275
528.872 .0645409
529.690 .0647476
530.506 .0649428
531.322 .0651109
532.137 .0652637
532.951 .0654043
533.765 .0655248
534.578 .0656239
535.391 .0657003
536.203 .0657523
537.014 .0657711
537.824 .0657546
538.634 .0656799
539.444 .0655456
540.253 .0653703
541.061 .0651412
541.868 .0648673
542.675 .0645593
543.482 .0642311
544.288 .0638960
545.093 .0635638
545.897 .0632375
546.702 .0629211
547.505 .0626068
548.308 .0622923
549.110 .0619690
549.912 .0616341
550.713 .0612972
551.514 .0609594
552.314 .0606301
553.114 .0603102
553.913 .0600088
554.711 .0597251
555.509 .0594602
556.306 .0592159
557.103 .0589867
557.900 .0587666
558.695 .0585499
559.491 .0583379
560.285 .0581227
561.080 .0579008
561.873 .0576706
562.667 .0574225
563.459 .0571624
564.252 .0568809
565.043 .0565861
565.835 .0562743
566.625 .0559558
567.416 .0556253
568.205 .0552922
568.995 .0549634
569.783 .0546435
570.572 .0543397
571.360 .0540531
572.147 .0537827
572.934 .0535378
573.720 .0533159
574.506 .0531178
575.292 .0529361
576.077 .0527808
576.862 .0526398
577.646 .0525150
578.429 .0524017
579.213 .0522995
579.996 .0522047
580.778 .0521153
581.560 .0520241
582.341 .0519311
583.123 .0518367
583.903 .0517393
584.684 .0516368
585.463 .0515355
586.243 .0514329
587.022 .0513327
587.800 .0512330
588.578 .0511351
589.356 .0510354
590.134 .0509380
590.911 .0508411
591.687 .0507458
592.463 .0506539
593.239 .0505649
594.014 .0504779
594.789 .0503959
595.564 .0503175
596.338 .0502423
597.112 .0501712
597.885 .0501031
598.658 .0500355
599.431 .0499671
600.203 .0498996
600.975 .0498320
601.747 .0497657
602.518 .0497022
603.289 .0496409
604.059 .0495817
604.829 .0495261
605.599 .0494731
606.369 .0494227
607.138 .0493749
607.906 .0493298
608.675 .0492865
609.443 .0492455
610.210 .0492073
610.977 .0491710
611.744 .0491379
612.511 .0491085
613.277 .0490803
614.043 .0490538
614.809 .0490295
615.574 .0490061
616.339 .0489843
617.104 .0489645
617.868 .0489469
618.632 .0489298
619.395 .0489152
620.159 .0489017
620.922 .0488896
621.684 .0488788
622.447 .0488681
623.209 .0488562
623.970 .0488453
624.732 .0488337
625.493 .0488212
626.254 .0488085
627.014 .0487960
627.774 .0487827
628.534 .0487689
629.294 .0487541
630.053 .0487383
630.812 .0487206
631.571 .0487021
632.329 .0486804
633.087 .0486574
633.845 .0486319
634.602 .0486037
635.359 .0485727
636.116 .0485382
636.873 .0484992
637.629 .0484560
638.385 .0484090
639.141 .0483587
639.897 .0483060
640.652 .0482521
641.407 .0481977
642.161 .0481434
642.916 .0480885
643.670 .0480334
644.424 .0479779
645.177 .0479222
645.931 .0478653
646.684 .0478077
647.436 .0477515
648.189 .0476969
648.941 .0476460
649.693 .0475998
650.445 .0475587
651.196 .0475222
651.947 .0474898
652.698 .0474602
653.449 .0474326
654.199 .0474063
654.949 .0473811
655.699 .0473565
656.449 .0473326
657.198 .0473098
657.947 .0472883
658.696 .0472689
659.445 .0472513
660.193 .0472344
660.941 .0472187
661.689 .0472040
662.436 .0471889
663.184 .0471736
663.931 .0471586
664.678 .0471432
665.424 .0471274
666.171 .0471107
666.917 .0470930
667.663 .0470743
668.408 .0470553
669.154 .0470356
669.899 .0470150
670.644 .0469937
671.388 .0469713
672.133 .0469477
672.877 .0469232
673.621 .0468978
674.365 .0468712
675.108 .0468440
675.851 .0468163
676.594 .0467877
677.337 .0467587
678.080 .0467294
678.822 .0467007
679.564 .0466714
680.306 .0466420
681.047 .0466119
681.789 .0465808
682.530 .0465491
683.271 .0465170
684.012 .0464838
684.752 .0464499
685.492 .0464148
686.232 .0463781
686.972 .0463396
687.712 .0463000
688.451 .0462584
689.190 .0462153
689.929 .0461708
690.667 .0461249
691.406 .0460773
692.144 .0460295
692.882 .0459814
693.620 .0459333
694.357 .0458858
695.095 .0458383
695.832 .0457907
696.569 .0457434
697.305 .0456961
698.042 .0456489
698.778 .0456017
699.514 .0455542
700.249 .0455062
700.985 .0454579
701.720 .0454093
702.455 .0453606
703.190 .0453122
703.925 .0452641
704.659 .0452171
705.393 .0451708
706.127 .0451258
706.861 .0450828
707.595 .0450425
708.328 .0450045
709.061 .0449688
709.794 .0449351
710.527 .0449033
711.259 .0448733
711.991 .0448451
712.723 .0448179
713.455 .0447919
714.186 .0447669
714.918 .0447421
715.649 .0447178
716.380 .0446937
717.110 .0446700
717.841 .0446468
718.571 .0446236
719.301 .0446005
720.031 .0445771
720.760 .0445536
721.490 .0445299
722.219 .0445048
722.948 .0444788
723.676 .0444514
724.405 .0444232
725.133 .0443941
725.861 .0443648
726.589 .0443363
727.317 .0443091
728.044 .0442834
728.771 .0442590
729.498 .0442352
730.225 .0442120
730.951 .0441885
731.677 .0441640
732.403 .0441382
733.129 .0441113
733.855 .0440831
734.580 .0440545
735.305 .0440257
736.030 .0439967
736.755 .0439674
737.479 .0439379
738.203 .0439075
738.927 .0438756
739.651 .0438422
740.375 .0438064
741.098 .0437688
741.821 .0437295
742.544 .0436885
743.267 .0436458
743.989 .0436023
744.711 .0435578
745.433 .0435120
746.155 .0434658
746.877 .0434193
747.598 .0433723
748.319 .0433251
749.040 .0432773
749.760 .0432291
750.481 .0431808
751.201 .0431325
751.921 .0430839
752.640 .0430354
753.360 .0429873
754.079 .0429390
754.798 .0428906
755.517 .0428423
756.235 .0427932
756.953 .0427434
757.671 .0426928
758.389 .0426412
759.107 .0425893
759.824 .0425371
760.541 .0424850
761.258 .0424335
761.974 .0423829
762.691 .0423334
763.407 .0422848
764.123 .0422375
764.838 .0421912
765.554 .0421455
766.269 .0421005
766.984 .0420562
767.699 .0420131
768.413 .0419718
769.127 .0419318
769.841 .0418939
770.555 .0418582
771.268 .0418246
771.982 .0417930
772.694 .0417633
773.407 .0417350
774.120 .0417080
774.832 .0416819
775.544 .0416563
776.256 .0416314
776.967 .0416077
777.678 .0415847
778.389 .0415631
779.100 .0415422
779.810 .0415221
780.521 .0415023
781.231 .0414834
781.940 .0414652
782.650 .0414470
783.359 .0414294
784.068 .0414122
784.776 .0413958
785.485 .0413804
786.193 .0413656
786.901 .0413520
787.609 .0413393
788.316 .0413265
789.023 .0413132
789.730 .0412992
790.436 .0412845
791.143 .0412686
791.849 .0412527
792.555 .0412368
793.260 .0412216
793.965 .0412066
794.670 .0411927
795.375 .0411787
796.080 .0411647
796.784 .0411499
797.488 .0411343
798.191 .0411178
798.895 .0411003
799.598 .0410815
800.301 .0410627
801.003 .0410439
801.705 .0410254
802.408 .0410062
803.109 .0409872
803.811 .0409675
804.512 .0409466
805.213 .0409241
805.913 .0409003
806.614 .0408751
807.314 .0408485
808.014 .0408204
808.713 .0407916
809.412 .0407619
810.111 .0407311
810.810 .0406992
811.508 .0406663
812.206 .0406319
812.904 .0405956
813.602 .0405579
814.299 .0405191
814.996 .0404793
815.692 .0404388
816.389 .0403978
817.085 .0403564
817.781 .0403149
818.476 .0402727
819.171 .0402303
819.866 .0401877
820.561 .0401448
821.255 .0401009
821.949 .0400572
822.643 .0400133
823.336 .0399690
824.029 .0399243
824.722 .0398798
825.415 .0398349
826.107 .0397901
826.799 .0397453
827.490 .0397009
828.182 .0396571
828.873 .0396141
829.563 .0395713
830.254 .0395292
830.944 .0394879
831.634 .0394473
832.323 .0394070
833.012 .0393672
833.701 .0393280
834.390 .0392891
835.078 .0392514
835.766 .0392153
836.453 .0391809
837.141 .0391485
837.828 .0391179
838.514 .0390892
839.201 .0390620
839.887 .0390361
840.572 .0390108
841.258 .0389859
841.943 .0389614
842.628 .0389369
843.312 .0389121
843.996 .0388879
844.680 .0388643
845.363 .0388408
846.046 .0388179
846.729 .0387957
847.412 .0387743
848.094 .0387535
848.776 .0387331
849.457 .0387128
850.139 .0386927
850.819 .0386729
851.500 .0386527
852.180 .0386331
852.860 .0386143
853.540 .0385965
854.219 .0385794
854.898 .0385640
855.576 .0385494
856.254 .0385356
856.932 .0385226
857.610 .0385101
858.287 .0384982
858.964 .0384870
859.640 .0384765
860.317 .0384671
860.993 .0384591
861.668 .0384528
862.343 .0384473
863.018 .0384435
863.693 .0384406
864.367 .0384381
865.041 .0384360
865.714 .0384347
866.387 .0384339
867.060 .0384343
867.732 .0384355
868.404 .0384379
869.076 .0384409
869.748 .0384442
870.419 .0384467
871.089 .0384484
871.760 .0384488
872.430 .0384477
873.099 .0384447
873.769 .0384401
874.438 .0384337
875.106 .0384263
875.774 .0384177
876.442 .0384085
877.110 .0383986
877.777 .0383878
878.444 .0383761
879.110 .0383642
879.776 .0383519
880.442 .0383394
881.108 .0383272
881.773 .0383155
882.437 .0383040
883.102 .0382926
883.766 .0382811
884.429 .0382693
885.093 .0382575
885.755 .0382452
886.418 .0382315
887.080 .0382170
887.742 .0382011
888.403 .0381841
889.064 .0381659
889.725 .0381466
890.385 .0381263
891.045 .0381055
891.705 .0380844
892.364 .0380625
893.023 .0380404
893.682 .0380182
894.340 .0379954
894.998 .0379723
895.655 .0379488
896.312 .0379249
896.969 .0379010
897.625 .0378776
898.281 .0378548
898.937 .0378326
899.592 .0378109
900.247 .0377894
900.901 .0377674
901.555 .0377440
902.209 .0377185
902.862 .0376908
903.515 .0376608
904.168 .0376290
904.820 .0375955
905.472 .0375615
906.123 .0375271
906.774 .0374922
907.425 .0374569
908.076 .0374215
908.726 .0373851
909.375 .0373475
910.024 .0373087
910.673 .0372687
911.322 .0372281
911.970 .0371877
912.618 .0371475
913.265 .0371082
913.912 .0370697
914.558 .0370317
915.205 .0369928
915.850 .0369535
916.496 .0369132
917.141 .0368722
917.786 .0368311
918.430 .0367896
919.074 .0367483
919.718 .0367079
920.361 .0366684
921.004 .0366299
921.646 .0365922
922.288 .0365550
922.930 .0365180
923.571 .0364814
924.212 .0364450
924.853 .0364094
925.493 .0363752
926.133 .0363428
926.772 .0363120
927.411 .0362823
928.050 .0362531
928.688 .0362237
929.326 .0361941
929.963 .0361632
930.600 .0361313
931.237 .0360987
931.874 .0360661
932.510 .0360337
933.145 .0360021
933.780 .0359715
934.415 .0359418
935.050 .0359128
935.684 .0358838
936.318 .0358547
936.951 .0358256
937.584 .0357966
938.217 .0357681
938.849 .0357404
939.481 .0357143
940.112 .0356898
940.743 .0356669
941.374 .0356455
942.004 .0356250
942.634 .0356047
943.264 .0355848
943.893 .0355642
944.522 .0355431
945.150 .0355215
945.778 .0354998
946.406 .0354787
947.033 .0354583
947.660 .0354388
948.287 .0354203
948.913 .0354028
949.539 .0353865
950.165 .0353707
950.790 .0353560
951.414 .0353427
952.039 .0353306
952.663 .0353199
953.286 .0353104
953.910 .0353018
954.533 .0352945
955.155 .0352884
955.777 .0352837
956.399 .0352800
957.020 .0352775
957.641 .0352767
958.262 .0352772
958.882 .0352792
959.502 .0352824
960.122 .0352865
960.741 .0352920
961.360 .0352984
961.979 .0353056
962.597 .0353137
963.214 .0353231
963.832 .0353337
964.449 .0353453
965.066 .0353580
965.682 .0353716
966.298 .0353858
966.914 .0354006
967.529 .0354153
968.144 .0354293
968.758 .0354425
969.373 .0354543
969.986 .0354647
970.600 .0354735
971.213 .0354807
971.826 .0354866
972.438 .0354915
973.050 .0354958
973.662 .0354996
974.274 .0355026
974.885 .0355050
975.495 .0355062
976.106 .0355063
976.716 .0355048
977.325 .0355020
977.935 .0354985
978.544 .0354946
979.152 .0354902
979.761 .0354863
980.369 .0354828
980.976 .0354800
981.584 .0354769
982.191 .0354739
982.797 .0354705
983.404 .0354658
984.010 .0354597
984.615 .0354518
985.221 .0354424
985.826 .0354321
986.430 .0354207
987.035 .0354092
987.639 .0353978
988.243 .0353874
988.846 .0353780
989.449 .0353697
990.052 .0353628
990.654 .0353561
991.256 .0353494
991.858 .0353426
992.460 .0353348
993.061 .0353265
993.662 .0353184
994.262 .0353107
994.863 .0353030
995.463 .0352961
996.062 .0352894
996.662 .0352827
997.261 .0352759
997.860 .0352688
998.458 .0352606
999.056 .0352517
999.654 .0352421
1000.252 .0352316
1000.849 .0352208
1001.446 .0352094
1002.043 .0351973
1002.639 .0351846
1003.235 .0351711
1003.831 .0351565
1004.427 .0351409
1005.022 .0351249
1005.617 .0351085
1006.212 .0350919
1006.806 .0350752
1007.401 .0350586
1007.995 .0350411
1008.588 .0350226
1009.182 .0350030
1009.775 .0349821
1010.368 .0349600
1010.960 .0349367
1011.553 .0349128
1012.145 .0348885
1012.737 .0348644
1013.328 .0348409
1013.920 .0348183
1014.511 .0347966
1015.102 .0347758
1015.692 .0347554
1016.283 .0347354
1016.873 .0347153
1017.463 .0346949
1018.052 .0346742
1018.642 .0346531
1019.231 .0346319
1019.820 .0346109
1020.409 .0345896
1020.997 .0345685
1021.585 .0345475
1022.173 .0345260
1022.761 .0345039
1023.349 .0344814
1023.936 .0344577
1024.524 .0344329
1025.111 .0344076
1025.697 .0343812
1026.284 .0343545
1026.870 .0343275
1027.457 .0343008
1028.043 .0342747
1028.628 .0342489
1029.214 .0342231
1029.800 .0341965
1030.385 .0341700
1030.970 .0341427
1031.555 .0341142
1032.139 .0340856
1032.724 .0340563
1033.308 .0340261
1033.893 .0339949
1034.477 .0339632
1035.060 .0339311
1035.644 .0338982
1036.228 .0338649
1036.811 .0338309
1037.394 .0337957
1037.977 .0337596
1038.560 .0337234
1039.143 .0336869
1039.726 .0336513
1040.308 .0336168
1040.891 .0335833
1041.473 .0335528
1042.055 .0335244
1042.637 .0334983
1043.219 .0334748
1043.801 .0334537
1044.382 .0334340
1044.964 .0334155
1045.545 .0333992
1046.127 .0333843
1046.708 .0333708
1047.289 .0333591
1047.870 .0333482
1048.451 .0333386
1049.032 .0333287
1049.612 .0333185
1050.193 .0333074
1050.774 .0332963
1051.354 .0332842
1051.935 .0332730
1052.515 .0332625
1053.095 .0332529
1053.675 .0332450
1054.256 .0332395
1054.836 .0332347
1055.416 .0332310
1055.996 .0332275
1056.576 .0332252
1057.156 .0332233
1057.735 .0332227
1058.315 .0332229
1058.895 .0332253
1059.475 .0332299
1060.055 .0332358
1060.634 .0332415
1061.214 .0332477
1061.794 .0332522
1062.373 .0332551
1062.953 .0332561
1063.533 .0332559
1064.113 .0332559
1064.692 .0332574
1065.272 .0332599
1065.852 .0332644
1066.431 .0332691
1067.011 .0332747
1067.591 .0332802
1068.171 .0332845
1068.751 .0332871
1069.331 .0332889
1069.910 .0332908
1070.490 .0332935
1071.071 .0332977
1071.651 .0333053
1072.231 .0333154
1072.811 .0333284
1073.391 .0333426
1073.972 .0333576
1074.552 .0333738
1075.133 .0333913
1075.713 .0334094
1076.294 .0334307
1076.875 .0334530
1077.456 .0334772
1078.037 .0335030
1078.618 .0335308
1079.199 .0335591
1079.780 .0335885
1080.362 .0336184
1080.943 .0336485
1081.525 .0336778
1082.107 .0337080
1082.689 .0337369
1083.271 .0337659
1083.853 .0337915
1084.436 .0338120
1085.018 .0338278
1085.601 .0338396
1086.184 .0338460
1086.767 .0338496
1087.351 .0338522
1087.934 .0338546
1088.518 .0338571
1089.102 .0338610
1089.686 .0338674
1090.270 .0338762
1090.855 .0338865
1091.439 .0338970
1092.024 .0339075
1092.609 .0339197
1093.195 .0339328
1093.780 .0339485
1094.366 .0339680
1094.952 .0339901
1095.539 .0340161
1096.125 .0340449
1096.712 .0340765
1097.299 .0341100
1097.887 .0341444
1098.475 .0341792
1099.063 .0342124
1099.651 .0342426
1100.239 .0342693
1100.828 .0342941
1101.417 .0343172
1102.007 .0343395
1102.597 .0343610
1103.187 .0343828
1103.777 .0344049
1104.368 .0344269
1104.959 .0344488
1105.551 .0344690
1106.143 .0344886
1106.735 .0345069
1107.328 .0345249
1107.921 .0345442
1108.514 .0345648
1109.108 .0345892
1109.702 .0346151
1110.296 .0346425
1110.891 .0346690
1111.486 .0346944
1112.082 .0347178
1112.678 .0347376
1113.275 .0347548
1113.872 .0347677
1114.469 .0347807
1115.067 .0347929
1115.665 .0348068
1116.264 .0348233
1116.864 .0348439
1117.463 .0348680
1118.063 .0348970
1118.664 .0349290
1119.265 .0349641
1119.867 .0350007
1120.469 .0350393
1121.072 .0350778
1121.675 .0351164
1122.279 .0351537
1122.883 .0351922
1123.488 .0352312
1124.093 .0352760
1124.699 .0353254
1125.305 .0353825
1125.912 .0354473
1126.520 .0355197
1127.128 .0355963
1127.737 .0356747
1128.346 .0357496
1128.956 .0358219
1129.567 .0358882
1130.178 .0359499
1130.790 .0360082
1131.402 .0360686
1132.015 .0361328
1132.629 .0362029
1133.243 .0362812
1133.858 .0363658
1134.474 .0364543
1135.090 .0365431
1135.707 .0366276
1136.325 .0367056
1136.943 .0367779
1137.562 .0368452
1138.182 .0369153
1138.802 .0369880
1139.423 .0370673
1140.045 .0371600
1140.668 .0372642
1141.291 .0373771
1141.916 .0375207
1142.540 .0375884
1143.166 .0378314
1143.793 .0378730
1144.420 .0379603
1145.048 .0387260
