Measurement Sequence started on: 09-46-08-630
Integration time: 30
Scans to Average: 2 
>>>>>Begin Spectral Data<<<<<
434.745 .1055815
435.665 .1089466
436.585 .1012146
437.503 .0962447
438.420 .0894384
439.335 .0868403
440.249 .0830565
441.162 .0795620
442.074 .0767156
442.984 .0744044
443.894 .0725887
444.802 .0711296
445.708 .0699597
446.614 .0689896
447.518 .0681530
448.422 .0674105
449.324 .0667531
450.224 .0661860
451.124 .0656816
452.022 .0652404
452.920 .0648455
453.816 .0645042
454.711 .0641866
455.605 .0638955
456.497 .0636293
457.389 .0633717
458.279 .0631305
459.169 .0629095
460.057 .0627023
460.944 .0625129
461.830 .0623381
462.715 .0621752
463.599 .0620232
464.482 .0618945
465.363 .0617858
466.244 .0617121
467.124 .0616657
468.002 .0616528
468.880 .0616611
469.756 .0616907
470.632 .0617303
471.506 .0617690
472.379 .0618052
473.252 .0618335
474.123 .0618582
474.994 .0618840
475.863 .0619206
476.731 .0619726
477.599 .0620391
478.465 .0621201
479.331 .0622014
480.195 .0622784
481.059 .0623429
481.921 .0623927
482.783 .0624244
483.643 .0624435
484.503 .0624577
485.362 .0624680
486.220 .0624892
487.077 .0625199
487.933 .0625650
488.788 .0626171
489.642 .0626731
490.496 .0627234
491.348 .0627692
492.200 .0628119
493.050 .0628525
493.900 .0628968
494.749 .0629488
495.597 .0630109
496.445 .0630839
497.291 .0631625
498.136 .0632474
498.981 .0633331
499.825 .0634181
500.668 .0634972
501.510 .0635735
502.352 .0636445
503.192 .0637180
504.032 .0637987
504.871 .0638827
505.709 .0639780
506.546 .0640776
507.383 .0641801
508.219 .0642886
509.054 .0644087
509.888 .0645389
510.722 .0646908
511.554 .0648772
512.386 .0650986
513.217 .0653568
514.048 .0656609
514.877 .0660064
515.706 .0663918
516.535 .0668064
517.362 .0672506
518.189 .0677092
519.015 .0681939
519.840 .0686954
520.665 .0692165
521.489 .0697674
522.312 .0703427
523.134 .0709287
523.956 .0715165
524.777 .0721083
525.598 .0726819
526.417 .0732241
527.236 .0737294
528.055 .0741859
528.872 .0745898
529.690 .0749506
530.506 .0752703
531.322 .0755527
532.137 .0758232
532.951 .0760738
533.765 .0762760
534.578 .0764527
535.391 .0765714
536.203 .0766181
537.014 .0765924
537.824 .0765006
538.634 .0763155
539.444 .0760599
540.253 .0757502
541.061 .0753929
541.868 .0750106
542.675 .0746152
543.482 .0741814
544.288 .0737344
545.093 .0732644
545.897 .0727498
546.702 .0722027
547.505 .0716348
548.308 .0710400
549.110 .0704331
549.912 .0698318
550.713 .0692510
551.514 .0687137
552.314 .0682318
553.114 .0677965
553.913 .0674112
554.711 .0670613
555.509 .0667200
556.306 .0663922
557.103 .0660662
557.900 .0657282
558.695 .0653778
559.491 .0650244
560.285 .0646689
561.080 .0643253
561.873 .0639917
562.667 .0636765
563.459 .0633832
564.252 .0631125
565.043 .0628439
565.835 .0625694
566.625 .0622968
567.416 .0620148
568.205 .0617248
568.995 .0614361
569.783 .0611458
570.572 .0608717
571.360 .0606159
572.147 .0603826
572.934 .0601719
573.720 .0599816
574.506 .0598033
575.292 .0596301
576.077 .0594619
576.862 .0592917
577.646 .0591134
578.429 .0589340
579.213 .0587588
579.996 .0585817
580.778 .0584049
581.560 .0582362
582.341 .0580760
583.123 .0579256
583.903 .0577817
584.684 .0576476
585.463 .0575239
586.243 .0574102
587.022 .0573042
587.800 .0572011
588.578 .0571084
589.356 .0570194
590.134 .0569326
590.911 .0568501
591.687 .0567706
592.463 .0566917
593.239 .0566145
594.014 .0565418
594.789 .0564693
595.564 .0563991
596.338 .0563314
597.112 .0562640
597.885 .0561999
598.658 .0561352
599.431 .0560715
600.203 .0560091
600.975 .0559506
601.747 .0558933
602.518 .0558391
603.289 .0557889
604.059 .0557403
604.829 .0556932
605.599 .0556488
606.369 .0556064
607.138 .0555649
607.906 .0555245
608.675 .0554851
609.443 .0554458
610.210 .0554092
610.977 .0553732
611.744 .0553401
612.511 .0553093
613.277 .0552802
614.043 .0552521
614.809 .0552246
615.574 .0551980
616.339 .0551705
617.104 .0551439
617.868 .0551168
618.632 .0550892
619.395 .0550616
620.159 .0550347
620.922 .0550095
621.684 .0549853
622.447 .0549623
623.209 .0549402
623.970 .0549190
624.732 .0548982
625.493 .0548768
626.254 .0548566
627.014 .0548362
627.774 .0548170
628.534 .0547982
629.294 .0547812
630.053 .0547651
630.812 .0547502
631.571 .0547361
632.329 .0547222
633.087 .0547083
633.845 .0546938
634.602 .0546786
635.359 .0546632
636.116 .0546459
636.873 .0546269
637.629 .0546050
638.385 .0545816
639.141 .0545546
639.897 .0545254
640.652 .0544933
641.407 .0544594
642.161 .0544241
642.916 .0543880
643.670 .0543520
644.424 .0543160
645.177 .0542802
645.931 .0542433
646.684 .0542041
647.436 .0541639
648.189 .0541214
648.941 .0540785
649.693 .0540346
650.445 .0539907
651.196 .0539464
651.947 .0539021
652.698 .0538578
653.449 .0538132
654.199 .0537683
654.949 .0537223
655.699 .0536750
656.449 .0536263
657.198 .0535759
657.947 .0535243
658.696 .0534721
659.445 .0534202
660.193 .0533678
660.941 .0533163
661.689 .0532655
662.436 .0532158
663.184 .0531683
663.931 .0531221
664.678 .0530776
665.424 .0530347
666.171 .0529935
666.917 .0529538
667.663 .0529157
668.408 .0528796
669.154 .0528450
669.899 .0528119
670.644 .0527805
671.388 .0527500
672.133 .0527200
672.877 .0526906
673.621 .0526609
674.365 .0526307
675.108 .0526000
675.851 .0525684
676.594 .0525374
677.337 .0525069
678.080 .0524775
678.822 .0524493
679.564 .0524224
680.306 .0523969
681.047 .0523723
681.789 .0523483
682.530 .0523248
683.271 .0523012
684.012 .0522788
684.752 .0522569
685.492 .0522367
686.232 .0522175
686.972 .0521998
687.712 .0521830
688.451 .0521666
689.190 .0521493
689.929 .0521308
690.667 .0521109
691.406 .0520896
692.144 .0520671
692.882 .0520441
693.620 .0520205
694.357 .0519971
695.095 .0519735
695.832 .0519498
696.569 .0519254
697.305 .0519004
698.042 .0518739
698.778 .0518463
699.514 .0518174
700.249 .0517869
700.985 .0517556
701.720 .0517235
702.455 .0516904
703.190 .0516564
703.925 .0516204
704.659 .0515824
705.393 .0515421
706.127 .0514997
706.861 .0514553
707.595 .0514094
708.328 .0513626
709.061 .0513150
709.794 .0512673
710.527 .0512198
711.259 .0511724
711.991 .0511254
712.723 .0510788
713.455 .0510325
714.186 .0509867
714.918 .0509413
715.649 .0508966
716.380 .0508533
717.110 .0508113
717.841 .0507701
718.571 .0507294
719.301 .0506889
720.031 .0506485
720.760 .0506070
721.490 .0505648
722.219 .0505215
722.948 .0504773
723.676 .0504323
724.405 .0503866
725.133 .0503403
725.861 .0502942
726.589 .0502483
727.317 .0502032
728.044 .0501584
728.771 .0501150
729.498 .0500727
730.225 .0500323
730.951 .0499940
731.677 .0499581
732.403 .0499246
733.129 .0498939
733.855 .0498652
734.580 .0498383
735.305 .0498131
736.030 .0497891
736.755 .0497657
737.479 .0497426
738.203 .0497191
738.927 .0496951
739.651 .0496703
740.375 .0496447
741.098 .0496179
741.821 .0495907
742.544 .0495630
743.267 .0495353
743.989 .0495085
744.711 .0494830
745.433 .0494589
746.155 .0494370
746.877 .0494171
747.598 .0493986
748.319 .0493816
749.040 .0493657
749.760 .0493509
750.481 .0493374
751.201 .0493249
751.921 .0493135
752.640 .0493029
753.360 .0492930
754.079 .0492830
754.798 .0492716
755.517 .0492585
756.235 .0492425
756.953 .0492233
757.671 .0492012
758.389 .0491762
759.107 .0491494
759.824 .0491209
760.541 .0490923
761.258 .0490640
761.974 .0490362
762.691 .0490091
763.407 .0489831
764.123 .0489577
764.838 .0489334
765.554 .0489093
766.269 .0488863
766.984 .0488641
767.699 .0488433
768.413 .0488231
769.127 .0488034
769.841 .0487840
770.555 .0487648
771.268 .0487449
771.982 .0487250
772.694 .0487039
773.407 .0486826
774.120 .0486606
774.832 .0486378
775.544 .0486144
776.256 .0485905
776.967 .0485661
777.678 .0485412
778.389 .0485154
779.100 .0484891
779.810 .0484620
780.521 .0484349
781.231 .0484079
781.940 .0483808
782.650 .0483533
783.359 .0483250
784.068 .0482957
784.776 .0482653
785.485 .0482329
786.193 .0481994
786.901 .0481645
787.609 .0481284
788.316 .0480918
789.023 .0480548
789.730 .0480184
790.436 .0479829
791.143 .0479480
791.849 .0479138
792.555 .0478800
793.260 .0478458
793.965 .0478114
794.670 .0477768
795.375 .0477423
796.080 .0477077
796.784 .0476733
797.488 .0476396
798.191 .0476062
798.895 .0475744
799.598 .0475434
800.301 .0475129
801.003 .0474829
801.705 .0474519
802.408 .0474197
803.109 .0473863
803.811 .0473517
804.512 .0473156
805.213 .0472791
805.913 .0472426
806.614 .0472063
807.314 .0471709
808.014 .0471370
808.713 .0471046
809.412 .0470732
810.111 .0470429
810.810 .0470127
811.508 .0469829
812.206 .0469538
812.904 .0469245
813.602 .0468957
814.299 .0468679
814.996 .0468413
815.692 .0468161
816.389 .0467928
817.085 .0467719
817.781 .0467534
818.476 .0467375
819.171 .0467239
819.866 .0467120
820.561 .0467015
821.255 .0466914
821.949 .0466814
822.643 .0466713
823.336 .0466607
824.029 .0466492
824.722 .0466375
825.415 .0466250
826.107 .0466113
826.799 .0465961
827.490 .0465791
828.182 .0465603
828.873 .0465392
829.563 .0465159
830.254 .0464915
830.944 .0464663
831.634 .0464417
832.323 .0464177
833.012 .0463954
833.701 .0463746
834.390 .0463555
835.078 .0463381
835.766 .0463224
836.453 .0463085
837.141 .0462970
837.828 .0462882
838.514 .0462830
839.201 .0462813
839.887 .0462836
840.572 .0462891
841.258 .0462978
841.943 .0463076
842.628 .0463176
843.312 .0463271
843.996 .0463359
844.680 .0463430
845.363 .0463485
846.046 .0463523
846.729 .0463541
847.412 .0463539
848.094 .0463513
848.776 .0463459
849.457 .0463380
850.139 .0463272
850.819 .0463137
851.500 .0462980
852.180 .0462812
852.860 .0462634
853.540 .0462451
854.219 .0462268
854.898 .0462082
855.576 .0461887
856.254 .0461693
856.932 .0461498
857.610 .0461304
858.287 .0461118
858.964 .0460937
859.640 .0460769
860.317 .0460618
860.993 .0460480
861.668 .0460356
862.343 .0460241
863.018 .0460129
863.693 .0460007
864.367 .0459875
865.041 .0459727
865.714 .0459558
866.387 .0459376
867.060 .0459180
867.732 .0458967
868.404 .0458738
869.076 .0458495
869.748 .0458233
870.419 .0457955
871.089 .0457656
871.760 .0457338
872.430 .0457003
873.099 .0456643
873.769 .0456264
874.438 .0455864
875.106 .0455447
875.774 .0455010
876.442 .0454563
877.110 .0454113
877.777 .0453662
878.444 .0453215
879.110 .0452777
879.776 .0452358
880.442 .0451957
881.108 .0451573
881.773 .0451207
882.437 .0450862
883.102 .0450529
883.766 .0450206
884.429 .0449897
885.093 .0449596
885.755 .0449302
886.418 .0449014
887.080 .0448729
887.742 .0448448
888.403 .0448172
889.064 .0447901
889.725 .0447633
890.385 .0447367
891.045 .0447092
891.705 .0446808
892.364 .0446508
893.023 .0446189
893.682 .0445848
894.340 .0445495
894.998 .0445128
895.655 .0444757
896.312 .0444393
896.969 .0444041
897.625 .0443704
898.281 .0443386
898.937 .0443080
899.592 .0442783
900.247 .0442484
900.901 .0442180
901.555 .0441872
902.209 .0441564
902.862 .0441250
903.515 .0440944
904.168 .0440657
904.820 .0440387
905.472 .0440134
906.123 .0439897
906.774 .0439670
907.425 .0439447
908.076 .0439221
908.726 .0438984
909.375 .0438737
910.024 .0438481
910.673 .0438212
911.322 .0437941
911.970 .0437673
912.618 .0437408
913.265 .0437151
913.912 .0436908
914.558 .0436671
915.205 .0436436
915.850 .0436203
916.496 .0435972
917.141 .0435741
917.786 .0435506
918.430 .0435268
919.074 .0435032
919.718 .0434802
920.361 .0434572
921.004 .0434343
921.646 .0434119
922.288 .0433895
922.930 .0433666
923.571 .0433430
924.212 .0433185
924.853 .0432934
925.493 .0432676
926.133 .0432418
926.772 .0432165
927.411 .0431917
928.050 .0431675
928.688 .0431440
929.326 .0431211
929.963 .0430987
930.600 .0430765
931.237 .0430551
931.874 .0430344
932.510 .0430149
933.145 .0429966
933.780 .0429794
934.415 .0429644
935.050 .0429512
935.684 .0429394
936.318 .0429293
936.951 .0429205
937.584 .0429123
938.217 .0429037
938.849 .0428946
939.481 .0428845
940.112 .0428737
940.743 .0428621
941.374 .0428499
942.004 .0428378
942.634 .0428268
943.264 .0428164
943.893 .0428066
944.522 .0427977
945.150 .0427889
945.778 .0427795
946.406 .0427696
947.033 .0427591
947.660 .0427480
948.287 .0427367
948.913 .0427256
949.539 .0427150
950.165 .0427051
950.790 .0426961
951.414 .0426876
952.039 .0426803
952.663 .0426736
953.286 .0426670
953.910 .0426602
954.533 .0426539
955.155 .0426479
955.777 .0426420
956.399 .0426366
957.020 .0426325
957.641 .0426297
958.262 .0426277
958.882 .0426266
959.502 .0426263
960.122 .0426267
960.741 .0426273
961.360 .0426277
961.979 .0426277
962.597 .0426277
963.214 .0426279
963.832 .0426277
964.449 .0426278
965.066 .0426279
965.682 .0426277
966.298 .0426275
966.914 .0426272
967.529 .0426260
968.144 .0426234
968.758 .0426197
969.373 .0426144
969.986 .0426076
970.600 .0425996
971.213 .0425907
971.826 .0425816
972.438 .0425723
973.050 .0425618
973.662 .0425495
974.274 .0425358
974.885 .0425197
975.495 .0425009
976.106 .0424793
976.716 .0424552
977.325 .0424292
977.935 .0424018
978.544 .0423734
979.152 .0423442
979.761 .0423146
980.369 .0422842
980.976 .0422528
981.584 .0422206
982.191 .0421872
982.797 .0421535
983.404 .0421193
984.010 .0420859
984.615 .0420531
985.221 .0420205
985.826 .0419894
986.430 .0419597
987.035 .0419311
987.639 .0419038
988.243 .0418778
988.846 .0418529
989.449 .0418288
990.052 .0418057
990.654 .0417831
991.256 .0417619
991.858 .0417426
992.460 .0417244
993.061 .0417076
993.662 .0416925
994.262 .0416781
994.863 .0416636
995.463 .0416486
996.062 .0416316
996.662 .0416121
997.261 .0415906
997.860 .0415661
998.458 .0415399
999.056 .0415127
999.654 .0414850
1000.252 .0414564
1000.849 .0414274
1001.446 .0413966
1002.043 .0413634
1002.639 .0413280
1003.235 .0412904
1003.831 .0412507
1004.427 .0412100
1005.022 .0411693
1005.617 .0411304
1006.212 .0410935
1006.806 .0410589
1007.401 .0410263
1007.995 .0409962
1008.588 .0409677
1009.182 .0409397
1009.775 .0409123
1010.368 .0408861
1010.960 .0408609
1011.553 .0408365
1012.145 .0408126
1012.737 .0407896
1013.328 .0407665
1013.920 .0407439
1014.511 .0407213
1015.102 .0406992
1015.692 .0406770
1016.283 .0406556
1016.873 .0406352
1017.463 .0406159
1018.052 .0405972
1018.642 .0405781
1019.231 .0405586
1019.820 .0405391
1020.409 .0405185
1020.997 .0404982
1021.585 .0404802
1022.173 .0404658
1022.761 .0404546
1023.349 .0404478
1023.936 .0404436
1024.524 .0404412
1025.111 .0404390
1025.697 .0404357
1026.284 .0404302
1026.870 .0404237
1027.457 .0404159
1028.043 .0404082
1028.628 .0404021
1029.214 .0403980
1029.800 .0403947
1030.385 .0403918
1030.970 .0403877
1031.555 .0403802
1032.139 .0403686
1032.724 .0403538
1033.308 .0403349
1033.893 .0403143
1034.477 .0402927
1035.060 .0402709
1035.644 .0402502
1036.228 .0402307
1036.811 .0402108
1037.394 .0401901
1037.977 .0401683
1038.560 .0401445
1039.143 .0401191
1039.726 .0400929
1040.308 .0400667
1040.891 .0400401
1041.473 .0400139
1042.055 .0399878
1042.637 .0399607
1043.219 .0399335
1043.801 .0399045
1044.382 .0398748
1044.964 .0398457
1045.545 .0398169
1046.127 .0397889
1046.708 .0397628
1047.289 .0397383
1047.870 .0397152
1048.451 .0396926
1049.032 .0396706
1049.612 .0396495
1050.193 .0396290
1050.774 .0396097
1051.354 .0395924
1051.935 .0395778
1052.515 .0395676
1053.095 .0395601
1053.675 .0395574
1054.256 .0395585
1054.836 .0395618
1055.416 .0395674
1055.996 .0395738
1056.576 .0395821
1057.156 .0395913
1057.735 .0396012
1058.315 .0396134
1058.895 .0396286
1059.475 .0396463
1060.055 .0396667
1060.634 .0396889
1061.214 .0397111
1061.794 .0397323
1062.373 .0397496
1062.953 .0397646
1063.533 .0397768
1064.113 .0397884
1064.692 .0397997
1065.272 .0398109
1065.852 .0398241
1066.431 .0398373
1067.011 .0398511
1067.591 .0398648
1068.171 .0398763
1068.751 .0398846
1069.331 .0398888
1069.910 .0398917
1070.490 .0398931
1071.071 .0398963
1071.651 .0399010
1072.231 .0399084
1072.811 .0399176
1073.391 .0399275
1073.972 .0399376
1074.552 .0399468
1075.133 .0399552
1075.713 .0399618
1076.294 .0399665
1076.875 .0399695
1077.456 .0399723
1078.037 .0399758
1078.618 .0399798
1079.199 .0399854
1079.780 .0399903
1080.362 .0399959
1080.943 .0400014
1081.525 .0400084
1082.107 .0400172
1082.689 .0400283
1083.271 .0400426
1083.853 .0400568
1084.436 .0400724
1085.018 .0400888
1085.601 .0401049
1086.184 .0401203
1086.767 .0401340
1087.351 .0401466
1087.934 .0401573
1088.518 .0401675
1089.102 .0401780
1089.686 .0401888
1090.270 .0402017
1090.855 .0402155
1091.439 .0402287
1092.024 .0402407
1092.609 .0402517
1093.195 .0402594
1093.780 .0402643
1094.366 .0402676
1094.952 .0402683
1095.539 .0402691
1096.125 .0402726
1096.712 .0402797
1097.299 .0402901
1097.887 .0403062
1098.475 .0403255
1099.063 .0403453
1099.651 .0403660
1100.239 .0403852
1100.828 .0404025
1101.417 .0404200
1102.007 .0404376
1102.597 .0404543
1103.187 .0404722
1103.777 .0404924
1104.368 .0405113
1104.959 .0405320
1105.551 .0405525
1106.143 .0405705
1106.735 .0405873
1107.328 .0406034
1107.921 .0406168
1108.514 .0406297
1109.108 .0406450
1109.702 .0406616
1110.296 .0406802
1110.891 .0407009
1111.486 .0407215
1112.082 .0407441
1112.678 .0407677
1113.275 .0407923
1113.872 .0408150
1114.469 .0408405
1115.067 .0408649
1115.665 .0408883
1116.264 .0409129
1116.864 .0409392
1117.463 .0409651
1118.063 .0409928
1118.664 .0410206
1119.265 .0410501
1119.867 .0410799
1120.469 .0411112
1121.072 .0411437
1121.675 .0411774
1122.279 .0412108
1122.883 .0412417
1123.488 .0412711
1124.093 .0413021
1124.699 .0413341
1125.305 .0413672
1125.912 .0414057
1126.520 .0414489
1127.128 .0414965
1127.737 .0415494
1128.346 .0416056
1128.956 .0416680
1129.567 .0417324
1130.178 .0418004
1130.790 .0418736
1131.402 .0419486
1132.015 .0420309
1132.629 .0421178
1133.243 .0422160
1133.858 .0423212
1134.474 .0424301
1135.090 .0425431
1135.707 .0426573
1136.325 .0427733
1136.943 .0428875
1137.562 .0429978
1138.182 .0431115
1138.802 .0432245
1139.423 .0433352
1140.045 .0434474
1140.668 .0435571
1141.291 .0436747
1141.916 .0438154
1142.540 .0438311
1143.166 .0440592
1143.793 .0440115
1144.420 .0443751
1145.048 .0450459
