Measurement Sequence started on: 09-46-08-630
Integration time: 30
Scans to Average: 2 
>>>>>Begin Spectral Data<<<<<
434.745 .1164915
435.665 .1047230
436.585 .0982911
437.503 .0909799
438.420 .0853852
439.335 .0844639
440.249 .0804901
441.162 .0773085
442.074 .0746604
442.984 .0725126
443.894 .0707407
444.802 .0692559
445.708 .0680171
446.614 .0669716
447.518 .0661099
448.422 .0653520
449.324 .0647020
450.224 .0641324
451.124 .0636200
452.022 .0631747
452.920 .0627841
453.816 .0624477
454.711 .0621673
455.605 .0619471
456.497 .0617769
457.389 .0616533
458.279 .0615657
459.169 .0615033
460.057 .0614562
460.944 .0614126
461.830 .0613660
462.715 .0613066
463.599 .0612456
464.482 .0611753
465.363 .0610964
466.244 .0610148
467.124 .0609270
468.002 .0608324
468.880 .0607287
469.756 .0606219
470.632 .0605121
471.506 .0604003
472.379 .0602916
473.252 .0601881
474.123 .0600903
474.994 .0600018
475.863 .0599246
476.731 .0598531
477.599 .0597926
478.465 .0597455
479.331 .0597070
480.195 .0596867
481.059 .0596821
481.921 .0596946
482.783 .0597233
483.643 .0597673
484.503 .0598147
485.362 .0598654
486.220 .0599160
487.077 .0599594
487.933 .0599932
488.788 .0600215
489.642 .0600413
490.496 .0600566
491.348 .0600660
492.200 .0600713
493.050 .0600658
493.900 .0600599
494.749 .0600398
495.597 .0600114
496.445 .0599695
497.291 .0599139
498.136 .0598497
498.981 .0597833
499.825 .0597145
500.668 .0596547
501.510 .0596091
502.352 .0595867
503.192 .0595818
504.032 .0596037
504.871 .0596473
505.709 .0597183
506.546 .0598070
507.383 .0599130
508.219 .0600335
509.054 .0601774
509.888 .0603423
510.722 .0605358
511.554 .0607609
512.386 .0610160
513.217 .0613012
514.048 .0616080
514.877 .0619232
515.706 .0622407
516.535 .0625437
517.362 .0628375
518.189 .0631069
519.015 .0633585
519.840 .0636005
520.665 .0638407
521.489 .0640883
522.312 .0643304
523.134 .0645733
523.956 .0648106
524.777 .0650451
525.598 .0652748
526.417 .0654904
527.236 .0656946
528.055 .0658894
528.872 .0660678
529.690 .0662393
530.506 .0664072
531.322 .0665637
532.137 .0667079
532.951 .0668407
533.765 .0669438
534.578 .0670241
535.391 .0670747
536.203 .0670985
537.014 .0670816
537.824 .0670214
538.634 .0669030
539.444 .0667306
540.253 .0665219
541.061 .0662669
541.868 .0659677
542.675 .0656355
543.482 .0652829
544.288 .0649147
545.093 .0645448
545.897 .0641769
546.702 .0638173
547.505 .0634695
548.308 .0631270
549.110 .0627844
549.912 .0624504
550.713 .0621264
551.514 .0618176
552.314 .0615210
553.114 .0612477
553.913 .0609911
554.711 .0607516
555.509 .0605272
556.306 .0603196
557.103 .0601077
557.900 .0598962
558.695 .0596782
559.491 .0594562
560.285 .0592319
561.080 .0590101
561.873 .0587919
562.667 .0585820
563.459 .0583791
564.252 .0581727
565.043 .0579560
565.835 .0577384
566.625 .0575056
567.416 .0572596
568.205 .0570056
568.995 .0567474
569.783 .0564909
570.572 .0562498
571.360 .0560152
572.147 .0557873
572.934 .0555677
573.720 .0553477
574.506 .0551247
575.292 .0549002
576.077 .0546750
576.862 .0544478
577.646 .0542249
578.429 .0540102
579.213 .0538049
579.996 .0536135
580.778 .0534357
581.560 .0532666
582.341 .0531068
583.123 .0529518
583.903 .0527992
584.684 .0526525
585.463 .0525136
586.243 .0523812
587.022 .0522579
587.800 .0521447
588.578 .0520457
589.356 .0519563
590.134 .0518750
590.911 .0517996
591.687 .0517281
592.463 .0516563
593.239 .0515825
594.014 .0515078
594.789 .0514338
595.564 .0513614
596.338 .0512922
597.112 .0512261
597.885 .0511635
598.658 .0511051
599.431 .0510500
600.203 .0509989
600.975 .0509510
601.747 .0509052
602.518 .0508622
603.289 .0508209
604.059 .0507810
604.829 .0507426
605.599 .0507062
606.369 .0506716
607.138 .0506379
607.906 .0506048
608.675 .0505720
609.443 .0505389
610.210 .0505054
610.977 .0504703
611.744 .0504330
612.511 .0503934
613.277 .0503506
614.043 .0503050
614.809 .0502570
615.574 .0502069
616.339 .0501571
617.104 .0501083
617.868 .0500615
618.632 .0500166
619.395 .0499739
620.159 .0499330
620.922 .0498938
621.684 .0498557
622.447 .0498192
623.209 .0497837
623.970 .0497506
624.732 .0497193
625.493 .0496907
626.254 .0496648
627.014 .0496413
627.774 .0496194
628.534 .0495977
629.294 .0495748
630.053 .0495513
630.812 .0495263
631.571 .0495007
632.329 .0494743
633.087 .0494488
633.845 .0494244
634.602 .0494015
635.359 .0493799
636.116 .0493601
636.873 .0493416
637.629 .0493236
638.385 .0493049
639.141 .0492853
639.897 .0492649
640.652 .0492434
641.407 .0492210
642.161 .0491983
642.916 .0491744
643.670 .0491493
644.424 .0491231
645.177 .0490958
645.931 .0490667
646.684 .0490348
647.436 .0490009
648.189 .0489645
648.941 .0489256
649.693 .0488840
650.445 .0488408
651.196 .0487961
651.947 .0487508
652.698 .0487042
653.449 .0486566
654.199 .0486091
654.949 .0485616
655.699 .0485142
656.449 .0484665
657.198 .0484185
657.947 .0483704
658.696 .0483219
659.445 .0482746
660.193 .0482270
660.941 .0481802
661.689 .0481349
662.436 .0480909
663.184 .0480484
663.931 .0480075
664.678 .0479679
665.424 .0479293
666.171 .0478922
666.917 .0478552
667.663 .0478175
668.408 .0477796
669.154 .0477416
669.899 .0477029
670.644 .0476643
671.388 .0476265
672.133 .0475890
672.877 .0475533
673.621 .0475196
674.365 .0474864
675.108 .0474543
675.851 .0474232
676.594 .0473931
677.337 .0473632
678.080 .0473342
678.822 .0473059
679.564 .0472787
680.306 .0472534
681.047 .0472292
681.789 .0472060
682.530 .0471839
683.271 .0471626
684.012 .0471415
684.752 .0471201
685.492 .0470984
686.232 .0470757
686.972 .0470521
687.712 .0470280
688.451 .0470025
689.190 .0469757
689.929 .0469482
690.667 .0469202
691.406 .0468909
692.144 .0468606
692.882 .0468290
693.620 .0467962
694.357 .0467620
695.095 .0467261
695.832 .0466881
696.569 .0466485
697.305 .0466073
698.042 .0465640
698.778 .0465186
699.514 .0464724
700.249 .0464240
700.985 .0463747
701.720 .0463247
702.455 .0462744
703.190 .0462234
703.925 .0461723
704.659 .0461214
705.393 .0460705
706.127 .0460197
706.861 .0459698
707.595 .0459201
708.328 .0458718
709.061 .0458240
709.794 .0457771
710.527 .0457314
711.259 .0456874
711.991 .0456446
712.723 .0456034
713.455 .0455633
714.186 .0455242
714.918 .0454856
715.649 .0454476
716.380 .0454101
717.110 .0453726
717.841 .0453350
718.571 .0452978
719.301 .0452605
720.031 .0452241
720.760 .0451882
721.490 .0451528
722.219 .0451180
722.948 .0450839
723.676 .0450497
724.405 .0450155
725.133 .0449815
725.861 .0449479
726.589 .0449146
727.317 .0448816
728.044 .0448493
728.771 .0448180
729.498 .0447883
730.225 .0447603
730.951 .0447337
731.677 .0447093
732.403 .0446858
733.129 .0446632
733.855 .0446411
734.580 .0446190
735.305 .0445967
736.030 .0445742
736.755 .0445516
737.479 .0445289
738.203 .0445065
738.927 .0444842
739.651 .0444624
740.375 .0444406
741.098 .0444179
741.821 .0443942
742.544 .0443693
743.267 .0443427
743.989 .0443140
744.711 .0442842
745.433 .0442529
746.155 .0442212
746.877 .0441893
747.598 .0441572
748.319 .0441255
749.040 .0440937
749.760 .0440619
750.481 .0440290
751.201 .0439955
751.921 .0439605
752.640 .0439238
753.360 .0438860
754.079 .0438468
754.798 .0438065
755.517 .0437655
756.235 .0437236
756.953 .0436812
757.671 .0436386
758.389 .0435957
759.107 .0435527
759.824 .0435100
760.541 .0434670
761.258 .0434247
761.974 .0433820
762.691 .0433397
763.407 .0432971
764.123 .0432548
764.838 .0432124
765.554 .0431700
766.269 .0431277
766.984 .0430858
767.699 .0430449
768.413 .0430053
769.127 .0429669
769.841 .0429303
770.555 .0428950
771.268 .0428609
771.982 .0428278
772.694 .0427958
773.407 .0427645
774.120 .0427344
774.832 .0427052
775.544 .0426775
776.256 .0426512
776.967 .0426263
777.678 .0426032
778.389 .0425815
779.100 .0425609
779.810 .0425409
780.521 .0425215
781.231 .0425025
781.940 .0424835
782.650 .0424641
783.359 .0424442
784.068 .0424241
784.776 .0424034
785.485 .0423821
786.193 .0423607
786.901 .0423400
787.609 .0423204
788.316 .0423025
789.023 .0422867
789.730 .0422728
790.436 .0422613
791.143 .0422510
791.849 .0422423
792.555 .0422347
793.260 .0422275
793.965 .0422207
794.670 .0422141
795.375 .0422079
796.080 .0422017
796.784 .0421957
797.488 .0421900
798.191 .0421840
798.895 .0421773
799.598 .0421693
800.301 .0421598
801.003 .0421485
801.705 .0421350
802.408 .0421189
803.109 .0421010
803.811 .0420807
804.512 .0420586
805.213 .0420348
805.913 .0420100
806.614 .0419844
807.314 .0419579
808.014 .0419304
808.713 .0419020
809.412 .0418720
810.111 .0418409
810.810 .0418075
811.508 .0417727
812.206 .0417359
812.904 .0416977
813.602 .0416576
814.299 .0416171
814.996 .0415764
815.692 .0415360
816.389 .0414965
817.085 .0414576
817.781 .0414190
818.476 .0413809
819.171 .0413439
819.866 .0413076
820.561 .0412718
821.255 .0412366
821.949 .0412015
822.643 .0411672
823.336 .0411327
824.029 .0410980
824.722 .0410630
825.415 .0410280
826.107 .0409926
826.799 .0409561
827.490 .0409195
828.182 .0408828
828.873 .0408460
829.563 .0408092
830.254 .0407718
830.944 .0407342
831.634 .0406964
832.323 .0406587
833.012 .0406213
833.701 .0405845
834.390 .0405487
835.078 .0405144
835.766 .0404819
836.453 .0404515
837.141 .0404231
837.828 .0403966
838.514 .0403722
839.201 .0403489
839.887 .0403261
840.572 .0403042
841.258 .0402830
841.943 .0402622
842.628 .0402419
843.312 .0402219
843.996 .0402026
844.680 .0401837
845.363 .0401652
846.046 .0401462
846.729 .0401271
847.412 .0401078
848.094 .0400877
848.776 .0400678
849.457 .0400481
850.139 .0400287
850.819 .0400101
851.500 .0399917
852.180 .0399737
852.860 .0399564
853.540 .0399399
854.219 .0399235
854.898 .0399077
855.576 .0398924
856.254 .0398776
856.932 .0398643
857.610 .0398524
858.287 .0398420
858.964 .0398333
859.640 .0398262
860.317 .0398200
860.993 .0398146
861.668 .0398106
862.343 .0398069
863.018 .0398042
863.693 .0398020
864.367 .0397997
865.041 .0397980
865.714 .0397972
866.387 .0397967
867.060 .0397963
867.732 .0397960
868.404 .0397957
869.076 .0397951
869.748 .0397943
870.419 .0397931
871.089 .0397916
871.760 .0397896
872.430 .0397870
873.099 .0397829
873.769 .0397775
874.438 .0397708
875.106 .0397626
875.774 .0397530
876.442 .0397419
877.110 .0397295
877.777 .0397161
878.444 .0397018
879.110 .0396868
879.776 .0396705
880.442 .0396532
881.108 .0396353
881.773 .0396163
882.437 .0395960
883.102 .0395749
883.766 .0395528
884.429 .0395299
885.093 .0395062
885.755 .0394813
886.418 .0394552
887.080 .0394280
887.742 .0393999
888.403 .0393704
889.064 .0393403
889.725 .0393099
890.385 .0392793
891.045 .0392491
891.705 .0392189
892.364 .0391881
893.023 .0391572
893.682 .0391262
894.340 .0390946
894.998 .0390625
895.655 .0390303
896.312 .0389985
896.969 .0389676
897.625 .0389376
898.281 .0389083
898.937 .0388793
899.592 .0388506
900.247 .0388213
900.901 .0387906
901.555 .0387589
902.209 .0387256
902.862 .0386908
903.515 .0386547
904.168 .0386171
904.820 .0385783
905.472 .0385388
906.123 .0384989
906.774 .0384589
907.425 .0384187
908.076 .0383785
908.726 .0383385
909.375 .0382997
910.024 .0382612
910.673 .0382235
911.322 .0381869
911.970 .0381516
912.618 .0381173
913.265 .0380835
913.912 .0380503
914.558 .0380180
915.205 .0379866
915.850 .0379559
916.496 .0379260
917.141 .0378974
917.786 .0378698
918.430 .0378429
919.074 .0378165
919.718 .0377903
920.361 .0377637
921.004 .0377370
921.646 .0377100
922.288 .0376829
922.930 .0376559
923.571 .0376289
924.212 .0376028
924.853 .0375776
925.493 .0375530
926.133 .0375289
926.772 .0375057
927.411 .0374827
928.050 .0374596
928.688 .0374360
929.326 .0374123
929.963 .0373888
930.600 .0373657
931.237 .0373433
931.874 .0373220
932.510 .0373022
933.145 .0372836
933.780 .0372653
934.415 .0372476
935.050 .0372301
935.684 .0372129
936.318 .0371961
936.951 .0371801
937.584 .0371646
938.217 .0371499
938.849 .0371359
939.481 .0371223
940.112 .0371089
940.743 .0370955
941.374 .0370820
942.004 .0370684
942.634 .0370552
943.264 .0370423
943.893 .0370302
944.522 .0370199
945.150 .0370107
945.778 .0370025
946.406 .0369953
947.033 .0369889
947.660 .0369831
948.287 .0369778
948.913 .0369727
949.539 .0369675
950.165 .0369626
950.790 .0369578
951.414 .0369529
952.039 .0369482
952.663 .0369440
953.286 .0369396
953.910 .0369350
954.533 .0369300
955.155 .0369250
955.777 .0369202
956.399 .0369161
957.020 .0369133
957.641 .0369116
958.262 .0369111
958.882 .0369117
959.502 .0369129
960.122 .0369146
960.741 .0369167
961.360 .0369188
961.979 .0369209
962.597 .0369231
963.214 .0369247
963.832 .0369261
964.449 .0369275
965.066 .0369289
965.682 .0369296
966.298 .0369301
966.914 .0369302
967.529 .0369294
968.144 .0369280
968.758 .0369258
969.373 .0369229
969.986 .0369195
970.600 .0369149
971.213 .0369097
971.826 .0369035
972.438 .0368967
973.050 .0368895
973.662 .0368817
974.274 .0368732
974.885 .0368632
975.495 .0368516
976.106 .0368385
976.716 .0368234
977.325 .0368066
977.935 .0367877
978.544 .0367668
979.152 .0367440
979.761 .0367193
980.369 .0366933
980.976 .0366669
981.584 .0366401
982.191 .0366135
982.797 .0365874
983.404 .0365619
984.010 .0365365
984.615 .0365114
985.221 .0364860
985.826 .0364595
986.430 .0364315
987.035 .0364022
987.639 .0363715
988.243 .0363410
988.846 .0363108
989.449 .0362814
990.052 .0362533
990.654 .0362265
991.256 .0362003
991.858 .0361740
992.460 .0361476
993.061 .0361200
993.662 .0360911
994.262 .0360612
994.863 .0360304
995.463 .0359996
996.062 .0359692
996.662 .0359394
997.261 .0359104
997.860 .0358822
998.458 .0358539
999.056 .0358252
999.654 .0357965
1000.252 .0357668
1000.849 .0357361
1001.446 .0357041
1002.043 .0356705
1002.639 .0356358
1003.235 .0356005
1003.831 .0355649
1004.427 .0355296
1005.022 .0354949
1005.617 .0354610
1006.212 .0354277
1006.806 .0353954
1007.401 .0353633
1007.995 .0353306
1008.588 .0352978
1009.182 .0352641
1009.775 .0352302
1010.368 .0351965
1010.960 .0351638
1011.553 .0351339
1012.145 .0351068
1012.737 .0350827
1013.328 .0350615
1013.920 .0350427
1014.511 .0350260
1015.102 .0350102
1015.692 .0349951
1016.283 .0349805
1016.873 .0349666
1017.463 .0349542
1018.052 .0349435
1018.642 .0349344
1019.231 .0349272
1019.820 .0349211
1020.409 .0349161
1020.997 .0349112
1021.585 .0349054
1022.173 .0348989
1022.761 .0348918
1023.349 .0348840
1023.936 .0348761
1024.524 .0348680
1025.111 .0348611
1025.697 .0348545
1026.284 .0348494
1026.870 .0348449
1027.457 .0348405
1028.043 .0348366
1028.628 .0348326
1029.214 .0348284
1029.800 .0348243
1030.385 .0348193
1030.970 .0348146
1031.555 .0348095
1032.139 .0348053
1032.724 .0348005
1033.308 .0347958
1033.893 .0347906
1034.477 .0347853
1035.060 .0347785
1035.644 .0347710
1036.228 .0347628
1036.811 .0347544
1037.394 .0347460
1037.977 .0347380
1038.560 .0347303
1039.143 .0347237
1039.726 .0347176
1040.308 .0347126
1040.891 .0347073
1041.473 .0347030
1042.055 .0346987
1042.637 .0346951
1043.219 .0346925
1043.801 .0346920
1044.382 .0346939
1044.964 .0346985
1045.545 .0347054
1046.127 .0347137
1046.708 .0347220
1047.289 .0347299
1047.870 .0347368
1048.451 .0347429
1049.032 .0347484
1049.612 .0347552
1050.193 .0347628
1050.774 .0347726
1051.354 .0347841
1051.935 .0347971
1052.515 .0348110
1053.095 .0348252
1053.675 .0348383
1054.256 .0348503
1054.836 .0348613
1055.416 .0348716
1055.996 .0348814
1056.576 .0348926
1057.156 .0349053
1057.735 .0349198
1058.315 .0349355
1058.895 .0349523
1059.475 .0349696
1060.055 .0349881
1060.634 .0350065
1061.214 .0350256
1061.794 .0350453
1062.373 .0350658
1062.953 .0350869
1063.533 .0351094
1064.113 .0351323
1064.692 .0351562
1065.272 .0351804
1065.852 .0352046
1066.431 .0352282
1067.011 .0352510
1067.591 .0352721
1068.171 .0352919
1068.751 .0353098
1069.331 .0353251
1069.910 .0353368
1070.490 .0353463
1071.071 .0353528
1071.651 .0353568
1072.231 .0353596
1072.811 .0353622
1073.391 .0353647
1073.972 .0353682
1074.552 .0353722
1075.133 .0353773
1075.713 .0353818
1076.294 .0353866
1076.875 .0353916
1077.456 .0353975
1078.037 .0354044
1078.618 .0354119
1079.199 .0354211
1079.780 .0354336
1080.362 .0354485
1080.943 .0354636
1081.525 .0354787
1082.107 .0354929
1082.689 .0355022
1083.271 .0355065
1083.853 .0355043
1084.436 .0354966
1085.018 .0354843
1085.601 .0354696
1086.184 .0354527
1086.767 .0354340
1087.351 .0354161
1087.934 .0353974
1088.518 .0353802
1089.102 .0353620
1089.686 .0353420
1090.270 .0353212
1090.855 .0353012
1091.439 .0352813
1092.024 .0352613
1092.609 .0352441
1093.195 .0352282
1093.780 .0352138
1094.366 .0352017
1094.952 .0351884
1095.539 .0351770
1096.125 .0351667
1096.712 .0351595
1097.299 .0351531
1097.887 .0351512
1098.475 .0351492
1099.063 .0351486
1099.651 .0351489
1100.239 .0351461
1100.828 .0351417
1101.417 .0351362
1102.007 .0351324
1102.597 .0351303
1103.187 .0351318
1103.777 .0351397
1104.368 .0351525
1104.959 .0351715
1105.551 .0351918
1106.143 .0352101
1106.735 .0352251
1107.328 .0352349
1107.921 .0352374
1108.514 .0352353
1109.108 .0352302
1109.702 .0352218
1110.296 .0352128
1110.891 .0352029
1111.486 .0351931
1112.082 .0351795
1112.678 .0351635
1113.275 .0351449
1113.872 .0351218
1114.469 .0350980
1115.067 .0350725
1115.665 .0350488
1116.264 .0350297
1116.864 .0350144
1117.463 .0350028
1118.063 .0349956
1118.664 .0349926
1119.265 .0349898
1119.867 .0349900
1120.469 .0349943
1121.072 .0349996
1121.675 .0350077
1122.279 .0350201
1122.883 .0350382
1123.488 .0350611
1124.093 .0350889
1124.699 .0351199
1125.305 .0351544
1125.912 .0351941
1126.520 .0352341
1127.128 .0352768
1127.737 .0353248
1128.346 .0353748
1128.956 .0354274
1129.567 .0354836
1130.178 .0355420
1130.790 .0356044
1131.402 .0356708
1132.015 .0357392
1132.629 .0358082
1133.243 .0358798
1133.858 .0359576
1134.474 .0360404
1135.090 .0361254
1135.707 .0362165
1136.325 .0363084
1136.943 .0364070
1137.562 .0365065
1138.182 .0366082
1138.802 .0367138
1139.423 .0368230
1140.045 .0369383
1140.668 .0370577
1141.291 .0371712
1141.916 .0373046
1142.540 .0374119
1143.166 .0376178
1143.793 .0377741
1144.420 .0375407
1145.048 .0382202
