Measurement Sequence started on: 09-46-08-630
Integration time: 30
Scans to Average: 2 
>>>>>Begin Spectral Data<<<<<
434.745 .1117216
435.665 .1130930
436.585 .1020032
437.503 .0958431
438.420 .0881991
439.335 .0870555
440.249 .0830301
441.162 .0794851
442.074 .0767196
442.984 .0744864
443.894 .0727100
444.802 .0712371
445.708 .0699882
446.614 .0689176
447.518 .0679876
448.422 .0671558
449.324 .0664302
450.224 .0657932
451.124 .0652348
452.022 .0647445
452.920 .0643169
453.816 .0639475
454.711 .0636135
455.605 .0633155
456.497 .0630507
457.389 .0628046
458.279 .0625916
459.169 .0623955
460.057 .0622165
460.944 .0620512
461.830 .0619021
462.715 .0617631
463.599 .0616377
464.482 .0615230
465.363 .0614126
466.244 .0613100
467.124 .0612105
468.002 .0611112
468.880 .0610151
469.756 .0609235
470.632 .0608317
471.506 .0607414
472.379 .0606528
473.252 .0605667
474.123 .0604857
474.994 .0604131
475.863 .0603476
476.731 .0602858
477.599 .0602310
478.465 .0601815
479.331 .0601358
480.195 .0600999
481.059 .0600659
481.921 .0600348
482.783 .0600086
483.643 .0599788
484.503 .0599537
485.362 .0599314
486.220 .0599112
487.077 .0598926
487.933 .0598706
488.788 .0598491
489.642 .0598236
490.496 .0597976
491.348 .0597735
492.200 .0597487
493.050 .0597336
493.900 .0597259
494.749 .0597314
495.597 .0597565
496.445 .0597962
497.291 .0598482
498.136 .0599133
498.981 .0599796
499.825 .0600455
500.668 .0601102
501.510 .0601749
502.352 .0602431
503.192 .0603189
504.032 .0604104
504.871 .0605173
505.709 .0606424
506.546 .0607851
507.383 .0609318
508.219 .0610809
509.054 .0612163
509.888 .0613338
510.722 .0614302
511.554 .0615158
512.386 .0615919
513.217 .0616747
514.048 .0617768
514.877 .0619077
515.706 .0620675
516.535 .0622619
517.362 .0624851
518.189 .0627322
519.015 .0629985
519.840 .0632851
520.665 .0635691
521.489 .0638673
522.312 .0641636
523.134 .0644729
523.956 .0647955
524.777 .0651477
525.598 .0655185
526.417 .0659194
527.236 .0663332
528.055 .0667524
528.872 .0671607
529.690 .0675541
530.506 .0679005
531.322 .0681950
532.137 .0684201
532.951 .0685840
533.765 .0686852
534.578 .0687421
535.391 .0687452
536.203 .0687136
537.014 .0686543
537.824 .0685607
538.634 .0684365
539.444 .0682819
540.253 .0680995
541.061 .0678824
541.868 .0676173
542.675 .0673043
543.482 .0669579
544.288 .0665919
545.093 .0662045
545.897 .0657988
546.702 .0653953
547.505 .0649833
548.308 .0645762
549.110 .0641641
549.912 .0637556
550.713 .0633456
551.514 .0629436
552.314 .0625451
553.114 .0621581
553.913 .0617893
554.711 .0614296
555.509 .0610905
556.306 .0607798
557.103 .0604839
557.900 .0602070
558.695 .0599534
559.491 .0597256
560.285 .0595102
561.080 .0593074
561.873 .0591121
562.667 .0589252
563.459 .0587443
564.252 .0585624
565.043 .0583786
565.835 .0581976
566.625 .0580187
567.416 .0578305
568.205 .0576420
568.995 .0574483
569.783 .0572467
570.572 .0570454
571.360 .0568440
572.147 .0566445
572.934 .0564459
573.720 .0562444
574.506 .0560426
575.292 .0558394
576.077 .0556350
576.862 .0554267
577.646 .0552181
578.429 .0550124
579.213 .0548076
579.996 .0546052
580.778 .0544073
581.560 .0542122
582.341 .0540246
583.123 .0538410
583.903 .0536643
584.684 .0534976
585.463 .0533413
586.243 .0531988
587.022 .0530713
587.800 .0529560
588.578 .0528550
589.356 .0527660
590.134 .0526872
590.911 .0526165
591.687 .0525506
592.463 .0524876
593.239 .0524271
594.014 .0523692
594.789 .0523133
595.564 .0522609
596.338 .0522128
597.112 .0521674
597.885 .0521246
598.658 .0520837
599.431 .0520430
600.203 .0520021
600.975 .0519592
601.747 .0519139
602.518 .0518661
603.289 .0518174
604.059 .0517683
604.829 .0517209
605.599 .0516755
606.369 .0516309
607.138 .0515872
607.906 .0515444
608.675 .0515013
609.443 .0514579
610.210 .0514140
610.977 .0513699
611.744 .0513259
612.511 .0512822
613.277 .0512387
614.043 .0511968
614.809 .0511568
615.574 .0511180
616.339 .0510794
617.104 .0510414
617.868 .0510033
618.632 .0509649
619.395 .0509263
620.159 .0508881
620.922 .0508496
621.684 .0508114
622.447 .0507740
623.209 .0507372
623.970 .0507016
624.732 .0506674
625.493 .0506343
626.254 .0506025
627.014 .0505726
627.774 .0505442
628.534 .0505174
629.294 .0504937
630.053 .0504727
630.812 .0504536
631.571 .0504371
632.329 .0504237
633.087 .0504121
633.845 .0504021
634.602 .0503932
635.359 .0503847
636.116 .0503760
636.873 .0503669
637.629 .0503559
638.385 .0503435
639.141 .0503301
639.897 .0503146
640.652 .0502958
641.407 .0502750
642.161 .0502507
642.916 .0502227
643.670 .0501913
644.424 .0501577
645.177 .0501214
645.931 .0500835
646.684 .0500440
647.436 .0500036
648.189 .0499618
648.941 .0499199
649.693 .0498764
650.445 .0498326
651.196 .0497874
651.947 .0497410
652.698 .0496933
653.449 .0496455
654.199 .0495966
654.949 .0495476
655.699 .0494975
656.449 .0494472
657.198 .0493946
657.947 .0493410
658.696 .0492860
659.445 .0492311
660.193 .0491759
660.941 .0491224
661.689 .0490715
662.436 .0490243
663.184 .0489806
663.931 .0489411
664.678 .0489048
665.424 .0488707
666.171 .0488379
666.917 .0488053
667.663 .0487724
668.408 .0487397
669.154 .0487069
669.899 .0486751
670.644 .0486435
671.388 .0486129
672.133 .0485828
672.877 .0485534
673.621 .0485239
674.365 .0484933
675.108 .0484623
675.851 .0484309
676.594 .0483994
677.337 .0483679
678.080 .0483378
678.822 .0483099
679.564 .0482841
680.306 .0482608
681.047 .0482403
681.789 .0482220
682.530 .0482053
683.271 .0481902
684.012 .0481756
684.752 .0481614
685.492 .0481467
686.232 .0481309
686.972 .0481142
687.712 .0480957
688.451 .0480753
689.190 .0480526
689.929 .0480285
690.667 .0480021
691.406 .0479736
692.144 .0479435
692.882 .0479109
693.620 .0478766
694.357 .0478404
695.095 .0478017
695.832 .0477612
696.569 .0477187
697.305 .0476738
698.042 .0476270
698.778 .0475786
699.514 .0475281
700.249 .0474761
700.985 .0474233
701.720 .0473693
702.455 .0473144
703.190 .0472590
703.925 .0472026
704.659 .0471457
705.393 .0470888
706.127 .0470311
706.861 .0469734
707.595 .0469165
708.328 .0468605
709.061 .0468053
709.794 .0467513
710.527 .0466987
711.259 .0466474
711.991 .0465975
712.723 .0465486
713.455 .0465005
714.186 .0464535
714.918 .0464076
715.649 .0463628
716.380 .0463195
717.110 .0462782
717.841 .0462387
718.571 .0462008
719.301 .0461646
720.031 .0461300
720.760 .0460969
721.490 .0460653
722.219 .0460348
722.948 .0460053
723.676 .0459766
724.405 .0459491
725.133 .0459223
725.861 .0458964
726.589 .0458717
727.317 .0458484
728.044 .0458257
728.771 .0458043
729.498 .0457835
730.225 .0457635
730.951 .0457439
731.677 .0457243
732.403 .0457042
733.129 .0456837
733.855 .0456634
734.580 .0456434
735.305 .0456239
736.030 .0456054
736.755 .0455877
737.479 .0455714
738.203 .0455555
738.927 .0455397
739.651 .0455229
740.375 .0455049
741.098 .0454856
741.821 .0454642
742.544 .0454415
743.267 .0454175
743.989 .0453928
744.711 .0453678
745.433 .0453420
746.155 .0453157
746.877 .0452885
747.598 .0452601
748.319 .0452295
749.040 .0451966
749.760 .0451611
750.481 .0451236
751.201 .0450846
751.921 .0450441
752.640 .0450025
753.360 .0449601
754.079 .0449169
754.798 .0448721
755.517 .0448261
756.235 .0447786
756.953 .0447292
757.671 .0446785
758.389 .0446270
759.107 .0445756
759.824 .0445247
760.541 .0444748
761.258 .0444265
761.974 .0443795
762.691 .0443337
763.407 .0442883
764.123 .0442435
764.838 .0441994
765.554 .0441549
766.269 .0441107
766.984 .0440667
767.699 .0440235
768.413 .0439812
769.127 .0439400
769.841 .0439000
770.555 .0438610
771.268 .0438221
771.982 .0437836
772.694 .0437453
773.407 .0437072
774.120 .0436691
774.832 .0436312
775.544 .0435939
776.256 .0435574
776.967 .0435220
777.678 .0434885
778.389 .0434571
779.100 .0434280
779.810 .0434008
780.521 .0433753
781.231 .0433517
781.940 .0433293
782.650 .0433082
783.359 .0432881
784.068 .0432689
784.776 .0432512
785.485 .0432347
786.193 .0432198
786.901 .0432064
787.609 .0431944
788.316 .0431836
789.023 .0431736
789.730 .0431641
790.436 .0431546
791.143 .0431450
791.849 .0431358
792.555 .0431264
793.260 .0431171
793.965 .0431076
794.670 .0430978
795.375 .0430875
796.080 .0430766
796.784 .0430644
797.488 .0430511
798.191 .0430370
798.895 .0430219
799.598 .0430061
800.301 .0429900
801.003 .0429736
801.705 .0429568
802.408 .0429392
803.109 .0429209
803.811 .0429014
804.512 .0428806
805.213 .0428585
805.913 .0428350
806.614 .0428104
807.314 .0427851
808.014 .0427597
808.713 .0427342
809.412 .0427087
810.111 .0426828
810.810 .0426558
811.508 .0426275
812.206 .0425980
812.904 .0425664
813.602 .0425333
814.299 .0424990
814.996 .0424637
815.692 .0424277
816.389 .0423922
817.085 .0423568
817.781 .0423224
818.476 .0422882
819.171 .0422541
819.866 .0422199
820.561 .0421858
821.255 .0421511
821.949 .0421158
822.643 .0420805
823.336 .0420443
824.029 .0420069
824.722 .0419699
825.415 .0419323
826.107 .0418948
826.799 .0418574
827.490 .0418201
828.182 .0417826
828.873 .0417453
829.563 .0417074
830.254 .0416687
830.944 .0416297
831.634 .0415902
832.323 .0415491
833.012 .0415079
833.701 .0414663
834.390 .0414249
835.078 .0413843
835.766 .0413453
836.453 .0413075
837.141 .0412718
837.828 .0412379
838.514 .0412055
839.201 .0411744
839.887 .0411442
840.572 .0411145
841.258 .0410854
841.943 .0410570
842.628 .0410289
843.312 .0410013
843.996 .0409756
844.680 .0409507
845.363 .0409273
846.046 .0409045
846.729 .0408826
847.412 .0408610
848.094 .0408391
848.776 .0408171
849.457 .0407949
850.139 .0407723
850.819 .0407495
851.500 .0407266
852.180 .0407045
852.860 .0406831
853.540 .0406632
854.219 .0406444
854.898 .0406275
855.576 .0406115
856.254 .0405960
856.932 .0405813
857.610 .0405674
858.287 .0405539
858.964 .0405408
859.640 .0405285
860.317 .0405170
860.993 .0405068
861.668 .0404981
862.343 .0404906
863.018 .0404848
863.693 .0404801
864.367 .0404762
865.041 .0404725
865.714 .0404697
866.387 .0404667
867.060 .0404640
867.732 .0404624
868.404 .0404612
869.076 .0404610
869.748 .0404617
870.419 .0404635
871.089 .0404660
871.760 .0404688
872.430 .0404713
873.099 .0404727
873.769 .0404737
874.438 .0404734
875.106 .0404716
875.774 .0404690
876.442 .0404652
877.110 .0404602
877.777 .0404538
878.444 .0404462
879.110 .0404370
879.776 .0404267
880.442 .0404149
881.108 .0404019
881.773 .0403879
882.437 .0403730
883.102 .0403570
883.766 .0403401
884.429 .0403227
885.093 .0403041
885.755 .0402845
886.418 .0402646
887.080 .0402438
887.742 .0402228
888.403 .0402016
889.064 .0401804
889.725 .0401586
890.385 .0401363
891.045 .0401131
891.705 .0400887
892.364 .0400627
893.023 .0400350
893.682 .0400054
894.340 .0399749
894.998 .0399430
895.655 .0399105
896.312 .0398782
896.969 .0398462
897.625 .0398139
898.281 .0397814
898.937 .0397479
899.592 .0397135
900.247 .0396776
900.901 .0396401
901.555 .0396014
902.209 .0395620
902.862 .0395215
903.515 .0394808
904.168 .0394403
904.820 .0394001
905.472 .0393597
906.123 .0393192
906.774 .0392786
907.425 .0392372
908.076 .0391947
908.726 .0391515
909.375 .0391079
910.024 .0390643
910.673 .0390206
911.322 .0389777
911.970 .0389356
912.618 .0388946
913.265 .0388543
913.912 .0388150
914.558 .0387767
915.205 .0387389
915.850 .0387017
916.496 .0386654
917.141 .0386300
917.786 .0385951
918.430 .0385607
919.074 .0385271
919.718 .0384940
920.361 .0384609
921.004 .0384276
921.646 .0383947
922.288 .0383618
922.930 .0383294
923.571 .0382967
924.212 .0382640
924.853 .0382314
925.493 .0381984
926.133 .0381655
926.772 .0381326
927.411 .0381001
928.050 .0380680
928.688 .0380359
929.326 .0380043
929.963 .0379731
930.600 .0379426
931.237 .0379129
931.874 .0378843
932.510 .0378571
933.145 .0378315
933.780 .0378070
934.415 .0377841
935.050 .0377630
935.684 .0377434
936.318 .0377247
936.951 .0377070
937.584 .0376900
938.217 .0376737
938.849 .0376570
939.481 .0376404
940.112 .0376235
940.743 .0376070
941.374 .0375905
942.004 .0375746
942.634 .0375598
943.264 .0375458
943.893 .0375325
944.522 .0375205
945.150 .0375089
945.778 .0374983
946.406 .0374882
947.033 .0374793
947.660 .0374709
948.287 .0374632
948.913 .0374557
949.539 .0374490
950.165 .0374430
950.790 .0374378
951.414 .0374332
952.039 .0374300
952.663 .0374280
953.286 .0374269
953.910 .0374268
954.533 .0374279
955.155 .0374294
955.777 .0374316
956.399 .0374339
957.020 .0374362
957.641 .0374389
958.262 .0374416
958.882 .0374442
959.502 .0374471
960.122 .0374502
960.741 .0374530
961.360 .0374556
961.979 .0374581
962.597 .0374599
963.214 .0374619
963.832 .0374636
964.449 .0374641
965.066 .0374639
965.682 .0374634
966.298 .0374625
966.914 .0374616
967.529 .0374613
968.144 .0374613
968.758 .0374623
969.373 .0374637
969.986 .0374651
970.600 .0374668
971.213 .0374696
971.826 .0374729
972.438 .0374765
973.050 .0374801
973.662 .0374832
974.274 .0374852
974.885 .0374862
975.495 .0374846
976.106 .0374804
976.716 .0374734
977.325 .0374633
977.935 .0374507
978.544 .0374364
979.152 .0374206
979.761 .0374037
980.369 .0373857
980.976 .0373667
981.584 .0373461
982.191 .0373244
982.797 .0373018
983.404 .0372780
984.010 .0372531
984.615 .0372273
985.221 .0372011
985.826 .0371750
986.430 .0371491
987.035 .0371236
987.639 .0370994
988.243 .0370766
988.846 .0370544
989.449 .0370326
990.052 .0370114
990.654 .0369899
991.256 .0369680
991.858 .0369453
992.460 .0369216
993.061 .0368968
993.662 .0368717
994.262 .0368454
994.863 .0368183
995.463 .0367904
996.062 .0367613
996.662 .0367311
997.261 .0366995
997.860 .0366663
998.458 .0366314
999.056 .0365955
999.654 .0365587
1000.252 .0365208
1000.849 .0364829
1001.446 .0364448
1002.043 .0364070
1002.639 .0363696
1003.235 .0363326
1003.831 .0362962
1004.427 .0362608
1005.022 .0362271
1005.617 .0361950
1006.212 .0361648
1006.806 .0361361
1007.401 .0361090
1007.995 .0360825
1008.588 .0360562
1009.182 .0360289
1009.775 .0360010
1010.368 .0359727
1010.960 .0359441
1011.553 .0359154
1012.145 .0358872
1012.737 .0358598
1013.328 .0358330
1013.920 .0358067
1014.511 .0357810
1015.102 .0357553
1015.692 .0357300
1016.283 .0357047
1016.873 .0356802
1017.463 .0356566
1018.052 .0356344
1018.642 .0356132
1019.231 .0355935
1019.820 .0355751
1020.409 .0355574
1020.997 .0355405
1021.585 .0355238
1022.173 .0355074
1022.761 .0354906
1023.349 .0354742
1023.936 .0354574
1024.524 .0354405
1025.111 .0354236
1025.697 .0354064
1026.284 .0353887
1026.870 .0353709
1027.457 .0353528
1028.043 .0353353
1028.628 .0353189
1029.214 .0353035
1029.800 .0352891
1030.385 .0352770
1030.970 .0352671
1031.555 .0352590
1032.139 .0352525
1032.724 .0352476
1033.308 .0352425
1033.893 .0352382
1034.477 .0352333
1035.060 .0352277
1035.644 .0352218
1036.228 .0352157
1036.811 .0352092
1037.394 .0352030
1037.977 .0351962
1038.560 .0351891
1039.143 .0351821
1039.726 .0351748
1040.308 .0351654
1040.891 .0351541
1041.473 .0351410
1042.055 .0351264
1042.637 .0351103
1043.219 .0350945
1043.801 .0350787
1044.382 .0350655
1044.964 .0350549
1045.545 .0350469
1046.127 .0350424
1046.708 .0350419
1047.289 .0350447
1047.870 .0350508
1048.451 .0350590
1049.032 .0350688
1049.612 .0350796
1050.193 .0350914
1050.774 .0351039
1051.354 .0351172
1051.935 .0351312
1052.515 .0351456
1053.095 .0351602
1053.675 .0351755
1054.256 .0351911
1054.836 .0352067
1055.416 .0352228
1055.996 .0352391
1056.576 .0352551
1057.156 .0352703
1057.735 .0352852
1058.315 .0353007
1058.895 .0353176
1059.475 .0353356
1060.055 .0353548
1060.634 .0353744
1061.214 .0353940
1061.794 .0354136
1062.373 .0354327
1062.953 .0354516
1063.533 .0354701
1064.113 .0354888
1064.692 .0355078
1065.272 .0355266
1065.852 .0355444
1066.431 .0355606
1067.011 .0355748
1067.591 .0355862
1068.171 .0355940
1068.751 .0355986
1069.331 .0356025
1069.910 .0356074
1070.490 .0356143
1071.071 .0356259
1071.651 .0356427
1072.231 .0356640
1072.811 .0356892
1073.391 .0357170
1073.972 .0357451
1074.552 .0357717
1075.133 .0357965
1075.713 .0358184
1076.294 .0358370
1076.875 .0358529
1077.456 .0358667
1078.037 .0358800
1078.618 .0358950
1079.199 .0359090
1079.780 .0359229
1080.362 .0359375
1080.943 .0359501
1081.525 .0359583
1082.107 .0359619
1082.689 .0359593
1083.271 .0359511
1083.853 .0359372
1084.436 .0359188
1085.018 .0358986
1085.601 .0358782
1086.184 .0358583
1086.767 .0358396
1087.351 .0358240
1087.934 .0358112
1088.518 .0357989
1089.102 .0357888
1089.686 .0357782
1090.270 .0357671
1090.855 .0357559
1091.439 .0357450
1092.024 .0357361
1092.609 .0357292
1093.195 .0357242
1093.780 .0357220
1094.366 .0357239
1094.952 .0357285
1095.539 .0357362
1096.125 .0357470
1096.712 .0357607
1097.299 .0357740
1097.887 .0357845
1098.475 .0357924
1099.063 .0357960
1099.651 .0357978
1100.239 .0357973
1100.828 .0357948
1101.417 .0357943
1102.007 .0357964
1102.597 .0358022
1103.187 .0358109
1103.777 .0358213
1104.368 .0358309
1104.959 .0358380
1105.551 .0358411
1106.143 .0358379
1106.735 .0358307
1107.328 .0358221
1107.921 .0358131
1108.514 .0358038
1109.108 .0357965
1109.702 .0357881
1110.296 .0357776
1110.891 .0357642
1111.486 .0357454
1112.082 .0357224
1112.678 .0356949
1113.275 .0356638
1113.872 .0356312
1114.469 .0356005
1115.067 .0355711
1115.665 .0355444
1116.264 .0355243
1116.864 .0355087
1117.463 .0354965
1118.063 .0354882
1118.664 .0354821
1119.265 .0354799
1119.867 .0354800
1120.469 .0354834
1121.072 .0354885
1121.675 .0354969
1122.279 .0355080
1122.883 .0355253
1123.488 .0355517
1124.093 .0355885
1124.699 .0356333
1125.305 .0356884
1125.912 .0357509
1126.520 .0358178
1127.128 .0358846
1127.737 .0359535
1128.346 .0360237
1128.956 .0360953
1129.567 .0361662
1130.178 .0362420
1130.790 .0363219
1131.402 .0364086
1132.015 .0364994
1132.629 .0365920
1133.243 .0366848
1133.858 .0367748
1134.474 .0368608
1135.090 .0369457
1135.707 .0370303
1136.325 .0371211
1136.943 .0372166
1137.562 .0373203
1138.182 .0374291
1138.802 .0375456
1139.423 .0376666
1140.045 .0377934
1140.668 .0379238
1141.291 .0380670
1141.916 .0382259
1142.540 .0382817
1143.166 .0384954
1143.793 .0386296
1144.420 .0390680
1145.048 .0394015
