Measurement Sequence started on: 15-12-46-377
Integration time: 28
Scans to Average: 2 
>>>>>Begin Spectral Data<<<<<
432.689 .0000100
433.621 .0000100
434.552 .0000100
435.482 .0000100
436.410 .0000100
437.337 .0000100
438.262 .0286914
439.187 .0607284
440.110 .1005559
441.031 .1453959
441.952 .1888898
442.871 .2230621
443.789 .2416762
444.705 .2426352
445.621 .2285938
446.535 .2052967
447.447 .1789905
448.359 .1387897
449.269 .1189639
450.178 .1064534
451.086 .0976647
451.993 .0909219
452.898 .0855587
453.803 .0811808
454.706 .0775472
455.608 .0744512
456.508 .0717885
457.408 .0694897
458.306 .0674559
459.204 .0656518
460.100 .0640317
460.995 .0625756
461.888 .0612606
462.781 .0600715
463.673 .0589796
464.563 .0579917
465.452 .0570914
466.340 .0562462
467.228 .0554548
468.114 .0547169
468.999 .0540229
469.882 .0533707
470.765 .0527653
471.647 .0522198
472.528 .0517341
473.407 .0513147
474.286 .0509528
475.163 .0506442
476.040 .0503840
476.915 .0501641
477.790 .0499696
478.663 .0498016
479.535 .0496542
480.407 .0495283
481.277 .0494241
482.147 .0493416
483.015 .0492737
483.883 .0492153
484.749 .0491618
485.615 .0491147
486.479 .0490627
487.343 .0490175
488.206 .0489792
489.067 .0489465
489.928 .0489275
490.788 .0489303
491.647 .0489518
492.505 .0489973
493.362 .0490703
494.218 .0491664
495.073 .0492789
495.928 .0494127
496.781 .0495544
497.634 .0497135
498.486 .0499014
499.337 .0501156
500.187 .0503545
501.036 .0506392
501.884 .0509614
502.731 .0513178
503.578 .0517162
504.424 .0521490
505.268 .0526018
506.113 .0530891
506.956 .0536060
507.798 .0541504
508.640 .0547326
509.480 .0553592
510.320 .0560463
511.160 .0568168
511.998 .0576806
512.836 .0586335
513.672 .0596936
514.508 .0608756
515.344 .0621607
516.178 .0635681
517.012 .0651353
517.845 .0668928
518.677 .0688766
519.508 .0711255
520.339 .0737115
521.169 .0766936
521.998 .0801143
522.826 .0839912
523.654 .0883695
524.481 .0932415
525.307 .0986850
526.133 .1045805
526.958 .1109309
527.782 .1176867
528.605 .1247126
529.428 .1318877
530.250 .1387554
531.072 .1450859
531.892 .1504772
532.712 .1546123
533.532 .1572675
534.350 .1581268
535.168 .1572023
535.986 .1545184
536.802 .1502672
537.618 .1447838
538.434 .1383458
539.249 .1314581
540.063 .1243906
540.876 .1174475
541.689 .1107885
542.501 .1045635
543.313 .0988787
544.124 .0937219
544.934 .0890134
545.744 .0847086
546.553 .0807738
547.361 .0772361
548.169 .0740880
548.976 .0712618
549.783 .0687698
550.589 .0665756
551.395 .0645950
552.200 .0628062
553.004 .0611544
553.808 .0596039
554.611 .0581560
555.414 .0568068
556.216 .0555618
557.018 .0544471
557.819 .0534527
558.619 .0525745
559.419 .0517860
560.218 .0510807
561.017 .0504110
561.815 .0497532
562.613 .0490944
563.410 .0484097
564.207 .0477156
565.003 .0470316
565.799 .0463502
566.594 .0456895
567.388 .0450679
568.182 .0444773
568.976 .0439113
569.769 .0433678
570.562 .0428345
571.354 .0423099
572.145 .0417937
572.936 .0412864
573.727 .0407846
574.517 .0403009
575.307 .0398366
576.096 .0393918
576.885 .0389770
577.673 .0385847
578.461 .0382149
579.248 .0378703
580.035 .0375463
580.821 .0372395
581.607 .0369482
582.392 .0366728
583.177 .0364116
583.962 .0361647
584.746 .0359318
585.529 .0357111
586.313 .0355064
587.095 .0353156
587.878 .0351385
588.660 .0349759
589.441 .0348312
590.222 .0347014
591.003 .0345889
591.783 .0344907
592.563 .0344057
593.342 .0343322
594.121 .0342659
594.899 .0342046
595.678 .0341475
596.455 .0340931
597.233 .0340414
598.009 .0339917
598.786 .0339461
599.562 .0339031
600.338 .0338632
601.113 .0338244
601.888 .0337875
602.663 .0337502
603.437 .0337122
604.211 .0336723
604.984 .0336306
605.757 .0335876
606.530 .0335426
607.302 .0334976
608.074 .0334541
608.845 .0334133
609.616 .0333762
610.387 .0333435
611.158 .0333159
611.928 .0332914
612.697 .0332698
613.467 .0332494
614.236 .0332301
615.004 .0332110
615.773 .0331918
616.541 .0331722
617.308 .0331542
618.076 .0331378
618.843 .0331228
619.609 .0331104
620.375 .0330994
621.141 .0330888
621.907 .0330773
622.672 .0330631
623.437 .0330456
624.202 .0330236
624.966 .0329991
625.730 .0329706
626.493 .0329405
627.257 .0329087
628.020 .0328761
628.782 .0328431
629.545 .0328096
630.307 .0327742
631.068 .0327371
631.830 .0326981
632.591 .0326560
633.352 .0326111
634.112 .0325649
634.872 .0325175
635.632 .0324705
636.392 .0324243
637.151 .0323804
637.910 .0323375
638.668 .0322970
639.427 .0322570
640.185 .0322183
640.943 .0321800
641.700 .0321417
642.457 .0321030
643.214 .0320647
643.971 .0320261
644.727 .0319871
645.483 .0319487
646.239 .0319115
646.994 .0318745
647.750 .0318384
648.505 .0318018
649.259 .0317652
650.014 .0317279
650.768 .0316901
651.521 .0316515
652.275 .0316130
653.028 .0315749
653.781 .0315372
654.534 .0315006
655.286 .0314662
656.039 .0314338
656.791 .0314036
657.542 .0313749
658.294 .0313484
659.045 .0313231
659.796 .0312988
660.546 .0312753
661.297 .0312527
662.047 .0312308
662.796 .0312092
663.546 .0311876
664.295 .0311669
665.044 .0311475
665.793 .0311296
666.542 .0311129
667.290 .0310980
668.038 .0310841
668.786 .0310704
669.533 .0310565
670.281 .0310428
671.028 .0310281
671.774 .0310134
672.521 .0309989
673.267 .0309853
674.013 .0309734
674.759 .0309638
675.505 .0309564
676.250 .0309515
676.995 .0309476
677.740 .0309436
678.484 .0309384
679.229 .0309325
679.973 .0309239
680.717 .0309138
681.460 .0309024
682.204 .0308904
682.947 .0308780
683.690 .0308665
684.433 .0308550
685.175 .0308436
685.917 .0308318
686.659 .0308189
687.401 .0308041
688.142 .0307878
688.884 .0307695
689.625 .0307501
690.365 .0307298
691.106 .0307093
691.846 .0306886
692.586 .0306693
693.326 .0306507
694.066 .0306335
694.805 .0306172
695.545 .0306015
696.284 .0305855
697.022 .0305692
697.761 .0305519
698.499 .0305332
699.237 .0305128
699.975 .0304911
700.713 .0304687
701.450 .0304461
702.187 .0304230
702.924 .0304005
703.661 .0303781
704.397 .0303562
705.133 .0303340
705.869 .0303113
706.605 .0302880
707.341 .0302642
708.076 .0302396
708.811 .0302150
709.546 .0301901
710.281 .0301654
711.015 .0301414
711.749 .0301181
712.483 .0300946
713.217 .0300709
713.950 .0300470
714.684 .0300222
715.417 .0299961
716.150 .0299692
716.882 .0299411
717.615 .0299123
718.347 .0298831
719.079 .0298533
719.811 .0298232
720.542 .0297935
721.273 .0297631
722.005 .0297323
722.735 .0297009
723.466 .0296686
724.196 .0296356
724.927 .0296021
725.656 .0295679
726.386 .0295336
727.116 .0294999
727.845 .0294672
728.574 .0294359
729.303 .0294066
730.031 .0293792
730.760 .0293539
731.488 .0293303
732.216 .0293080
732.944 .0292873
733.671 .0292681
734.398 .0292500
735.125 .0292338
735.852 .0292191
736.579 .0292061
737.305 .0291953
738.031 .0291861
738.757 .0291782
739.483 .0291707
740.208 .0291631
740.933 .0291548
741.658 .0291453
742.383 .0291343
743.108 .0291217
743.832 .0291087
744.556 .0290956
745.280 .0290821
746.004 .0290695
746.727 .0290582
747.450 .0290478
748.173 .0290385
748.896 .0290299
749.618 .0290219
750.340 .0290149
751.062 .0290084
751.784 .0290026
752.506 .0289980
753.227 .0289945
753.948 .0289919
754.669 .0289898
755.389 .0289885
756.110 .0289869
756.830 .0289846
757.550 .0289815
758.269 .0289770
758.989 .0289713
759.708 .0289642
760.427 .0289559
761.146 .0289469
761.864 .0289375
762.582 .0289276
763.300 .0289178
764.018 .0289080
764.736 .0288982
765.453 .0288884
766.170 .0288790
766.887 .0288700
767.603 .0288613
768.320 .0288530
769.036 .0288453
769.751 .0288384
770.467 .0288325
771.182 .0288269
771.897 .0288216
772.612 .0288169
773.327 .0288127
774.041 .0288088
774.755 .0288052
775.469 .0288028
776.183 .0288014
776.896 .0288008
777.609 .0288009
778.322 .0288015
779.035 .0288022
779.747 .0288027
780.459 .0288026
781.171 .0288015
781.882 .0288000
782.594 .0287984
783.305 .0287972
784.016 .0287974
784.726 .0287991
785.436 .0288018
786.147 .0288051
786.856 .0288085
787.566 .0288109
788.275 .0288118
788.984 .0288110
789.693 .0288082
790.401 .0288035
791.110 .0287973
791.818 .0287899
792.525 .0287818
793.233 .0287736
793.940 .0287647
794.647 .0287547
795.353 .0287435
796.060 .0287304
796.766 .0287156
797.472 .0286989
798.177 .0286806
798.883 .0286609
799.588 .0286402
800.292 .0286190
800.997 .0285977
801.701 .0285765
802.405 .0285560
803.109 .0285361
803.812 .0285169
804.515 .0284978
805.218 .0284784
805.921 .0284580
806.623 .0284364
807.325 .0284134
808.027 .0283884
808.728 .0283612
809.429 .0283326
810.130 .0283024
810.831 .0282717
811.531 .0282404
812.231 .0282090
812.931 .0281773
813.630 .0281455
814.330 .0281128
815.029 .0280796
815.727 .0280456
816.426 .0280116
817.124 .0279775
817.821 .0279441
818.519 .0279120
819.216 .0278814
819.913 .0278526
820.609 .0278262
821.306 .0278019
822.002 .0277798
822.697 .0277595
823.393 .0277415
824.088 .0277252
824.783 .0277107
825.477 .0276974
826.171 .0276852
826.865 .0276743
827.559 .0276643
828.252 .0276549
828.945 .0276461
829.638 .0276375
830.330 .0276291
831.023 .0276210
831.714 .0276132
832.406 .0276052
833.097 .0275965
833.788 .0275869
834.479 .0275762
835.169 .0275643
835.859 .0275514
836.548 .0275378
837.238 .0275243
837.927 .0275109
838.615 .0274977
839.304 .0274850
839.992 .0274728
840.680 .0274608
841.367 .0274490
842.054 .0274370
842.741 .0274248
843.428 .0274129
844.114 .0274017
844.800 .0273916
845.485 .0273823
846.170 .0273739
846.855 .0273657
847.540 .0273575
848.224 .0273488
848.908 .0273390
849.592 .0273289
850.275 .0273182
850.958 .0273071
851.641 .0272961
852.323 .0272855
853.005 .0272753
853.687 .0272656
854.368 .0272563
855.049 .0272469
855.730 .0272372
856.410 .0272272
857.090 .0272169
857.769 .0272065
858.449 .0271958
859.128 .0271853
859.806 .0271752
860.485 .0271656
861.163 .0271564
861.840 .0271478
862.518 .0271398
863.195 .0271323
863.871 .0271254
864.548 .0271193
865.224 .0271141
865.899 .0271097
866.574 .0271060
867.249 .0271028
867.924 .0271002
868.598 .0270982
869.272 .0270967
869.946 .0270963
870.619 .0270971
871.292 .0270989
871.964 .0271021
872.636 .0271064
873.308 .0271114
873.979 .0271168
874.651 .0271223
875.321 .0271276
875.992 .0271322
876.662 .0271364
877.331 .0271401
878.001 .0271437
878.670 .0271474
879.338 .0271513
880.007 .0271557
880.675 .0271604
881.342 .0271653
882.009 .0271704
882.676 .0271759
883.343 .0271816
884.009 .0271879
884.675 .0271947
885.340 .0272021
886.005 .0272099
886.670 .0272181
887.334 .0272272
887.998 .0272370
888.662 .0272475
889.325 .0272585
889.988 .0272703
890.650 .0272830
891.312 .0272960
891.974 .0273101
892.636 .0273251
893.297 .0273405
893.957 .0273557
894.618 .0273700
895.278 .0273832
895.937 .0273955
896.596 .0274068
897.255 .0274168
897.914 .0274260
898.572 .0274346
899.230 .0274422
899.887 .0274488
900.544 .0274546
901.201 .0274587
901.857 .0274605
902.513 .0274598
903.168 .0274558
903.823 .0274486
904.478 .0274383
905.132 .0274253
905.786 .0274102
906.440 .0273937
907.093 .0273754
907.746 .0273558
908.399 .0273353
909.051 .0273135
909.703 .0272902
910.354 .0272653
911.005 .0272394
911.656 .0272125
912.306 .0271851
912.956 .0271577
913.605 .0271312
914.254 .0271059
914.903 .0270815
915.551 .0270581
916.199 .0270354
916.847 .0270131
917.494 .0269911
918.141 .0269690
918.788 .0269471
919.434 .0269257
920.079 .0269051
920.725 .0268852
921.370 .0268667
922.014 .0268487
922.658 .0268306
923.302 .0268125
923.946 .0267936
924.589 .0267730
925.231 .0267505
925.873 .0267258
926.515 .0266994
927.157 .0266710
927.798 .0266412
928.439 .0266099
929.079 .0265781
929.719 .0265453
930.359 .0265114
930.998 .0264767
931.637 .0264410
932.275 .0264042
932.913 .0263664
933.551 .0263278
934.188 .0262887
934.825 .0262496
935.462 .0262118
936.098 .0261755
936.733 .0261416
937.369 .0261103
938.004 .0260818
938.638 .0260557
939.273 .0260317
939.907 .0260088
940.540 .0259867
941.173 .0259654
941.806 .0259447
942.438 .0259246
943.070 .0259053
943.702 .0258871
944.333 .0258697
944.964 .0258525
945.594 .0258355
946.224 .0258181
946.854 .0258005
947.483 .0257824
948.112 .0257645
948.741 .0257466
949.369 .0257294
949.996 .0257127
950.624 .0256969
951.251 .0256818
951.878 .0256676
952.504 .0256535
953.130 .0256394
953.755 .0256248
954.380 .0256096
955.005 .0255935
955.629 .0255764
956.253 .0255577
956.877 .0255380
957.500 .0255164
958.123 .0254937
958.746 .0254694
959.368 .0254441
959.990 .0254177
960.611 .0253908
961.232 .0253634
961.853 .0253356
962.473 .0253075
963.093 .0252795
963.712 .0252516
964.331 .0252243
964.950 .0251976
965.569 .0251726
966.187 .0251496
966.804 .0251295
967.422 .0251120
968.039 .0250974
968.655 .0250851
969.272 .0250740
969.887 .0250634
970.503 .0250526
971.118 .0250411
971.733 .0250291
972.347 .0250164
972.961 .0250036
973.575 .0249908
974.188 .0249782
974.801 .0249659
975.414 .0249539
976.026 .0249419
976.638 .0249298
977.250 .0249173
977.861 .0249046
978.472 .0248917
979.083 .0248787
979.693 .0248660
980.303 .0248532
980.912 .0248410
981.521 .0248293
982.130 .0248180
982.738 .0248076
983.346 .0247977
983.954 .0247878
984.562 .0247786
985.169 .0247697
985.775 .0247612
986.382 .0247528
986.988 .0247454
987.594 .0247390
988.199 .0247332
988.804 .0247286
989.409 .0247249
990.013 .0247223
990.617 .0247209
991.221 .0247197
991.824 .0247195
992.427 .0247205
993.030 .0247225
993.632 .0247258
994.234 .0247306
994.836 .0247367
995.438 .0247435
996.039 .0247503
996.640 .0247564
997.240 .0247619
997.840 .0247663
998.440 .0247703
999.040 .0247741
999.639 .0247782
1000.238 .0247827
1000.836 .0247882
1001.435 .0247953
1002.033 .0248030
1002.630 .0248108
1003.228 .0248190
1003.825 .0248276
1004.422 .0248372
1005.018 .0248477
1005.614 .0248598
1006.210 .0248743
1006.806 .0248907
1007.401 .0249084
1007.996 .0249270
1008.591 .0249463
1009.186 .0249658
1009.780 .0249851
1010.374 .0250043
1010.967 .0250232
1011.561 .0250424
1012.154 .0250623
1012.746 .0250823
1013.339 .0251020
1013.931 .0251215
1014.523 .0251397
1015.115 .0251564
1015.706 .0251724
1016.298 .0251867
1016.888 .0252012
1017.479 .0252161
1018.069 .0252323
1018.660 .0252496
1019.250 .0252685
1019.839 .0252886
1020.429 .0253092
1021.018 .0253300
1021.607 .0253505
1022.195 .0253693
1022.784 .0253880
1023.372 .0254063
1023.960 .0254251
1024.547 .0254445
1025.135 .0254656
1025.722 .0254883
1026.309 .0255132
1026.896 .0255396
1027.483 .0255672
1028.069 .0255955
1028.655 .0256241
1029.241 .0256515
1029.827 .0256778
1030.412 .0257034
1030.997 .0257285
1031.582 .0257529
1032.167 .0257771
1032.752 .0258020
1033.336 .0258269
1033.921 .0258521
1034.505 .0258770
1035.089 .0259014
1035.672 .0259244
1036.256 .0259456
1036.839 .0259650
1037.422 .0259828
1038.005 .0259990
1038.588 .0260143
1039.171 .0260294
1039.753 .0260449
1040.335 .0260612
1040.918 .0260785
1041.500 .0260970
1042.081 .0261174
1042.663 .0261380
1043.244 .0261590
1043.826 .0261793
1044.407 .0261993
1044.988 .0262170
1045.569 .0262322
1046.150 .0262449
1046.730 .0262544
1047.311 .0262614
1047.891 .0262668
1048.471 .0262698
1049.052 .0262721
1049.632 .0262741
1050.211 .0262763
1050.791 .0262774
1051.371 .0262786
1051.950 .0262788
1052.530 .0262782
1053.109 .0262766
1053.688 .0262742
1054.268 .0262708
1054.847 .0262692
1055.426 .0262687
1056.005 .0262699
1056.583 .0262732
1057.162 .0262778
1057.741 .0262826
1058.319 .0262879
1058.898 .0262926
1059.476 .0262959
1060.055 .0262975
1060.633 .0262986
1061.211 .0262979
1061.790 .0262968
1062.368 .0262953
1062.946 .0262942
1063.524 .0262936
1064.102 .0262923
1064.680 .0262899
1065.258 .0262867
1065.836 .0262827
1066.414 .0262774
1066.992 .0262722
1067.570 .0262674
1068.148 .0262621
1068.726 .0262572
1069.304 .0262531
1069.882 .0262502
1070.460 .0262480
1071.038 .0262455
1071.616 .0262433
1072.194 .0262415
1072.772 .0262402
1073.350 .0262388
1073.928 .0262385
1074.506 .0262392
1075.084 .0262404
1075.662 .0262412
1076.240 .0262436
1076.819 .0262460
1077.397 .0262492
1077.976 .0262531
1078.554 .0262571
1079.133 .0262607
1079.711 .0262616
1080.290 .0262612
1080.869 .0262602
1081.448 .0262572
1082.027 .0262543
1082.606 .0262501
1083.185 .0262468
1083.764 .0262443
1084.343 .0262431
1084.923 .0262418
1085.502 .0262398
1086.082 .0262371
1086.662 .0262315
1087.242 .0262226
1087.822 .0262140
1088.402 .0262048
1088.983 .0261958
1089.563 .0261896
1090.144 .0261826
1090.725 .0261758
1091.306 .0261687
1091.887 .0261609
1092.469 .0261512
1093.050 .0261415
1093.632 .0261321
1094.214 .0261227
1094.796 .0261176
1095.379 .0261181
1095.961 .0261208
1096.544 .0261280
1097.127 .0261373
1097.710 .0261464
1098.294 .0261534
1098.877 .0261587
1099.461 .0261608
1100.046 .0261647
1100.630 .0261684
1101.215 .0261733
1101.800 .0261791
1102.385 .0261882
1102.970 .0261964
1103.556 .0262034
1104.142 .0262090
1104.728 .0262133
1105.315 .0262163
1105.902 .0262202
1106.489 .0262242
1107.077 .0262313
1107.664 .0262396
1108.253 .0262502
1108.841 .0262615
1109.430 .0262733
1110.019 .0262826
1110.609 .0262920
1111.198 .0262996
1111.789 .0263080
1112.379 .0263179
1112.970 .0263313
1113.561 .0263500
1114.153 .0263724
1114.745 .0263960
1115.338 .0264205
1115.931 .0264441
1116.524 .0264657
1117.117 .0264822
1117.712 .0264952
1118.306 .0265055
1118.901 .0265131
1119.496 .0265210
1120.092 .0265319
1120.689 .0265463
1121.285 .0265686
1121.882 .0265939
1122.480 .0266239
1123.078 .0266579
1123.677 .0266939
1124.276 .0267305
1124.875 .0267707
1125.476 .0268144
1126.076 .0268641
1126.677 .0269208
1127.279 .0269864
1127.881 .0270575
1128.484 .0271365
1129.087 .0272211
1129.691 .0273062
1130.295 .0273911
1130.900 .0274768
1131.505 .0275575
1132.111 .0276404
1132.718 .0277223
1133.325 .0278057
1133.933 .0278909
1134.541 .0279826
1135.150 .0280767
1135.760 .0281739
1136.370 .0282772
1136.981 .0283862
1137.592 .0284991
1138.204 .0286222
1138.817 .0287542
1139.431 .0288945
1140.045 .0290470
1140.660 .0292042
1141.275 .0293671
1141.891 .0295478
1142.508 .0297039
1143.126 .0299565
1143.744 .0299455
1144.363 .0302266
1144.983 .0307227
