Measurement Sequence started on: 15-12-46-377
Integration time: 28
Scans to Average: 2 
>>>>>Begin Spectral Data<<<<<
432.689 .0000100
433.621 .0000100
434.552 .0000100
435.482 .0000100
436.410 .0000100
437.337 .0000100
438.262 .0288915
439.187 .0611104
440.110 .1011815
441.031 .1463636
441.952 .1902059
442.871 .2246849
443.789 .2435371
444.705 .2446632
445.621 .2306903
446.535 .2073739
447.447 .1809840
448.359 .1405394
449.269 .1205779
450.178 .1079109
451.086 .0989189
451.993 .0920185
452.898 .0865319
453.803 .0820385
454.706 .0782888
455.608 .0751117
456.508 .0723881
457.408 .0700272
458.306 .0679361
459.204 .0660625
460.100 .0643642
460.995 .0628293
461.888 .0614200
462.781 .0601345
463.673 .0589576
464.563 .0578844
465.452 .0568984
466.340 .0559933
467.228 .0551717
468.114 .0544203
468.999 .0537301
469.882 .0530809
470.765 .0524660
471.647 .0518926
472.528 .0513561
473.407 .0508636
474.286 .0504265
475.163 .0500439
476.040 .0497078
476.915 .0494240
477.790 .0491808
478.663 .0489724
479.535 .0487923
480.407 .0486351
481.277 .0484857
482.147 .0483447
483.015 .0482165
483.883 .0480975
484.749 .0479954
485.615 .0479116
486.479 .0478421
487.343 .0477992
488.206 .0477782
489.067 .0477734
489.928 .0477788
490.788 .0478013
491.647 .0478343
492.505 .0478761
493.362 .0479346
494.218 .0480090
495.073 .0481106
495.928 .0482494
496.781 .0484112
497.634 .0486093
498.486 .0488515
499.337 .0491330
500.187 .0494557
501.036 .0498217
501.884 .0502266
502.731 .0506669
503.578 .0511418
504.424 .0516481
505.268 .0521724
506.113 .0527229
506.956 .0532900
507.798 .0538779
508.640 .0545086
509.480 .0551880
510.320 .0559373
511.160 .0567952
511.998 .0577547
512.836 .0588256
513.672 .0600316
514.508 .0613695
515.344 .0628361
516.178 .0644488
517.012 .0662230
517.845 .0682001
518.677 .0704369
519.508 .0729729
520.339 .0758514
521.169 .0791937
521.998 .0830074
522.826 .0873411
523.654 .0922068
524.481 .0976012
525.307 .1035277
526.133 .1099716
526.958 .1168641
527.782 .1241118
528.605 .1315368
529.428 .1389830
530.250 .1459016
531.072 .1521153
531.892 .1572234
532.712 .1609314
533.532 .1630685
534.350 .1635111
535.168 .1621571
535.986 .1591646
536.802 .1546917
537.618 .1490571
538.434 .1424669
539.249 .1353878
540.063 .1279677
540.876 .1205799
541.689 .1134724
542.501 .1068196
543.313 .1007288
544.124 .0953247
544.934 .0904959
545.744 .0862070
546.553 .0823678
547.361 .0789660
548.169 .0759396
548.976 .0732221
549.783 .0707456
550.589 .0684798
551.395 .0663498
552.200 .0643722
553.004 .0625211
553.808 .0608050
554.611 .0592233
555.414 .0577778
556.216 .0564635
557.018 .0552977
557.819 .0542531
558.619 .0533084
559.419 .0524400
560.218 .0516347
561.017 .0508594
561.815 .0501043
562.613 .0493676
563.410 .0486497
564.207 .0479509
565.003 .0472834
565.799 .0466342
566.594 .0460035
567.388 .0453886
568.182 .0447817
568.976 .0441729
569.769 .0435700
570.562 .0429668
571.354 .0423615
572.145 .0417661
572.936 .0411846
573.727 .0406173
574.517 .0400700
575.307 .0395425
576.096 .0390379
576.885 .0385599
577.673 .0381123
578.461 .0376941
579.248 .0373135
580.035 .0369691
580.821 .0366562
581.607 .0363715
582.392 .0361113
583.177 .0358705
583.962 .0356510
584.746 .0354515
585.529 .0352687
586.313 .0351036
587.095 .0349565
587.878 .0348268
588.660 .0347144
589.441 .0346153
590.222 .0345271
591.003 .0344480
591.783 .0343776
592.563 .0343130
593.342 .0342515
594.121 .0341931
594.899 .0341380
595.678 .0340861
596.455 .0340375
597.233 .0339918
598.009 .0339473
598.786 .0339047
599.562 .0338630
600.338 .0338208
601.113 .0337788
601.888 .0337373
602.663 .0336960
603.437 .0336553
604.211 .0336148
604.984 .0335740
605.757 .0335328
606.530 .0334914
607.302 .0334500
608.074 .0334090
608.845 .0333685
609.616 .0333285
610.387 .0332903
611.158 .0332551
611.928 .0332214
612.697 .0331890
613.467 .0331573
614.236 .0331260
615.004 .0330941
615.773 .0330608
616.541 .0330268
617.308 .0329933
618.076 .0329612
618.843 .0329302
619.609 .0329014
620.375 .0328746
621.141 .0328493
621.907 .0328257
622.672 .0328022
623.437 .0327777
624.202 .0327516
624.966 .0327238
625.730 .0326937
626.493 .0326616
627.257 .0326280
628.020 .0325928
628.782 .0325568
629.545 .0325198
630.307 .0324810
631.068 .0324407
631.830 .0323997
632.591 .0323574
633.352 .0323142
634.112 .0322703
634.872 .0322246
635.632 .0321783
636.392 .0321316
637.151 .0320854
637.910 .0320399
638.668 .0319958
639.427 .0319535
640.185 .0319127
640.943 .0318737
641.700 .0318369
642.457 .0318023
643.214 .0317701
643.971 .0317398
644.727 .0317111
645.483 .0316842
646.239 .0316596
646.994 .0316367
647.750 .0316162
648.505 .0315975
649.259 .0315809
650.014 .0315646
650.768 .0315493
651.521 .0315351
652.275 .0315217
653.028 .0315088
653.781 .0314952
654.534 .0314809
655.286 .0314656
656.039 .0314485
656.791 .0314301
657.542 .0314099
658.294 .0313884
659.045 .0313652
659.796 .0313409
660.546 .0313163
661.297 .0312920
662.047 .0312680
662.796 .0312440
663.546 .0312200
664.295 .0311959
665.044 .0311717
665.793 .0311478
666.542 .0311250
667.290 .0311027
668.038 .0310811
668.786 .0310599
669.533 .0310387
670.281 .0310180
671.028 .0309976
671.774 .0309770
672.521 .0309571
673.267 .0309373
674.013 .0309182
674.759 .0309000
675.505 .0308830
676.250 .0308666
676.995 .0308504
677.740 .0308340
678.484 .0308168
679.229 .0307984
679.973 .0307796
680.717 .0307601
681.460 .0307407
682.204 .0307216
682.947 .0307031
683.690 .0306854
684.433 .0306686
685.175 .0306519
685.917 .0306345
686.659 .0306160
687.401 .0305960
688.142 .0305747
688.884 .0305521
689.625 .0305284
690.365 .0305040
691.106 .0304790
691.846 .0304539
692.586 .0304287
693.326 .0304034
694.066 .0303783
694.805 .0303528
695.545 .0303266
696.284 .0302992
697.022 .0302708
697.761 .0302410
698.499 .0302102
699.237 .0301779
699.975 .0301446
700.713 .0301104
701.450 .0300764
702.187 .0300434
702.924 .0300115
703.661 .0299820
704.397 .0299542
705.133 .0299280
705.869 .0299030
706.605 .0298782
707.341 .0298535
708.076 .0298285
708.811 .0298032
709.546 .0297772
710.281 .0297522
711.015 .0297281
711.749 .0297055
712.483 .0296845
713.217 .0296648
713.950 .0296455
714.684 .0296257
715.417 .0296050
716.150 .0295827
716.882 .0295593
717.615 .0295348
718.347 .0295093
719.079 .0294845
719.811 .0294599
720.542 .0294364
721.273 .0294140
722.005 .0293928
722.735 .0293715
723.466 .0293507
724.196 .0293296
724.927 .0293079
725.656 .0292856
726.386 .0292634
727.116 .0292414
727.845 .0292204
728.574 .0292004
729.303 .0291817
730.031 .0291644
730.760 .0291490
731.488 .0291347
732.216 .0291216
732.944 .0291096
733.671 .0290987
734.398 .0290887
735.125 .0290798
735.852 .0290721
736.579 .0290656
737.305 .0290601
738.031 .0290564
738.757 .0290534
739.483 .0290508
740.208 .0290488
740.933 .0290468
741.658 .0290444
742.383 .0290413
743.108 .0290374
743.832 .0290328
744.556 .0290281
745.280 .0290228
746.004 .0290171
746.727 .0290113
747.450 .0290051
748.173 .0289983
748.896 .0289916
749.618 .0289850
750.340 .0289786
751.062 .0289731
751.784 .0289689
752.506 .0289653
753.227 .0289626
753.948 .0289599
754.669 .0289576
755.389 .0289546
756.110 .0289505
756.830 .0289452
757.550 .0289391
758.269 .0289322
758.989 .0289242
759.708 .0289151
760.427 .0289051
761.146 .0288937
761.864 .0288809
762.582 .0288663
763.300 .0288506
764.018 .0288339
764.736 .0288165
765.453 .0287989
766.170 .0287819
766.887 .0287651
767.603 .0287492
768.320 .0287339
769.036 .0287187
769.751 .0287038
770.467 .0286892
771.182 .0286751
771.897 .0286622
772.612 .0286505
773.327 .0286400
774.041 .0286307
774.755 .0286220
775.469 .0286134
776.183 .0286047
776.896 .0285951
777.609 .0285844
778.322 .0285728
779.035 .0285606
779.747 .0285484
780.459 .0285363
781.171 .0285250
781.882 .0285140
782.594 .0285035
783.305 .0284931
784.016 .0284824
784.726 .0284718
785.436 .0284612
786.147 .0284507
786.856 .0284402
787.566 .0284298
788.275 .0284192
788.984 .0284086
789.693 .0283976
790.401 .0283858
791.110 .0283723
791.818 .0283576
792.525 .0283416
793.233 .0283246
793.940 .0283070
794.647 .0282890
795.353 .0282707
796.060 .0282523
796.766 .0282330
797.472 .0282126
798.177 .0281911
798.883 .0281691
799.588 .0281461
800.292 .0281226
800.997 .0280990
801.701 .0280757
802.405 .0280531
803.109 .0280313
803.812 .0280098
804.515 .0279889
805.218 .0279677
805.921 .0279458
806.623 .0279230
807.325 .0278997
808.027 .0278755
808.728 .0278510
809.429 .0278262
810.130 .0278008
810.831 .0277747
811.531 .0277484
812.231 .0277213
812.931 .0276940
813.630 .0276666
814.330 .0276389
815.029 .0276120
815.727 .0275862
816.426 .0275613
817.124 .0275378
817.821 .0275158
818.519 .0274946
819.216 .0274738
819.913 .0274535
820.609 .0274334
821.306 .0274143
822.002 .0273965
822.697 .0273802
823.393 .0273660
824.088 .0273542
824.783 .0273441
825.477 .0273353
826.171 .0273280
826.865 .0273215
827.559 .0273158
828.252 .0273110
828.945 .0273064
829.638 .0273025
830.330 .0272998
831.023 .0272982
831.714 .0272978
832.406 .0272988
833.097 .0273005
833.788 .0273025
834.479 .0273047
835.169 .0273067
835.859 .0273084
836.548 .0273101
837.238 .0273117
837.927 .0273127
838.615 .0273135
839.304 .0273142
839.992 .0273147
840.680 .0273154
841.367 .0273160
842.054 .0273165
842.741 .0273171
843.428 .0273180
844.114 .0273191
844.800 .0273204
845.485 .0273219
846.170 .0273232
846.855 .0273245
847.540 .0273255
848.224 .0273261
848.908 .0273264
849.592 .0273265
850.275 .0273261
850.958 .0273250
851.641 .0273233
852.323 .0273206
853.005 .0273172
853.687 .0273130
854.368 .0273081
855.049 .0273025
855.730 .0272964
856.410 .0272898
857.090 .0272833
857.769 .0272766
858.449 .0272697
859.128 .0272627
859.806 .0272558
860.485 .0272490
861.163 .0272424
861.840 .0272361
862.518 .0272302
863.195 .0272245
863.871 .0272189
864.548 .0272131
865.224 .0272069
865.899 .0271998
866.574 .0271920
867.249 .0271832
867.924 .0271738
868.598 .0271640
869.272 .0271543
869.946 .0271452
870.619 .0271365
871.292 .0271284
871.964 .0271206
872.636 .0271133
873.308 .0271061
873.979 .0270990
874.651 .0270918
875.321 .0270850
875.992 .0270788
876.662 .0270732
877.331 .0270686
878.001 .0270653
878.670 .0270630
879.338 .0270617
880.007 .0270615
880.675 .0270619
881.342 .0270630
882.009 .0270645
882.676 .0270663
883.343 .0270680
884.009 .0270697
884.675 .0270710
885.340 .0270719
886.005 .0270726
886.670 .0270729
887.334 .0270731
887.998 .0270736
888.662 .0270742
889.325 .0270747
889.988 .0270756
890.650 .0270762
891.312 .0270764
891.974 .0270765
892.636 .0270759
893.297 .0270749
893.957 .0270740
894.618 .0270731
895.278 .0270724
895.937 .0270723
896.596 .0270727
897.255 .0270726
897.914 .0270724
898.572 .0270712
899.230 .0270684
899.887 .0270640
900.544 .0270580
901.201 .0270499
901.857 .0270399
902.513 .0270277
903.168 .0270130
903.823 .0269960
904.478 .0269767
905.132 .0269542
905.786 .0269293
906.440 .0269020
907.093 .0268725
907.746 .0268412
908.399 .0268088
909.051 .0267752
909.703 .0267410
910.354 .0267060
911.005 .0266707
911.656 .0266347
912.306 .0265986
912.956 .0265624
913.605 .0265269
914.254 .0264923
914.903 .0264586
915.551 .0264263
916.199 .0263959
916.847 .0263670
917.494 .0263394
918.141 .0263128
918.788 .0262872
919.434 .0262621
920.079 .0262374
920.725 .0262127
921.370 .0261882
922.014 .0261639
922.658 .0261395
923.302 .0261150
923.946 .0260906
924.589 .0260653
925.231 .0260392
925.873 .0260119
926.515 .0259827
927.157 .0259517
927.798 .0259189
928.439 .0258844
929.079 .0258485
929.719 .0258118
930.359 .0257747
930.998 .0257378
931.637 .0257022
932.275 .0256676
932.913 .0256339
933.551 .0256016
934.188 .0255701
934.825 .0255394
935.462 .0255097
936.098 .0254810
936.733 .0254537
937.369 .0254285
938.004 .0254054
938.638 .0253839
939.273 .0253647
939.907 .0253476
940.540 .0253314
941.173 .0253163
941.806 .0253021
942.438 .0252879
943.070 .0252738
943.702 .0252598
944.333 .0252459
944.964 .0252320
945.594 .0252185
946.224 .0252046
946.854 .0251911
947.483 .0251779
948.112 .0251649
948.741 .0251522
949.369 .0251405
949.996 .0251284
950.624 .0251163
951.251 .0251043
951.878 .0250927
952.504 .0250813
953.130 .0250705
953.755 .0250604
954.380 .0250518
955.005 .0250442
955.629 .0250375
956.253 .0250315
956.877 .0250265
957.500 .0250212
958.123 .0250156
958.746 .0250095
959.368 .0250027
959.990 .0249953
960.611 .0249880
961.232 .0249810
961.853 .0249748
962.473 .0249690
963.093 .0249636
963.712 .0249581
964.331 .0249522
964.950 .0249454
965.569 .0249378
966.187 .0249299
966.804 .0249226
967.422 .0249162
968.039 .0249110
968.655 .0249077
969.272 .0249058
969.887 .0249046
970.503 .0249041
971.118 .0249035
971.733 .0249026
972.347 .0249015
972.961 .0249002
973.575 .0248986
974.188 .0248973
974.801 .0248962
975.414 .0248952
976.026 .0248944
976.638 .0248937
977.250 .0248921
977.861 .0248902
978.472 .0248881
979.083 .0248856
979.693 .0248826
980.303 .0248790
980.912 .0248748
981.521 .0248705
982.130 .0248660
982.738 .0248617
983.346 .0248580
983.954 .0248552
984.562 .0248536
985.169 .0248528
985.775 .0248531
986.382 .0248544
986.988 .0248564
987.594 .0248592
988.199 .0248623
988.804 .0248659
989.409 .0248697
990.013 .0248748
990.617 .0248810
991.221 .0248885
991.824 .0248978
992.427 .0249088
993.030 .0249213
993.632 .0249349
994.234 .0249493
994.836 .0249647
995.438 .0249807
996.039 .0249971
996.640 .0250131
997.240 .0250295
997.840 .0250461
998.440 .0250630
999.040 .0250802
999.639 .0250981
1000.238 .0251162
1000.836 .0251349
1001.435 .0251533
1002.033 .0251706
1002.630 .0251866
1003.228 .0252014
1003.825 .0252142
1004.422 .0252256
1005.018 .0252358
1005.614 .0252456
1006.210 .0252553
1006.806 .0252657
1007.401 .0252761
1007.996 .0252873
1008.591 .0252983
1009.186 .0253093
1009.780 .0253196
1010.374 .0253291
1010.967 .0253375
1011.561 .0253463
1012.154 .0253556
1012.746 .0253655
1013.339 .0253766
1013.931 .0253896
1014.523 .0254043
1015.115 .0254203
1015.706 .0254366
1016.298 .0254531
1016.888 .0254691
1017.479 .0254845
1018.069 .0254982
1018.660 .0255123
1019.250 .0255273
1019.839 .0255434
1020.429 .0255610
1021.018 .0255802
1021.607 .0255998
1022.195 .0256195
1022.784 .0256386
1023.372 .0256561
1023.960 .0256719
1024.547 .0256863
1025.135 .0256992
1025.722 .0257118
1026.309 .0257243
1026.896 .0257374
1027.483 .0257512
1028.069 .0257658
1028.655 .0257790
1029.241 .0257900
1029.827 .0257994
1030.412 .0258066
1030.997 .0258116
1031.582 .0258157
1032.167 .0258184
1032.752 .0258212
1033.336 .0258248
1033.921 .0258297
1034.505 .0258355
1035.089 .0258421
1035.672 .0258486
1036.256 .0258538
1036.839 .0258572
1037.422 .0258584
1038.005 .0258577
1038.588 .0258570
1039.171 .0258561
1039.753 .0258550
1040.335 .0258548
1040.918 .0258568
1041.500 .0258602
1042.081 .0258654
1042.663 .0258709
1043.244 .0258764
1043.826 .0258813
1044.407 .0258843
1044.988 .0258857
1045.569 .0258859
1046.150 .0258855
1046.730 .0258842
1047.311 .0258815
1047.891 .0258781
1048.471 .0258732
1049.052 .0258673
1049.632 .0258606
1050.211 .0258529
1050.791 .0258436
1051.371 .0258334
1051.950 .0258222
1052.530 .0258105
1053.109 .0257980
1053.688 .0257851
1054.268 .0257724
1054.847 .0257597
1055.426 .0257475
1056.005 .0257360
1056.583 .0257267
1057.162 .0257206
1057.741 .0257160
1058.319 .0257129
1058.898 .0257110
1059.476 .0257086
1060.055 .0257045
1060.633 .0256975
1061.211 .0256872
1061.790 .0256753
1062.368 .0256621
1062.946 .0256486
1063.524 .0256357
1064.102 .0256244
1064.680 .0256147
1065.258 .0256045
1065.836 .0255948
1066.414 .0255841
1066.992 .0255718
1067.570 .0255587
1068.148 .0255446
1068.726 .0255303
1069.304 .0255169
1069.882 .0255042
1070.460 .0254937
1071.038 .0254849
1071.616 .0254766
1072.194 .0254679
1072.772 .0254585
1073.350 .0254471
1073.928 .0254339
1074.506 .0254189
1075.084 .0254035
1075.662 .0253870
1076.240 .0253707
1076.819 .0253547
1077.397 .0253418
1077.976 .0253320
1078.554 .0253256
1079.133 .0253223
1079.711 .0253234
1080.290 .0253255
1080.869 .0253280
1081.448 .0253307
1082.027 .0253321
1082.606 .0253314
1083.185 .0253293
1083.764 .0253248
1084.343 .0253196
1084.923 .0253140
1085.502 .0253095
1086.082 .0253053
1086.662 .0253031
1087.242 .0252979
1087.822 .0252906
1088.402 .0252802
1088.983 .0252662
1089.563 .0252478
1090.144 .0252267
1090.725 .0252053
1091.306 .0251835
1091.887 .0251632
1092.469 .0251465
1093.050 .0251321
1093.632 .0251241
1094.214 .0251194
1094.796 .0251180
1095.379 .0251191
1095.961 .0251214
1096.544 .0251235
1097.127 .0251269
1097.710 .0251295
1098.294 .0251325
1098.877 .0251360
1099.461 .0251425
1100.046 .0251521
1100.630 .0251653
1101.215 .0251829
1101.800 .0252023
1102.385 .0252210
1102.970 .0252392
1103.556 .0252522
1104.142 .0252631
1104.728 .0252708
1105.315 .0252774
1105.902 .0252837
1106.489 .0252914
1107.077 .0253010
1107.664 .0253127
1108.253 .0253262
1108.841 .0253411
1109.430 .0253528
1110.019 .0253636
1110.609 .0253731
1111.198 .0253819
1111.789 .0253947
1112.379 .0254122
1112.970 .0254350
1113.561 .0254630
1114.153 .0254959
1114.745 .0255326
1115.338 .0255707
1115.931 .0256104
1116.524 .0256470
1117.117 .0256820
1117.712 .0257171
1118.306 .0257481
1118.901 .0257788
1119.496 .0258093
1120.092 .0258375
1120.689 .0258613
1121.285 .0258810
1121.882 .0258946
1122.480 .0259053
1123.078 .0259163
1123.677 .0259270
1124.276 .0259377
1124.875 .0259521
1125.476 .0259680
1126.076 .0259889
1126.677 .0260164
1127.279 .0260484
1127.881 .0260857
1128.484 .0261334
1129.087 .0261874
1129.691 .0262539
1130.295 .0263322
1130.900 .0264220
1131.505 .0265238
1132.111 .0266332
1132.718 .0267443
1133.325 .0268553
1133.933 .0269631
1134.541 .0270664
1135.150 .0271634
1135.760 .0272591
1136.370 .0273517
1136.981 .0274502
1137.592 .0275547
1138.204 .0276648
1138.817 .0277804
1139.431 .0279026
1140.045 .0280288
1140.660 .0281563
1141.275 .0282993
1141.891 .0284775
1142.508 .0285484
1143.126 .0287105
1143.744 .0288029
1144.363 .0293812
1144.983 .0301810
