Measurement Sequence started on: 15-12-46-377
Integration time: 28
Scans to Average: 2 
>>>>>Begin Spectral Data<<<<<
432.689 .0000100
433.621 .0000100
434.552 .0000100
435.482 .0000100
436.410 .0000100
437.337 .0000100
438.262 .0269952
439.187 .0572788
440.110 .0949347
441.031 .1373949
441.952 .1786003
442.871 .2109761
443.789 .2286678
444.705 .2296404
445.621 .2163710
446.535 .1943015
447.447 .1693458
448.359 .1313273
449.269 .1124577
450.178 .1005907
451.086 .0922887
451.993 .0859816
452.898 .0810151
453.803 .0769309
454.706 .0735304
455.608 .0706366
456.508 .0681413
457.408 .0659972
458.306 .0641059
459.204 .0624318
460.100 .0609616
460.995 .0596407
461.888 .0584497
462.781 .0573666
463.673 .0563644
464.563 .0554428
465.452 .0545808
466.340 .0537547
467.228 .0529711
468.114 .0522329
468.999 .0515345
469.882 .0508632
470.765 .0502372
471.647 .0496619
472.528 .0491258
473.407 .0486437
474.286 .0482107
475.163 .0478175
476.040 .0474698
476.915 .0471604
477.790 .0468751
478.663 .0466197
479.535 .0463906
480.407 .0461961
481.277 .0460357
482.147 .0459116
483.015 .0458202
483.883 .0457669
484.749 .0457517
485.615 .0457629
486.479 .0457900
487.343 .0458425
488.206 .0459116
489.067 .0459997
489.928 .0460963
490.788 .0462101
491.647 .0463387
492.505 .0464851
493.362 .0466448
494.218 .0468140
495.073 .0469932
495.928 .0471890
496.781 .0473900
497.634 .0476031
498.486 .0478271
499.337 .0480664
500.187 .0483209
501.036 .0485952
501.884 .0488854
502.731 .0491978
503.578 .0495304
504.424 .0498913
505.268 .0502693
506.113 .0506785
506.956 .0511264
507.798 .0516242
508.640 .0521851
509.480 .0528121
510.320 .0535185
511.160 .0543246
511.998 .0552268
512.836 .0562384
513.672 .0573741
514.508 .0586354
515.344 .0600294
516.178 .0615577
517.012 .0632447
517.845 .0651214
518.677 .0672268
519.508 .0695987
520.339 .0722875
521.169 .0753406
521.998 .0787934
522.826 .0826835
523.654 .0870416
524.481 .0919000
525.307 .0972871
526.133 .1032141
526.958 .1096454
527.782 .1164939
528.605 .1236861
529.428 .1310897
530.250 .1381861
531.072 .1446837
531.892 .1502077
532.712 .1544846
533.532 .1572379
534.350 .1582444
535.168 .1574207
535.986 .1548701
536.802 .1507506
537.618 .1452655
538.434 .1386359
539.249 .1313995
540.063 .1237333
540.876 .1159773
541.689 .1083873
542.501 .1012097
543.313 .0946494
544.124 .0887933
544.934 .0835989
545.744 .0790221
546.553 .0749987
547.361 .0715217
548.169 .0685107
548.976 .0658985
549.783 .0636077
550.589 .0615978
551.395 .0598342
552.200 .0582851
553.004 .0568941
553.808 .0556479
554.611 .0545231
555.414 .0534961
556.216 .0525484
557.018 .0516690
557.819 .0508606
558.619 .0501091
559.419 .0494154
560.218 .0487796
561.017 .0481785
561.815 .0475950
562.613 .0470292
563.410 .0464714
564.207 .0459056
565.003 .0453251
565.799 .0447372
566.594 .0441515
567.388 .0435835
568.182 .0430344
568.976 .0425004
569.769 .0419878
570.562 .0414982
571.354 .0410108
572.145 .0405319
572.936 .0400537
573.727 .0395718
574.517 .0390908
575.307 .0386222
576.096 .0381703
576.885 .0377389
577.673 .0373388
578.461 .0369686
579.248 .0366236
580.035 .0363035
580.821 .0359982
581.607 .0357114
582.392 .0354418
583.177 .0351876
583.962 .0349491
584.746 .0347325
585.529 .0345391
586.313 .0343673
587.095 .0342187
587.878 .0340900
588.660 .0339756
589.441 .0338725
590.222 .0337782
591.003 .0336925
591.783 .0336127
592.563 .0335408
593.342 .0334754
594.121 .0334158
594.899 .0333605
595.678 .0333096
596.455 .0332614
597.233 .0332147
598.009 .0331675
598.786 .0331176
599.562 .0330644
600.338 .0330087
601.113 .0329507
601.888 .0328920
602.663 .0328343
603.437 .0327778
604.211 .0327228
604.984 .0326715
605.757 .0326228
606.530 .0325768
607.302 .0325340
608.074 .0324940
608.845 .0324554
609.616 .0324178
610.387 .0323827
611.158 .0323495
611.928 .0323190
612.697 .0322906
613.467 .0322647
614.236 .0322410
615.004 .0322190
615.773 .0321978
616.541 .0321779
617.308 .0321584
618.076 .0321386
618.843 .0321190
619.609 .0321003
620.375 .0320816
621.141 .0320636
621.907 .0320459
622.672 .0320286
623.437 .0320105
624.202 .0319919
624.966 .0319716
625.730 .0319516
626.493 .0319303
627.257 .0319078
628.020 .0318842
628.782 .0318597
629.545 .0318336
630.307 .0318054
631.068 .0317753
631.830 .0317420
632.591 .0317052
633.352 .0316668
634.112 .0316257
634.872 .0315845
635.632 .0315439
636.392 .0315039
637.151 .0314660
637.910 .0314308
638.668 .0313972
639.427 .0313660
640.185 .0313372
640.943 .0313107
641.700 .0312852
642.457 .0312616
643.214 .0312397
643.971 .0312192
644.727 .0312016
645.483 .0311856
646.239 .0311705
646.994 .0311576
647.750 .0311455
648.505 .0311340
649.259 .0311240
650.014 .0311147
650.768 .0311056
651.521 .0310965
652.275 .0310875
653.028 .0310775
653.781 .0310674
654.534 .0310570
655.286 .0310457
656.039 .0310332
656.791 .0310200
657.542 .0310046
658.294 .0309883
659.045 .0309710
659.796 .0309522
660.546 .0309319
661.297 .0309105
662.047 .0308880
662.796 .0308643
663.546 .0308403
664.295 .0308168
665.044 .0307933
665.793 .0307708
666.542 .0307481
667.290 .0307260
668.038 .0307047
668.786 .0306840
669.533 .0306632
670.281 .0306423
671.028 .0306214
671.774 .0306001
672.521 .0305789
673.267 .0305582
674.013 .0305382
674.759 .0305190
675.505 .0305002
676.250 .0304812
676.995 .0304617
677.740 .0304415
678.484 .0304202
679.229 .0303982
679.973 .0303748
680.717 .0303504
681.460 .0303258
682.204 .0303010
682.947 .0302773
683.690 .0302539
684.433 .0302314
685.175 .0302096
685.917 .0301885
686.659 .0301675
687.401 .0301465
688.142 .0301263
688.884 .0301065
689.625 .0300866
690.365 .0300666
691.106 .0300463
691.846 .0300258
692.586 .0300050
693.326 .0299836
694.066 .0299615
694.805 .0299397
695.545 .0299175
696.284 .0298951
697.022 .0298722
697.761 .0298494
698.499 .0298265
699.237 .0298033
699.975 .0297805
700.713 .0297576
701.450 .0297357
702.187 .0297150
702.924 .0296956
703.661 .0296778
704.397 .0296613
705.133 .0296466
705.869 .0296330
706.605 .0296210
707.341 .0296098
708.076 .0296002
708.811 .0295920
709.546 .0295848
710.281 .0295775
711.015 .0295696
711.749 .0295616
712.483 .0295524
713.217 .0295416
713.950 .0295293
714.684 .0295155
715.417 .0295011
716.150 .0294857
716.882 .0294704
717.615 .0294547
718.347 .0294392
719.079 .0294233
719.811 .0294067
720.542 .0293898
721.273 .0293727
722.005 .0293558
722.735 .0293391
723.466 .0293235
724.196 .0293086
724.927 .0292944
725.656 .0292814
726.386 .0292688
727.116 .0292568
727.845 .0292449
728.574 .0292334
729.303 .0292220
730.031 .0292115
730.760 .0292020
731.488 .0291936
732.216 .0291866
732.944 .0291804
733.671 .0291751
734.398 .0291704
735.125 .0291663
735.852 .0291626
736.579 .0291590
737.305 .0291559
738.031 .0291529
738.757 .0291501
739.483 .0291467
740.208 .0291424
740.933 .0291375
741.658 .0291312
742.383 .0291234
743.108 .0291147
743.832 .0291053
744.556 .0290954
745.280 .0290852
746.004 .0290744
746.727 .0290635
747.450 .0290524
748.173 .0290406
748.896 .0290282
749.618 .0290148
750.340 .0290009
751.062 .0289863
751.784 .0289717
752.506 .0289576
753.227 .0289435
753.948 .0289301
754.669 .0289169
755.389 .0289033
756.110 .0288891
756.830 .0288743
757.550 .0288587
758.269 .0288423
758.989 .0288251
759.708 .0288070
760.427 .0287886
761.146 .0287701
761.864 .0287514
762.582 .0287324
763.300 .0287135
764.018 .0286947
764.736 .0286755
765.453 .0286567
766.170 .0286380
766.887 .0286199
767.603 .0286019
768.320 .0285842
769.036 .0285666
769.751 .0285491
770.467 .0285320
771.182 .0285147
771.897 .0284977
772.612 .0284807
773.327 .0284640
774.041 .0284476
774.755 .0284317
775.469 .0284166
776.183 .0284023
776.896 .0283888
777.609 .0283760
778.322 .0283639
779.035 .0283522
779.747 .0283415
780.459 .0283316
781.171 .0283225
781.882 .0283145
782.594 .0283072
783.305 .0283012
784.016 .0282961
784.726 .0282917
785.436 .0282874
786.147 .0282828
786.856 .0282779
787.566 .0282720
788.275 .0282656
788.984 .0282585
789.693 .0282509
790.401 .0282429
791.110 .0282343
791.818 .0282249
792.525 .0282151
793.233 .0282049
793.940 .0281942
794.647 .0281831
795.353 .0281718
796.060 .0281604
796.766 .0281492
797.472 .0281385
798.177 .0281281
798.883 .0281180
799.588 .0281086
800.292 .0280994
800.997 .0280910
801.701 .0280836
802.405 .0280771
803.109 .0280715
803.812 .0280667
804.515 .0280615
805.218 .0280555
805.921 .0280481
806.623 .0280392
807.325 .0280282
808.027 .0280161
808.728 .0280027
809.429 .0279885
810.130 .0279744
810.831 .0279608
811.531 .0279478
812.231 .0279355
812.931 .0279233
813.630 .0279107
814.330 .0278977
815.029 .0278850
815.727 .0278726
816.426 .0278613
817.124 .0278519
817.821 .0278443
818.519 .0278388
819.216 .0278357
819.913 .0278340
820.609 .0278335
821.306 .0278335
822.002 .0278335
822.697 .0278328
823.393 .0278319
824.088 .0278308
824.783 .0278298
825.477 .0278286
826.171 .0278273
826.865 .0278253
827.559 .0278231
828.252 .0278203
828.945 .0278171
829.638 .0278133
830.330 .0278094
831.023 .0278053
831.714 .0278017
832.406 .0277986
833.097 .0277959
833.788 .0277932
834.479 .0277907
835.169 .0277875
835.859 .0277836
836.548 .0277790
837.238 .0277741
837.927 .0277689
838.615 .0277639
839.304 .0277588
839.992 .0277541
840.680 .0277496
841.367 .0277449
842.054 .0277397
842.741 .0277338
843.428 .0277271
844.114 .0277197
844.800 .0277118
845.485 .0277038
846.170 .0276957
846.855 .0276878
847.540 .0276800
848.224 .0276723
848.908 .0276648
849.592 .0276565
850.275 .0276477
850.958 .0276381
851.641 .0276269
852.323 .0276145
853.005 .0276011
853.687 .0275868
854.368 .0275715
855.049 .0275556
855.730 .0275392
856.410 .0275221
857.090 .0275049
857.769 .0274870
858.449 .0274683
859.128 .0274491
859.806 .0274289
860.485 .0274080
861.163 .0273868
861.840 .0273657
862.518 .0273448
863.195 .0273246
863.871 .0273049
864.548 .0272857
865.224 .0272669
865.899 .0272485
866.574 .0272299
867.249 .0272115
867.924 .0271933
868.598 .0271753
869.272 .0271583
869.946 .0271427
870.619 .0271288
871.292 .0271166
871.964 .0271055
872.636 .0270954
873.308 .0270853
873.979 .0270746
874.651 .0270632
875.321 .0270510
875.992 .0270384
876.662 .0270254
877.331 .0270128
878.001 .0270008
878.670 .0269895
879.338 .0269790
880.007 .0269691
880.675 .0269596
881.342 .0269498
882.009 .0269395
882.676 .0269288
883.343 .0269182
884.009 .0269078
884.675 .0268979
885.340 .0268893
886.005 .0268820
886.670 .0268760
887.334 .0268714
887.998 .0268677
888.662 .0268648
889.325 .0268623
889.988 .0268599
890.650 .0268574
891.312 .0268548
891.974 .0268520
892.636 .0268490
893.297 .0268462
893.957 .0268438
894.618 .0268413
895.278 .0268393
895.937 .0268376
896.596 .0268362
897.255 .0268351
897.914 .0268339
898.572 .0268323
899.230 .0268306
899.887 .0268284
900.544 .0268252
901.201 .0268213
901.857 .0268168
902.513 .0268118
903.168 .0268057
903.823 .0267988
904.478 .0267910
905.132 .0267820
905.786 .0267718
906.440 .0267600
907.093 .0267470
907.746 .0267327
908.399 .0267171
909.051 .0267004
909.703 .0266833
910.354 .0266658
911.005 .0266480
911.656 .0266300
912.306 .0266123
912.956 .0265947
913.605 .0265770
914.254 .0265595
914.903 .0265423
915.551 .0265258
916.199 .0265101
916.847 .0264955
917.494 .0264821
918.141 .0264700
918.788 .0264588
919.434 .0264485
920.079 .0264388
920.725 .0264293
921.370 .0264200
922.014 .0264108
922.658 .0264017
923.302 .0263922
923.946 .0263821
924.589 .0263715
925.231 .0263600
925.873 .0263477
926.515 .0263341
927.157 .0263195
927.798 .0263040
928.439 .0262874
929.079 .0262701
929.719 .0262525
930.359 .0262349
930.998 .0262174
931.637 .0262000
932.275 .0261830
932.913 .0261670
933.551 .0261523
934.188 .0261386
934.825 .0261262
935.462 .0261155
936.098 .0261063
936.733 .0260993
937.369 .0260940
938.004 .0260903
938.638 .0260880
939.273 .0260870
939.907 .0260863
940.540 .0260856
941.173 .0260853
941.806 .0260850
942.438 .0260846
943.070 .0260839
943.702 .0260821
944.333 .0260798
944.964 .0260770
945.594 .0260736
946.224 .0260695
946.854 .0260649
947.483 .0260594
948.112 .0260534
948.741 .0260465
949.369 .0260388
949.996 .0260308
950.624 .0260229
951.251 .0260151
951.878 .0260075
952.504 .0260001
953.130 .0259927
953.755 .0259856
954.380 .0259785
955.005 .0259702
955.629 .0259612
956.253 .0259512
956.877 .0259403
957.500 .0259292
958.123 .0259179
958.746 .0259064
959.368 .0258951
959.990 .0258841
960.611 .0258728
961.232 .0258613
961.853 .0258503
962.473 .0258397
963.093 .0258292
963.712 .0258192
964.331 .0258092
964.950 .0258003
965.569 .0257926
966.187 .0257865
966.804 .0257823
967.422 .0257806
968.039 .0257806
968.655 .0257823
969.272 .0257849
969.887 .0257882
970.503 .0257911
971.118 .0257936
971.733 .0257952
972.347 .0257956
972.961 .0257947
973.575 .0257930
974.188 .0257908
974.801 .0257882
975.414 .0257845
976.026 .0257800
976.638 .0257743
977.250 .0257672
977.861 .0257581
978.472 .0257474
979.083 .0257351
979.693 .0257212
980.303 .0257058
980.912 .0256893
981.521 .0256721
982.130 .0256544
982.738 .0256367
983.346 .0256193
983.954 .0256019
984.562 .0255845
985.169 .0255672
985.775 .0255497
986.382 .0255324
986.988 .0255147
987.594 .0254970
988.199 .0254797
988.804 .0254633
989.409 .0254481
990.013 .0254341
990.617 .0254215
991.221 .0254102
991.824 .0253998
992.427 .0253901
993.030 .0253805
993.632 .0253716
994.234 .0253640
994.836 .0253573
995.438 .0253523
996.039 .0253494
996.640 .0253484
997.240 .0253491
997.840 .0253511
998.440 .0253535
999.040 .0253561
999.639 .0253584
1000.238 .0253603
1000.836 .0253619
1001.435 .0253635
1002.033 .0253649
1002.630 .0253664
1003.228 .0253688
1003.825 .0253709
1004.422 .0253729
1005.018 .0253749
1005.614 .0253762
1006.210 .0253759
1006.806 .0253737
1007.401 .0253697
1007.996 .0253637
1008.591 .0253565
1009.186 .0253483
1009.780 .0253402
1010.374 .0253333
1010.967 .0253276
1011.561 .0253234
1012.154 .0253202
1012.746 .0253180
1013.339 .0253154
1013.931 .0253122
1014.523 .0253077
1015.115 .0253018
1015.706 .0252956
1016.298 .0252898
1016.888 .0252858
1017.479 .0252836
1018.069 .0252837
1018.660 .0252861
1019.250 .0252899
1019.839 .0252942
1020.429 .0252983
1021.018 .0253020
1021.607 .0253042
1022.195 .0253056
1022.784 .0253066
1023.372 .0253073
1023.960 .0253088
1024.547 .0253117
1025.135 .0253161
1025.722 .0253219
1026.309 .0253293
1026.896 .0253378
1027.483 .0253478
1028.069 .0253591
1028.655 .0253710
1029.241 .0253831
1029.827 .0253956
1030.412 .0254079
1030.997 .0254204
1031.582 .0254334
1032.167 .0254472
1032.752 .0254616
1033.336 .0254774
1033.921 .0254936
1034.505 .0255102
1035.089 .0255263
1035.672 .0255404
1036.256 .0255515
1036.839 .0255586
1037.422 .0255615
1038.005 .0255607
1038.588 .0255569
1039.171 .0255513
1039.753 .0255442
1040.335 .0255378
1040.918 .0255320
1041.500 .0255269
1042.081 .0255231
1042.663 .0255191
1043.244 .0255150
1043.826 .0255109
1044.407 .0255062
1044.988 .0255015
1045.569 .0254975
1046.150 .0254952
1046.730 .0254944
1047.311 .0254962
1047.891 .0255003
1048.471 .0255065
1049.052 .0255139
1049.632 .0255225
1050.211 .0255299
1050.791 .0255364
1051.371 .0255414
1051.950 .0255445
1052.530 .0255467
1053.109 .0255474
1053.688 .0255471
1054.268 .0255472
1054.847 .0255465
1055.426 .0255464
1056.005 .0255454
1056.583 .0255448
1057.162 .0255436
1057.741 .0255414
1058.319 .0255389
1058.898 .0255369
1059.476 .0255358
1060.055 .0255364
1060.633 .0255374
1061.211 .0255401
1061.790 .0255432
1062.368 .0255467
1062.946 .0255493
1063.524 .0255514
1064.102 .0255537
1064.680 .0255561
1065.258 .0255579
1065.836 .0255626
1066.414 .0255685
1066.992 .0255761
1067.570 .0255848
1068.148 .0255924
1068.726 .0255983
1069.304 .0256032
1069.882 .0256052
1070.460 .0256057
1071.038 .0256055
1071.616 .0256067
1072.194 .0256076
1072.772 .0256120
1073.350 .0256176
1073.928 .0256238
1074.506 .0256306
1075.084 .0256374
1075.662 .0256407
1076.240 .0256425
1076.819 .0256428
1077.397 .0256438
1077.976 .0256457
1078.554 .0256502
1079.133 .0256550
1079.711 .0256617
1080.290 .0256687
1080.869 .0256754
1081.448 .0256796
1082.027 .0256836
1082.606 .0256856
1083.185 .0256870
1083.764 .0256882
1084.343 .0256912
1084.923 .0256965
1085.502 .0257042
1086.082 .0257140
1086.662 .0257238
1087.242 .0257312
1087.822 .0257385
1088.402 .0257443
1088.983 .0257481
1089.563 .0257509
1090.144 .0257545
1090.725 .0257584
1091.306 .0257635
1091.887 .0257707
1092.469 .0257809
1093.050 .0257947
1093.632 .0258119
1094.214 .0258305
1094.796 .0258500
1095.379 .0258725
1095.961 .0258948
1096.544 .0259171
1097.127 .0259398
1097.710 .0259610
1098.294 .0259816
1098.877 .0260017
1099.461 .0260231
1100.046 .0260440
1100.630 .0260655
1101.215 .0260880
1101.800 .0261085
1102.385 .0261280
1102.970 .0261439
1103.556 .0261572
1104.142 .0261690
1104.728 .0261782
1105.315 .0261858
1105.902 .0261926
1106.489 .0262011
1107.077 .0262105
1107.664 .0262228
1108.253 .0262393
1108.841 .0262605
1109.430 .0262860
1110.019 .0263153
1110.609 .0263473
1111.198 .0263820
1111.789 .0264186
1112.379 .0264536
1112.970 .0264874
1113.561 .0265199
1114.153 .0265502
1114.745 .0265825
1115.338 .0266148
1115.931 .0266519
1116.524 .0266915
1117.117 .0267369
1117.712 .0267848
1118.306 .0268314
1118.901 .0268772
1119.496 .0269195
1120.092 .0269586
1120.689 .0269961
1121.285 .0270299
1121.882 .0270630
1122.480 .0270983
1123.078 .0271389
1123.677 .0271819
1124.276 .0272299
1124.875 .0272817
1125.476 .0273360
1126.076 .0273875
1126.677 .0274383
1127.279 .0274850
1127.881 .0275310
1128.484 .0275789
1129.087 .0276246
1129.691 .0276728
1130.295 .0277245
1130.900 .0277819
1131.505 .0278466
1132.111 .0279206
1132.718 .0280002
1133.325 .0280853
1133.933 .0281752
1134.541 .0282666
1135.150 .0283573
1135.760 .0284512
1136.370 .0285486
1136.981 .0286529
1137.592 .0287615
1138.204 .0288757
1138.817 .0289959
1139.431 .0291257
1140.045 .0292558
1140.660 .0293919
1141.275 .0295350
1141.891 .0296757
1142.508 .0297893
1143.126 .0298759
1143.744 .0301229
1144.363 .0304285
1144.983 .0303388
