Measurement Sequence started on: 15-12-46-377
Integration time: 28
Scans to Average: 2 
>>>>>Begin Spectral Data<<<<<
432.689 .0000100
433.621 .0000100
434.552 .0000100
435.482 .0000100
436.410 .0000100
437.337 .0000100
438.262 .0273178
439.187 .0578631
440.110 .0958012
441.031 .1386575
441.952 .1802901
442.871 .2130921
443.789 .2311258
444.705 .2323207
445.621 .2191653
446.535 .1970833
447.447 .1720055
448.359 .1335775
449.269 .1144425
450.178 .1022946
451.086 .0936275
451.993 .0870235
452.898 .0818367
453.803 .0776469
454.706 .0742256
455.608 .0713330
456.508 .0688359
457.408 .0666544
458.306 .0647018
459.204 .0629425
460.100 .0613443
460.995 .0598972
461.888 .0585774
462.781 .0573793
463.673 .0562757
464.563 .0552683
465.452 .0543325
466.340 .0534587
467.228 .0526517
468.114 .0519033
468.999 .0512246
469.882 .0506014
470.765 .0500421
471.647 .0495448
472.528 .0491014
473.407 .0487021
474.286 .0483404
475.163 .0480130
476.040 .0477189
476.915 .0474531
477.790 .0472233
478.663 .0470186
479.535 .0468431
480.407 .0466946
481.277 .0465690
482.147 .0464543
483.015 .0463559
483.883 .0462671
484.749 .0461878
485.615 .0461175
486.479 .0460506
487.343 .0459910
488.206 .0459517
489.067 .0459237
489.928 .0459130
490.788 .0459261
491.647 .0459614
492.505 .0460144
493.362 .0460906
494.218 .0461861
495.073 .0462993
495.928 .0464395
496.781 .0466008
497.634 .0467908
498.486 .0470143
499.337 .0472764
500.187 .0475705
501.036 .0479105
501.884 .0482817
502.731 .0486751
503.578 .0490908
504.424 .0495142
505.268 .0499407
506.113 .0503824
506.956 .0508426
507.798 .0513448
508.640 .0518915
509.480 .0525010
510.320 .0531851
511.160 .0539645
511.998 .0548275
512.836 .0557797
513.672 .0568169
514.508 .0579530
515.344 .0591854
516.178 .0605544
517.012 .0620927
517.845 .0638471
518.677 .0658724
519.508 .0681606
520.339 .0707709
521.169 .0737096
521.998 .0769733
522.826 .0806366
523.654 .0847269
524.481 .0892310
525.307 .0942306
526.133 .0996976
526.958 .1056268
527.782 .1119583
528.605 .1185400
529.428 .1252712
530.250 .1316806
531.072 .1374987
531.892 .1423201
532.712 .1459091
533.532 .1481360
534.350 .1487416
535.168 .1477691
535.986 .1452932
536.802 .1414330
537.618 .1364980
538.434 .1306439
539.249 .1243143
540.063 .1177017
540.876 .1110842
541.689 .1046301
542.501 .0985334
543.313 .0929765
544.124 .0879639
544.934 .0834759
545.744 .0794993
546.553 .0759232
547.361 .0727335
548.169 .0699263
548.976 .0674292
549.783 .0652235
550.589 .0632891
551.395 .0615423
552.200 .0599645
553.004 .0585248
553.808 .0571830
554.611 .0559268
555.414 .0547696
556.216 .0537069
557.018 .0527308
557.819 .0518426
558.619 .0510174
559.419 .0502499
560.218 .0495383
561.017 .0488515
561.815 .0481744
562.613 .0475020
563.410 .0468299
564.207 .0461585
565.003 .0454955
565.799 .0448508
566.594 .0442176
567.388 .0436170
568.182 .0430374
568.976 .0424818
569.769 .0419471
570.562 .0414335
571.354 .0409342
572.145 .0404528
572.936 .0399832
573.727 .0395240
574.517 .0390793
575.307 .0386504
576.096 .0382389
576.885 .0378436
577.673 .0374631
578.461 .0370984
579.248 .0367499
580.035 .0364190
580.821 .0361007
581.607 .0357995
582.392 .0355141
583.177 .0352456
583.962 .0349959
584.746 .0347669
585.529 .0345583
586.313 .0343730
587.095 .0342085
587.878 .0340622
588.660 .0339317
589.441 .0338130
590.222 .0337033
591.003 .0336017
591.783 .0335056
592.563 .0334114
593.342 .0333194
594.121 .0332293
594.899 .0331399
595.678 .0330510
596.455 .0329630
597.233 .0328769
598.009 .0327920
598.786 .0327098
599.562 .0326302
600.338 .0325550
601.113 .0324844
601.888 .0324182
602.663 .0323565
603.437 .0323000
604.211 .0322479
604.984 .0322007
605.757 .0321583
606.530 .0321198
607.302 .0320852
608.074 .0320546
608.845 .0320276
609.616 .0320026
610.387 .0319789
611.158 .0319571
611.928 .0319358
612.697 .0319146
613.467 .0318925
614.236 .0318695
615.004 .0318466
615.773 .0318231
616.541 .0317986
617.308 .0317735
618.076 .0317482
618.843 .0317228
619.609 .0316978
620.375 .0316739
621.141 .0316510
621.907 .0316298
622.672 .0316107
623.437 .0315926
624.202 .0315750
624.966 .0315577
625.730 .0315394
626.493 .0315205
627.257 .0315007
628.020 .0314793
628.782 .0314576
629.545 .0314362
630.307 .0314154
631.068 .0313950
631.830 .0313743
632.591 .0313531
633.352 .0313308
634.112 .0313070
634.872 .0312797
635.632 .0312499
636.392 .0312182
637.151 .0311854
637.910 .0311518
638.668 .0311192
639.427 .0310873
640.185 .0310572
640.943 .0310289
641.700 .0310026
642.457 .0309780
643.214 .0309542
643.971 .0309306
644.727 .0309077
645.483 .0308843
646.239 .0308600
646.994 .0308345
647.750 .0308096
648.505 .0307846
649.259 .0307602
650.014 .0307363
650.768 .0307144
651.521 .0306951
652.275 .0306772
653.028 .0306597
653.781 .0306420
654.534 .0306232
655.286 .0306028
656.039 .0305806
656.791 .0305573
657.542 .0305331
658.294 .0305099
659.045 .0304878
659.796 .0304669
660.546 .0304475
661.297 .0304289
662.047 .0304104
662.796 .0303915
663.546 .0303713
664.295 .0303494
665.044 .0303263
665.793 .0303029
666.542 .0302791
667.290 .0302548
668.038 .0302305
668.786 .0302059
669.533 .0301810
670.281 .0301558
671.028 .0301300
671.774 .0301041
672.521 .0300791
673.267 .0300548
674.013 .0300317
674.759 .0300102
675.505 .0299902
676.250 .0299712
676.995 .0299531
677.740 .0299358
678.484 .0299186
679.229 .0299022
679.973 .0298867
680.717 .0298718
681.460 .0298581
682.204 .0298454
682.947 .0298333
683.690 .0298214
684.433 .0298092
685.175 .0297959
685.917 .0297819
686.659 .0297667
687.401 .0297505
688.142 .0297334
688.884 .0297159
689.625 .0296973
690.365 .0296782
691.106 .0296585
691.846 .0296384
692.586 .0296176
693.326 .0295966
694.066 .0295751
694.805 .0295539
695.545 .0295326
696.284 .0295112
697.022 .0294898
697.761 .0294689
698.499 .0294475
699.237 .0294267
699.975 .0294061
700.713 .0293865
701.450 .0293674
702.187 .0293491
702.924 .0293315
703.661 .0293145
704.397 .0292975
705.133 .0292806
705.869 .0292635
706.605 .0292463
707.341 .0292286
708.076 .0292113
708.811 .0291943
709.546 .0291780
710.281 .0291622
711.015 .0291470
711.749 .0291321
712.483 .0291179
713.217 .0291029
713.950 .0290877
714.684 .0290721
715.417 .0290557
716.150 .0290385
716.882 .0290204
717.615 .0290019
718.347 .0289831
719.079 .0289637
719.811 .0289444
720.542 .0289251
721.273 .0289061
722.005 .0288874
722.735 .0288689
723.466 .0288504
724.196 .0288313
724.927 .0288114
725.656 .0287902
726.386 .0287677
727.116 .0287444
727.845 .0287205
728.574 .0286971
729.303 .0286753
730.031 .0286552
730.760 .0286373
731.488 .0286219
732.216 .0286086
732.944 .0285964
733.671 .0285851
734.398 .0285740
735.125 .0285630
735.852 .0285522
736.579 .0285420
737.305 .0285326
738.031 .0285255
738.757 .0285203
739.483 .0285166
740.208 .0285138
740.933 .0285112
741.658 .0285079
742.383 .0285034
743.108 .0284971
743.832 .0284894
744.556 .0284802
745.280 .0284703
746.004 .0284598
746.727 .0284493
747.450 .0284390
748.173 .0284287
748.896 .0284182
749.618 .0284070
750.340 .0283949
751.062 .0283822
751.784 .0283687
752.506 .0283553
753.227 .0283417
753.948 .0283280
754.669 .0283145
755.389 .0283013
756.110 .0282882
756.830 .0282750
757.550 .0282621
758.269 .0282493
758.989 .0282366
759.708 .0282239
760.427 .0282112
761.146 .0281987
761.864 .0281860
762.582 .0281729
763.300 .0281587
764.018 .0281442
764.736 .0281293
765.453 .0281140
766.170 .0280990
766.887 .0280842
767.603 .0280701
768.320 .0280563
769.036 .0280427
769.751 .0280291
770.467 .0280152
771.182 .0280012
771.897 .0279868
772.612 .0279725
773.327 .0279585
774.041 .0279452
774.755 .0279325
775.469 .0279210
776.183 .0279109
776.896 .0279019
777.609 .0278940
778.322 .0278868
779.035 .0278802
779.747 .0278743
780.459 .0278692
781.171 .0278648
781.882 .0278612
782.594 .0278587
783.305 .0278567
784.016 .0278558
784.726 .0278553
785.436 .0278552
786.147 .0278549
786.856 .0278547
787.566 .0278538
788.275 .0278520
788.984 .0278492
789.693 .0278453
790.401 .0278402
791.110 .0278336
791.818 .0278253
792.525 .0278155
793.233 .0278045
793.940 .0277922
794.647 .0277786
795.353 .0277644
796.060 .0277498
796.766 .0277349
797.472 .0277198
798.177 .0277050
798.883 .0276902
799.588 .0276763
800.292 .0276631
800.997 .0276500
801.701 .0276377
802.405 .0276255
803.109 .0276137
803.812 .0276020
804.515 .0275903
805.218 .0275780
805.921 .0275654
806.623 .0275522
807.325 .0275381
808.027 .0275235
808.728 .0275083
809.429 .0274923
810.130 .0274758
810.831 .0274586
811.531 .0274405
812.231 .0274213
812.931 .0274015
813.630 .0273803
814.330 .0273584
815.029 .0273357
815.727 .0273125
816.426 .0272893
817.124 .0272666
817.821 .0272442
818.519 .0272229
819.216 .0272029
819.913 .0271840
820.609 .0271660
821.306 .0271495
822.002 .0271343
822.697 .0271203
823.393 .0271078
824.088 .0270974
824.783 .0270882
825.477 .0270813
826.171 .0270756
826.865 .0270714
827.559 .0270685
828.252 .0270663
828.945 .0270647
829.638 .0270633
830.330 .0270617
831.023 .0270597
831.714 .0270568
832.406 .0270535
833.097 .0270489
833.788 .0270431
834.479 .0270363
835.169 .0270287
835.859 .0270203
836.548 .0270114
837.238 .0270021
837.927 .0269928
838.615 .0269833
839.304 .0269740
839.992 .0269648
840.680 .0269558
841.367 .0269472
842.054 .0269388
842.741 .0269309
843.428 .0269240
844.114 .0269177
844.800 .0269120
845.485 .0269071
846.170 .0269022
846.855 .0268969
847.540 .0268907
848.224 .0268833
848.908 .0268747
849.592 .0268647
850.275 .0268532
850.958 .0268404
851.641 .0268272
852.323 .0268135
853.005 .0267994
853.687 .0267848
854.368 .0267698
855.049 .0267539
855.730 .0267371
856.410 .0267188
857.090 .0266995
857.769 .0266794
858.449 .0266589
859.128 .0266382
859.806 .0266184
860.485 .0265997
861.163 .0265827
861.840 .0265674
862.518 .0265533
863.195 .0265399
863.871 .0265265
864.548 .0265127
865.224 .0264985
865.899 .0264838
866.574 .0264694
867.249 .0264555
867.924 .0264433
868.598 .0264331
869.272 .0264248
869.946 .0264186
870.619 .0264139
871.292 .0264102
871.964 .0264066
872.636 .0264029
873.308 .0263993
873.979 .0263957
874.651 .0263920
875.321 .0263889
875.992 .0263863
876.662 .0263848
877.331 .0263841
878.001 .0263837
878.670 .0263837
879.338 .0263838
880.007 .0263831
880.675 .0263817
881.342 .0263791
882.009 .0263761
882.676 .0263719
883.343 .0263676
884.009 .0263629
884.675 .0263584
885.340 .0263548
886.005 .0263521
886.670 .0263505
887.334 .0263505
887.998 .0263511
888.662 .0263529
889.325 .0263551
889.988 .0263573
890.650 .0263596
891.312 .0263621
891.974 .0263649
892.636 .0263683
893.297 .0263727
893.957 .0263783
894.618 .0263845
895.278 .0263915
895.937 .0263978
896.596 .0264034
897.255 .0264076
897.914 .0264098
898.572 .0264101
899.230 .0264092
899.887 .0264071
900.544 .0264042
901.201 .0264015
901.857 .0263988
902.513 .0263957
903.168 .0263922
903.823 .0263876
904.478 .0263813
905.132 .0263733
905.786 .0263637
906.440 .0263525
907.093 .0263404
907.746 .0263277
908.399 .0263145
909.051 .0263009
909.703 .0262870
910.354 .0262721
911.005 .0262558
911.656 .0262387
912.306 .0262200
912.956 .0261998
913.605 .0261790
914.254 .0261580
914.903 .0261372
915.551 .0261176
916.199 .0260993
916.847 .0260821
917.494 .0260660
918.141 .0260512
918.788 .0260368
919.434 .0260234
920.079 .0260107
920.725 .0259984
921.370 .0259868
922.014 .0259761
922.658 .0259654
923.302 .0259550
923.946 .0259447
924.589 .0259336
925.231 .0259214
925.873 .0259079
926.515 .0258927
927.157 .0258761
927.798 .0258580
928.439 .0258387
929.079 .0258182
929.719 .0257966
930.359 .0257739
930.998 .0257502
931.637 .0257262
932.275 .0257020
932.913 .0256777
933.551 .0256540
934.188 .0256311
934.825 .0256093
935.462 .0255888
936.098 .0255702
936.733 .0255534
937.369 .0255382
938.004 .0255245
938.638 .0255120
939.273 .0255006
939.907 .0254903
940.540 .0254812
941.173 .0254732
941.806 .0254665
942.438 .0254607
943.070 .0254557
943.702 .0254515
944.333 .0254477
944.964 .0254437
945.594 .0254390
946.224 .0254333
946.854 .0254266
947.483 .0254188
948.112 .0254106
948.741 .0254017
949.369 .0253926
949.996 .0253833
950.624 .0253741
951.251 .0253649
951.878 .0253557
952.504 .0253465
953.130 .0253366
953.755 .0253259
954.380 .0253144
955.005 .0253019
955.629 .0252892
956.253 .0252766
956.877 .0252646
957.500 .0252529
958.123 .0252421
958.746 .0252315
959.368 .0252209
959.990 .0252103
960.611 .0251991
961.232 .0251874
961.853 .0251753
962.473 .0251633
963.093 .0251511
963.712 .0251388
964.331 .0251267
964.950 .0251145
965.569 .0251023
966.187 .0250895
966.804 .0250763
967.422 .0250633
968.039 .0250506
968.655 .0250382
969.272 .0250266
969.887 .0250159
970.503 .0250060
971.118 .0249963
971.733 .0249864
972.347 .0249762
972.961 .0249654
973.575 .0249537
974.188 .0249412
974.801 .0249278
975.414 .0249135
976.026 .0248984
976.638 .0248830
977.250 .0248673
977.861 .0248513
978.472 .0248352
979.083 .0248189
979.693 .0248025
980.303 .0247856
980.912 .0247682
981.521 .0247509
982.130 .0247336
982.738 .0247162
983.346 .0246983
983.954 .0246810
984.562 .0246641
985.169 .0246481
985.775 .0246330
986.382 .0246182
986.988 .0246040
987.594 .0245896
988.199 .0245747
988.804 .0245597
989.409 .0245442
990.013 .0245287
990.617 .0245133
991.221 .0244984
991.824 .0244848
992.427 .0244729
993.030 .0244627
993.632 .0244546
994.234 .0244483
994.836 .0244430
995.438 .0244385
996.039 .0244348
996.640 .0244315
997.240 .0244284
997.840 .0244258
998.440 .0244232
999.040 .0244203
999.639 .0244178
1000.238 .0244145
1000.836 .0244108
1001.435 .0244062
1002.033 .0243995
1002.630 .0243911
1003.228 .0243814
1003.825 .0243706
1004.422 .0243593
1005.018 .0243490
1005.614 .0243401
1006.210 .0243330
1006.806 .0243288
1007.401 .0243270
1007.996 .0243278
1008.591 .0243310
1009.186 .0243361
1009.780 .0243420
1010.374 .0243484
1010.967 .0243553
1011.561 .0243628
1012.154 .0243710
1012.746 .0243792
1013.339 .0243877
1013.931 .0243967
1014.523 .0244062
1015.115 .0244152
1015.706 .0244236
1016.298 .0244314
1016.888 .0244382
1017.479 .0244430
1018.069 .0244460
1018.660 .0244476
1019.250 .0244480
1019.839 .0244477
1020.429 .0244473
1021.018 .0244473
1021.607 .0244482
1022.195 .0244499
1022.784 .0244525
1023.372 .0244562
1023.960 .0244610
1024.547 .0244663
1025.135 .0244725
1025.722 .0244795
1026.309 .0244873
1026.896 .0244963
1027.483 .0245062
1028.069 .0245175
1028.655 .0245297
1029.241 .0245425
1029.827 .0245557
1030.412 .0245690
1030.997 .0245827
1031.582 .0245965
1032.167 .0246111
1032.752 .0246264
1033.336 .0246423
1033.921 .0246590
1034.505 .0246758
1035.089 .0246921
1035.672 .0247080
1036.256 .0247225
1036.839 .0247349
1037.422 .0247468
1038.005 .0247575
1038.588 .0247677
1039.171 .0247777
1039.753 .0247885
1040.335 .0247998
1040.918 .0248110
1041.500 .0248215
1042.081 .0248303
1042.663 .0248371
1043.244 .0248414
1043.826 .0248424
1044.407 .0248417
1044.988 .0248403
1045.569 .0248387
1046.150 .0248378
1046.730 .0248382
1047.311 .0248398
1047.891 .0248423
1048.471 .0248455
1049.052 .0248485
1049.632 .0248514
1050.211 .0248539
1050.791 .0248562
1051.371 .0248591
1051.950 .0248636
1052.530 .0248694
1053.109 .0248781
1053.688 .0248889
1054.268 .0249004
1054.847 .0249115
1055.426 .0249218
1056.005 .0249295
1056.583 .0249350
1057.162 .0249383
1057.741 .0249394
1058.319 .0249398
1058.898 .0249420
1059.476 .0249448
1060.055 .0249499
1060.633 .0249567
1061.211 .0249644
1061.790 .0249719
1062.368 .0249790
1062.946 .0249846
1063.524 .0249887
1064.102 .0249925
1064.680 .0249963
1065.258 .0250005
1065.836 .0250070
1066.414 .0250151
1066.992 .0250253
1067.570 .0250368
1068.148 .0250486
1068.726 .0250594
1069.304 .0250684
1069.882 .0250754
1070.460 .0250804
1071.038 .0250840
1071.616 .0250875
1072.194 .0250917
1072.772 .0250968
1073.350 .0251032
1073.928 .0251104
1074.506 .0251161
1075.084 .0251201
1075.662 .0251218
1076.240 .0251204
1076.819 .0251160
1077.397 .0251110
1077.976 .0251042
1078.554 .0250975
1079.133 .0250923
1079.711 .0250867
1080.290 .0250808
1080.869 .0250762
1081.448 .0250702
1082.027 .0250637
1082.606 .0250575
1083.185 .0250531
1083.764 .0250502
1084.343 .0250538
1084.923 .0250618
1085.502 .0250748
1086.082 .0250940
1086.662 .0251178
1087.242 .0251438
1087.822 .0251733
1088.402 .0252035
1088.983 .0252353
1089.563 .0252685
1090.144 .0253026
1090.725 .0253362
1091.306 .0253709
1091.887 .0254060
1092.469 .0254406
1093.050 .0254734
1093.632 .0255054
1094.214 .0255343
1094.796 .0255625
1095.379 .0255883
1095.961 .0256117
1096.544 .0256335
1097.127 .0256529
1097.710 .0256699
1098.294 .0256860
1098.877 .0257017
1099.461 .0257191
1100.046 .0257377
1100.630 .0257582
1101.215 .0257804
1101.800 .0258022
1102.385 .0258233
1102.970 .0258439
1103.556 .0258635
1104.142 .0258824
1104.728 .0259013
1105.315 .0259218
1105.902 .0259443
1106.489 .0259695
1107.077 .0259977
1107.664 .0260282
1108.253 .0260615
1108.841 .0260937
1109.430 .0261241
1110.019 .0261546
1110.609 .0261837
1111.198 .0262104
1111.789 .0262383
1112.379 .0262651
1112.970 .0262911
1113.561 .0263168
1114.153 .0263416
1114.745 .0263651
1115.338 .0263918
1115.931 .0264187
1116.524 .0264457
1117.117 .0264750
1117.712 .0265081
1118.306 .0265418
1118.901 .0265797
1119.496 .0266211
1120.092 .0266637
1120.689 .0267112
1121.285 .0267652
1121.882 .0268210
1122.480 .0268843
1123.078 .0269523
1123.677 .0270253
1124.276 .0271020
1124.875 .0271821
1125.476 .0272594
1126.076 .0273366
1126.677 .0274159
1127.279 .0274916
1127.881 .0275653
1128.484 .0276405
1129.087 .0277133
1129.691 .0277899
1130.295 .0278691
1130.900 .0279497
1131.505 .0280354
1132.111 .0281330
1132.718 .0282368
1133.325 .0283468
1133.933 .0284605
1134.541 .0285767
1135.150 .0286921
1135.760 .0288052
1136.370 .0289125
1136.981 .0290126
1137.592 .0291128
1138.204 .0292096
1138.817 .0293018
1139.431 .0293942
1140.045 .0294720
1140.660 .0295430
1141.275 .0296073
1141.891 .0296560
1142.508 .0298321
1143.126 .0295223
1143.744 .0296307
1144.363 .0299308
1144.983 .0298205
