Measurement Sequence started on: 15-12-46-377
Integration time: 28
Scans to Average: 2 
>>>>>Begin Spectral Data<<<<<
432.689 .0000100
433.621 .0000100
434.552 .0000100
435.482 .0000100
436.410 .0000100
437.337 .0000100
438.262 .0254308
439.187 .0536646
440.110 .0889305
441.031 .1287162
441.952 .1673956
442.871 .1978832
443.789 .2147072
444.705 .2159422
445.621 .2038690
446.535 .1835318
447.447 .1604147
448.359 .1248372
449.269 .1072886
450.178 .0959727
451.086 .0879383
451.993 .0817687
452.898 .0769104
453.803 .0729530
454.706 .0697167
455.608 .0669918
456.508 .0646428
457.408 .0625844
458.306 .0607404
459.204 .0590486
460.100 .0574900
460.995 .0560476
461.888 .0547183
462.781 .0535179
463.673 .0524366
464.563 .0514757
465.452 .0506247
466.340 .0498465
467.228 .0491387
468.114 .0484793
468.999 .0478688
469.882 .0472921
470.765 .0467656
471.647 .0462976
472.528 .0458805
473.407 .0455176
474.286 .0452121
475.163 .0449425
476.040 .0447096
476.915 .0445070
477.790 .0443124
478.663 .0441273
479.535 .0439522
480.407 .0437886
481.277 .0436359
482.147 .0434945
483.015 .0433638
483.883 .0432367
484.749 .0431231
485.615 .0430072
486.479 .0428867
487.343 .0427818
488.206 .0426880
489.067 .0426021
489.928 .0425347
490.788 .0424861
491.647 .0424592
492.505 .0424595
493.362 .0424857
494.218 .0425326
495.073 .0426079
495.928 .0427234
496.781 .0428658
497.634 .0430517
498.486 .0432855
499.337 .0435606
500.187 .0438818
501.036 .0442423
501.884 .0446341
502.731 .0450632
503.578 .0455268
504.424 .0460084
505.268 .0465099
506.113 .0470329
506.956 .0475748
507.798 .0481437
508.640 .0487472
509.480 .0493934
510.320 .0500852
511.160 .0508508
511.998 .0516737
512.836 .0525758
513.672 .0535726
514.508 .0546627
515.344 .0558658
516.178 .0572143
517.012 .0587145
517.845 .0604058
518.677 .0623568
519.508 .0645890
520.339 .0671381
521.169 .0700522
521.998 .0733275
522.826 .0770383
523.654 .0811690
524.481 .0857080
525.307 .0906979
526.133 .0961696
526.958 .1020355
527.782 .1082478
528.605 .1147001
529.428 .1212787
530.250 .1274964
531.072 .1331514
531.892 .1379113
532.712 .1415419
533.532 .1438296
534.350 .1445781
535.168 .1437873
535.986 .1415779
536.802 .1380027
537.618 .1333207
538.434 .1277474
539.249 .1216915
540.063 .1152575
540.876 .1087191
541.689 .1022985
542.501 .0962059
543.313 .0905404
544.124 .0853519
544.934 .0806737
545.744 .0765158
546.553 .0728085
547.361 .0695320
548.169 .0666844
548.976 .0641800
549.783 .0619327
550.589 .0599270
551.395 .0580911
552.200 .0564191
553.004 .0548850
553.808 .0534830
554.611 .0522297
555.414 .0511300
556.216 .0501525
557.018 .0492969
557.819 .0485371
558.619 .0478297
559.419 .0471479
560.218 .0464807
561.017 .0458153
561.815 .0451408
562.613 .0444580
563.410 .0437807
564.207 .0431108
565.003 .0424677
565.799 .0418441
566.594 .0412454
567.388 .0406809
568.182 .0401305
568.976 .0395903
569.769 .0390691
570.562 .0385666
571.354 .0380840
572.145 .0376308
572.936 .0372023
573.727 .0368024
574.517 .0364299
575.307 .0360825
576.096 .0357518
576.885 .0354357
577.673 .0351369
578.461 .0348448
579.248 .0345647
580.035 .0342992
580.821 .0340451
581.607 .0338070
582.392 .0335820
583.177 .0333682
583.962 .0331643
584.746 .0329745
585.529 .0327935
586.313 .0326262
587.095 .0324726
587.878 .0323319
588.660 .0322046
589.441 .0320914
590.222 .0319900
591.003 .0318966
591.783 .0318119
592.563 .0317309
593.342 .0316531
594.121 .0315768
594.899 .0315024
595.678 .0314320
596.455 .0313652
597.233 .0313039
598.009 .0312464
598.786 .0311940
599.562 .0311440
600.338 .0310956
601.113 .0310483
601.888 .0310004
602.663 .0309516
603.437 .0309019
604.211 .0308515
604.984 .0308014
605.757 .0307521
606.530 .0307035
607.302 .0306563
608.074 .0306113
608.845 .0305680
609.616 .0305267
610.387 .0304872
611.158 .0304507
611.928 .0304163
612.697 .0303852
613.467 .0303565
614.236 .0303302
615.004 .0303068
615.773 .0302860
616.541 .0302685
617.308 .0302540
618.076 .0302424
618.843 .0302337
619.609 .0302277
620.375 .0302241
621.141 .0302213
621.907 .0302194
622.672 .0302178
623.437 .0302157
624.202 .0302126
624.966 .0302095
625.730 .0302061
626.493 .0302026
627.257 .0301989
628.020 .0301944
628.782 .0301887
629.545 .0301813
630.307 .0301723
631.068 .0301608
631.830 .0301474
632.591 .0301320
633.352 .0301153
634.112 .0300983
634.872 .0300804
635.632 .0300623
636.392 .0300435
637.151 .0300243
637.910 .0300034
638.668 .0299805
639.427 .0299565
640.185 .0299308
640.943 .0299040
641.700 .0298765
642.457 .0298487
643.214 .0298216
643.971 .0297949
644.727 .0297696
645.483 .0297451
646.239 .0297214
646.994 .0296981
647.750 .0296757
648.505 .0296533
649.259 .0296314
650.014 .0296088
650.768 .0295859
651.521 .0295625
652.275 .0295380
653.028 .0295127
653.781 .0294872
654.534 .0294619
655.286 .0294368
656.039 .0294113
656.791 .0293872
657.542 .0293622
658.294 .0293372
659.045 .0293116
659.796 .0292844
660.546 .0292561
661.297 .0292268
662.047 .0291967
662.796 .0291668
663.546 .0291375
664.295 .0291092
665.044 .0290822
665.793 .0290573
666.542 .0290330
667.290 .0290097
668.038 .0289870
668.786 .0289646
669.533 .0289417
670.281 .0289196
671.028 .0288979
671.774 .0288772
672.521 .0288591
673.267 .0288432
674.013 .0288302
674.759 .0288197
675.505 .0288110
676.250 .0288033
676.995 .0287960
677.740 .0287886
678.484 .0287800
679.229 .0287715
679.973 .0287623
680.717 .0287530
681.460 .0287442
682.204 .0287366
682.947 .0287302
683.690 .0287250
684.433 .0287205
685.175 .0287160
685.917 .0287112
686.659 .0287056
687.401 .0286988
688.142 .0286917
688.884 .0286836
689.625 .0286760
690.365 .0286684
691.106 .0286617
691.846 .0286556
692.586 .0286507
693.326 .0286459
694.066 .0286415
694.805 .0286366
695.545 .0286308
696.284 .0286245
697.022 .0286177
697.761 .0286101
698.499 .0286024
699.237 .0285947
699.975 .0285874
700.713 .0285799
701.450 .0285728
702.187 .0285655
702.924 .0285584
703.661 .0285509
704.397 .0285424
705.133 .0285330
705.869 .0285229
706.605 .0285114
707.341 .0284984
708.076 .0284843
708.811 .0284687
709.546 .0284520
710.281 .0284341
711.015 .0284152
711.749 .0283954
712.483 .0283746
713.217 .0283529
713.950 .0283299
714.684 .0283057
715.417 .0282802
716.150 .0282541
716.882 .0282277
717.615 .0282009
718.347 .0281742
719.079 .0281482
719.811 .0281230
720.542 .0280984
721.273 .0280742
722.005 .0280499
722.735 .0280262
723.466 .0280019
724.196 .0279765
724.927 .0279502
725.656 .0279230
726.386 .0278949
727.116 .0278660
727.845 .0278365
728.574 .0278068
729.303 .0277771
730.031 .0277485
730.760 .0277204
731.488 .0276936
732.216 .0276681
732.944 .0276440
733.671 .0276210
734.398 .0275991
735.125 .0275781
735.852 .0275584
736.579 .0275399
737.305 .0275227
738.031 .0275070
738.757 .0274927
739.483 .0274802
740.208 .0274691
740.933 .0274590
741.658 .0274501
742.383 .0274411
743.108 .0274326
743.832 .0274239
744.556 .0274149
745.280 .0274056
746.004 .0273963
746.727 .0273872
747.450 .0273785
748.173 .0273701
748.896 .0273628
749.618 .0273568
750.340 .0273527
751.062 .0273498
751.784 .0273480
752.506 .0273472
753.227 .0273467
753.948 .0273453
754.669 .0273430
755.389 .0273392
756.110 .0273342
756.830 .0273278
757.550 .0273210
758.269 .0273139
758.989 .0273068
759.708 .0272999
760.427 .0272934
761.146 .0272866
761.864 .0272794
762.582 .0272712
763.300 .0272625
764.018 .0272535
764.736 .0272446
765.453 .0272364
766.170 .0272303
766.887 .0272261
767.603 .0272245
768.320 .0272246
769.036 .0272274
769.751 .0272313
770.467 .0272358
771.182 .0272403
771.897 .0272447
772.612 .0272483
773.327 .0272518
774.041 .0272554
774.755 .0272593
775.469 .0272633
776.183 .0272680
776.896 .0272726
777.609 .0272775
778.322 .0272821
779.035 .0272862
779.747 .0272897
780.459 .0272927
781.171 .0272945
781.882 .0272957
782.594 .0272967
783.305 .0272973
784.016 .0272974
784.726 .0272972
785.436 .0272962
786.147 .0272940
786.856 .0272910
787.566 .0272868
788.275 .0272810
788.984 .0272737
789.693 .0272643
790.401 .0272529
791.110 .0272399
791.818 .0272252
792.525 .0272095
793.233 .0271930
793.940 .0271758
794.647 .0271576
795.353 .0271386
796.060 .0271189
796.766 .0270981
797.472 .0270763
798.177 .0270532
798.883 .0270286
799.588 .0270033
800.292 .0269777
800.997 .0269520
801.701 .0269270
802.405 .0269023
803.109 .0268778
803.812 .0268533
804.515 .0268281
805.218 .0268016
805.921 .0267740
806.623 .0267448
807.325 .0267144
808.027 .0266829
808.728 .0266509
809.429 .0266184
810.130 .0265862
810.831 .0265540
811.531 .0265218
812.231 .0264895
812.931 .0264574
813.630 .0264251
814.330 .0263934
815.029 .0263625
815.727 .0263326
816.426 .0263039
817.124 .0262766
817.821 .0262502
818.519 .0262250
819.216 .0262011
819.913 .0261785
820.609 .0261571
821.306 .0261372
822.002 .0261186
822.697 .0261017
823.393 .0260861
824.088 .0260714
824.783 .0260573
825.477 .0260437
826.171 .0260295
826.865 .0260149
827.559 .0260005
828.252 .0259863
828.945 .0259725
829.638 .0259595
830.330 .0259474
831.023 .0259365
831.714 .0259265
832.406 .0259175
833.097 .0259091
833.788 .0259010
834.479 .0258932
835.169 .0258853
835.859 .0258780
836.548 .0258716
837.238 .0258662
837.927 .0258619
838.615 .0258589
839.304 .0258570
839.992 .0258559
840.680 .0258555
841.367 .0258559
842.054 .0258567
842.741 .0258577
843.428 .0258589
844.114 .0258601
844.800 .0258616
845.485 .0258635
846.170 .0258654
846.855 .0258677
847.540 .0258698
848.224 .0258718
848.908 .0258737
849.592 .0258753
850.275 .0258765
850.958 .0258773
851.641 .0258776
852.323 .0258777
853.005 .0258776
853.687 .0258779
854.368 .0258788
855.049 .0258809
855.730 .0258839
856.410 .0258877
857.090 .0258922
857.769 .0258971
858.449 .0259020
859.128 .0259068
859.806 .0259112
860.485 .0259156
861.163 .0259200
861.840 .0259248
862.518 .0259301
863.195 .0259358
863.871 .0259421
864.548 .0259487
865.224 .0259552
865.899 .0259613
866.574 .0259667
867.249 .0259716
867.924 .0259760
868.598 .0259801
869.272 .0259839
869.946 .0259879
870.619 .0259924
871.292 .0259971
871.964 .0260019
872.636 .0260072
873.308 .0260126
873.979 .0260178
874.651 .0260227
875.321 .0260272
875.992 .0260311
876.662 .0260346
877.331 .0260373
878.001 .0260392
878.670 .0260406
879.338 .0260416
880.007 .0260421
880.675 .0260426
881.342 .0260434
882.009 .0260443
882.676 .0260455
883.343 .0260467
884.009 .0260478
884.675 .0260483
885.340 .0260481
886.005 .0260470
886.670 .0260456
887.334 .0260438
887.998 .0260418
888.662 .0260400
889.325 .0260383
889.988 .0260362
890.650 .0260338
891.312 .0260304
891.974 .0260262
892.636 .0260206
893.297 .0260140
893.957 .0260060
894.618 .0259972
895.278 .0259873
895.937 .0259770
896.596 .0259660
897.255 .0259547
897.914 .0259425
898.572 .0259296
899.230 .0259160
899.887 .0259016
900.544 .0258862
901.201 .0258700
901.857 .0258531
902.513 .0258354
903.168 .0258163
903.823 .0257960
904.478 .0257743
905.132 .0257511
905.786 .0257263
906.440 .0257001
907.093 .0256722
907.746 .0256430
908.399 .0256119
909.051 .0255793
909.703 .0255453
910.354 .0255093
911.005 .0254717
911.656 .0254329
912.306 .0253930
912.956 .0253523
913.605 .0253115
914.254 .0252714
914.903 .0252321
915.551 .0251940
916.199 .0251569
916.847 .0251211
917.494 .0250864
918.141 .0250527
918.788 .0250195
919.434 .0249873
920.079 .0249556
920.725 .0249241
921.370 .0248933
922.014 .0248628
922.658 .0248324
923.302 .0248018
923.946 .0247712
924.589 .0247403
925.231 .0247082
925.873 .0246751
926.515 .0246408
927.157 .0246062
927.798 .0245709
928.439 .0245353
929.079 .0244998
929.719 .0244651
930.359 .0244312
930.998 .0243980
931.637 .0243660
932.275 .0243350
932.913 .0243047
933.551 .0242753
934.188 .0242465
934.825 .0242189
935.462 .0241925
936.098 .0241679
936.733 .0241449
937.369 .0241239
938.004 .0241046
938.638 .0240867
939.273 .0240698
939.907 .0240540
940.540 .0240383
941.173 .0240235
941.806 .0240098
942.438 .0239974
943.070 .0239865
943.702 .0239770
944.333 .0239685
944.964 .0239607
945.594 .0239529
946.224 .0239445
946.854 .0239357
947.483 .0239267
948.112 .0239174
948.741 .0239082
949.369 .0239000
949.996 .0238930
950.624 .0238868
951.251 .0238823
951.878 .0238789
952.504 .0238756
953.130 .0238727
953.755 .0238699
954.380 .0238676
955.005 .0238658
955.629 .0238653
956.253 .0238659
956.877 .0238686
957.500 .0238730
958.123 .0238787
958.746 .0238856
959.368 .0238936
959.990 .0239014
960.611 .0239087
961.232 .0239156
961.853 .0239221
962.473 .0239284
963.093 .0239351
963.712 .0239421
964.331 .0239493
964.950 .0239572
965.569 .0239661
966.187 .0239759
966.804 .0239872
967.422 .0239996
968.039 .0240136
968.655 .0240290
969.272 .0240452
969.887 .0240619
970.503 .0240789
971.118 .0240962
971.733 .0241132
972.347 .0241297
972.961 .0241461
973.575 .0241624
974.188 .0241786
974.801 .0241948
975.414 .0242101
976.026 .0242243
976.638 .0242374
977.250 .0242485
977.861 .0242577
978.472 .0242646
979.083 .0242694
979.693 .0242723
980.303 .0242738
980.912 .0242748
981.521 .0242748
982.130 .0242752
982.738 .0242759
983.346 .0242771
983.954 .0242788
984.562 .0242808
985.169 .0242827
985.775 .0242849
986.382 .0242871
986.988 .0242889
987.594 .0242907
988.199 .0242930
988.804 .0242964
989.409 .0243011
990.013 .0243072
990.617 .0243147
991.221 .0243233
991.824 .0243329
992.427 .0243432
993.030 .0243536
993.632 .0243645
994.234 .0243760
994.836 .0243880
995.438 .0244010
996.039 .0244149
996.640 .0244301
997.240 .0244471
997.840 .0244659
998.440 .0244854
999.040 .0245050
999.639 .0245250
1000.238 .0245449
1000.836 .0245636
1001.435 .0245816
1002.033 .0245985
1002.630 .0246145
1003.228 .0246297
1003.825 .0246441
1004.422 .0246579
1005.018 .0246719
1005.614 .0246857
1006.210 .0246997
1006.806 .0247135
1007.401 .0247272
1007.996 .0247402
1008.591 .0247532
1009.186 .0247657
1009.780 .0247773
1010.374 .0247879
1010.967 .0247983
1011.561 .0248076
1012.154 .0248162
1012.746 .0248233
1013.339 .0248298
1013.931 .0248345
1014.523 .0248376
1015.115 .0248386
1015.706 .0248381
1016.298 .0248364
1016.888 .0248337
1017.479 .0248300
1018.069 .0248263
1018.660 .0248225
1019.250 .0248194
1019.839 .0248163
1020.429 .0248139
1021.018 .0248122
1021.607 .0248114
1022.195 .0248113
1022.784 .0248125
1023.372 .0248140
1023.960 .0248162
1024.547 .0248189
1025.135 .0248218
1025.722 .0248242
1026.309 .0248259
1026.896 .0248270
1027.483 .0248270
1028.069 .0248255
1028.655 .0248231
1029.241 .0248188
1029.827 .0248143
1030.412 .0248087
1030.997 .0248028
1031.582 .0247963
1032.167 .0247900
1032.752 .0247838
1033.336 .0247774
1033.921 .0247709
1034.505 .0247633
1035.089 .0247546
1035.672 .0247450
1036.256 .0247339
1036.839 .0247215
1037.422 .0247080
1038.005 .0246949
1038.588 .0246821
1039.171 .0246702
1039.753 .0246590
1040.335 .0246487
1040.918 .0246380
1041.500 .0246262
1042.081 .0246130
1042.663 .0245981
1043.244 .0245825
1043.826 .0245655
1044.407 .0245478
1044.988 .0245305
1045.569 .0245132
1046.150 .0244959
1046.730 .0244792
1047.311 .0244627
1047.891 .0244455
1048.471 .0244271
1049.052 .0244079
1049.632 .0243879
1050.211 .0243674
1050.791 .0243458
1051.371 .0243231
1051.950 .0243003
1052.530 .0242760
1053.109 .0242501
1053.688 .0242244
1054.268 .0241995
1054.847 .0241756
1055.426 .0241528
1056.005 .0241319
1056.583 .0241133
1057.162 .0240965
1057.741 .0240802
1058.319 .0240638
1058.898 .0240468
1059.476 .0240275
1060.055 .0240061
1060.633 .0239841
1061.211 .0239615
1061.790 .0239398
1062.368 .0239202
1062.946 .0239027
1063.524 .0238872
1064.102 .0238741
1064.680 .0238615
1065.258 .0238499
1065.836 .0238382
1066.414 .0238249
1066.992 .0238098
1067.570 .0237940
1068.148 .0237771
1068.726 .0237597
1069.304 .0237432
1069.882 .0237281
1070.460 .0237135
1071.038 .0237014
1071.616 .0236906
1072.194 .0236811
1072.772 .0236722
1073.350 .0236636
1073.928 .0236548
1074.506 .0236451
1075.084 .0236340
1075.662 .0236214
1076.240 .0236082
1076.819 .0235947
1077.397 .0235803
1077.976 .0235669
1078.554 .0235549
1079.133 .0235457
1079.711 .0235384
1080.290 .0235340
1080.869 .0235316
1081.448 .0235313
1082.027 .0235324
1082.606 .0235344
1083.185 .0235370
1083.764 .0235401
1084.343 .0235436
1084.923 .0235487
1085.502 .0235551
1086.082 .0235633
1086.662 .0235723
1087.242 .0235818
1087.822 .0235907
1088.402 .0235996
1088.983 .0236071
1089.563 .0236137
1090.144 .0236203
1090.725 .0236264
1091.306 .0236301
1091.887 .0236321
1092.469 .0236343
1093.050 .0236358
1093.632 .0236369
1094.214 .0236380
1094.796 .0236382
1095.379 .0236396
1095.961 .0236415
1096.544 .0236445
1097.127 .0236500
1097.710 .0236583
1098.294 .0236689
1098.877 .0236807
1099.461 .0236945
1100.046 .0237093
1100.630 .0237254
1101.215 .0237424
1101.800 .0237597
1102.385 .0237763
1102.970 .0237923
1103.556 .0238090
1104.142 .0238285
1104.728 .0238495
1105.315 .0238728
1105.902 .0238985
1106.489 .0239246
1107.077 .0239515
1107.664 .0239791
1108.253 .0240055
1108.841 .0240317
1109.430 .0240584
1110.019 .0240821
1110.609 .0241038
1111.198 .0241262
1111.789 .0241484
1112.379 .0241713
1112.970 .0241970
1113.561 .0242259
1114.153 .0242591
1114.745 .0243001
1115.338 .0243480
1115.931 .0244008
1116.524 .0244635
1117.117 .0245330
1117.712 .0246049
1118.306 .0246813
1118.901 .0247595
1119.496 .0248348
1120.092 .0249096
1120.689 .0249849
1121.285 .0250583
1121.882 .0251319
1122.480 .0252079
1123.078 .0252837
1123.677 .0253589
1124.276 .0254325
1124.875 .0255005
1125.476 .0255643
1126.076 .0256242
1126.677 .0256770
1127.279 .0257217
1127.881 .0257682
1128.484 .0258154
1129.087 .0258656
1129.691 .0259273
1130.295 .0259997
1130.900 .0260826
1131.505 .0261767
1132.111 .0262787
1132.718 .0263853
1133.325 .0264940
1133.933 .0266011
1134.541 .0267042
1135.150 .0268070
1135.760 .0269067
1136.370 .0270020
1136.981 .0270971
1137.592 .0271946
1138.204 .0272860
1138.817 .0273664
1139.431 .0274391
1140.045 .0274953
1140.660 .0275414
1141.275 .0275723
1141.891 .0275790
1142.508 .0276394
1143.126 .0275441
1143.744 .0276364
1144.363 .0276574
1144.983 .0272730
