Measurement Sequence started on: 15-12-46-377
Integration time: 28
Scans to Average: 2 
>>>>>Begin Spectral Data<<<<<
432.689 .0000100
433.621 .0000100
434.552 .0000100
435.482 .0000100
436.410 .0000100
437.337 .0000100
438.262 .0267889
439.187 .0568113
440.110 .0941101
441.031 .1361894
441.952 .1770765
442.871 .2092358
443.789 .2268698
444.705 .2279368
445.621 .2148822
446.535 .1930598
447.447 .1682980
448.359 .1304424
449.269 .1114983
450.178 .0994423
451.086 .0908386
451.993 .0842126
452.898 .0790049
453.803 .0747473
454.706 .0712615
455.608 .0683390
456.508 .0658459
457.408 .0637164
458.306 .0618567
459.204 .0601851
460.100 .0586822
460.995 .0573278
461.888 .0560910
462.781 .0549595
463.673 .0539256
464.563 .0529795
465.452 .0521057
466.340 .0512993
467.228 .0505550
468.114 .0498671
468.999 .0492443
469.882 .0486684
470.765 .0481542
471.647 .0476953
472.528 .0472873
473.407 .0469422
474.286 .0466489
475.163 .0463987
476.040 .0461960
476.915 .0460324
477.790 .0459013
478.663 .0457963
479.535 .0457164
480.407 .0456624
481.277 .0456293
482.147 .0456174
483.015 .0456156
483.883 .0456243
484.749 .0456336
485.615 .0456348
486.479 .0456374
487.343 .0456388
488.206 .0456350
489.067 .0456335
489.928 .0456356
490.788 .0456438
491.647 .0456626
492.505 .0457020
493.362 .0457636
494.218 .0458477
495.073 .0459464
495.928 .0460654
496.781 .0461965
497.634 .0463489
498.486 .0465174
499.337 .0467078
500.187 .0469263
501.036 .0471583
501.884 .0474135
502.731 .0477001
503.578 .0480144
504.424 .0483561
505.268 .0487187
506.113 .0491072
506.956 .0495181
507.798 .0499679
508.640 .0504709
509.480 .0510416
510.320 .0517034
511.160 .0524608
511.998 .0533140
512.836 .0542696
513.672 .0553291
514.508 .0564752
515.344 .0577218
516.178 .0590720
517.012 .0605246
517.845 .0621418
518.677 .0639638
519.508 .0660423
520.339 .0684201
521.169 .0711379
521.998 .0742228
522.826 .0776926
523.654 .0815540
524.481 .0857668
525.307 .0903750
526.133 .0954200
526.958 .1008493
527.782 .1066364
528.605 .1127018
529.428 .1190513
530.250 .1252371
531.072 .1310992
531.892 .1362838
532.712 .1405268
533.532 .1435707
534.350 .1452004
535.168 .1452148
535.986 .1436800
536.802 .1406668
537.618 .1363677
538.434 .1309500
539.249 .1249172
540.063 .1184179
540.876 .1118256
541.689 .1053599
542.501 .0992454
543.313 .0935769
544.124 .0884806
544.934 .0838880
545.744 .0797859
546.553 .0761027
547.361 .0728413
548.169 .0699647
548.976 .0674292
549.783 .0651586
550.589 .0631380
551.395 .0612977
552.200 .0596225
553.004 .0580832
553.808 .0566587
554.611 .0553390
555.414 .0541355
556.216 .0530144
557.018 .0519894
557.819 .0510366
558.619 .0501439
559.419 .0492801
560.218 .0484617
561.017 .0476619
561.815 .0468814
562.613 .0461284
563.410 .0454028
564.207 .0446978
565.003 .0440233
565.799 .0433779
566.594 .0427617
567.388 .0421758
568.182 .0416151
568.976 .0410674
569.769 .0405423
570.562 .0400307
571.354 .0395307
572.145 .0390489
572.936 .0385825
573.727 .0381256
574.517 .0376757
575.307 .0372365
576.096 .0368120
576.885 .0364052
577.673 .0360232
578.461 .0356717
579.248 .0353542
580.035 .0350704
580.821 .0348136
581.607 .0345824
582.392 .0343724
583.177 .0341791
583.962 .0339957
584.746 .0338242
585.529 .0336617
586.313 .0335118
587.095 .0333758
587.878 .0332528
588.660 .0331419
589.441 .0330420
590.222 .0329504
591.003 .0328658
591.783 .0327868
592.563 .0327117
593.342 .0326403
594.121 .0325730
594.899 .0325093
595.678 .0324515
596.455 .0323991
597.233 .0323515
598.009 .0323077
598.786 .0322664
599.562 .0322261
600.338 .0321843
601.113 .0321417
601.888 .0320974
602.663 .0320515
603.437 .0320047
604.211 .0319567
604.984 .0319091
605.757 .0318631
606.530 .0318172
607.302 .0317713
608.074 .0317261
608.845 .0316812
609.616 .0316370
610.387 .0315939
611.158 .0315526
611.928 .0315136
612.697 .0314772
613.467 .0314438
614.236 .0314138
615.004 .0313868
615.773 .0313618
616.541 .0313377
617.308 .0313149
618.076 .0312915
618.843 .0312676
619.609 .0312440
620.375 .0312212
621.141 .0311990
621.907 .0311771
622.672 .0311553
623.437 .0311341
624.202 .0311132
624.966 .0310918
625.730 .0310692
626.493 .0310460
627.257 .0310213
628.020 .0309957
628.782 .0309699
629.545 .0309449
630.307 .0309206
631.068 .0308977
631.830 .0308748
632.591 .0308522
633.352 .0308294
634.112 .0308063
634.872 .0307823
635.632 .0307579
636.392 .0307329
637.151 .0307073
637.910 .0306818
638.668 .0306575
639.427 .0306335
640.185 .0306106
640.943 .0305884
641.700 .0305670
642.457 .0305462
643.214 .0305256
643.971 .0305050
644.727 .0304855
645.483 .0304661
646.239 .0304467
646.994 .0304271
647.750 .0304081
648.505 .0303894
649.259 .0303709
650.014 .0303524
650.768 .0303337
651.521 .0303149
652.275 .0302962
653.028 .0302766
653.781 .0302571
654.534 .0302365
655.286 .0302150
656.039 .0301922
656.791 .0301684
657.542 .0301427
658.294 .0301163
659.045 .0300897
659.796 .0300628
660.546 .0300352
661.297 .0300073
662.047 .0299791
662.796 .0299505
663.546 .0299212
664.295 .0298914
665.044 .0298608
665.793 .0298309
666.542 .0298010
667.290 .0297729
668.038 .0297466
668.786 .0297225
669.533 .0297009
670.281 .0296810
671.028 .0296625
671.774 .0296450
672.521 .0296285
673.267 .0296131
674.013 .0295985
674.759 .0295849
675.505 .0295721
676.250 .0295606
676.995 .0295497
677.740 .0295391
678.484 .0295285
679.229 .0295176
679.973 .0295053
680.717 .0294918
681.460 .0294770
682.204 .0294609
682.947 .0294438
683.690 .0294257
684.433 .0294070
685.175 .0293873
685.917 .0293668
686.659 .0293456
687.401 .0293236
688.142 .0293019
688.884 .0292798
689.625 .0292580
690.365 .0292361
691.106 .0292145
691.846 .0291934
692.586 .0291727
693.326 .0291524
694.066 .0291328
694.805 .0291139
695.545 .0290962
696.284 .0290795
697.022 .0290638
697.761 .0290495
698.499 .0290359
699.237 .0290229
699.975 .0290102
700.713 .0289976
701.450 .0289850
702.187 .0289725
702.924 .0289608
703.661 .0289490
704.397 .0289378
705.133 .0289273
705.869 .0289171
706.605 .0289077
707.341 .0288976
708.076 .0288875
708.811 .0288772
709.546 .0288664
710.281 .0288553
711.015 .0288437
711.749 .0288323
712.483 .0288208
713.217 .0288088
713.950 .0287963
714.684 .0287833
715.417 .0287698
716.150 .0287556
716.882 .0287408
717.615 .0287253
718.347 .0287094
719.079 .0286933
719.811 .0286769
720.542 .0286597
721.273 .0286423
722.005 .0286239
722.735 .0286042
723.466 .0285842
724.196 .0285636
724.927 .0285425
725.656 .0285218
726.386 .0285017
727.116 .0284826
727.845 .0284645
728.574 .0284473
729.303 .0284306
730.031 .0284148
730.760 .0283994
731.488 .0283834
732.216 .0283679
732.944 .0283533
733.671 .0283394
734.398 .0283265
735.125 .0283155
735.852 .0283055
736.579 .0282966
737.305 .0282884
738.031 .0282804
738.757 .0282725
739.483 .0282640
740.208 .0282541
740.933 .0282434
741.658 .0282318
742.383 .0282192
743.108 .0282056
743.832 .0281922
744.556 .0281788
745.280 .0281650
746.004 .0281506
746.727 .0281360
747.450 .0281207
748.173 .0281047
748.896 .0280877
749.618 .0280703
750.340 .0280526
751.062 .0280353
751.784 .0280179
752.506 .0280009
753.227 .0279848
753.948 .0279692
754.669 .0279529
755.389 .0279368
756.110 .0279200
756.830 .0279027
757.550 .0278851
758.269 .0278677
758.989 .0278503
759.708 .0278334
760.427 .0278165
761.146 .0277996
761.864 .0277822
762.582 .0277646
763.300 .0277461
764.018 .0277273
764.736 .0277080
765.453 .0276886
766.170 .0276694
766.887 .0276513
767.603 .0276338
768.320 .0276169
769.036 .0276003
769.751 .0275839
770.467 .0275668
771.182 .0275496
771.897 .0275317
772.612 .0275138
773.327 .0274965
774.041 .0274799
774.755 .0274644
775.469 .0274507
776.183 .0274391
776.896 .0274293
777.609 .0274210
778.322 .0274142
779.035 .0274080
779.747 .0274025
780.459 .0273974
781.171 .0273921
781.882 .0273872
782.594 .0273829
783.305 .0273793
784.016 .0273764
784.726 .0273743
785.436 .0273726
786.147 .0273708
786.856 .0273686
787.566 .0273653
788.275 .0273606
788.984 .0273546
789.693 .0273474
790.401 .0273391
791.110 .0273306
791.818 .0273219
792.525 .0273137
793.233 .0273063
793.940 .0272994
794.647 .0272927
795.353 .0272866
796.060 .0272808
796.766 .0272746
797.472 .0272682
798.177 .0272617
798.883 .0272544
799.588 .0272467
800.292 .0272388
800.997 .0272305
801.701 .0272219
802.405 .0272134
803.109 .0272046
803.812 .0271960
804.515 .0271875
805.218 .0271781
805.921 .0271685
806.623 .0271588
807.325 .0271484
808.027 .0271377
808.728 .0271278
809.429 .0271181
810.130 .0271091
810.831 .0271013
811.531 .0270939
812.231 .0270869
812.931 .0270801
813.630 .0270729
814.330 .0270650
815.029 .0270570
815.727 .0270483
816.426 .0270398
817.124 .0270318
817.821 .0270238
818.519 .0270160
819.216 .0270086
819.913 .0270009
820.609 .0269924
821.306 .0269838
822.002 .0269752
822.697 .0269666
823.393 .0269588
824.088 .0269515
824.783 .0269450
825.477 .0269397
826.171 .0269346
826.865 .0269295
827.559 .0269248
828.252 .0269199
828.945 .0269150
829.638 .0269109
830.330 .0269077
831.023 .0269050
831.714 .0269037
832.406 .0269032
833.097 .0269026
833.788 .0269013
834.479 .0268989
835.169 .0268953
835.859 .0268913
836.548 .0268865
837.238 .0268818
837.927 .0268776
838.615 .0268741
839.304 .0268710
839.992 .0268679
840.680 .0268648
841.367 .0268610
842.054 .0268562
842.741 .0268504
843.428 .0268434
844.114 .0268358
844.800 .0268279
845.485 .0268201
846.170 .0268120
846.855 .0268035
847.540 .0267946
848.224 .0267848
848.908 .0267739
849.592 .0267615
850.275 .0267473
850.958 .0267314
851.641 .0267140
852.323 .0266949
853.005 .0266742
853.687 .0266522
854.368 .0266290
855.049 .0266046
855.730 .0265797
856.410 .0265540
857.090 .0265281
857.769 .0265022
858.449 .0264762
859.128 .0264499
859.806 .0264241
860.485 .0263989
861.163 .0263741
861.840 .0263505
862.518 .0263278
863.195 .0263059
863.871 .0262852
864.548 .0262657
865.224 .0262471
865.899 .0262297
866.574 .0262131
867.249 .0261967
867.924 .0261809
868.598 .0261655
869.272 .0261503
869.946 .0261358
870.619 .0261216
871.292 .0261073
871.964 .0260925
872.636 .0260776
873.308 .0260624
873.979 .0260469
874.651 .0260309
875.321 .0260143
875.992 .0259976
876.662 .0259811
877.331 .0259644
878.001 .0259484
878.670 .0259335
879.338 .0259194
880.007 .0259063
880.675 .0258937
881.342 .0258817
882.009 .0258699
882.676 .0258584
883.343 .0258468
884.009 .0258351
884.675 .0258236
885.340 .0258124
886.005 .0258019
886.670 .0257925
887.334 .0257842
887.998 .0257767
888.662 .0257703
889.325 .0257644
889.988 .0257587
890.650 .0257533
891.312 .0257475
891.974 .0257421
892.636 .0257372
893.297 .0257333
893.957 .0257306
894.618 .0257296
895.278 .0257304
895.937 .0257320
896.596 .0257343
897.255 .0257367
897.914 .0257388
898.572 .0257404
899.230 .0257412
899.887 .0257410
900.544 .0257397
901.201 .0257375
901.857 .0257346
902.513 .0257311
903.168 .0257263
903.823 .0257198
904.478 .0257112
905.132 .0257004
905.786 .0256873
906.440 .0256720
907.093 .0256551
907.746 .0256368
908.399 .0256175
909.051 .0255975
909.703 .0255770
910.354 .0255566
911.005 .0255367
911.656 .0255173
912.306 .0254981
912.956 .0254798
913.605 .0254625
914.254 .0254465
914.903 .0254318
915.551 .0254181
916.199 .0254059
916.847 .0253951
917.494 .0253854
918.141 .0253767
918.788 .0253692
919.434 .0253629
920.079 .0253574
920.725 .0253524
921.370 .0253475
922.014 .0253423
922.658 .0253361
923.302 .0253284
923.946 .0253188
924.589 .0253072
925.231 .0252939
925.873 .0252798
926.515 .0252654
927.157 .0252508
927.798 .0252367
928.439 .0252233
929.079 .0252103
929.719 .0251973
930.359 .0251835
930.998 .0251689
931.637 .0251534
932.275 .0251374
932.913 .0251208
933.551 .0251047
934.188 .0250903
934.825 .0250775
935.462 .0250669
936.098 .0250586
936.733 .0250522
937.369 .0250479
938.004 .0250451
938.638 .0250430
939.273 .0250415
939.907 .0250409
940.540 .0250415
941.173 .0250431
941.806 .0250464
942.438 .0250509
943.070 .0250562
943.702 .0250624
944.333 .0250687
944.964 .0250741
945.594 .0250788
946.224 .0250823
946.854 .0250847
947.483 .0250863
948.112 .0250875
948.741 .0250885
949.369 .0250897
949.996 .0250906
950.624 .0250912
951.251 .0250910
951.878 .0250905
952.504 .0250895
953.130 .0250885
953.755 .0250872
954.380 .0250867
955.005 .0250866
955.629 .0250872
956.253 .0250884
956.877 .0250904
957.500 .0250923
958.123 .0250942
958.746 .0250953
959.368 .0250953
959.990 .0250938
960.611 .0250915
961.232 .0250878
961.853 .0250835
962.473 .0250790
963.093 .0250741
963.712 .0250688
964.331 .0250637
964.950 .0250584
965.569 .0250534
966.187 .0250488
966.804 .0250449
967.422 .0250414
968.039 .0250389
968.655 .0250369
969.272 .0250349
969.887 .0250334
970.503 .0250322
971.118 .0250311
971.733 .0250301
972.347 .0250291
972.961 .0250282
973.575 .0250273
974.188 .0250264
974.801 .0250245
975.414 .0250215
976.026 .0250166
976.638 .0250099
977.250 .0250009
977.861 .0249909
978.472 .0249802
979.083 .0249694
979.693 .0249586
980.303 .0249480
980.912 .0249369
981.521 .0249250
982.130 .0249122
982.738 .0248982
983.346 .0248825
983.954 .0248658
984.562 .0248483
985.169 .0248311
985.775 .0248144
986.382 .0247994
986.988 .0247860
987.594 .0247740
988.199 .0247623
988.804 .0247506
989.409 .0247380
990.013 .0247253
990.617 .0247119
991.221 .0246985
991.824 .0246861
992.427 .0246752
993.030 .0246659
993.632 .0246591
994.234 .0246550
994.836 .0246529
995.438 .0246517
996.039 .0246510
996.640 .0246499
997.240 .0246480
997.840 .0246453
998.440 .0246418
999.040 .0246372
999.639 .0246328
1000.238 .0246277
1000.836 .0246226
1001.435 .0246173
1002.033 .0246115
1002.630 .0246051
1003.228 .0245979
1003.825 .0245898
1004.422 .0245803
1005.018 .0245704
1005.614 .0245608
1006.210 .0245515
1006.806 .0245429
1007.401 .0245350
1007.996 .0245280
1008.591 .0245218
1009.186 .0245167
1009.780 .0245119
1010.374 .0245079
1010.967 .0245044
1011.561 .0245010
1012.154 .0244974
1012.746 .0244936
1013.339 .0244896
1013.931 .0244848
1014.523 .0244798
1015.115 .0244738
1015.706 .0244668
1016.298 .0244593
1016.888 .0244515
1017.479 .0244430
1018.069 .0244335
1018.660 .0244231
1019.250 .0244122
1019.839 .0244008
1020.429 .0243891
1021.018 .0243776
1021.607 .0243676
1022.195 .0243593
1022.784 .0243528
1023.372 .0243483
1023.960 .0243457
1024.547 .0243449
1025.135 .0243457
1025.722 .0243478
1026.309 .0243510
1026.896 .0243547
1027.483 .0243593
1028.069 .0243642
1028.655 .0243698
1029.241 .0243746
1029.827 .0243784
1030.412 .0243812
1030.997 .0243830
1031.582 .0243834
1032.167 .0243827
1032.752 .0243812
1033.336 .0243798
1033.921 .0243781
1034.505 .0243761
1035.089 .0243734
1035.672 .0243699
1036.256 .0243651
1036.839 .0243589
1037.422 .0243514
1038.005 .0243445
1038.588 .0243379
1039.171 .0243327
1039.753 .0243294
1040.335 .0243273
1040.918 .0243260
1041.500 .0243251
1042.081 .0243241
1042.663 .0243219
1043.244 .0243180
1043.826 .0243134
1044.407 .0243077
1044.988 .0243018
1045.569 .0242954
1046.150 .0242893
1046.730 .0242840
1047.311 .0242794
1047.891 .0242741
1048.471 .0242684
1049.052 .0242623
1049.632 .0242559
1050.211 .0242493
1050.791 .0242427
1051.371 .0242363
1051.950 .0242306
1052.530 .0242256
1053.109 .0242220
1053.688 .0242184
1054.268 .0242151
1054.847 .0242126
1055.426 .0242108
1056.005 .0242093
1056.583 .0242086
1057.162 .0242093
1057.741 .0242119
1058.319 .0242157
1058.898 .0242203
1059.476 .0242243
1060.055 .0242291
1060.633 .0242328
1061.211 .0242345
1061.790 .0242355
1062.368 .0242367
1062.946 .0242380
1063.524 .0242399
1064.102 .0242435
1064.680 .0242477
1065.258 .0242520
1065.836 .0242558
1066.414 .0242576
1066.992 .0242573
1067.570 .0242543
1068.148 .0242488
1068.726 .0242422
1069.304 .0242358
1069.882 .0242297
1070.460 .0242248
1071.038 .0242227
1071.616 .0242219
1072.194 .0242224
1072.772 .0242231
1073.350 .0242242
1073.928 .0242243
1074.506 .0242232
1075.084 .0242212
1075.662 .0242186
1076.240 .0242156
1076.819 .0242124
1077.397 .0242107
1077.976 .0242109
1078.554 .0242131
1079.133 .0242181
1079.711 .0242251
1080.290 .0242335
1080.869 .0242422
1081.448 .0242507
1082.027 .0242578
1082.606 .0242641
1083.185 .0242698
1083.764 .0242751
1084.343 .0242828
1084.923 .0242923
1085.502 .0243037
1086.082 .0243183
1086.662 .0243362
1087.242 .0243537
1087.822 .0243701
1088.402 .0243853
1088.983 .0243966
1089.563 .0244034
1090.144 .0244081
1090.725 .0244105
1091.306 .0244118
1091.887 .0244149
1092.469 .0244190
1093.050 .0244239
1093.632 .0244327
1094.214 .0244434
1094.796 .0244565
1095.379 .0244745
1095.961 .0244973
1096.544 .0245228
1097.127 .0245517
1097.710 .0245849
1098.294 .0246209
1098.877 .0246605
1099.461 .0247034
1100.046 .0247466
1100.630 .0247920
1101.215 .0248389
1101.800 .0248842
1102.385 .0249278
1102.970 .0249690
1103.556 .0250042
1104.142 .0250328
1104.728 .0250567
1105.315 .0250751
1105.902 .0250897
1106.489 .0251038
1107.077 .0251206
1107.664 .0251414
1108.253 .0251652
1108.841 .0251934
1109.430 .0252254
1110.019 .0252617
1110.609 .0252979
1111.198 .0253330
1111.789 .0253701
1112.379 .0254088
1112.970 .0254498
1113.561 .0254927
1114.153 .0255400
1114.745 .0255916
1115.338 .0256453
1115.931 .0256978
1116.524 .0257463
1117.117 .0257907
1117.712 .0258273
1118.306 .0258575
1118.901 .0258821
1119.496 .0259021
1120.092 .0259202
1120.689 .0259371
1121.285 .0259554
1121.882 .0259734
1122.480 .0259947
1123.078 .0260203
1123.677 .0260525
1124.276 .0260900
1124.875 .0261323
1125.476 .0261792
1126.076 .0262333
1126.677 .0262934
1127.279 .0263576
1127.881 .0264246
1128.484 .0264938
1129.087 .0265638
1129.691 .0266356
1130.295 .0267089
1130.900 .0267860
1131.505 .0268652
1132.111 .0269498
1132.718 .0270362
1133.325 .0271263
1133.933 .0272192
1134.541 .0273150
1135.150 .0274137
1135.760 .0275146
1136.370 .0276157
1136.981 .0277209
1137.592 .0278283
1138.204 .0279436
1138.817 .0280655
1139.431 .0282016
1140.045 .0283528
1140.660 .0285205
1141.275 .0287097
1141.891 .0289182
1142.508 .0291400
1143.126 .0293721
1143.744 .0295652
1144.363 .0299493
1144.983 .0301916
