Measurement Sequence started on: 15-12-46-377
Integration time: 28
Scans to Average: 2 
>>>>>Begin Spectral Data<<<<<
432.689 .0000100
433.621 .0000100
434.552 .0000100
435.482 .0000100
436.410 .0000100
437.337 .0000100
438.262 .0272927
439.187 .0578044
440.110 .0956871
441.031 .1384114
441.952 .1798466
442.871 .2124184
443.789 .2301714
444.705 .2310812
445.621 .2176718
446.535 .1953985
447.447 .1702077
448.359 .1317710
449.269 .1127003
450.178 .1006716
451.086 .0921826
451.993 .0857354
452.898 .0806495
453.803 .0765294
454.706 .0731178
455.608 .0702001
456.508 .0676649
457.408 .0654506
458.306 .0634637
459.204 .0616874
460.100 .0600943
460.995 .0586535
461.888 .0573496
462.781 .0561597
463.673 .0550430
464.563 .0540066
465.452 .0530276
466.340 .0520986
467.228 .0512256
468.114 .0504209
468.999 .0496738
469.882 .0489807
470.765 .0483526
471.647 .0477855
472.528 .0472721
473.407 .0468181
474.286 .0464112
475.163 .0460467
476.040 .0457319
476.915 .0454577
477.790 .0452197
478.663 .0450213
479.535 .0448558
480.407 .0447183
481.277 .0445988
482.147 .0444990
483.015 .0444056
483.883 .0443211
484.749 .0442474
485.615 .0441832
486.479 .0441355
487.343 .0441037
488.206 .0440969
489.067 .0441138
489.928 .0441522
490.788 .0442093
491.647 .0442799
492.505 .0443652
493.362 .0444624
494.218 .0445728
495.073 .0447019
495.928 .0448598
496.781 .0450376
497.634 .0452486
498.486 .0454877
499.337 .0457652
500.187 .0460707
501.036 .0464024
501.884 .0467598
502.731 .0471411
503.578 .0475462
504.424 .0479724
505.268 .0484192
506.113 .0488963
506.956 .0493912
507.798 .0499297
508.640 .0505109
509.480 .0511522
510.320 .0518679
511.160 .0526892
511.998 .0536104
512.836 .0546509
513.672 .0557966
514.508 .0570550
515.344 .0584111
516.178 .0598879
517.012 .0614660
517.845 .0632036
518.677 .0651642
519.508 .0673703
520.339 .0698956
521.169 .0728644
521.998 .0762504
522.826 .0801135
523.654 .0844830
524.481 .0893360
525.307 .0946279
526.133 .1003548
526.958 .1064357
527.782 .1127982
528.605 .1193673
529.428 .1260768
530.250 .1324227
531.072 .1383426
531.892 .1434288
532.712 .1473988
533.532 .1500726
534.350 .1512300
535.168 .1507029
535.986 .1485697
536.802 .1449219
537.618 .1399739
538.434 .1339453
539.249 .1273727
540.063 .1204223
540.876 .1134798
541.689 .1067798
542.501 .1005099
543.313 .0948016
544.124 .0897317
544.934 .0851715
545.744 .0810663
546.553 .0773412
547.361 .0739412
548.169 .0708458
548.976 .0680194
549.783 .0654692
550.589 .0631785
551.395 .0611193
552.200 .0592845
553.004 .0576307
553.808 .0561370
554.611 .0548018
555.414 .0535890
556.216 .0524917
557.018 .0514934
557.819 .0505794
558.619 .0497317
559.419 .0489490
560.218 .0482240
561.017 .0475372
561.815 .0468739
562.613 .0462312
563.410 .0455875
564.207 .0449586
565.003 .0443430
565.799 .0437445
566.594 .0431612
567.388 .0426037
568.182 .0420557
568.976 .0415193
569.769 .0409894
570.562 .0404607
571.354 .0399356
572.145 .0394220
572.936 .0389177
573.727 .0384277
574.517 .0379620
575.307 .0375224
576.096 .0371136
576.885 .0367389
577.673 .0363931
578.461 .0360696
579.248 .0357675
580.035 .0354801
580.821 .0352026
581.607 .0349307
582.392 .0346691
583.177 .0344162
583.962 .0341779
584.746 .0339568
585.529 .0337550
586.313 .0335747
587.095 .0334161
587.878 .0332739
588.660 .0331482
589.441 .0330303
590.222 .0329200
591.003 .0328153
591.783 .0327173
592.563 .0326252
593.342 .0325419
594.121 .0324655
594.899 .0323970
595.678 .0323351
596.455 .0322795
597.233 .0322282
598.009 .0321793
598.786 .0321315
599.562 .0320833
600.338 .0320349
601.113 .0319863
601.888 .0319369
602.663 .0318890
603.437 .0318413
604.211 .0317938
604.984 .0317475
605.757 .0317029
606.530 .0316600
607.302 .0316192
608.074 .0315809
608.845 .0315445
609.616 .0315099
610.387 .0314773
611.158 .0314473
611.928 .0314193
612.697 .0313929
613.467 .0313670
614.236 .0313426
615.004 .0313192
615.773 .0312962
616.541 .0312747
617.308 .0312547
618.076 .0312364
618.843 .0312193
619.609 .0312027
620.375 .0311863
621.141 .0311700
621.907 .0311536
622.672 .0311361
623.437 .0311177
624.202 .0310982
624.966 .0310777
625.730 .0310566
626.493 .0310350
627.257 .0310119
628.020 .0309877
628.782 .0309628
629.545 .0309366
630.307 .0309089
631.068 .0308798
631.830 .0308501
632.591 .0308196
633.352 .0307896
634.112 .0307594
634.872 .0307293
635.632 .0307000
636.392 .0306706
637.151 .0306413
637.910 .0306122
638.668 .0305843
639.427 .0305581
640.185 .0305340
640.943 .0305129
641.700 .0304934
642.457 .0304763
643.214 .0304610
643.971 .0304461
644.727 .0304308
645.483 .0304146
646.239 .0303971
646.994 .0303786
647.750 .0303589
648.505 .0303391
649.259 .0303192
650.014 .0302997
650.768 .0302807
651.521 .0302617
652.275 .0302433
653.028 .0302252
653.781 .0302066
654.534 .0301880
655.286 .0301684
656.039 .0301481
656.791 .0301268
657.542 .0301047
658.294 .0300826
659.045 .0300606
659.796 .0300389
660.546 .0300178
661.297 .0299966
662.047 .0299761
662.796 .0299554
663.546 .0299341
664.295 .0299123
665.044 .0298897
665.793 .0298668
666.542 .0298434
667.290 .0298202
668.038 .0297975
668.786 .0297751
669.533 .0297531
670.281 .0297309
671.028 .0297088
671.774 .0296865
672.521 .0296644
673.267 .0296428
674.013 .0296220
674.759 .0296022
675.505 .0295838
676.250 .0295660
676.995 .0295484
677.740 .0295307
678.484 .0295119
679.229 .0294924
679.973 .0294719
680.717 .0294505
681.460 .0294288
682.204 .0294076
682.947 .0293874
683.690 .0293681
684.433 .0293501
685.175 .0293327
685.917 .0293158
686.659 .0292989
687.401 .0292820
688.142 .0292649
688.884 .0292481
689.625 .0292318
690.365 .0292160
691.106 .0292006
691.846 .0291856
692.586 .0291709
693.326 .0291561
694.066 .0291409
694.805 .0291254
695.545 .0291090
696.284 .0290920
697.022 .0290746
697.761 .0290565
698.499 .0290378
699.237 .0290190
699.975 .0289993
700.713 .0289788
701.450 .0289586
702.187 .0289380
702.924 .0289179
703.661 .0288990
704.397 .0288816
705.133 .0288660
705.869 .0288526
706.605 .0288414
707.341 .0288319
708.076 .0288243
708.811 .0288175
709.546 .0288107
710.281 .0288044
711.015 .0287975
711.749 .0287902
712.483 .0287827
713.217 .0287748
713.950 .0287663
714.684 .0287575
715.417 .0287481
716.150 .0287381
716.882 .0287269
717.615 .0287146
718.347 .0287009
719.079 .0286862
719.811 .0286706
720.542 .0286544
721.273 .0286380
722.005 .0286217
722.735 .0286052
723.466 .0285889
724.196 .0285717
724.927 .0285541
725.656 .0285357
726.386 .0285166
727.116 .0284970
727.845 .0284772
728.574 .0284570
729.303 .0284372
730.031 .0284176
730.760 .0283984
731.488 .0283792
732.216 .0283604
732.944 .0283420
733.671 .0283238
734.398 .0283061
735.125 .0282898
735.852 .0282750
736.579 .0282625
737.305 .0282520
738.031 .0282434
738.757 .0282360
739.483 .0282296
740.208 .0282232
740.933 .0282168
741.658 .0282101
742.383 .0282024
743.108 .0281937
743.832 .0281846
744.556 .0281750
745.280 .0281647
746.004 .0281544
746.727 .0281438
747.450 .0281326
748.173 .0281209
748.896 .0281085
749.618 .0280951
750.340 .0280811
751.062 .0280670
751.784 .0280527
752.506 .0280383
753.227 .0280240
753.948 .0280100
754.669 .0279964
755.389 .0279831
756.110 .0279695
756.830 .0279553
757.550 .0279406
758.269 .0279245
758.989 .0279069
759.708 .0278879
760.427 .0278679
761.146 .0278473
761.864 .0278263
762.582 .0278053
763.300 .0277844
764.018 .0277637
764.736 .0277432
765.453 .0277228
766.170 .0277021
766.887 .0276815
767.603 .0276610
768.320 .0276411
769.036 .0276215
769.751 .0276026
770.467 .0275847
771.182 .0275678
771.897 .0275516
772.612 .0275359
773.327 .0275206
774.041 .0275061
774.755 .0274920
775.469 .0274785
776.183 .0274661
776.896 .0274547
777.609 .0274442
778.322 .0274351
779.035 .0274269
779.747 .0274201
780.459 .0274145
781.171 .0274099
781.882 .0274062
782.594 .0274036
783.305 .0274020
784.016 .0274006
784.726 .0273994
785.436 .0273981
786.147 .0273961
786.856 .0273938
787.566 .0273904
788.275 .0273860
788.984 .0273809
789.693 .0273753
790.401 .0273686
791.110 .0273612
791.818 .0273535
792.525 .0273451
793.233 .0273361
793.940 .0273264
794.647 .0273160
795.353 .0273049
796.060 .0272940
796.766 .0272831
797.472 .0272720
798.177 .0272612
798.883 .0272506
799.588 .0272405
800.292 .0272314
800.997 .0272229
801.701 .0272148
802.405 .0272072
803.109 .0271998
803.812 .0271919
804.515 .0271835
805.218 .0271746
805.921 .0271651
806.623 .0271552
807.325 .0271450
808.027 .0271346
808.728 .0271247
809.429 .0271153
810.130 .0271061
810.831 .0270967
811.531 .0270870
812.231 .0270766
812.931 .0270653
813.630 .0270534
814.330 .0270411
815.029 .0270287
815.727 .0270165
816.426 .0270051
817.124 .0269946
817.821 .0269850
818.519 .0269764
819.216 .0269685
819.913 .0269615
820.609 .0269551
821.306 .0269494
822.002 .0269445
822.697 .0269407
823.393 .0269380
824.088 .0269360
824.783 .0269347
825.477 .0269340
826.171 .0269338
826.865 .0269342
827.559 .0269354
828.252 .0269376
828.945 .0269402
829.638 .0269433
830.330 .0269468
831.023 .0269499
831.714 .0269523
832.406 .0269533
833.097 .0269528
833.788 .0269508
834.479 .0269476
835.169 .0269434
835.859 .0269393
836.548 .0269355
837.238 .0269320
837.927 .0269285
838.615 .0269251
839.304 .0269212
839.992 .0269165
840.680 .0269111
841.367 .0269049
842.054 .0268979
842.741 .0268908
843.428 .0268838
844.114 .0268776
844.800 .0268720
845.485 .0268671
846.170 .0268622
846.855 .0268572
847.540 .0268517
848.224 .0268449
848.908 .0268372
849.592 .0268283
850.275 .0268177
850.958 .0268056
851.641 .0267920
852.323 .0267773
853.005 .0267610
853.687 .0267440
854.368 .0267258
855.049 .0267070
855.730 .0266876
856.410 .0266674
857.090 .0266464
857.769 .0266250
858.449 .0266030
859.128 .0265802
859.806 .0265573
860.485 .0265344
861.163 .0265114
861.840 .0264890
862.518 .0264669
863.195 .0264452
863.871 .0264238
864.548 .0264026
865.224 .0263813
865.899 .0263601
866.574 .0263389
867.249 .0263175
867.924 .0262961
868.598 .0262748
869.272 .0262539
869.946 .0262331
870.619 .0262132
871.292 .0261943
871.964 .0261761
872.636 .0261589
873.308 .0261422
873.979 .0261261
874.651 .0261105
875.321 .0260950
875.992 .0260803
876.662 .0260662
877.331 .0260531
878.001 .0260405
878.670 .0260285
879.338 .0260176
880.007 .0260071
880.675 .0259971
881.342 .0259871
882.009 .0259770
882.676 .0259668
883.343 .0259564
884.009 .0259461
884.675 .0259359
885.340 .0259260
886.005 .0259162
886.670 .0259066
887.334 .0258972
887.998 .0258883
888.662 .0258797
889.325 .0258716
889.988 .0258642
890.650 .0258575
891.312 .0258514
891.974 .0258461
892.636 .0258414
893.297 .0258374
893.957 .0258333
894.618 .0258291
895.278 .0258247
895.937 .0258206
896.596 .0258166
897.255 .0258131
897.914 .0258100
898.572 .0258075
899.230 .0258051
899.887 .0258028
900.544 .0258000
901.201 .0257966
901.857 .0257920
902.513 .0257861
903.168 .0257785
903.823 .0257696
904.478 .0257589
905.132 .0257465
905.786 .0257326
906.440 .0257177
907.093 .0257012
907.746 .0256839
908.399 .0256659
909.051 .0256473
909.703 .0256277
910.354 .0256074
911.005 .0255863
911.656 .0255645
912.306 .0255425
912.956 .0255206
913.605 .0254986
914.254 .0254778
914.903 .0254581
915.551 .0254398
916.199 .0254230
916.847 .0254076
917.494 .0253928
918.141 .0253788
918.788 .0253653
919.434 .0253519
920.079 .0253387
920.725 .0253266
921.370 .0253152
922.014 .0253048
922.658 .0252954
923.302 .0252863
923.946 .0252770
924.589 .0252675
925.231 .0252567
925.873 .0252442
926.515 .0252309
927.157 .0252168
927.798 .0252020
928.439 .0251873
929.079 .0251730
929.719 .0251587
930.359 .0251443
930.998 .0251300
931.637 .0251148
932.275 .0250998
932.913 .0250849
933.551 .0250699
934.188 .0250560
934.825 .0250437
935.462 .0250331
936.098 .0250246
936.733 .0250188
937.369 .0250150
938.004 .0250130
938.638 .0250130
939.273 .0250145
939.907 .0250174
940.540 .0250223
941.173 .0250282
941.806 .0250351
942.438 .0250428
943.070 .0250503
943.702 .0250569
944.333 .0250633
944.964 .0250682
945.594 .0250717
946.224 .0250741
946.854 .0250762
947.483 .0250775
948.112 .0250784
948.741 .0250791
949.369 .0250794
949.996 .0250789
950.624 .0250776
951.251 .0250752
951.878 .0250726
952.504 .0250694
953.130 .0250661
953.755 .0250627
954.380 .0250598
955.005 .0250566
955.629 .0250538
956.253 .0250513
956.877 .0250495
957.500 .0250482
958.123 .0250477
958.746 .0250480
959.368 .0250491
959.990 .0250503
960.611 .0250518
961.232 .0250529
961.853 .0250535
962.473 .0250535
963.093 .0250533
963.712 .0250532
964.331 .0250535
964.950 .0250545
965.569 .0250564
966.187 .0250592
966.804 .0250625
967.422 .0250657
968.039 .0250690
968.655 .0250717
969.272 .0250735
969.887 .0250748
970.503 .0250756
971.118 .0250764
971.733 .0250776
972.347 .0250787
972.961 .0250794
973.575 .0250801
974.188 .0250796
974.801 .0250777
975.414 .0250746
976.026 .0250699
976.638 .0250642
977.250 .0250577
977.861 .0250504
978.472 .0250425
979.083 .0250339
979.693 .0250246
980.303 .0250140
980.912 .0250025
981.521 .0249893
982.130 .0249746
982.738 .0249594
983.346 .0249437
983.954 .0249276
984.562 .0249120
985.169 .0248967
985.775 .0248815
986.382 .0248667
986.988 .0248518
987.594 .0248368
988.199 .0248221
988.804 .0248076
989.409 .0247934
990.013 .0247800
990.617 .0247680
991.221 .0247574
991.824 .0247489
992.427 .0247431
993.030 .0247393
993.632 .0247383
994.234 .0247399
994.836 .0247432
995.438 .0247480
996.039 .0247535
996.640 .0247593
997.240 .0247650
997.840 .0247704
998.440 .0247749
999.040 .0247782
999.639 .0247813
1000.238 .0247836
1000.836 .0247851
1001.435 .0247859
1002.033 .0247854
1002.630 .0247833
1003.228 .0247794
1003.825 .0247739
1004.422 .0247670
1005.018 .0247590
1005.614 .0247505
1006.210 .0247414
1006.806 .0247324
1007.401 .0247238
1007.996 .0247152
1008.591 .0247071
1009.186 .0246999
1009.780 .0246924
1010.374 .0246846
1010.967 .0246765
1011.561 .0246682
1012.154 .0246595
1012.746 .0246501
1013.339 .0246405
1013.931 .0246301
1014.523 .0246197
1015.115 .0246090
1015.706 .0245985
1016.298 .0245895
1016.888 .0245816
1017.479 .0245748
1018.069 .0245696
1018.660 .0245653
1019.250 .0245623
1019.839 .0245595
1020.429 .0245569
1021.018 .0245536
1021.607 .0245499
1022.195 .0245458
1022.784 .0245409
1023.372 .0245365
1023.960 .0245328
1024.547 .0245289
1025.135 .0245261
1025.722 .0245235
1026.309 .0245213
1026.896 .0245192
1027.483 .0245165
1028.069 .0245137
1028.655 .0245104
1029.241 .0245072
1029.827 .0245045
1030.412 .0245030
1030.997 .0245031
1031.582 .0245046
1032.167 .0245075
1032.752 .0245120
1033.336 .0245173
1033.921 .0245225
1034.505 .0245270
1035.089 .0245299
1035.672 .0245310
1036.256 .0245301
1036.839 .0245275
1037.422 .0245246
1038.005 .0245210
1038.588 .0245179
1039.171 .0245148
1039.753 .0245116
1040.335 .0245079
1040.918 .0245029
1041.500 .0244958
1042.081 .0244859
1042.663 .0244737
1043.244 .0244601
1043.826 .0244458
1044.407 .0244326
1044.988 .0244204
1045.569 .0244104
1046.150 .0244020
1046.730 .0243949
1047.311 .0243883
1047.891 .0243819
1048.471 .0243749
1049.052 .0243669
1049.632 .0243585
1050.211 .0243510
1050.791 .0243450
1051.371 .0243414
1051.950 .0243409
1052.530 .0243435
1053.109 .0243480
1053.688 .0243532
1054.268 .0243583
1054.847 .0243629
1055.426 .0243654
1056.005 .0243660
1056.583 .0243640
1057.162 .0243604
1057.741 .0243564
1058.319 .0243518
1058.898 .0243477
1059.476 .0243423
1060.055 .0243363
1060.633 .0243289
1061.211 .0243188
1061.790 .0243073
1062.368 .0242940
1062.946 .0242802
1063.524 .0242669
1064.102 .0242547
1064.680 .0242450
1065.258 .0242380
1065.836 .0242331
1066.414 .0242300
1066.992 .0242273
1067.570 .0242251
1068.148 .0242224
1068.726 .0242202
1069.304 .0242197
1069.882 .0242207
1070.460 .0242236
1071.038 .0242287
1071.616 .0242347
1072.194 .0242421
1072.772 .0242480
1073.350 .0242539
1073.928 .0242577
1074.506 .0242601
1075.084 .0242612
1075.662 .0242620
1076.240 .0242629
1076.819 .0242640
1077.397 .0242638
1077.976 .0242642
1078.554 .0242629
1079.133 .0242610
1079.711 .0242574
1080.290 .0242534
1080.869 .0242489
1081.448 .0242442
1082.027 .0242391
1082.606 .0242353
1083.185 .0242317
1083.764 .0242302
1084.343 .0242290
1084.923 .0242290
1085.502 .0242306
1086.082 .0242330
1086.662 .0242380
1087.242 .0242445
1087.822 .0242510
1088.402 .0242584
1088.983 .0242665
1089.563 .0242755
1090.144 .0242845
1090.725 .0242956
1091.306 .0243088
1091.887 .0243234
1092.469 .0243417
1093.050 .0243616
1093.632 .0243836
1094.214 .0244078
1094.796 .0244326
1095.379 .0244550
1095.961 .0244778
1096.544 .0244981
1097.127 .0245164
1097.710 .0245348
1098.294 .0245545
1098.877 .0245753
1099.461 .0245986
1100.046 .0246239
1100.630 .0246497
1101.215 .0246759
1101.800 .0247030
1102.385 .0247258
1102.970 .0247471
1103.556 .0247655
1104.142 .0247819
1104.728 .0247969
1105.315 .0248128
1105.902 .0248297
1106.489 .0248509
1107.077 .0248761
1107.664 .0249042
1108.253 .0249331
1108.841 .0249629
1109.430 .0249902
1110.019 .0250149
1110.609 .0250371
1111.198 .0250581
1111.789 .0250787
1112.379 .0251044
1112.970 .0251352
1113.561 .0251735
1114.153 .0252201
1114.745 .0252744
1115.338 .0253352
1115.931 .0253983
1116.524 .0254597
1117.117 .0255188
1117.712 .0255753
1118.306 .0256302
1118.901 .0256832
1119.496 .0257352
1120.092 .0257903
1120.689 .0258467
1121.285 .0259068
1121.882 .0259668
1122.480 .0260256
1123.078 .0260824
1123.677 .0261338
1124.276 .0261779
1124.875 .0262183
1125.476 .0262528
1126.076 .0262891
1126.677 .0263286
1127.279 .0263748
1127.881 .0264271
1128.484 .0264871
1129.087 .0265519
1129.691 .0266197
1130.295 .0266908
1130.900 .0267643
1131.505 .0268367
1132.111 .0269153
1132.718 .0269977
1133.325 .0270871
1133.933 .0271862
1134.541 .0272978
1135.150 .0274201
1135.760 .0275558
1136.370 .0276987
1136.981 .0278464
1137.592 .0279960
1138.204 .0281486
1138.817 .0283061
1139.431 .0284673
1140.045 .0286357
1140.660 .0288107
1141.275 .0289907
1141.891 .0291910
1142.508 .0294138
1143.126 .0296485
1143.744 .0297585
1144.363 .0298861
1144.983 .0304606
