Measurement Sequence started on: 15-12-46-377
Integration time: 28
Scans to Average: 2 
>>>>>Begin Spectral Data<<<<<
432.689 .0000100
433.621 .0000100
434.552 .0000100
435.482 .0000100
436.410 .0000100
437.337 .0000100
438.262 .0288945
439.187 .0612632
440.110 .1015662
441.031 .1470156
441.952 .1911517
442.871 .2259549
443.789 .2450689
444.705 .2463203
445.621 .2323608
446.535 .2089393
447.447 .1823658
448.359 .1417004
449.269 .1214461
450.178 .1085737
451.086 .0994707
451.993 .0924847
452.898 .0869236
453.803 .0823853
454.706 .0786160
455.608 .0753959
456.508 .0726313
457.408 .0702375
458.306 .0681164
459.204 .0662223
460.100 .0645125
460.995 .0629755
461.888 .0615800
462.781 .0602928
463.673 .0591089
464.563 .0580188
465.452 .0569955
466.340 .0560340
467.228 .0551330
468.114 .0542884
468.999 .0535027
469.882 .0527663
470.765 .0520946
471.647 .0514786
472.528 .0509162
473.407 .0504200
474.286 .0499827
475.163 .0496012
476.040 .0492694
476.915 .0489916
477.790 .0487654
478.663 .0485794
479.535 .0484286
480.407 .0483068
481.277 .0482120
482.147 .0481316
483.015 .0480577
483.883 .0479869
484.749 .0479184
485.615 .0478519
486.479 .0477964
487.343 .0477601
488.206 .0477436
489.067 .0477489
489.928 .0477731
490.788 .0478106
491.647 .0478595
492.505 .0479135
493.362 .0479756
494.218 .0480511
495.073 .0481477
495.928 .0482686
496.781 .0484202
497.634 .0486198
498.486 .0488655
499.337 .0491571
500.187 .0494859
501.036 .0498438
501.884 .0502305
502.731 .0506486
503.578 .0511037
504.424 .0515889
505.268 .0521125
506.113 .0526758
506.956 .0532793
507.798 .0539343
508.640 .0546344
509.480 .0553917
510.320 .0562107
511.160 .0571150
511.998 .0581059
512.836 .0592027
513.672 .0604328
514.508 .0618012
515.344 .0633111
516.178 .0649771
517.012 .0668146
517.845 .0688528
518.677 .0711379
519.508 .0737060
520.339 .0766077
521.169 .0799158
521.998 .0836423
522.826 .0878618
523.654 .0925944
524.481 .0978617
525.307 .1036964
526.133 .1100456
526.958 .1168712
527.782 .1240667
528.605 .1313921
529.428 .1387805
530.250 .1456672
531.072 .1517785
531.892 .1567162
532.712 .1602182
533.532 .1620890
534.350 .1621245
535.168 .1603525
535.986 .1568732
536.802 .1518768
537.618 .1457395
538.434 .1386441
539.249 .1311534
540.063 .1234934
540.876 .1159404
541.689 .1087201
542.501 .1020207
543.313 .0959487
544.124 .0905335
544.934 .0857154
545.744 .0814416
546.553 .0776067
547.361 .0742009
548.169 .0711918
548.976 .0684957
549.783 .0660850
550.589 .0639165
551.395 .0619281
552.200 .0601466
553.004 .0585201
553.808 .0570469
554.611 .0557285
555.414 .0545655
556.216 .0535269
557.018 .0526153
557.819 .0518125
558.619 .0510857
559.419 .0504108
560.218 .0497916
561.017 .0491888
561.815 .0485973
562.613 .0480157
563.410 .0474423
564.207 .0468792
565.003 .0463328
565.799 .0458016
566.594 .0452813
567.388 .0447775
568.182 .0442845
568.976 .0437901
569.769 .0433039
570.562 .0428190
571.354 .0423333
572.145 .0418491
572.936 .0413678
573.727 .0408847
574.517 .0404095
575.307 .0399478
576.096 .0394981
576.885 .0390615
577.673 .0386464
578.461 .0382489
579.248 .0378682
580.035 .0375054
580.821 .0371561
581.607 .0368229
582.392 .0365089
583.177 .0362129
583.962 .0359369
584.746 .0356823
585.529 .0354516
586.313 .0352412
587.095 .0350534
587.878 .0348847
588.660 .0347357
589.441 .0346038
590.222 .0344858
591.003 .0343799
591.783 .0342839
592.563 .0341943
593.342 .0341091
594.121 .0340253
594.899 .0339444
595.678 .0338653
596.455 .0337897
597.233 .0337165
598.009 .0336468
598.786 .0335800
599.562 .0335165
600.338 .0334540
601.113 .0333940
601.888 .0333348
602.663 .0332760
603.437 .0332180
604.211 .0331612
604.984 .0331063
605.757 .0330551
606.530 .0330075
607.302 .0329641
608.074 .0329240
608.845 .0328870
609.616 .0328518
610.387 .0328194
611.158 .0327892
611.928 .0327610
612.697 .0327342
613.467 .0327101
614.236 .0326876
615.004 .0326677
615.773 .0326504
616.541 .0326357
617.308 .0326231
618.076 .0326128
618.843 .0326032
619.609 .0325945
620.375 .0325864
621.141 .0325787
621.907 .0325710
622.672 .0325629
623.437 .0325540
624.202 .0325447
624.966 .0325345
625.730 .0325237
626.493 .0325115
627.257 .0324983
628.020 .0324828
628.782 .0324651
629.545 .0324449
630.307 .0324221
631.068 .0323973
631.830 .0323701
632.591 .0323410
633.352 .0323109
634.112 .0322801
634.872 .0322485
635.632 .0322172
636.392 .0321860
637.151 .0321540
637.910 .0321218
638.668 .0320892
639.427 .0320559
640.185 .0320228
640.943 .0319901
641.700 .0319585
642.457 .0319292
643.214 .0319025
643.971 .0318769
644.727 .0318533
645.483 .0318312
646.239 .0318084
646.994 .0317851
647.750 .0317603
648.505 .0317335
649.259 .0317052
650.014 .0316765
650.768 .0316468
651.521 .0316174
652.275 .0315887
653.028 .0315600
653.781 .0315302
654.534 .0314994
655.286 .0314653
656.039 .0314283
656.791 .0313888
657.542 .0313463
658.294 .0313016
659.045 .0312566
659.796 .0312112
660.546 .0311668
661.297 .0311237
662.047 .0310819
662.796 .0310407
663.546 .0310009
664.295 .0309620
665.044 .0309234
665.793 .0308854
666.542 .0308491
667.290 .0308145
668.038 .0307823
668.786 .0307519
669.533 .0307236
670.281 .0306980
671.028 .0306746
671.774 .0306531
672.521 .0306329
673.267 .0306140
674.013 .0305958
674.759 .0305778
675.505 .0305595
676.250 .0305405
676.995 .0305211
677.740 .0305012
678.484 .0304812
679.229 .0304616
679.973 .0304421
680.717 .0304236
681.460 .0304060
682.204 .0303889
682.947 .0303717
683.690 .0303546
684.433 .0303373
685.175 .0303200
685.917 .0303033
686.659 .0302874
687.401 .0302727
688.142 .0302603
688.884 .0302494
689.625 .0302401
690.365 .0302322
691.106 .0302245
691.846 .0302165
692.586 .0302080
693.326 .0301987
694.066 .0301888
694.805 .0301789
695.545 .0301695
696.284 .0301603
697.022 .0301514
697.761 .0301429
698.499 .0301340
699.237 .0301254
699.975 .0301162
700.713 .0301065
701.450 .0300967
702.187 .0300868
702.924 .0300770
703.661 .0300672
704.397 .0300576
705.133 .0300483
705.869 .0300387
706.605 .0300292
707.341 .0300194
708.076 .0300091
708.811 .0299986
709.546 .0299878
710.281 .0299769
711.015 .0299658
711.749 .0299541
712.483 .0299423
713.217 .0299296
713.950 .0299164
714.684 .0299020
715.417 .0298868
716.150 .0298712
716.882 .0298547
717.615 .0298377
718.347 .0298206
719.079 .0298032
719.811 .0297856
720.542 .0297678
721.273 .0297496
722.005 .0297307
722.735 .0297107
723.466 .0296894
724.196 .0296667
724.927 .0296425
725.656 .0296170
726.386 .0295903
727.116 .0295636
727.845 .0295367
728.574 .0295099
729.303 .0294840
730.031 .0294590
730.760 .0294346
731.488 .0294103
732.216 .0293864
732.944 .0293625
733.671 .0293388
734.398 .0293155
735.125 .0292926
735.852 .0292713
736.579 .0292511
737.305 .0292327
738.031 .0292154
738.757 .0291991
739.483 .0291831
740.208 .0291669
740.933 .0291506
741.658 .0291337
742.383 .0291163
743.108 .0290986
743.832 .0290804
744.556 .0290620
745.280 .0290434
746.004 .0290249
746.727 .0290066
747.450 .0289885
748.173 .0289694
748.896 .0289502
749.618 .0289300
750.340 .0289092
751.062 .0288877
751.784 .0288657
752.506 .0288433
753.227 .0288206
753.948 .0287977
754.669 .0287748
755.389 .0287517
756.110 .0287286
756.830 .0287046
757.550 .0286802
758.269 .0286544
758.989 .0286275
759.708 .0285996
760.427 .0285718
761.146 .0285434
761.864 .0285153
762.582 .0284878
763.300 .0284612
764.018 .0284355
764.736 .0284109
765.453 .0283867
766.170 .0283633
766.887 .0283399
767.603 .0283168
768.320 .0282942
769.036 .0282731
769.751 .0282538
770.467 .0282363
771.182 .0282215
771.897 .0282088
772.612 .0281979
773.327 .0281889
774.041 .0281813
774.755 .0281744
775.469 .0281680
776.183 .0281622
776.896 .0281569
777.609 .0281525
778.322 .0281490
779.035 .0281462
779.747 .0281442
780.459 .0281427
781.171 .0281414
781.882 .0281399
782.594 .0281386
783.305 .0281371
784.016 .0281357
784.726 .0281346
785.436 .0281339
786.147 .0281331
786.856 .0281329
787.566 .0281327
788.275 .0281327
788.984 .0281324
789.693 .0281319
790.401 .0281311
791.110 .0281302
791.818 .0281290
792.525 .0281281
793.233 .0281274
793.940 .0281274
794.647 .0281276
795.353 .0281282
796.060 .0281291
796.766 .0281303
797.472 .0281314
798.177 .0281327
798.883 .0281340
799.588 .0281352
800.292 .0281361
800.997 .0281372
801.701 .0281381
802.405 .0281391
803.109 .0281402
803.812 .0281414
804.515 .0281423
805.218 .0281425
805.921 .0281416
806.623 .0281396
807.325 .0281363
808.027 .0281312
808.728 .0281242
809.429 .0281157
810.130 .0281060
810.831 .0280954
811.531 .0280841
812.231 .0280726
812.931 .0280609
813.630 .0280490
814.330 .0280370
815.029 .0280246
815.727 .0280125
816.426 .0280004
817.124 .0279887
817.821 .0279770
818.519 .0279660
819.216 .0279554
819.913 .0279458
820.609 .0279373
821.306 .0279302
822.002 .0279242
822.697 .0279196
823.393 .0279162
824.088 .0279137
824.783 .0279116
825.477 .0279099
826.171 .0279078
826.865 .0279057
827.559 .0279031
828.252 .0279005
828.945 .0278976
829.638 .0278953
830.330 .0278929
831.023 .0278906
831.714 .0278884
832.406 .0278858
833.097 .0278825
833.788 .0278787
834.479 .0278736
835.169 .0278677
835.859 .0278607
836.548 .0278536
837.238 .0278457
837.927 .0278376
838.615 .0278287
839.304 .0278194
839.992 .0278093
840.680 .0277981
841.367 .0277857
842.054 .0277722
842.741 .0277580
843.428 .0277435
844.114 .0277290
844.800 .0277147
845.485 .0276999
846.170 .0276851
846.855 .0276691
847.540 .0276522
848.224 .0276336
848.908 .0276138
849.592 .0275926
850.275 .0275706
850.958 .0275478
851.641 .0275247
852.323 .0275020
853.005 .0274794
853.687 .0274564
854.368 .0274335
855.049 .0274093
855.730 .0273838
856.410 .0273565
857.090 .0273278
857.769 .0272975
858.449 .0272662
859.128 .0272343
859.806 .0272020
860.485 .0271700
861.163 .0271386
861.840 .0271079
862.518 .0270775
863.195 .0270477
863.871 .0270175
864.548 .0269869
865.224 .0269562
865.899 .0269252
866.574 .0268940
867.249 .0268633
867.924 .0268331
868.598 .0268036
869.272 .0267753
869.946 .0267486
870.619 .0267226
871.292 .0266982
871.964 .0266741
872.636 .0266500
873.308 .0266262
873.979 .0266027
874.651 .0265790
875.321 .0265561
875.992 .0265340
876.662 .0265130
877.331 .0264931
878.001 .0264752
878.670 .0264585
879.338 .0264433
880.007 .0264293
880.675 .0264159
881.342 .0264030
882.009 .0263910
882.676 .0263793
883.343 .0263680
884.009 .0263574
884.675 .0263473
885.340 .0263376
886.005 .0263286
886.670 .0263206
887.334 .0263135
887.998 .0263074
888.662 .0263022
889.325 .0262974
889.988 .0262932
890.650 .0262894
891.312 .0262856
891.974 .0262819
892.636 .0262781
893.297 .0262744
893.957 .0262712
894.618 .0262687
895.278 .0262674
895.937 .0262670
896.596 .0262678
897.255 .0262695
897.914 .0262713
898.572 .0262728
899.230 .0262735
899.887 .0262731
900.544 .0262717
901.201 .0262687
901.857 .0262646
902.513 .0262594
903.168 .0262535
903.823 .0262461
904.478 .0262377
905.132 .0262279
905.786 .0262166
906.440 .0262036
907.093 .0261892
907.746 .0261731
908.399 .0261556
909.051 .0261372
909.703 .0261186
910.354 .0261001
911.005 .0260820
911.656 .0260645
912.306 .0260481
912.956 .0260330
913.605 .0260193
914.254 .0260072
914.903 .0259972
915.551 .0259891
916.199 .0259830
916.847 .0259787
917.494 .0259765
918.141 .0259757
918.788 .0259761
919.434 .0259778
920.079 .0259799
920.725 .0259822
921.370 .0259846
922.014 .0259872
922.658 .0259896
923.302 .0259914
923.946 .0259923
924.589 .0259924
925.231 .0259913
925.873 .0259891
926.515 .0259855
927.157 .0259812
927.798 .0259762
928.439 .0259706
929.079 .0259646
929.719 .0259585
930.359 .0259518
930.998 .0259451
931.637 .0259379
932.275 .0259305
932.913 .0259228
933.551 .0259154
934.188 .0259082
934.825 .0259014
935.462 .0258954
936.098 .0258904
936.733 .0258867
937.369 .0258842
938.004 .0258829
938.638 .0258824
939.273 .0258831
939.907 .0258845
940.540 .0258870
941.173 .0258909
941.806 .0258961
942.438 .0259030
943.070 .0259112
943.702 .0259202
944.333 .0259295
944.964 .0259390
945.594 .0259488
946.224 .0259585
946.854 .0259680
947.483 .0259774
948.112 .0259871
948.741 .0259968
949.369 .0260066
949.996 .0260161
950.624 .0260252
951.251 .0260337
951.878 .0260411
952.504 .0260475
953.130 .0260529
953.755 .0260576
954.380 .0260618
955.005 .0260653
955.629 .0260689
956.253 .0260714
956.877 .0260737
957.500 .0260756
958.123 .0260773
958.746 .0260781
959.368 .0260783
959.990 .0260774
960.611 .0260751
961.232 .0260716
961.853 .0260674
962.473 .0260624
963.093 .0260578
963.712 .0260532
964.331 .0260481
964.950 .0260428
965.569 .0260380
966.187 .0260330
966.804 .0260280
967.422 .0260227
968.039 .0260176
968.655 .0260123
969.272 .0260074
969.887 .0260028
970.503 .0259990
971.118 .0259961
971.733 .0259938
972.347 .0259914
972.961 .0259887
973.575 .0259852
974.188 .0259805
974.801 .0259745
975.414 .0259673
976.026 .0259587
976.638 .0259487
977.250 .0259379
977.861 .0259269
978.472 .0259149
979.083 .0259024
979.693 .0258884
980.303 .0258726
980.912 .0258548
981.521 .0258349
982.130 .0258127
982.738 .0257892
983.346 .0257649
983.954 .0257397
984.562 .0257148
985.169 .0256907
985.775 .0256672
986.382 .0256449
986.988 .0256234
987.594 .0256022
988.199 .0255809
988.804 .0255600
989.409 .0255384
990.013 .0255171
990.617 .0254959
991.221 .0254746
991.824 .0254542
992.427 .0254351
993.030 .0254170
993.632 .0253996
994.234 .0253831
994.836 .0253668
995.438 .0253501
996.039 .0253330
996.640 .0253151
997.240 .0252972
997.840 .0252796
998.440 .0252629
999.040 .0252470
999.639 .0252328
1000.238 .0252197
1000.836 .0252077
1001.435 .0251961
1002.033 .0251842
1002.630 .0251721
1003.228 .0251594
1003.825 .0251464
1004.422 .0251339
1005.018 .0251220
1005.614 .0251110
1006.210 .0251008
1006.806 .0250913
1007.401 .0250815
1007.996 .0250713
1008.591 .0250607
1009.186 .0250493
1009.780 .0250379
1010.374 .0250270
1010.967 .0250168
1011.561 .0250082
1012.154 .0250014
1012.746 .0249950
1013.339 .0249892
1013.931 .0249830
1014.523 .0249758
1015.115 .0249669
1015.706 .0249572
1016.298 .0249465
1016.888 .0249354
1017.479 .0249248
1018.069 .0249144
1018.660 .0249039
1019.250 .0248942
1019.839 .0248839
1020.429 .0248727
1021.018 .0248607
1021.607 .0248486
1022.195 .0248361
1022.784 .0248242
1023.372 .0248128
1023.960 .0248028
1024.547 .0247933
1025.135 .0247847
1025.722 .0247759
1026.309 .0247671
1026.896 .0247585
1027.483 .0247498
1028.069 .0247412
1028.655 .0247331
1029.241 .0247250
1029.827 .0247177
1030.412 .0247107
1030.997 .0247042
1031.582 .0246969
1032.167 .0246890
1032.752 .0246802
1033.336 .0246709
1033.921 .0246609
1034.505 .0246508
1035.089 .0246411
1035.672 .0246319
1036.256 .0246230
1036.839 .0246150
1037.422 .0246082
1038.005 .0246031
1038.588 .0245996
1039.171 .0245971
1039.753 .0245951
1040.335 .0245931
1040.918 .0245905
1041.500 .0245863
1042.081 .0245805
1042.663 .0245732
1043.244 .0245648
1043.826 .0245565
1044.407 .0245487
1044.988 .0245420
1045.569 .0245371
1046.150 .0245330
1046.730 .0245284
1047.311 .0245227
1047.891 .0245151
1048.471 .0245059
1049.052 .0244946
1049.632 .0244825
1050.211 .0244710
1050.791 .0244614
1051.371 .0244546
1051.950 .0244510
1052.530 .0244501
1053.109 .0244511
1053.688 .0244519
1054.268 .0244519
1054.847 .0244505
1055.426 .0244470
1056.005 .0244416
1056.583 .0244350
1057.162 .0244275
1057.741 .0244190
1058.319 .0244094
1058.898 .0244001
1059.476 .0243897
1060.055 .0243785
1060.633 .0243663
1061.211 .0243546
1061.790 .0243451
1062.368 .0243383
1062.946 .0243338
1063.524 .0243341
1064.102 .0243382
1064.680 .0243451
1065.258 .0243529
1065.836 .0243621
1066.414 .0243717
1066.992 .0243807
1067.570 .0243889
1068.148 .0243967
1068.726 .0244051
1069.304 .0244140
1069.882 .0244232
1070.460 .0244325
1071.038 .0244408
1071.616 .0244475
1072.194 .0244515
1072.772 .0244544
1073.350 .0244541
1073.928 .0244522
1074.506 .0244509
1075.084 .0244509
1075.662 .0244529
1076.240 .0244570
1076.819 .0244645
1077.397 .0244760
1077.976 .0244889
1078.554 .0245027
1079.133 .0245176
1079.711 .0245335
1080.290 .0245497
1080.869 .0245646
1081.448 .0245776
1082.027 .0245901
1082.606 .0246006
1083.185 .0246107
1083.764 .0246188
1084.343 .0246261
1084.923 .0246325
1085.502 .0246387
1086.082 .0246461
1086.662 .0246548
1087.242 .0246652
1087.822 .0246792
1088.402 .0246951
1088.983 .0247135
1089.563 .0247321
1090.144 .0247514
1090.725 .0247717
1091.306 .0247919
1091.887 .0248111
1092.469 .0248314
1093.050 .0248527
1093.632 .0248760
1094.214 .0248992
1094.796 .0249247
1095.379 .0249498
1095.961 .0249751
1096.544 .0249999
1097.127 .0250223
1097.710 .0250431
1098.294 .0250641
1098.877 .0250842
1099.461 .0251065
1100.046 .0251317
1100.630 .0251614
1101.215 .0251942
1101.800 .0252334
1102.385 .0252772
1102.970 .0253228
1103.556 .0253705
1104.142 .0254196
1104.728 .0254683
1105.315 .0255174
1105.902 .0255660
1106.489 .0256156
1107.077 .0256672
1107.664 .0257207
1108.253 .0257735
1108.841 .0258284
1109.430 .0258863
1110.019 .0259427
1110.609 .0259972
1111.198 .0260519
1111.789 .0261045
1112.379 .0261537
1112.970 .0262034
1113.561 .0262538
1114.153 .0263055
1114.745 .0263620
1115.338 .0264219
1115.931 .0264850
1116.524 .0265519
1117.117 .0266208
1117.712 .0266906
1118.306 .0267631
1118.901 .0268355
1119.496 .0269013
1120.092 .0269668
1120.689 .0270295
1121.285 .0270855
1121.882 .0271344
1122.480 .0271809
1123.078 .0272217
1123.677 .0272608
1124.276 .0272999
1124.875 .0273412
1125.476 .0273844
1126.076 .0274334
1126.677 .0274808
1127.279 .0275285
1127.881 .0275759
1128.484 .0276222
1129.087 .0276647
1129.691 .0277154
1130.295 .0277677
1130.900 .0278305
1131.505 .0279054
1132.111 .0279987
1132.718 .0281019
1133.325 .0282154
1133.933 .0283373
1134.541 .0284622
1135.150 .0285881
1135.760 .0287177
1136.370 .0288414
1136.981 .0289709
1137.592 .0290993
1138.204 .0292297
1138.817 .0293550
1139.431 .0294814
1140.045 .0296034
1140.660 .0297335
1141.275 .0298604
1141.891 .0299506
1142.508 .0300515
1143.126 .0301422
1143.744 .0306530
1144.363 .0305516
1144.983 .0295724
