Measurement Sequence started on: 15-12-46-377
Integration time: 28
Scans to Average: 2 
>>>>>Begin Spectral Data<<<<<
432.689 .0000100
433.621 .0000100
434.552 .0000100
435.482 .0000100
436.410 .0000100
437.337 .0000100
438.262 .0277756
439.187 .0590332
440.110 .0979607
441.031 .1418523
441.952 .1844903
442.871 .2180952
443.789 .2365349
444.705 .2376712
445.621 .2240117
446.535 .2011408
447.447 .1751991
448.359 .1357258
449.269 .1158661
450.178 .1032703
451.086 .0944775
451.993 .0878584
452.898 .0826925
453.803 .0785526
454.706 .0751703
455.608 .0723079
456.508 .0698329
457.408 .0676460
458.306 .0656799
459.204 .0638947
460.100 .0622743
460.995 .0608111
461.888 .0594824
462.781 .0582829
463.673 .0571827
464.563 .0561751
465.452 .0552309
466.340 .0543140
467.228 .0534436
468.114 .0526297
468.999 .0518711
469.882 .0511566
470.765 .0505066
471.647 .0499260
472.528 .0494035
473.407 .0489370
474.286 .0485257
475.163 .0481580
476.040 .0478390
476.915 .0475583
477.790 .0473123
478.663 .0471023
479.535 .0469245
480.407 .0467701
481.277 .0466413
482.147 .0465304
483.015 .0464294
483.883 .0463394
484.749 .0462685
485.615 .0462029
486.479 .0461461
487.343 .0461103
488.206 .0460898
489.067 .0460788
489.928 .0460822
490.788 .0460944
491.647 .0461224
492.505 .0461615
493.362 .0462141
494.218 .0462752
495.073 .0463548
495.928 .0464573
496.781 .0465693
497.634 .0467101
498.486 .0468767
499.337 .0470628
500.187 .0472800
501.036 .0475202
501.884 .0477834
502.731 .0480785
503.578 .0484020
504.424 .0487484
505.268 .0491180
506.113 .0495132
506.956 .0499271
507.798 .0503663
508.640 .0508433
509.480 .0513555
510.320 .0519217
511.160 .0525656
511.998 .0532791
512.836 .0540855
513.672 .0550159
514.508 .0560589
515.344 .0572325
516.178 .0585658
517.012 .0600725
517.845 .0618042
518.677 .0638073
519.508 .0660865
520.339 .0686966
521.169 .0717215
521.998 .0751579
522.826 .0790657
523.654 .0834985
524.481 .0884543
525.307 .0939844
526.133 .1000570
526.958 .1066335
527.782 .1136335
528.605 .1208787
529.428 .1282564
530.250 .1352748
531.072 .1416958
531.892 .1471553
532.712 .1513693
533.532 .1541687
534.350 .1552984
535.168 .1546563
535.986 .1523495
536.802 .1484752
537.618 .1433566
538.434 .1371600
539.249 .1304063
540.063 .1233392
540.876 .1162568
541.689 .1094078
542.501 .1029745
543.313 .0970894
544.124 .0917924
544.934 .0869645
545.744 .0825966
546.553 .0785838
547.361 .0749343
548.169 .0716176
548.976 .0686207
549.783 .0659301
550.589 .0635458
551.395 .0614009
552.200 .0595307
553.004 .0579003
553.808 .0564550
554.611 .0551818
555.414 .0540447
556.216 .0530008
557.018 .0520535
557.819 .0511752
558.619 .0503590
559.419 .0495995
560.218 .0489145
561.017 .0482747
561.815 .0476743
562.613 .0471044
563.410 .0465508
564.207 .0460025
565.003 .0454635
565.799 .0449039
566.594 .0443308
567.388 .0437584
568.182 .0431760
568.976 .0425849
569.769 .0420016
570.562 .0414306
571.354 .0408735
572.145 .0403425
572.936 .0398353
573.727 .0393498
574.517 .0388877
575.307 .0384486
576.096 .0380285
576.885 .0376288
577.673 .0372487
578.461 .0368837
579.248 .0365356
580.035 .0362063
580.821 .0358892
581.607 .0355887
582.392 .0353052
583.177 .0350418
583.962 .0347972
584.746 .0345765
585.529 .0343777
586.313 .0342011
587.095 .0340427
587.878 .0339030
588.660 .0337784
589.441 .0336656
590.222 .0335615
591.003 .0334652
591.783 .0333761
592.563 .0332933
593.342 .0332168
594.121 .0331465
594.899 .0330835
595.678 .0330266
596.455 .0329744
597.233 .0329278
598.009 .0328833
598.786 .0328403
599.562 .0327972
600.338 .0327543
601.113 .0327123
601.888 .0326699
602.663 .0326285
603.437 .0325886
604.211 .0325516
604.984 .0325152
605.757 .0324795
606.530 .0324438
607.302 .0324075
608.074 .0323704
608.845 .0323319
609.616 .0322928
610.387 .0322539
611.158 .0322161
611.928 .0321797
612.697 .0321458
613.467 .0321146
614.236 .0320854
615.004 .0320587
615.773 .0320328
616.541 .0320077
617.308 .0319830
618.076 .0319590
618.843 .0319358
619.609 .0319143
620.375 .0318944
621.141 .0318761
621.907 .0318600
622.672 .0318456
623.437 .0318313
624.202 .0318171
624.966 .0318023
625.730 .0317861
626.493 .0317680
627.257 .0317476
628.020 .0317254
628.782 .0317021
629.545 .0316771
630.307 .0316505
631.068 .0316226
631.830 .0315943
632.591 .0315648
633.352 .0315345
634.112 .0315030
634.872 .0314708
635.632 .0314369
636.392 .0314010
637.151 .0313632
637.910 .0313241
638.668 .0312838
639.427 .0312427
640.185 .0312024
640.943 .0311636
641.700 .0311268
642.457 .0310930
643.214 .0310617
643.971 .0310330
644.727 .0310066
645.483 .0309823
646.239 .0309587
646.994 .0309364
647.750 .0309152
648.505 .0308946
649.259 .0308763
650.014 .0308601
650.768 .0308454
651.521 .0308324
652.275 .0308207
653.028 .0308082
653.781 .0307944
654.534 .0307791
655.286 .0307604
656.039 .0307388
656.791 .0307146
657.542 .0306866
658.294 .0306557
659.045 .0306236
659.796 .0305894
660.546 .0305536
661.297 .0305170
662.047 .0304795
662.796 .0304413
663.546 .0304034
664.295 .0303656
665.044 .0303285
665.793 .0302935
666.542 .0302607
667.290 .0302298
668.038 .0302020
668.786 .0301763
669.533 .0301527
670.281 .0301310
671.028 .0301103
671.774 .0300903
672.521 .0300715
673.267 .0300535
674.013 .0300369
674.759 .0300212
675.505 .0300068
676.250 .0299925
676.995 .0299786
677.740 .0299639
678.484 .0299474
679.229 .0299294
679.973 .0299104
680.717 .0298899
681.460 .0298691
682.204 .0298483
682.947 .0298280
683.690 .0298084
684.433 .0297893
685.175 .0297702
685.917 .0297512
686.659 .0297323
687.401 .0297139
688.142 .0296957
688.884 .0296787
689.625 .0296627
690.365 .0296479
691.106 .0296340
691.846 .0296205
692.586 .0296065
693.326 .0295920
694.066 .0295765
694.805 .0295605
695.545 .0295444
696.284 .0295284
697.022 .0295133
697.761 .0294992
698.499 .0294859
699.237 .0294727
699.975 .0294592
700.713 .0294452
701.450 .0294304
702.187 .0294151
702.924 .0294000
703.661 .0293857
704.397 .0293725
705.133 .0293606
705.869 .0293503
706.605 .0293408
707.341 .0293314
708.076 .0293216
708.811 .0293110
709.546 .0292993
710.281 .0292858
711.015 .0292712
711.749 .0292558
712.483 .0292403
713.217 .0292241
713.950 .0292073
714.684 .0291899
715.417 .0291711
716.150 .0291508
716.882 .0291290
717.615 .0291059
718.347 .0290823
719.079 .0290584
719.811 .0290346
720.542 .0290113
721.273 .0289892
722.005 .0289680
722.735 .0289479
723.466 .0289290
724.196 .0289106
724.927 .0288922
725.656 .0288742
726.386 .0288567
727.116 .0288396
727.845 .0288230
728.574 .0288070
729.303 .0287917
730.031 .0287774
730.760 .0287635
731.488 .0287503
732.216 .0287380
732.944 .0287264
733.671 .0287147
734.398 .0287032
735.125 .0286921
735.852 .0286815
736.579 .0286711
737.305 .0286617
738.031 .0286531
738.757 .0286452
739.483 .0286377
740.208 .0286305
740.933 .0286233
741.658 .0286160
742.383 .0286080
743.108 .0285991
743.832 .0285896
744.556 .0285794
745.280 .0285685
746.004 .0285576
746.727 .0285468
747.450 .0285353
748.173 .0285231
748.896 .0285104
749.618 .0284964
750.340 .0284807
751.062 .0284635
751.784 .0284451
752.506 .0284256
753.227 .0284055
753.948 .0283848
754.669 .0283642
755.389 .0283443
756.110 .0283244
756.830 .0283045
757.550 .0282846
758.269 .0282646
758.989 .0282440
759.708 .0282230
760.427 .0282015
761.146 .0281792
761.864 .0281561
762.582 .0281325
763.300 .0281081
764.018 .0280829
764.736 .0280575
765.453 .0280317
766.170 .0280059
766.887 .0279799
767.603 .0279535
768.320 .0279272
769.036 .0279008
769.751 .0278747
770.467 .0278480
771.182 .0278220
771.897 .0277970
772.612 .0277728
773.327 .0277501
774.041 .0277289
774.755 .0277098
775.469 .0276925
776.183 .0276770
776.896 .0276628
777.609 .0276497
778.322 .0276385
779.035 .0276283
779.747 .0276193
780.459 .0276117
781.171 .0276051
781.882 .0275992
782.594 .0275938
783.305 .0275889
784.016 .0275843
784.726 .0275801
785.436 .0275763
786.147 .0275728
786.856 .0275694
787.566 .0275664
788.275 .0275634
788.984 .0275607
789.693 .0275579
790.401 .0275542
791.110 .0275495
791.818 .0275440
792.525 .0275373
793.233 .0275293
793.940 .0275201
794.647 .0275101
795.353 .0274993
796.060 .0274878
796.766 .0274758
797.472 .0274639
798.177 .0274522
798.883 .0274408
799.588 .0274291
800.292 .0274176
800.997 .0274058
801.701 .0273936
802.405 .0273814
803.109 .0273692
803.812 .0273573
804.515 .0273462
805.218 .0273354
805.921 .0273257
806.623 .0273164
807.325 .0273075
808.027 .0272985
808.728 .0272892
809.429 .0272786
810.130 .0272668
810.831 .0272545
811.531 .0272419
812.231 .0272290
812.931 .0272164
813.630 .0272039
814.330 .0271918
815.029 .0271799
815.727 .0271682
816.426 .0271565
817.124 .0271458
817.821 .0271352
818.519 .0271254
819.216 .0271165
819.913 .0271089
820.609 .0271024
821.306 .0270969
822.002 .0270923
822.697 .0270882
823.393 .0270848
824.088 .0270824
824.783 .0270808
825.477 .0270806
826.171 .0270815
826.865 .0270840
827.559 .0270880
828.252 .0270929
828.945 .0270983
829.638 .0271043
830.330 .0271104
831.023 .0271159
831.714 .0271208
832.406 .0271253
833.097 .0271296
833.788 .0271333
834.479 .0271364
835.169 .0271393
835.859 .0271426
836.548 .0271459
837.238 .0271489
837.927 .0271515
838.615 .0271536
839.304 .0271550
839.992 .0271556
840.680 .0271556
841.367 .0271551
842.054 .0271545
842.741 .0271541
843.428 .0271540
844.114 .0271547
844.800 .0271560
845.485 .0271580
846.170 .0271600
846.855 .0271612
847.540 .0271609
848.224 .0271589
848.908 .0271554
849.592 .0271504
850.275 .0271438
850.958 .0271361
851.641 .0271274
852.323 .0271179
853.005 .0271074
853.687 .0270963
854.368 .0270844
855.049 .0270711
855.730 .0270563
856.410 .0270399
857.090 .0270222
857.769 .0270035
858.449 .0269841
859.128 .0269644
859.806 .0269445
860.485 .0269250
861.163 .0269059
861.840 .0268876
862.518 .0268699
863.195 .0268525
863.871 .0268351
864.548 .0268176
865.224 .0267999
865.899 .0267819
866.574 .0267647
867.249 .0267483
867.924 .0267332
868.598 .0267195
869.272 .0267069
869.946 .0266958
870.619 .0266848
871.292 .0266739
871.964 .0266626
872.636 .0266507
873.308 .0266381
873.979 .0266251
874.651 .0266121
875.321 .0265997
875.992 .0265881
876.662 .0265775
877.331 .0265672
878.001 .0265566
878.670 .0265456
879.338 .0265335
880.007 .0265207
880.675 .0265074
881.342 .0264934
882.009 .0264801
882.676 .0264676
883.343 .0264558
884.009 .0264448
884.675 .0264345
885.340 .0264246
886.005 .0264144
886.670 .0264040
887.334 .0263934
887.998 .0263830
888.662 .0263735
889.325 .0263647
889.988 .0263565
890.650 .0263491
891.312 .0263416
891.974 .0263343
892.636 .0263270
893.297 .0263193
893.957 .0263114
894.618 .0263033
895.278 .0262951
895.937 .0262866
896.596 .0262775
897.255 .0262680
897.914 .0262576
898.572 .0262457
899.230 .0262322
899.887 .0262173
900.544 .0262012
901.201 .0261841
901.857 .0261662
902.513 .0261478
903.168 .0261284
903.823 .0261085
904.478 .0260873
905.132 .0260650
905.786 .0260416
906.440 .0260171
907.093 .0259916
907.746 .0259657
908.399 .0259393
909.051 .0259128
909.703 .0258862
910.354 .0258597
911.005 .0258330
911.656 .0258061
912.306 .0257791
912.956 .0257522
913.605 .0257255
914.254 .0256990
914.903 .0256726
915.551 .0256470
916.199 .0256220
916.847 .0255974
917.494 .0255736
918.141 .0255504
918.788 .0255278
919.434 .0255059
920.079 .0254847
920.725 .0254638
921.370 .0254438
922.014 .0254238
922.658 .0254039
923.302 .0253839
923.946 .0253635
924.589 .0253429
925.231 .0253220
925.873 .0253009
926.515 .0252792
927.157 .0252568
927.798 .0252339
928.439 .0252096
929.079 .0251846
929.719 .0251585
930.359 .0251317
930.998 .0251043
931.637 .0250766
932.275 .0250490
932.913 .0250221
933.551 .0249962
934.188 .0249714
934.825 .0249481
935.462 .0249261
936.098 .0249053
936.733 .0248860
937.369 .0248684
938.004 .0248527
938.638 .0248382
939.273 .0248255
939.907 .0248140
940.540 .0248038
941.173 .0247950
941.806 .0247874
942.438 .0247813
943.070 .0247758
943.702 .0247707
944.333 .0247655
944.964 .0247603
945.594 .0247550
946.224 .0247499
946.854 .0247454
947.483 .0247416
948.112 .0247383
948.741 .0247356
949.369 .0247339
949.996 .0247331
950.624 .0247326
951.251 .0247321
951.878 .0247316
952.504 .0247306
953.130 .0247291
953.755 .0247276
954.380 .0247265
955.005 .0247256
955.629 .0247247
956.253 .0247232
956.877 .0247213
957.500 .0247186
958.123 .0247153
958.746 .0247109
959.368 .0247057
959.990 .0246995
960.611 .0246925
961.232 .0246854
961.853 .0246787
962.473 .0246718
963.093 .0246658
963.712 .0246599
964.331 .0246545
964.950 .0246490
965.569 .0246438
966.187 .0246399
966.804 .0246370
967.422 .0246353
968.039 .0246348
968.655 .0246356
969.272 .0246384
969.887 .0246423
970.503 .0246476
971.118 .0246536
971.733 .0246597
972.347 .0246653
972.961 .0246699
973.575 .0246737
974.188 .0246764
974.801 .0246785
975.414 .0246799
976.026 .0246805
976.638 .0246804
977.250 .0246798
977.861 .0246787
978.472 .0246767
979.083 .0246734
979.693 .0246684
980.303 .0246620
980.912 .0246546
981.521 .0246467
982.130 .0246388
982.738 .0246318
983.346 .0246268
983.954 .0246232
984.562 .0246217
985.169 .0246216
985.775 .0246224
986.382 .0246244
986.988 .0246262
987.594 .0246283
988.199 .0246303
988.804 .0246329
989.409 .0246364
990.013 .0246407
990.617 .0246459
991.221 .0246514
991.824 .0246575
992.427 .0246645
993.030 .0246716
993.632 .0246795
994.234 .0246880
994.836 .0246973
995.438 .0247069
996.039 .0247171
996.640 .0247270
997.240 .0247367
997.840 .0247460
998.440 .0247547
999.040 .0247630
999.639 .0247710
1000.238 .0247789
1000.836 .0247867
1001.435 .0247947
1002.033 .0248026
1002.630 .0248097
1003.228 .0248167
1003.825 .0248238
1004.422 .0248306
1005.018 .0248371
1005.614 .0248442
1006.210 .0248521
1006.806 .0248605
1007.401 .0248697
1007.996 .0248795
1008.591 .0248897
1009.186 .0249009
1009.780 .0249125
1010.374 .0249247
1010.967 .0249382
1011.561 .0249525
1012.154 .0249669
1012.746 .0249820
1013.339 .0249971
1013.931 .0250107
1014.523 .0250235
1015.115 .0250349
1015.706 .0250447
1016.298 .0250537
1016.888 .0250628
1017.479 .0250724
1018.069 .0250830
1018.660 .0250939
1019.250 .0251049
1019.839 .0251161
1020.429 .0251268
1021.018 .0251362
1021.607 .0251458
1022.195 .0251560
1022.784 .0251670
1023.372 .0251797
1023.960 .0251947
1024.547 .0252121
1025.135 .0252320
1025.722 .0252531
1026.309 .0252744
1026.896 .0252953
1027.483 .0253150
1028.069 .0253327
1028.655 .0253490
1029.241 .0253636
1029.827 .0253767
1030.412 .0253891
1030.997 .0254006
1031.582 .0254109
1032.167 .0254202
1032.752 .0254282
1033.336 .0254344
1033.921 .0254395
1034.505 .0254433
1035.089 .0254454
1035.672 .0254469
1036.256 .0254479
1036.839 .0254480
1037.422 .0254467
1038.005 .0254448
1038.588 .0254424
1039.171 .0254398
1039.753 .0254377
1040.335 .0254356
1040.918 .0254343
1041.500 .0254344
1042.081 .0254346
1042.663 .0254348
1043.244 .0254347
1043.826 .0254337
1044.407 .0254311
1044.988 .0254270
1045.569 .0254221
1046.150 .0254162
1046.730 .0254107
1047.311 .0254064
1047.891 .0254024
1048.471 .0253995
1049.052 .0253969
1049.632 .0253946
1050.211 .0253926
1050.791 .0253902
1051.371 .0253861
1051.950 .0253818
1052.530 .0253776
1053.109 .0253733
1053.688 .0253692
1054.268 .0253664
1054.847 .0253642
1055.426 .0253621
1056.005 .0253601
1056.583 .0253582
1057.162 .0253554
1057.741 .0253532
1058.319 .0253511
1058.898 .0253496
1059.476 .0253474
1060.055 .0253452
1060.633 .0253434
1061.211 .0253432
1061.790 .0253433
1062.368 .0253432
1062.946 .0253436
1063.524 .0253444
1064.102 .0253434
1064.680 .0253403
1065.258 .0253353
1065.836 .0253287
1066.414 .0253195
1066.992 .0253089
1067.570 .0252971
1068.148 .0252853
1068.726 .0252730
1069.304 .0252609
1069.882 .0252488
1070.460 .0252361
1071.038 .0252217
1071.616 .0252072
1072.194 .0251931
1072.772 .0251785
1073.350 .0251641
1073.928 .0251504
1074.506 .0251373
1075.084 .0251235
1075.662 .0251072
1076.240 .0250907
1076.819 .0250754
1077.397 .0250610
1077.976 .0250472
1078.554 .0250369
1079.133 .0250299
1079.711 .0250248
1080.290 .0250212
1080.869 .0250179
1081.448 .0250130
1082.027 .0250058
1082.606 .0249969
1083.185 .0249865
1083.764 .0249772
1084.343 .0249704
1084.923 .0249655
1085.502 .0249644
1086.082 .0249651
1086.662 .0249640
1087.242 .0249617
1087.822 .0249571
1088.402 .0249486
1088.983 .0249363
1089.563 .0249225
1090.144 .0249086
1090.725 .0248955
1091.306 .0248859
1091.887 .0248790
1092.469 .0248759
1093.050 .0248768
1093.632 .0248801
1094.214 .0248858
1094.796 .0248955
1095.379 .0249083
1095.961 .0249240
1096.544 .0249431
1097.127 .0249637
1097.710 .0249845
1098.294 .0250060
1098.877 .0250273
1099.461 .0250486
1100.046 .0250674
1100.630 .0250847
1101.215 .0251008
1101.800 .0251165
1102.385 .0251300
1102.970 .0251397
1103.556 .0251455
1104.142 .0251479
1104.728 .0251481
1105.315 .0251472
1105.902 .0251476
1106.489 .0251521
1107.077 .0251615
1107.664 .0251763
1108.253 .0251952
1108.841 .0252169
1109.430 .0252406
1110.019 .0252647
1110.609 .0252873
1111.198 .0253065
1111.789 .0253242
1112.379 .0253419
1112.970 .0253602
1113.561 .0253817
1114.153 .0254066
1114.745 .0254345
1115.338 .0254641
1115.931 .0254924
1116.524 .0255180
1117.117 .0255394
1117.712 .0255575
1118.306 .0255713
1118.901 .0255817
1119.496 .0255896
1120.092 .0255988
1120.689 .0256115
1121.285 .0256273
1121.882 .0256446
1122.480 .0256646
1123.078 .0256883
1123.677 .0257134
1124.276 .0257385
1124.875 .0257658
1125.476 .0257959
1126.076 .0258319
1126.677 .0258733
1127.279 .0259224
1127.881 .0259821
1128.484 .0260520
1129.087 .0261308
1129.691 .0262158
1130.295 .0263035
1130.900 .0263948
1131.505 .0264849
1132.111 .0265790
1132.718 .0266730
1133.325 .0267695
1133.933 .0268685
1134.541 .0269740
1135.150 .0270852
1135.760 .0272006
1136.370 .0273194
1136.981 .0274431
1137.592 .0275655
1138.204 .0276887
1138.817 .0278120
1139.431 .0279433
1140.045 .0280792
1140.660 .0282214
1141.275 .0283818
1141.891 .0285446
1142.508 .0287470
1143.126 .0288756
1143.744 .0289821
1144.363 .0295536
1144.983 .0293594
