Measurement Sequence started on: 15-12-46-377
Integration time: 28
Scans to Average: 2 
>>>>>Begin Spectral Data<<<<<
432.689 .0000100
433.621 .0000100
434.552 .0000100
435.482 .0000100
436.410 .0000100
437.337 .0000100
438.262 .0280304
439.187 .0593593
440.110 .0982258
441.031 .1420460
441.952 .1845362
442.871 .2178648
443.789 .2359819
444.705 .2368641
445.621 .2230699
446.535 .2002343
447.447 .1744664
448.359 .1351145
449.269 .1156708
450.178 .1034454
451.086 .0947984
451.993 .0882150
452.898 .0830569
453.803 .0788749
454.706 .0754263
455.608 .0725600
456.508 .0701294
457.408 .0680589
458.306 .0662502
459.204 .0646291
460.100 .0631680
460.995 .0618499
461.888 .0606487
462.781 .0595555
463.673 .0585584
464.563 .0576595
465.452 .0568267
466.340 .0560382
467.228 .0552886
468.114 .0545786
468.999 .0538949
469.882 .0532299
470.765 .0525862
471.647 .0519701
472.528 .0513994
473.407 .0508824
474.286 .0504244
475.163 .0500279
476.040 .0496937
476.915 .0494083
477.790 .0491625
478.663 .0489491
479.535 .0487523
480.407 .0485762
481.277 .0484155
482.147 .0482638
483.015 .0481182
483.883 .0479848
484.749 .0478690
485.615 .0477690
486.479 .0476881
487.343 .0476201
488.206 .0475764
489.067 .0475481
489.928 .0475300
490.788 .0475237
491.647 .0475305
492.505 .0475597
493.362 .0476176
494.218 .0477076
495.073 .0478287
495.928 .0479879
496.781 .0481824
497.634 .0484065
498.486 .0486587
499.337 .0489281
500.187 .0492200
501.036 .0495289
501.884 .0498534
502.731 .0501924
503.578 .0505619
504.424 .0509674
505.268 .0513986
506.113 .0518644
506.956 .0523582
507.798 .0528867
508.640 .0534486
509.480 .0540582
510.320 .0547462
511.160 .0555166
511.998 .0563859
512.836 .0573757
513.672 .0585092
514.508 .0597902
515.344 .0612279
516.178 .0628556
517.012 .0646811
517.845 .0667311
518.677 .0690324
519.508 .0716410
520.339 .0745863
521.169 .0779295
521.998 .0816585
522.826 .0858726
523.654 .0905848
524.481 .0957751
525.307 .1015227
526.133 .1078364
526.958 .1147016
527.782 .1220211
528.605 .1296233
529.428 .1374576
530.250 .1449019
531.072 .1517462
531.892 .1574705
532.712 .1618517
533.532 .1646218
534.350 .1655621
535.168 .1645607
535.986 .1617908
536.802 .1574120
537.618 .1517020
538.434 .1448879
539.249 .1375409
540.063 .1298415
540.876 .1221625
541.689 .1147138
542.501 .1077438
543.313 .1013468
544.124 .0956472
544.934 .0905002
545.744 .0859168
546.553 .0817946
547.361 .0781058
548.169 .0748364
548.976 .0719239
549.783 .0693458
550.589 .0670423
551.395 .0649786
552.200 .0631313
553.004 .0614438
553.808 .0598904
554.611 .0584634
555.414 .0571615
556.216 .0559536
557.018 .0548359
557.819 .0537988
558.619 .0528407
559.419 .0519503
560.218 .0511204
561.017 .0503346
561.815 .0495714
562.613 .0488287
563.410 .0480906
564.207 .0473728
565.003 .0466708
565.799 .0459865
566.594 .0453214
567.388 .0446872
568.182 .0440737
568.976 .0434782
569.769 .0429079
570.562 .0423606
571.354 .0418242
572.145 .0413034
572.936 .0407980
573.727 .0403103
574.517 .0398414
575.307 .0393951
576.096 .0389662
576.885 .0385580
577.673 .0381646
578.461 .0377862
579.248 .0374258
580.035 .0370849
580.821 .0367591
581.607 .0364521
582.392 .0361663
583.177 .0359021
583.962 .0356602
584.746 .0354426
585.529 .0352452
586.313 .0350653
587.095 .0349028
587.878 .0347554
588.660 .0346215
589.441 .0344999
590.222 .0343889
591.003 .0342899
591.783 .0342015
592.563 .0341219
593.342 .0340499
594.121 .0339832
594.899 .0339218
595.678 .0338632
596.455 .0338069
597.233 .0337523
598.009 .0336987
598.786 .0336472
599.562 .0335981
600.338 .0335509
601.113 .0335054
601.888 .0334620
602.663 .0334212
603.437 .0333827
604.211 .0333459
604.984 .0333108
605.757 .0332781
606.530 .0332473
607.302 .0332190
608.074 .0331918
608.845 .0331666
609.616 .0331414
610.387 .0331162
611.158 .0330896
611.928 .0330604
612.697 .0330286
613.467 .0329948
614.236 .0329594
615.004 .0329228
615.773 .0328862
616.541 .0328510
617.308 .0328173
618.076 .0327859
618.843 .0327550
619.609 .0327254
620.375 .0326955
621.141 .0326654
621.907 .0326349
622.672 .0326049
623.437 .0325755
624.202 .0325474
624.966 .0325217
625.730 .0324978
626.493 .0324744
627.257 .0324510
628.020 .0324258
628.782 .0323980
629.545 .0323657
630.307 .0323287
631.068 .0322872
631.830 .0322429
632.591 .0321961
633.352 .0321488
634.112 .0321017
634.872 .0320548
635.632 .0320082
636.392 .0319615
637.151 .0319153
637.910 .0318693
638.668 .0318240
639.427 .0317804
640.185 .0317387
640.943 .0317003
641.700 .0316654
642.457 .0316354
643.214 .0316096
643.971 .0315872
644.727 .0315675
645.483 .0315491
646.239 .0315311
646.994 .0315132
647.750 .0314952
648.505 .0314778
649.259 .0314613
650.014 .0314456
650.768 .0314310
651.521 .0314182
652.275 .0314067
653.028 .0313957
653.781 .0313841
654.534 .0313712
655.286 .0313563
656.039 .0313399
656.791 .0313219
657.542 .0313027
658.294 .0312835
659.045 .0312645
659.796 .0312458
660.546 .0312274
661.297 .0312087
662.047 .0311895
662.796 .0311697
663.546 .0311491
664.295 .0311274
665.044 .0311046
665.793 .0310818
666.542 .0310598
667.290 .0310384
668.038 .0310172
668.786 .0309963
669.533 .0309758
670.281 .0309554
671.028 .0309345
671.774 .0309134
672.521 .0308924
673.267 .0308728
674.013 .0308545
674.759 .0308376
675.505 .0308226
676.250 .0308090
676.995 .0307963
677.740 .0307848
678.484 .0307734
679.229 .0307618
679.973 .0307506
680.717 .0307397
681.460 .0307287
682.204 .0307182
682.947 .0307076
683.690 .0306972
684.433 .0306862
685.175 .0306739
685.917 .0306589
686.659 .0306422
687.401 .0306234
688.142 .0306021
688.884 .0305792
689.625 .0305548
690.365 .0305290
691.106 .0305023
691.846 .0304747
692.586 .0304460
693.326 .0304160
694.066 .0303844
694.805 .0303510
695.545 .0303163
696.284 .0302800
697.022 .0302432
697.761 .0302064
698.499 .0301702
699.237 .0301346
699.975 .0301002
700.713 .0300675
701.450 .0300363
702.187 .0300064
702.924 .0299772
703.661 .0299484
704.397 .0299200
705.133 .0298913
705.869 .0298624
706.605 .0298340
707.341 .0298064
708.076 .0297790
708.811 .0297529
709.546 .0297279
710.281 .0297040
711.015 .0296809
711.749 .0296580
712.483 .0296348
713.217 .0296111
713.950 .0295867
714.684 .0295612
715.417 .0295351
716.150 .0295088
716.882 .0294824
717.615 .0294568
718.347 .0294319
719.079 .0294074
719.811 .0293837
720.542 .0293610
721.273 .0293384
722.005 .0293154
722.735 .0292921
723.466 .0292689
724.196 .0292456
724.927 .0292224
725.656 .0291986
726.386 .0291749
727.116 .0291517
727.845 .0291287
728.574 .0291063
729.303 .0290850
730.031 .0290650
730.760 .0290464
731.488 .0290291
732.216 .0290135
732.944 .0289992
733.671 .0289868
734.398 .0289756
735.125 .0289655
735.852 .0289564
736.579 .0289480
737.305 .0289409
738.031 .0289355
738.757 .0289315
739.483 .0289284
740.208 .0289266
740.933 .0289253
741.658 .0289240
742.383 .0289227
743.108 .0289212
743.832 .0289196
744.556 .0289174
745.280 .0289147
746.004 .0289117
746.727 .0289087
747.450 .0289061
748.173 .0289034
748.896 .0289014
749.618 .0288993
750.340 .0288966
751.062 .0288938
751.784 .0288910
752.506 .0288883
753.227 .0288854
753.948 .0288824
754.669 .0288795
755.389 .0288766
756.110 .0288734
756.830 .0288699
757.550 .0288660
758.269 .0288612
758.989 .0288549
759.708 .0288467
760.427 .0288372
761.146 .0288265
761.864 .0288149
762.582 .0288031
763.300 .0287909
764.018 .0287790
764.736 .0287670
765.453 .0287552
766.170 .0287435
766.887 .0287316
767.603 .0287196
768.320 .0287073
769.036 .0286949
769.751 .0286825
770.467 .0286702
771.182 .0286590
771.897 .0286485
772.612 .0286385
773.327 .0286286
774.041 .0286195
774.755 .0286104
775.469 .0286014
776.183 .0285921
776.896 .0285826
777.609 .0285735
778.322 .0285643
779.035 .0285549
779.747 .0285459
780.459 .0285373
781.171 .0285286
781.882 .0285193
782.594 .0285099
783.305 .0285002
784.016 .0284906
784.726 .0284810
785.436 .0284709
786.147 .0284601
786.856 .0284492
787.566 .0284374
788.275 .0284252
788.984 .0284120
789.693 .0283978
790.401 .0283826
791.110 .0283663
791.818 .0283485
792.525 .0283295
793.233 .0283095
793.940 .0282890
794.647 .0282671
795.353 .0282443
796.060 .0282208
796.766 .0281967
797.472 .0281720
798.177 .0281468
798.883 .0281209
799.588 .0280945
800.292 .0280677
800.997 .0280410
801.701 .0280136
802.405 .0279863
803.109 .0279589
803.812 .0279317
804.515 .0279049
805.218 .0278787
805.921 .0278529
806.623 .0278279
807.325 .0278032
808.027 .0277786
808.728 .0277536
809.429 .0277280
810.130 .0277016
810.831 .0276745
811.531 .0276467
812.231 .0276182
812.931 .0275891
813.630 .0275605
814.330 .0275320
815.029 .0275040
815.727 .0274760
816.426 .0274480
817.124 .0274200
817.821 .0273916
818.519 .0273632
819.216 .0273353
819.913 .0273082
820.609 .0272824
821.306 .0272584
822.002 .0272369
822.697 .0272177
823.393 .0272014
824.088 .0271877
824.783 .0271762
825.477 .0271662
826.171 .0271575
826.865 .0271504
827.559 .0271449
828.252 .0271408
828.945 .0271379
829.638 .0271365
830.330 .0271365
831.023 .0271377
831.714 .0271397
832.406 .0271425
833.097 .0271455
833.788 .0271481
834.479 .0271500
835.169 .0271508
835.859 .0271508
836.548 .0271502
837.238 .0271492
837.927 .0271483
838.615 .0271472
839.304 .0271466
839.992 .0271463
840.680 .0271466
841.367 .0271475
842.054 .0271489
842.741 .0271508
843.428 .0271533
844.114 .0271566
844.800 .0271604
845.485 .0271646
846.170 .0271690
846.855 .0271733
847.540 .0271769
848.224 .0271797
848.908 .0271816
849.592 .0271825
850.275 .0271824
850.958 .0271810
851.641 .0271788
852.323 .0271757
853.005 .0271719
853.687 .0271675
854.368 .0271623
855.049 .0271566
855.730 .0271498
856.410 .0271421
857.090 .0271332
857.769 .0271234
858.449 .0271125
859.128 .0271010
859.806 .0270892
860.485 .0270777
861.163 .0270669
861.840 .0270575
862.518 .0270495
863.195 .0270430
863.871 .0270374
864.548 .0270322
865.224 .0270270
865.899 .0270219
866.574 .0270162
867.249 .0270109
867.924 .0270057
868.598 .0270018
869.272 .0269993
869.946 .0269983
870.619 .0269987
871.292 .0270003
871.964 .0270020
872.636 .0270035
873.308 .0270043
873.979 .0270046
874.651 .0270046
875.321 .0270052
875.992 .0270066
876.662 .0270095
877.331 .0270137
878.001 .0270190
878.670 .0270248
879.338 .0270306
880.007 .0270357
880.675 .0270399
881.342 .0270434
882.009 .0270463
882.676 .0270488
883.343 .0270513
884.009 .0270541
884.675 .0270572
885.340 .0270600
886.005 .0270617
886.670 .0270624
887.334 .0270616
887.998 .0270589
888.662 .0270547
889.325 .0270494
889.988 .0270436
890.650 .0270380
891.312 .0270330
891.974 .0270287
892.636 .0270249
893.297 .0270215
893.957 .0270181
894.618 .0270140
895.278 .0270092
895.937 .0270035
896.596 .0269975
897.255 .0269912
897.914 .0269849
898.572 .0269787
899.230 .0269730
899.887 .0269676
900.544 .0269616
901.201 .0269542
901.857 .0269455
902.513 .0269349
903.168 .0269223
903.823 .0269077
904.478 .0268917
905.132 .0268744
905.786 .0268565
906.440 .0268380
907.093 .0268184
907.746 .0267978
908.399 .0267756
909.051 .0267512
909.703 .0267246
910.354 .0266958
911.005 .0266648
911.656 .0266325
912.306 .0265994
912.956 .0265660
913.605 .0265326
914.254 .0264997
914.903 .0264670
915.551 .0264339
916.199 .0264008
916.847 .0263672
917.494 .0263327
918.141 .0262982
918.788 .0262638
919.434 .0262297
920.079 .0261962
920.725 .0261639
921.370 .0261322
922.014 .0261011
922.658 .0260705
923.302 .0260394
923.946 .0260076
924.589 .0259749
925.231 .0259410
925.873 .0259063
926.515 .0258713
927.157 .0258361
927.798 .0258011
928.439 .0257667
929.079 .0257328
929.719 .0256990
930.359 .0256657
930.998 .0256322
931.637 .0255986
932.275 .0255648
932.913 .0255310
933.551 .0254974
934.188 .0254648
934.825 .0254329
935.462 .0254024
936.098 .0253733
936.733 .0253459
937.369 .0253195
938.004 .0252941
938.638 .0252692
939.273 .0252450
939.907 .0252208
940.540 .0251970
941.173 .0251736
941.806 .0251511
942.438 .0251298
943.070 .0251098
943.702 .0250911
944.333 .0250741
944.964 .0250584
945.594 .0250441
946.224 .0250304
946.854 .0250176
947.483 .0250050
948.112 .0249932
948.741 .0249818
949.369 .0249707
949.996 .0249600
950.624 .0249497
951.251 .0249394
951.878 .0249290
952.504 .0249179
953.130 .0249059
953.755 .0248928
954.380 .0248789
955.005 .0248635
955.629 .0248476
956.253 .0248312
956.877 .0248153
957.500 .0248001
958.123 .0247860
958.746 .0247726
959.368 .0247602
959.990 .0247489
960.611 .0247376
961.232 .0247270
961.853 .0247172
962.473 .0247080
963.093 .0246996
963.712 .0246926
964.331 .0246868
964.950 .0246820
965.569 .0246787
966.187 .0246760
966.804 .0246739
967.422 .0246725
968.039 .0246713
968.655 .0246704
969.272 .0246705
969.887 .0246708
970.503 .0246713
971.118 .0246721
971.733 .0246735
972.347 .0246749
972.961 .0246767
973.575 .0246786
974.188 .0246802
974.801 .0246817
975.414 .0246831
976.026 .0246842
976.638 .0246855
977.250 .0246864
977.861 .0246870
978.472 .0246872
979.083 .0246870
979.693 .0246859
980.303 .0246846
980.912 .0246831
981.521 .0246813
982.130 .0246793
982.738 .0246778
983.346 .0246764
983.954 .0246761
984.562 .0246767
985.169 .0246778
985.775 .0246792
986.382 .0246805
986.988 .0246813
987.594 .0246822
988.199 .0246829
988.804 .0246834
989.409 .0246837
990.013 .0246844
990.617 .0246844
991.221 .0246844
991.824 .0246850
992.427 .0246857
993.030 .0246867
993.632 .0246887
994.234 .0246921
994.836 .0246972
995.438 .0247046
996.039 .0247141
996.640 .0247258
997.240 .0247394
997.840 .0247541
998.440 .0247701
999.040 .0247871
999.639 .0248053
1000.238 .0248242
1000.836 .0248439
1001.435 .0248647
1002.033 .0248859
1002.630 .0249071
1003.228 .0249283
1003.825 .0249488
1004.422 .0249680
1005.018 .0249857
1005.614 .0250025
1006.210 .0250183
1006.806 .0250333
1007.401 .0250483
1007.996 .0250630
1008.591 .0250778
1009.186 .0250935
1009.780 .0251089
1010.374 .0251242
1010.967 .0251395
1011.561 .0251544
1012.154 .0251691
1012.746 .0251835
1013.339 .0251976
1013.931 .0252115
1014.523 .0252254
1015.115 .0252387
1015.706 .0252511
1016.298 .0252632
1016.888 .0252748
1017.479 .0252858
1018.069 .0252969
1018.660 .0253077
1019.250 .0253185
1019.839 .0253302
1020.429 .0253422
1021.018 .0253553
1021.607 .0253691
1022.195 .0253833
1022.784 .0253985
1023.372 .0254150
1023.960 .0254327
1024.547 .0254513
1025.135 .0254714
1025.722 .0254921
1026.309 .0255127
1026.896 .0255335
1027.483 .0255533
1028.069 .0255721
1028.655 .0255897
1029.241 .0256056
1029.827 .0256199
1030.412 .0256331
1030.997 .0256452
1031.582 .0256566
1032.167 .0256672
1032.752 .0256765
1033.336 .0256843
1033.921 .0256912
1034.505 .0256971
1035.089 .0257019
1035.672 .0257063
1036.256 .0257104
1036.839 .0257142
1037.422 .0257178
1038.005 .0257212
1038.588 .0257248
1039.171 .0257279
1039.753 .0257305
1040.335 .0257328
1040.918 .0257350
1041.500 .0257368
1042.081 .0257385
1042.663 .0257401
1043.244 .0257419
1043.826 .0257430
1044.407 .0257430
1044.988 .0257419
1045.569 .0257394
1046.150 .0257355
1046.730 .0257295
1047.311 .0257229
1047.891 .0257159
1048.471 .0257079
1049.052 .0256997
1049.632 .0256911
1050.211 .0256823
1050.791 .0256730
1051.371 .0256632
1051.950 .0256540
1052.530 .0256454
1053.109 .0256378
1053.688 .0256308
1054.268 .0256252
1054.847 .0256203
1055.426 .0256164
1056.005 .0256129
1056.583 .0256100
1057.162 .0256069
1057.741 .0256037
1058.319 .0256001
1058.898 .0255964
1059.476 .0255920
1060.055 .0255868
1060.633 .0255798
1061.211 .0255721
1061.790 .0255629
1062.368 .0255522
1062.946 .0255412
1063.524 .0255305
1064.102 .0255207
1064.680 .0255123
1065.258 .0255046
1065.836 .0254976
1066.414 .0254913
1066.992 .0254854
1067.570 .0254795
1068.148 .0254745
1068.726 .0254710
1069.304 .0254680
1069.882 .0254662
1070.460 .0254662
1071.038 .0254663
1071.616 .0254661
1072.194 .0254660
1072.772 .0254625
1073.350 .0254562
1073.928 .0254470
1074.506 .0254348
1075.084 .0254214
1075.662 .0254084
1076.240 .0253961
1076.819 .0253846
1077.397 .0253743
1077.976 .0253640
1078.554 .0253520
1079.133 .0253403
1079.711 .0253269
1080.290 .0253124
1080.869 .0252968
1081.448 .0252810
1082.027 .0252645
1082.606 .0252492
1083.185 .0252357
1083.764 .0252229
1084.343 .0252116
1084.923 .0252003
1085.502 .0251885
1086.082 .0251760
1086.662 .0251626
1087.242 .0251491
1087.822 .0251357
1088.402 .0251232
1088.983 .0251107
1089.563 .0250998
1090.144 .0250900
1090.725 .0250827
1091.306 .0250765
1091.887 .0250722
1092.469 .0250678
1093.050 .0250640
1093.632 .0250587
1094.214 .0250523
1094.796 .0250458
1095.379 .0250383
1095.961 .0250302
1096.544 .0250236
1097.127 .0250168
1097.710 .0250120
1098.294 .0250087
1098.877 .0250090
1099.461 .0250095
1100.046 .0250113
1100.630 .0250134
1101.215 .0250150
1101.800 .0250163
1102.385 .0250168
1102.970 .0250155
1103.556 .0250150
1104.142 .0250146
1104.728 .0250148
1105.315 .0250156
1105.902 .0250170
1106.489 .0250187
1107.077 .0250198
1107.664 .0250210
1108.253 .0250230
1108.841 .0250228
1109.430 .0250250
1110.019 .0250279
1110.609 .0250316
1111.198 .0250379
1111.789 .0250483
1112.379 .0250661
1112.970 .0250895
1113.561 .0251198
1114.153 .0251567
1114.745 .0251996
1115.338 .0252499
1115.931 .0253031
1116.524 .0253591
1117.117 .0254203
1117.712 .0254820
1118.306 .0255421
1118.901 .0256028
1119.496 .0256621
1120.092 .0257206
1120.689 .0257760
1121.285 .0258284
1121.882 .0258780
1122.480 .0259251
1123.078 .0259734
1123.677 .0260207
1124.276 .0260708
1124.875 .0261215
1125.476 .0261697
1126.076 .0262195
1126.677 .0262669
1127.279 .0263093
1127.881 .0263462
1128.484 .0263807
1129.087 .0264134
1129.691 .0264474
1130.295 .0264870
1130.900 .0265327
1131.505 .0265881
1132.111 .0266489
1132.718 .0267117
1133.325 .0267759
1133.933 .0268406
1134.541 .0268989
1135.150 .0269538
1135.760 .0270104
1136.370 .0270702
1136.981 .0271400
1137.592 .0272221
1138.204 .0273219
1138.817 .0274365
1139.431 .0275702
1140.045 .0277194
1140.660 .0278792
1141.275 .0280657
1141.891 .0282550
1142.508 .0284437
1143.126 .0286600
1143.744 .0287401
1144.363 .0293568
1144.983 .0292323
