Measurement Sequence started on: 15-12-46-377
Integration time: 28
Scans to Average: 2 
>>>>>Begin Spectral Data<<<<<
432.689 .0000100
433.621 .0000100
434.552 .0000100
435.482 .0000100
436.410 .0000100
437.337 .0000100
438.262 .0301665
439.187 .0638818
440.110 .1057671
441.031 .1529504
441.952 .1986557
442.871 .2344919
443.789 .2539240
444.705 .2547202
445.621 .2396948
446.535 .2149058
447.447 .1869753
448.359 .1444369
449.269 .1233473
450.178 .1100170
451.086 .1006102
451.993 .0934217
452.898 .0877047
453.803 .0830018
454.706 .0791031
455.608 .0757827
456.508 .0729353
457.408 .0704775
458.306 .0683467
459.204 .0664508
460.100 .0647576
460.995 .0632321
461.888 .0618542
462.781 .0605958
463.673 .0594388
464.563 .0583790
465.452 .0574121
466.340 .0565113
467.228 .0556854
468.114 .0549355
468.999 .0542578
469.882 .0536288
470.765 .0530505
471.647 .0525168
472.528 .0520184
473.407 .0515565
474.286 .0511277
475.163 .0507295
476.040 .0503682
476.915 .0500309
477.790 .0497147
478.663 .0494260
479.535 .0491560
480.407 .0489008
481.277 .0486700
482.147 .0484635
483.015 .0482765
483.883 .0481178
484.749 .0479921
485.615 .0479040
486.479 .0478492
487.343 .0478363
488.206 .0478578
489.067 .0479191
489.928 .0480108
490.788 .0481274
491.647 .0482763
492.505 .0484547
493.362 .0486568
494.218 .0488840
495.073 .0491315
495.928 .0494049
496.781 .0496911
497.634 .0499970
498.486 .0503146
499.337 .0506485
500.187 .0509997
501.036 .0513655
501.884 .0517493
502.731 .0521541
503.578 .0525795
504.424 .0530320
505.268 .0534971
506.113 .0539873
506.956 .0545068
507.798 .0550681
508.640 .0556904
509.480 .0563843
510.320 .0571502
511.160 .0580113
511.998 .0589704
512.836 .0600335
513.672 .0611980
514.508 .0624792
515.344 .0638819
516.178 .0654334
517.012 .0671295
517.845 .0690099
518.677 .0711207
519.508 .0735430
520.339 .0762880
521.169 .0794496
521.998 .0830826
522.826 .0872506
523.654 .0919869
524.481 .0973461
525.307 .1033718
526.133 .1100364
526.958 .1173012
527.782 .1250798
528.605 .1331301
529.428 .1413755
530.250 .1492292
531.072 .1564676
531.892 .1625817
532.712 .1672112
533.532 .1700550
534.350 .1709499
535.168 .1697975
535.986 .1666850
536.802 .1618190
537.618 .1556286
538.434 .1483343
539.249 .1405355
540.063 .1324585
540.876 .1245218
541.689 .1169394
542.501 .1098579
543.313 .1033299
544.124 .0974593
544.934 .0921632
545.744 .0874042
546.553 .0830966
547.361 .0792920
548.169 .0759460
548.976 .0729908
549.783 .0704091
550.589 .0681431
551.395 .0661060
552.200 .0642741
553.004 .0625730
553.808 .0609607
554.611 .0594450
555.414 .0580246
556.216 .0567045
557.018 .0555153
557.819 .0544542
558.619 .0535025
559.419 .0526424
560.218 .0518799
561.017 .0511574
561.815 .0504518
562.613 .0497520
563.410 .0490314
564.207 .0482968
565.003 .0475554
565.799 .0468185
566.594 .0461039
567.388 .0454298
568.182 .0447882
568.976 .0441734
569.769 .0435925
570.562 .0430351
571.354 .0424813
572.145 .0419337
572.936 .0413945
573.727 .0408587
574.517 .0403363
575.307 .0398371
576.096 .0393645
576.885 .0389247
577.673 .0385170
578.461 .0381348
579.248 .0377781
580.035 .0374468
580.821 .0371363
581.607 .0368462
582.392 .0365785
583.177 .0363328
583.962 .0361075
584.746 .0359056
585.529 .0357242
586.313 .0355613
587.095 .0354174
587.878 .0352877
588.660 .0351717
589.441 .0350678
590.222 .0349754
591.003 .0348942
591.783 .0348236
592.563 .0347605
593.342 .0347043
594.121 .0346517
594.899 .0346005
595.678 .0345495
596.455 .0344986
597.233 .0344458
598.009 .0343920
598.786 .0343376
599.562 .0342833
600.338 .0342280
601.113 .0341734
601.888 .0341174
602.663 .0340612
603.437 .0340030
604.211 .0339422
604.984 .0338787
605.757 .0338136
606.530 .0337470
607.302 .0336806
608.074 .0336166
608.845 .0335558
609.616 .0334976
610.387 .0334426
611.158 .0333907
611.928 .0333418
612.697 .0332943
613.467 .0332487
614.236 .0332043
615.004 .0331626
615.773 .0331228
616.541 .0330867
617.308 .0330543
618.076 .0330261
618.843 .0330014
619.609 .0329795
620.375 .0329589
621.141 .0329381
621.907 .0329164
622.672 .0328938
623.437 .0328702
624.202 .0328450
624.966 .0328191
625.730 .0327934
626.493 .0327687
627.257 .0327438
628.020 .0327188
628.782 .0326938
629.545 .0326669
630.307 .0326379
631.068 .0326072
631.830 .0325747
632.591 .0325409
633.352 .0325060
634.112 .0324708
634.872 .0324354
635.632 .0324009
636.392 .0323664
637.151 .0323325
637.910 .0322991
638.668 .0322658
639.427 .0322323
640.185 .0321996
640.943 .0321676
641.700 .0321370
642.457 .0321082
643.214 .0320820
643.971 .0320580
644.727 .0320375
645.483 .0320195
646.239 .0320046
646.994 .0319914
647.750 .0319797
648.505 .0319685
649.259 .0319581
650.014 .0319474
650.768 .0319368
651.521 .0319263
652.275 .0319157
653.028 .0319053
653.781 .0318947
654.534 .0318832
655.286 .0318704
656.039 .0318556
656.791 .0318382
657.542 .0318171
658.294 .0317929
659.045 .0317660
659.796 .0317370
660.546 .0317065
661.297 .0316747
662.047 .0316427
662.796 .0316109
663.546 .0315797
664.295 .0315488
665.044 .0315179
665.793 .0314874
666.542 .0314571
667.290 .0314268
668.038 .0313968
668.786 .0313674
669.533 .0313387
670.281 .0313105
671.028 .0312830
671.774 .0312558
672.521 .0312291
673.267 .0312028
674.013 .0311763
674.759 .0311490
675.505 .0311208
676.250 .0310909
676.995 .0310596
677.740 .0310269
678.484 .0309927
679.229 .0309579
679.973 .0309225
680.717 .0308874
681.460 .0308521
682.204 .0308174
682.947 .0307832
683.690 .0307500
684.433 .0307180
685.175 .0306875
685.917 .0306585
686.659 .0306319
687.401 .0306073
688.142 .0305856
688.884 .0305662
689.625 .0305490
690.365 .0305330
691.106 .0305179
691.846 .0305032
692.586 .0304889
693.326 .0304742
694.066 .0304601
694.805 .0304461
695.545 .0304323
696.284 .0304179
697.022 .0304031
697.761 .0303877
698.499 .0303715
699.237 .0303542
699.975 .0303362
700.713 .0303176
701.450 .0302994
702.187 .0302815
702.924 .0302649
703.661 .0302498
704.397 .0302360
705.133 .0302232
705.869 .0302116
706.605 .0302009
707.341 .0301907
708.076 .0301809
708.811 .0301716
709.546 .0301621
710.281 .0301521
711.015 .0301415
711.749 .0301301
712.483 .0301180
713.217 .0301046
713.950 .0300898
714.684 .0300741
715.417 .0300581
716.150 .0300418
716.882 .0300253
717.615 .0300091
718.347 .0299929
719.079 .0299766
719.811 .0299603
720.542 .0299439
721.273 .0299272
722.005 .0299107
722.735 .0298942
723.466 .0298780
724.196 .0298623
724.927 .0298472
725.656 .0298327
726.386 .0298189
727.116 .0298055
727.845 .0297920
728.574 .0297783
729.303 .0297646
730.031 .0297505
730.760 .0297363
731.488 .0297216
732.216 .0297068
732.944 .0296920
733.671 .0296772
734.398 .0296628
735.125 .0296487
735.852 .0296351
736.579 .0296217
737.305 .0296083
738.031 .0295950
738.757 .0295812
739.483 .0295670
740.208 .0295518
740.933 .0295360
741.658 .0295194
742.383 .0295022
743.108 .0294846
743.832 .0294669
744.556 .0294490
745.280 .0294311
746.004 .0294129
746.727 .0293945
747.450 .0293762
748.173 .0293576
748.896 .0293383
749.618 .0293190
750.340 .0292991
751.062 .0292793
751.784 .0292593
752.506 .0292395
753.227 .0292193
753.948 .0291991
754.669 .0291788
755.389 .0291578
756.110 .0291368
756.830 .0291157
757.550 .0290940
758.269 .0290723
758.989 .0290502
759.708 .0290277
760.427 .0290049
761.146 .0289825
761.864 .0289595
762.582 .0289365
763.300 .0289136
764.018 .0288908
764.736 .0288681
765.453 .0288459
766.170 .0288237
766.887 .0288019
767.603 .0287802
768.320 .0287587
769.036 .0287368
769.751 .0287157
770.467 .0286946
771.182 .0286743
771.897 .0286541
772.612 .0286351
773.327 .0286164
774.041 .0285991
774.755 .0285823
775.469 .0285663
776.183 .0285513
776.896 .0285376
777.609 .0285244
778.322 .0285121
779.035 .0285007
779.747 .0284906
780.459 .0284808
781.171 .0284723
781.882 .0284640
782.594 .0284563
783.305 .0284493
784.016 .0284423
784.726 .0284352
785.436 .0284289
786.147 .0284229
786.856 .0284176
787.566 .0284126
788.275 .0284082
788.984 .0284041
789.693 .0284006
790.401 .0283975
791.110 .0283941
791.818 .0283906
792.525 .0283873
793.233 .0283835
793.940 .0283797
794.647 .0283761
795.353 .0283728
796.060 .0283700
796.766 .0283678
797.472 .0283658
798.177 .0283639
798.883 .0283623
799.588 .0283606
800.292 .0283582
800.997 .0283554
801.701 .0283520
802.405 .0283483
803.109 .0283448
803.812 .0283416
804.515 .0283390
805.218 .0283374
805.921 .0283364
806.623 .0283354
807.325 .0283340
808.027 .0283323
808.728 .0283292
809.429 .0283246
810.130 .0283185
810.831 .0283110
811.531 .0283027
812.231 .0282936
812.931 .0282843
813.630 .0282748
814.330 .0282651
815.029 .0282549
815.727 .0282439
816.426 .0282323
817.124 .0282200
817.821 .0282070
818.519 .0281940
819.216 .0281812
819.913 .0281693
820.609 .0281584
821.306 .0281487
822.002 .0281404
822.697 .0281331
823.393 .0281269
824.088 .0281217
824.783 .0281169
825.477 .0281127
826.171 .0281090
826.865 .0281058
827.559 .0281030
828.252 .0281006
828.945 .0280982
829.638 .0280961
830.330 .0280942
831.023 .0280923
831.714 .0280905
832.406 .0280888
833.097 .0280872
833.788 .0280851
834.479 .0280822
835.169 .0280785
835.859 .0280742
836.548 .0280688
837.238 .0280626
837.927 .0280550
838.615 .0280465
839.304 .0280373
839.992 .0280275
840.680 .0280171
841.367 .0280063
842.054 .0279950
842.741 .0279830
843.428 .0279704
844.114 .0279575
844.800 .0279435
845.485 .0279293
846.170 .0279144
846.855 .0278989
847.540 .0278823
848.224 .0278653
848.908 .0278478
849.592 .0278299
850.275 .0278116
850.958 .0277920
851.641 .0277715
852.323 .0277495
853.005 .0277261
853.687 .0277008
854.368 .0276737
855.049 .0276449
855.730 .0276143
856.410 .0275823
857.090 .0275492
857.769 .0275159
858.449 .0274823
859.128 .0274489
859.806 .0274157
860.485 .0273827
861.163 .0273501
861.840 .0273180
862.518 .0272867
863.195 .0272556
863.871 .0272255
864.548 .0271957
865.224 .0271668
865.899 .0271395
866.574 .0271133
867.249 .0270887
867.924 .0270655
868.598 .0270436
869.272 .0270223
869.946 .0270019
870.619 .0269820
871.292 .0269622
871.964 .0269428
872.636 .0269231
873.308 .0269033
873.979 .0268839
874.651 .0268653
875.321 .0268472
875.992 .0268301
876.662 .0268140
877.331 .0267982
878.001 .0267833
878.670 .0267687
879.338 .0267543
880.007 .0267404
880.675 .0267271
881.342 .0267142
882.009 .0267020
882.676 .0266908
883.343 .0266805
884.009 .0266712
884.675 .0266630
885.340 .0266553
886.005 .0266484
886.670 .0266427
887.334 .0266385
887.998 .0266351
888.662 .0266334
889.325 .0266331
889.988 .0266341
890.650 .0266364
891.312 .0266395
891.974 .0266433
892.636 .0266483
893.297 .0266540
893.957 .0266603
894.618 .0266673
895.278 .0266749
895.937 .0266827
896.596 .0266910
897.255 .0266990
897.914 .0267063
898.572 .0267126
899.230 .0267183
899.887 .0267224
900.544 .0267254
901.201 .0267273
901.857 .0267288
902.513 .0267296
903.168 .0267299
903.823 .0267287
904.478 .0267266
905.132 .0267229
905.786 .0267174
906.440 .0267101
907.093 .0267013
907.746 .0266913
908.399 .0266805
909.051 .0266691
909.703 .0266575
910.354 .0266457
911.005 .0266344
911.656 .0266231
912.306 .0266121
912.956 .0266015
913.605 .0265911
914.254 .0265816
914.903 .0265728
915.551 .0265652
916.199 .0265590
916.847 .0265542
917.494 .0265508
918.141 .0265489
918.788 .0265480
919.434 .0265480
920.079 .0265482
920.725 .0265485
921.370 .0265482
922.014 .0265473
922.658 .0265456
923.302 .0265431
923.946 .0265399
924.589 .0265357
925.231 .0265303
925.873 .0265242
926.515 .0265169
927.157 .0265084
927.798 .0264989
928.439 .0264886
929.079 .0264777
929.719 .0264659
930.359 .0264535
930.998 .0264410
931.637 .0264283
932.275 .0264160
932.913 .0264040
933.551 .0263922
934.188 .0263812
934.825 .0263704
935.462 .0263606
936.098 .0263514
936.733 .0263434
937.369 .0263360
938.004 .0263296
938.638 .0263239
939.273 .0263185
939.907 .0263140
940.540 .0263113
941.173 .0263099
941.806 .0263104
942.438 .0263125
943.070 .0263165
943.702 .0263217
944.333 .0263280
944.964 .0263342
945.594 .0263407
946.224 .0263468
946.854 .0263523
947.483 .0263570
948.112 .0263620
948.741 .0263668
949.369 .0263713
949.996 .0263757
950.624 .0263791
951.251 .0263810
951.878 .0263814
952.504 .0263797
953.130 .0263756
953.755 .0263696
954.380 .0263615
955.005 .0263511
955.629 .0263394
956.253 .0263265
956.877 .0263125
957.500 .0262982
958.123 .0262832
958.746 .0262667
959.368 .0262497
959.990 .0262320
960.611 .0262134
961.232 .0261947
961.853 .0261762
962.473 .0261577
963.093 .0261401
963.712 .0261233
964.331 .0261070
964.950 .0260917
965.569 .0260775
966.187 .0260637
966.804 .0260506
967.422 .0260382
968.039 .0260258
968.655 .0260137
969.272 .0260013
969.887 .0259879
970.503 .0259738
971.118 .0259590
971.733 .0259432
972.347 .0259268
972.961 .0259102
973.575 .0258932
974.188 .0258763
974.801 .0258593
975.414 .0258420
976.026 .0258240
976.638 .0258056
977.250 .0257863
977.861 .0257660
978.472 .0257453
979.083 .0257240
979.693 .0257023
980.303 .0256805
980.912 .0256586
981.521 .0256366
982.130 .0256140
982.738 .0255907
983.346 .0255662
983.954 .0255399
984.562 .0255117
985.169 .0254813
985.775 .0254490
986.382 .0254152
986.988 .0253801
987.594 .0253438
988.199 .0253074
988.804 .0252710
989.409 .0252352
990.013 .0252005
990.617 .0251673
991.221 .0251357
991.824 .0251061
992.427 .0250789
993.030 .0250532
993.632 .0250298
994.234 .0250087
994.836 .0249889
995.438 .0249709
996.039 .0249542
996.640 .0249385
997.240 .0249246
997.840 .0249127
998.440 .0249019
999.040 .0248925
999.639 .0248847
1000.238 .0248772
1000.836 .0248695
1001.435 .0248615
1002.033 .0248525
1002.630 .0248422
1003.228 .0248306
1003.825 .0248177
1004.422 .0248040
1005.018 .0247904
1005.614 .0247774
1006.210 .0247646
1006.806 .0247526
1007.401 .0247403
1007.996 .0247278
1008.591 .0247153
1009.186 .0247027
1009.780 .0246900
1010.374 .0246770
1010.967 .0246641
1011.561 .0246514
1012.154 .0246383
1012.746 .0246253
1013.339 .0246122
1013.931 .0246000
1014.523 .0245885
1015.115 .0245785
1015.706 .0245703
1016.298 .0245651
1016.888 .0245626
1017.479 .0245622
1018.069 .0245626
1018.660 .0245632
1019.250 .0245640
1019.839 .0245641
1020.429 .0245638
1021.018 .0245638
1021.607 .0245649
1022.195 .0245681
1022.784 .0245733
1023.372 .0245806
1023.960 .0245896
1024.547 .0246000
1025.135 .0246109
1025.722 .0246211
1026.309 .0246307
1026.896 .0246396
1027.483 .0246484
1028.069 .0246577
1028.655 .0246674
1029.241 .0246768
1029.827 .0246869
1030.412 .0246972
1030.997 .0247068
1031.582 .0247153
1032.167 .0247224
1032.752 .0247290
1033.336 .0247351
1033.921 .0247413
1034.505 .0247475
1035.089 .0247538
1035.672 .0247603
1036.256 .0247662
1036.839 .0247708
1037.422 .0247748
1038.005 .0247783
1038.588 .0247823
1039.171 .0247873
1039.753 .0247944
1040.335 .0248043
1040.918 .0248174
1041.500 .0248335
1042.081 .0248513
1042.663 .0248692
1043.244 .0248877
1043.826 .0249057
1044.407 .0249236
1044.988 .0249410
1045.569 .0249574
1046.150 .0249735
1046.730 .0249897
1047.311 .0250055
1047.891 .0250209
1048.471 .0250358
1049.052 .0250509
1049.632 .0250649
1050.211 .0250793
1050.791 .0250930
1051.371 .0251065
1051.950 .0251204
1052.530 .0251336
1053.109 .0251451
1053.688 .0251546
1054.268 .0251618
1054.847 .0251677
1055.426 .0251734
1056.005 .0251799
1056.583 .0251872
1057.162 .0251970
1057.741 .0252089
1058.319 .0252219
1058.898 .0252354
1059.476 .0252485
1060.055 .0252606
1060.633 .0252710
1061.211 .0252792
1061.790 .0252861
1062.368 .0252943
1062.946 .0253043
1063.524 .0253167
1064.102 .0253315
1064.680 .0253481
1065.258 .0253661
1065.836 .0253842
1066.414 .0254015
1066.992 .0254179
1067.570 .0254331
1068.148 .0254474
1068.726 .0254607
1069.304 .0254742
1069.882 .0254883
1070.460 .0255042
1071.038 .0255224
1071.616 .0255415
1072.194 .0255614
1072.772 .0255817
1073.350 .0256018
1073.928 .0256215
1074.506 .0256401
1075.084 .0256578
1075.662 .0256752
1076.240 .0256922
1076.819 .0257096
1077.397 .0257278
1077.976 .0257480
1078.554 .0257689
1079.133 .0257901
1079.711 .0258106
1080.290 .0258302
1080.869 .0258479
1081.448 .0258644
1082.027 .0258786
1082.606 .0258923
1083.185 .0259071
1083.764 .0259243
1084.343 .0259445
1084.923 .0259685
1085.502 .0259950
1086.082 .0260240
1086.662 .0260535
1087.242 .0260819
1087.822 .0261074
1088.402 .0261324
1088.983 .0261563
1089.563 .0261793
1090.144 .0262010
1090.725 .0262241
1091.306 .0262478
1091.887 .0262731
1092.469 .0262998
1093.050 .0263265
1093.632 .0263530
1094.214 .0263789
1094.796 .0264020
1095.379 .0264233
1095.961 .0264428
1096.544 .0264610
1097.127 .0264794
1097.710 .0264994
1098.294 .0265195
1098.877 .0265408
1099.461 .0265657
1100.046 .0265942
1100.630 .0266235
1101.215 .0266534
1101.800 .0266848
1102.385 .0267144
1102.970 .0267432
1103.556 .0267692
1104.142 .0267952
1104.728 .0268229
1105.315 .0268507
1105.902 .0268799
1106.489 .0269109
1107.077 .0269427
1107.664 .0269743
1108.253 .0270059
1108.841 .0270385
1109.430 .0270670
1110.019 .0270916
1110.609 .0271149
1111.198 .0271411
1111.789 .0271692
1112.379 .0272021
1112.970 .0272395
1113.561 .0272841
1114.153 .0273325
1114.745 .0273806
1115.338 .0274297
1115.931 .0274785
1116.524 .0275248
1117.117 .0275675
1117.712 .0276076
1118.306 .0276472
1118.901 .0276861
1119.496 .0277278
1120.092 .0277709
1120.689 .0278141
1121.285 .0278549
1121.882 .0278931
1122.480 .0279286
1123.078 .0279628
1123.677 .0279966
1124.276 .0280299
1124.875 .0280685
1125.476 .0281086
1126.076 .0281509
1126.677 .0281969
1127.279 .0282475
1127.881 .0282992
1128.484 .0283507
1129.087 .0283996
1129.691 .0284474
1130.295 .0284965
1130.900 .0285486
1131.505 .0286050
1132.111 .0286711
1132.718 .0287398
1133.325 .0288137
1133.933 .0288892
1134.541 .0289687
1135.150 .0290459
1135.760 .0291250
1136.370 .0292082
1136.981 .0292947
1137.592 .0293878
1138.204 .0294903
1138.817 .0296057
1139.431 .0297410
1140.045 .0298693
1140.660 .0300083
1141.275 .0301524
1141.891 .0303238
1142.508 .0306502
1143.126 .0302943
1143.744 .0307195
1144.363 .0309970
1144.983 .0317725
