Measurement Sequence started on: 15-12-46-377
Integration time: 28
Scans to Average: 2 
>>>>>Begin Spectral Data<<<<<
432.689 .0000100
433.621 .0000100
434.552 .0000100
435.482 .0000100
436.410 .0000100
437.337 .0000100
438.262 .0263421
439.187 .0557727
440.110 .0923284
441.031 .1335262
441.952 .1734890
442.871 .2048537
443.789 .2218847
444.705 .2226647
445.621 .2096477
446.535 .1880885
447.447 .1637631
448.359 .1266815
449.269 .1083492
450.178 .0968168
451.086 .0887358
451.993 .0826036
452.898 .0778280
453.803 .0740072
454.706 .0708886
455.608 .0682755
456.508 .0660930
457.408 .0642399
458.306 .0626381
459.204 .0612205
460.100 .0599441
460.995 .0587692
461.888 .0576957
462.781 .0566940
463.673 .0557499
464.563 .0548706
465.452 .0540534
466.340 .0532723
467.228 .0525414
468.114 .0518489
468.999 .0511863
469.882 .0505580
470.765 .0499709
471.647 .0494176
472.528 .0489066
473.407 .0484498
474.286 .0480520
475.163 .0477084
476.040 .0474247
476.915 .0471836
477.790 .0469783
478.663 .0468082
479.535 .0466649
480.407 .0465370
481.277 .0464278
482.147 .0463326
483.015 .0462444
483.883 .0461683
484.749 .0461073
485.615 .0460569
486.479 .0460169
487.343 .0459926
488.206 .0459733
489.067 .0459545
489.928 .0459379
490.788 .0459242
491.647 .0459222
492.505 .0459431
493.362 .0459845
494.218 .0460566
495.073 .0461713
495.928 .0463298
496.781 .0465227
497.634 .0467619
498.486 .0470340
499.337 .0473312
500.187 .0476527
501.036 .0480038
501.884 .0483795
502.731 .0487967
503.578 .0492518
504.424 .0497488
505.268 .0502770
506.113 .0508319
506.956 .0513989
507.798 .0519995
508.640 .0526205
509.480 .0532706
510.320 .0539637
511.160 .0547388
511.998 .0555889
512.836 .0565580
513.672 .0576533
514.508 .0588810
515.344 .0602395
516.178 .0617604
517.012 .0634238
517.845 .0652926
518.677 .0673834
519.508 .0697350
520.339 .0723895
521.169 .0754314
521.998 .0788420
522.826 .0827215
523.654 .0871269
524.481 .0920558
525.307 .0975207
526.133 .1035392
526.958 .1100208
527.782 .1168713
528.605 .1239623
529.428 .1311360
530.250 .1378616
531.072 .1439773
531.892 .1490830
532.712 .1529024
533.532 .1552778
534.350 .1560154
535.168 .1550077
535.986 .1523873
536.802 .1482833
537.618 .1428759
538.434 .1364568
539.249 .1295014
540.063 .1221878
540.876 .1148633
541.689 .1077784
542.501 .1011503
543.313 .0951273
544.124 .0897975
544.934 .0850575
545.744 .0808634
546.553 .0771598
547.361 .0738633
548.169 .0709469
548.976 .0683354
549.783 .0659971
550.589 .0639089
551.395 .0620119
552.200 .0602942
553.004 .0587237
553.808 .0572774
554.611 .0559482
555.414 .0547207
556.216 .0535719
557.018 .0525052
557.819 .0515091
558.619 .0505842
559.419 .0497175
560.218 .0489079
561.017 .0481520
561.815 .0474285
562.613 .0467389
563.410 .0460802
564.207 .0454470
565.003 .0448472
565.799 .0442767
566.594 .0437342
567.388 .0432222
568.182 .0427353
568.976 .0422637
569.769 .0418119
570.562 .0413817
571.354 .0409655
572.145 .0405633
572.936 .0401751
573.727 .0397944
574.517 .0394169
575.307 .0390447
576.096 .0386728
576.885 .0382983
577.673 .0379246
578.461 .0375519
579.248 .0371870
580.035 .0368359
580.821 .0364994
581.607 .0361801
582.392 .0358853
583.177 .0356139
583.962 .0353616
584.746 .0351312
585.529 .0349208
586.313 .0347292
587.095 .0345568
587.878 .0344009
588.660 .0342605
589.441 .0341352
590.222 .0340237
591.003 .0339239
591.783 .0338337
592.563 .0337524
593.342 .0336791
594.121 .0336116
594.899 .0335498
595.678 .0334924
596.455 .0334374
597.233 .0333840
598.009 .0333305
598.786 .0332776
599.562 .0332250
600.338 .0331731
601.113 .0331228
601.888 .0330742
602.663 .0330281
603.437 .0329837
604.211 .0329398
604.984 .0328970
605.757 .0328540
606.530 .0328107
607.302 .0327661
608.074 .0327210
608.845 .0326757
609.616 .0326310
610.387 .0325891
611.158 .0325505
611.928 .0325148
612.697 .0324826
613.467 .0324536
614.236 .0324266
615.004 .0324021
615.773 .0323797
616.541 .0323599
617.308 .0323425
618.076 .0323283
618.843 .0323169
619.609 .0323079
620.375 .0323023
621.141 .0322983
621.907 .0322942
622.672 .0322892
623.437 .0322802
624.202 .0322668
624.966 .0322490
625.730 .0322269
626.493 .0322005
627.257 .0321722
628.020 .0321418
628.782 .0321097
629.545 .0320766
630.307 .0320427
631.068 .0320076
631.830 .0319714
632.591 .0319336
633.352 .0318944
634.112 .0318557
634.872 .0318181
635.632 .0317824
636.392 .0317509
637.151 .0317234
637.910 .0316988
638.668 .0316766
639.427 .0316556
640.185 .0316343
640.943 .0316125
641.700 .0315896
642.457 .0315648
643.214 .0315396
643.971 .0315140
644.727 .0314885
645.483 .0314636
646.239 .0314401
646.994 .0314168
647.750 .0313943
648.505 .0313723
649.259 .0313502
650.014 .0313281
650.768 .0313070
651.521 .0312869
652.275 .0312692
653.028 .0312538
653.781 .0312405
654.534 .0312288
655.286 .0312184
656.039 .0312079
656.791 .0311961
657.542 .0311823
658.294 .0311661
659.045 .0311473
659.796 .0311258
660.546 .0311019
661.297 .0310764
662.047 .0310499
662.796 .0310231
663.546 .0309958
664.295 .0309683
665.044 .0309406
665.793 .0309128
666.542 .0308858
667.290 .0308596
668.038 .0308351
668.786 .0308120
669.533 .0307906
670.281 .0307713
671.028 .0307538
671.774 .0307379
672.521 .0307235
673.267 .0307105
674.013 .0306982
674.759 .0306858
675.505 .0306735
676.250 .0306607
676.995 .0306473
677.740 .0306333
678.484 .0306181
679.229 .0306020
679.973 .0305851
680.717 .0305675
681.460 .0305496
682.204 .0305317
682.947 .0305139
683.690 .0304966
684.433 .0304799
685.175 .0304636
685.917 .0304475
686.659 .0304323
687.401 .0304180
688.142 .0304039
688.884 .0303906
689.625 .0303773
690.365 .0303644
691.106 .0303517
691.846 .0303388
692.586 .0303257
693.326 .0303123
694.066 .0302982
694.805 .0302830
695.545 .0302665
696.284 .0302486
697.022 .0302288
697.761 .0302075
698.499 .0301845
699.237 .0301603
699.975 .0301358
700.713 .0301118
701.450 .0300886
702.187 .0300669
702.924 .0300462
703.661 .0300267
704.397 .0300080
705.133 .0299901
705.869 .0299726
706.605 .0299554
707.341 .0299381
708.076 .0299212
708.811 .0299044
709.546 .0298877
710.281 .0298712
711.015 .0298550
711.749 .0298385
712.483 .0298214
713.217 .0298032
713.950 .0297843
714.684 .0297644
715.417 .0297436
716.150 .0297220
716.882 .0297000
717.615 .0296783
718.347 .0296566
719.079 .0296360
719.811 .0296173
720.542 .0296002
721.273 .0295848
722.005 .0295708
722.735 .0295578
723.466 .0295455
724.196 .0295334
724.927 .0295205
725.656 .0295068
726.386 .0294928
727.116 .0294782
727.845 .0294629
728.574 .0294474
729.303 .0294317
730.031 .0294155
730.760 .0293990
731.488 .0293821
732.216 .0293650
732.944 .0293485
733.671 .0293326
734.398 .0293180
735.125 .0293052
735.852 .0292948
736.579 .0292861
737.305 .0292796
738.031 .0292749
738.757 .0292708
739.483 .0292668
740.208 .0292631
740.933 .0292589
741.658 .0292541
742.383 .0292485
743.108 .0292420
743.832 .0292344
744.556 .0292259
745.280 .0292158
746.004 .0292046
746.727 .0291922
747.450 .0291787
748.173 .0291635
748.896 .0291478
749.618 .0291316
750.340 .0291151
751.062 .0290989
751.784 .0290833
752.506 .0290681
753.227 .0290536
753.948 .0290393
754.669 .0290256
755.389 .0290118
756.110 .0289985
756.830 .0289850
757.550 .0289718
758.269 .0289585
758.989 .0289457
759.708 .0289326
760.427 .0289196
761.146 .0289065
761.864 .0288933
762.582 .0288796
763.300 .0288658
764.018 .0288521
764.736 .0288387
765.453 .0288260
766.170 .0288140
766.887 .0288023
767.603 .0287914
768.320 .0287802
769.036 .0287687
769.751 .0287566
770.467 .0287439
771.182 .0287308
771.897 .0287172
772.612 .0287036
773.327 .0286902
774.041 .0286774
774.755 .0286654
775.469 .0286537
776.183 .0286429
776.896 .0286323
777.609 .0286219
778.322 .0286119
779.035 .0286019
779.747 .0285928
780.459 .0285847
781.171 .0285775
781.882 .0285712
782.594 .0285661
783.305 .0285618
784.016 .0285584
784.726 .0285555
785.436 .0285527
786.147 .0285494
786.856 .0285457
787.566 .0285410
788.275 .0285355
788.984 .0285289
789.693 .0285210
790.401 .0285117
791.110 .0285015
791.818 .0284894
792.525 .0284763
793.233 .0284624
793.940 .0284477
794.647 .0284323
795.353 .0284163
796.060 .0284000
796.766 .0283838
797.472 .0283680
798.177 .0283526
798.883 .0283379
799.588 .0283243
800.292 .0283112
800.997 .0282989
801.701 .0282877
802.405 .0282777
803.109 .0282685
803.812 .0282602
804.515 .0282521
805.218 .0282440
805.921 .0282359
806.623 .0282269
807.325 .0282173
808.027 .0282067
808.728 .0281949
809.429 .0281815
810.130 .0281671
810.831 .0281516
811.531 .0281349
812.231 .0281172
812.931 .0280986
813.630 .0280791
814.330 .0280590
815.029 .0280388
815.727 .0280193
816.426 .0280007
817.124 .0279835
817.821 .0279671
818.519 .0279528
819.216 .0279399
819.913 .0279285
820.609 .0279186
821.306 .0279101
822.002 .0279032
822.697 .0278975
823.393 .0278931
824.088 .0278902
824.783 .0278884
825.477 .0278876
826.171 .0278871
826.865 .0278873
827.559 .0278874
828.252 .0278875
828.945 .0278877
829.638 .0278881
830.330 .0278885
831.023 .0278892
831.714 .0278902
832.406 .0278917
833.097 .0278932
833.788 .0278944
834.479 .0278954
835.169 .0278965
835.859 .0278972
836.548 .0278979
837.238 .0278986
837.927 .0278993
838.615 .0278996
839.304 .0278992
839.992 .0278979
840.680 .0278956
841.367 .0278917
842.054 .0278860
842.741 .0278789
843.428 .0278706
844.114 .0278615
844.800 .0278520
845.485 .0278425
846.170 .0278326
846.855 .0278224
847.540 .0278120
848.224 .0278013
848.908 .0277904
849.592 .0277792
850.275 .0277675
850.958 .0277559
851.641 .0277441
852.323 .0277324
853.005 .0277210
853.687 .0277101
854.368 .0276990
855.049 .0276875
855.730 .0276756
856.410 .0276632
857.090 .0276502
857.769 .0276368
858.449 .0276224
859.128 .0276070
859.806 .0275905
860.485 .0275728
861.163 .0275538
861.840 .0275337
862.518 .0275124
863.195 .0274904
863.871 .0274677
864.548 .0274451
865.224 .0274223
865.899 .0274008
866.574 .0273804
867.249 .0273607
867.924 .0273418
868.598 .0273237
869.272 .0273063
869.946 .0272895
870.619 .0272730
871.292 .0272570
871.964 .0272416
872.636 .0272269
873.308 .0272126
873.979 .0271992
874.651 .0271866
875.321 .0271744
875.992 .0271625
876.662 .0271508
877.331 .0271391
878.001 .0271274
878.670 .0271155
879.338 .0271037
880.007 .0270920
880.675 .0270800
881.342 .0270680
882.009 .0270567
882.676 .0270455
883.343 .0270346
884.009 .0270244
884.675 .0270150
885.340 .0270067
886.005 .0269998
886.670 .0269945
887.334 .0269905
887.998 .0269878
888.662 .0269857
889.325 .0269835
889.988 .0269815
890.650 .0269794
891.312 .0269764
891.974 .0269729
892.636 .0269694
893.297 .0269654
893.957 .0269614
894.618 .0269579
895.278 .0269542
895.937 .0269506
896.596 .0269469
897.255 .0269429
897.914 .0269384
898.572 .0269335
899.230 .0269281
899.887 .0269218
900.544 .0269151
901.201 .0269073
901.857 .0268985
902.513 .0268891
903.168 .0268790
903.823 .0268683
904.478 .0268571
905.132 .0268461
905.786 .0268350
906.440 .0268240
907.093 .0268129
907.746 .0268013
908.399 .0267889
909.051 .0267755
909.703 .0267610
910.354 .0267451
911.005 .0267285
911.656 .0267112
912.306 .0266939
912.956 .0266770
913.605 .0266607
914.254 .0266450
914.903 .0266300
915.551 .0266152
916.199 .0266008
916.847 .0265861
917.494 .0265716
918.141 .0265573
918.788 .0265433
919.434 .0265296
920.079 .0265162
920.725 .0265032
921.370 .0264905
922.014 .0264783
922.658 .0264661
923.302 .0264538
923.946 .0264414
924.589 .0264284
925.231 .0264151
925.873 .0264018
926.515 .0263884
927.157 .0263753
927.798 .0263621
928.439 .0263491
929.079 .0263360
929.719 .0263231
930.359 .0263096
930.998 .0262957
931.637 .0262814
932.275 .0262665
932.913 .0262515
933.551 .0262367
934.188 .0262225
934.825 .0262094
935.462 .0261978
936.098 .0261878
936.733 .0261792
937.369 .0261725
938.004 .0261667
938.638 .0261623
939.273 .0261586
939.907 .0261556
940.540 .0261535
941.173 .0261527
941.806 .0261531
942.438 .0261549
943.070 .0261582
943.702 .0261625
944.333 .0261667
944.964 .0261706
945.594 .0261731
946.224 .0261742
946.854 .0261737
947.483 .0261717
948.112 .0261684
948.741 .0261646
949.369 .0261598
949.996 .0261545
950.624 .0261491
951.251 .0261430
951.878 .0261362
952.504 .0261291
953.130 .0261216
953.755 .0261141
954.380 .0261071
955.005 .0261009
955.629 .0260957
956.253 .0260917
956.877 .0260887
957.500 .0260867
958.123 .0260860
958.746 .0260854
959.368 .0260852
959.990 .0260859
960.611 .0260866
961.232 .0260873
961.853 .0260882
962.473 .0260886
963.093 .0260882
963.712 .0260867
964.331 .0260835
964.950 .0260785
965.569 .0260727
966.187 .0260662
966.804 .0260589
967.422 .0260517
968.039 .0260443
968.655 .0260366
969.272 .0260290
969.887 .0260206
970.503 .0260111
971.118 .0260009
971.733 .0259903
972.347 .0259792
972.961 .0259683
973.575 .0259580
974.188 .0259485
974.801 .0259395
975.414 .0259301
976.026 .0259201
976.638 .0259088
977.250 .0258966
977.861 .0258829
978.472 .0258683
979.083 .0258534
979.693 .0258380
980.303 .0258229
980.912 .0258073
981.521 .0257914
982.130 .0257748
982.738 .0257566
983.346 .0257373
983.954 .0257163
984.562 .0256944
985.169 .0256717
985.775 .0256495
986.382 .0256280
986.988 .0256075
987.594 .0255881
988.199 .0255694
988.804 .0255511
989.409 .0255326
990.013 .0255143
990.617 .0254957
991.221 .0254778
991.824 .0254605
992.427 .0254444
993.030 .0254305
993.632 .0254188
994.234 .0254098
994.836 .0254027
995.438 .0253972
996.039 .0253922
996.640 .0253870
997.240 .0253812
997.840 .0253747
998.440 .0253681
999.040 .0253616
999.639 .0253551
1000.238 .0253491
1000.836 .0253435
1001.435 .0253382
1002.033 .0253322
1002.630 .0253258
1003.228 .0253176
1003.825 .0253076
1004.422 .0252961
1005.018 .0252834
1005.614 .0252704
1006.210 .0252583
1006.806 .0252471
1007.401 .0252380
1007.996 .0252304
1008.591 .0252247
1009.186 .0252198
1009.780 .0252157
1010.374 .0252113
1010.967 .0252058
1011.561 .0251995
1012.154 .0251925
1012.746 .0251850
1013.339 .0251780
1013.931 .0251721
1014.523 .0251676
1015.115 .0251642
1015.706 .0251622
1016.298 .0251613
1016.888 .0251617
1017.479 .0251624
1018.069 .0251631
1018.660 .0251633
1019.250 .0251638
1019.839 .0251648
1020.429 .0251660
1021.018 .0251693
1021.607 .0251743
1022.195 .0251813
1022.784 .0251902
1023.372 .0252001
1023.960 .0252108
1024.547 .0252219
1025.135 .0252329
1025.722 .0252424
1026.309 .0252509
1026.896 .0252588
1027.483 .0252665
1028.069 .0252749
1028.655 .0252841
1029.241 .0252934
1029.827 .0253027
1030.412 .0253124
1030.997 .0253210
1031.582 .0253283
1032.167 .0253342
1032.752 .0253389
1033.336 .0253432
1033.921 .0253469
1034.505 .0253506
1035.089 .0253551
1035.672 .0253612
1036.256 .0253679
1036.839 .0253738
1037.422 .0253789
1038.005 .0253831
1038.588 .0253854
1039.171 .0253859
1039.753 .0253851
1040.335 .0253835
1040.918 .0253811
1041.500 .0253793
1042.081 .0253780
1042.663 .0253776
1043.244 .0253779
1043.826 .0253789
1044.407 .0253802
1044.988 .0253821
1045.569 .0253836
1046.150 .0253844
1046.730 .0253857
1047.311 .0253866
1047.891 .0253866
1048.471 .0253866
1049.052 .0253872
1049.632 .0253885
1050.211 .0253902
1050.791 .0253929
1051.371 .0253967
1051.950 .0254024
1052.530 .0254094
1053.109 .0254173
1053.688 .0254258
1054.268 .0254333
1054.847 .0254398
1055.426 .0254439
1056.005 .0254462
1056.583 .0254465
1057.162 .0254457
1057.741 .0254441
1058.319 .0254429
1058.898 .0254432
1059.476 .0254444
1060.055 .0254475
1060.633 .0254525
1061.211 .0254582
1061.790 .0254643
1062.368 .0254714
1062.946 .0254791
1063.524 .0254879
1064.102 .0254980
1064.680 .0255079
1065.258 .0255191
1065.836 .0255303
1066.414 .0255412
1066.992 .0255517
1067.570 .0255622
1068.148 .0255727
1068.726 .0255824
1069.304 .0255930
1069.882 .0256037
1070.460 .0256137
1071.038 .0256234
1071.616 .0256306
1072.194 .0256354
1072.772 .0256371
1073.350 .0256367
1073.928 .0256355
1074.506 .0256358
1075.084 .0256387
1075.662 .0256448
1076.240 .0256542
1076.819 .0256683
1077.397 .0256847
1077.976 .0257019
1078.554 .0257195
1079.133 .0257357
1079.711 .0257486
1080.290 .0257594
1080.869 .0257669
1081.448 .0257726
1082.027 .0257762
1082.606 .0257791
1083.185 .0257805
1083.764 .0257820
1084.343 .0257836
1084.923 .0257840
1085.502 .0257864
1086.082 .0257910
1086.662 .0257961
1087.242 .0258023
1087.822 .0258092
1088.402 .0258169
1088.983 .0258260
1089.563 .0258368
1090.144 .0258487
1090.725 .0258626
1091.306 .0258783
1091.887 .0258947
1092.469 .0259131
1093.050 .0259343
1093.632 .0259585
1094.214 .0259852
1094.796 .0260155
1095.379 .0260471
1095.961 .0260800
1096.544 .0261135
1097.127 .0261487
1097.710 .0261851
1098.294 .0262203
1098.877 .0262541
1099.461 .0262886
1100.046 .0263231
1100.630 .0263565
1101.215 .0263923
1101.800 .0264292
1102.385 .0264662
1102.970 .0265033
1103.556 .0265369
1104.142 .0265678
1104.728 .0265961
1105.315 .0266224
1105.902 .0266457
1106.489 .0266701
1107.077 .0266956
1107.664 .0267205
1108.253 .0267518
1108.841 .0267869
1109.430 .0268244
1110.019 .0268636
1110.609 .0269043
1111.198 .0269433
1111.789 .0269829
1112.379 .0270229
1112.970 .0270631
1113.561 .0271045
1114.153 .0271494
1114.745 .0271934
1115.338 .0272385
1115.931 .0272827
1116.524 .0273246
1117.117 .0273648
1117.712 .0274048
1118.306 .0274404
1118.901 .0274753
1119.496 .0275084
1120.092 .0275452
1120.689 .0275821
1121.285 .0276210
1121.882 .0276612
1122.480 .0277032
1123.078 .0277475
1123.677 .0277937
1124.276 .0278399
1124.875 .0278905
1125.476 .0279413
1126.076 .0279982
1126.677 .0280580
1127.279 .0281211
1127.881 .0281894
1128.484 .0282615
1129.087 .0283359
1129.691 .0284119
1130.295 .0284873
1130.900 .0285649
1131.505 .0286433
1132.111 .0287278
1132.718 .0288188
1133.325 .0289149
1133.933 .0290180
1134.541 .0291249
1135.150 .0292351
1135.760 .0293500
1136.370 .0294625
1136.981 .0295759
1137.592 .0296882
1138.204 .0298008
1138.817 .0299156
1139.431 .0300359
1140.045 .0301623
1140.660 .0302980
1141.275 .0304591
1141.891 .0306190
1142.508 .0308052
1143.126 .0308530
1143.744 .0310710
1144.363 .0317462
1144.983 .0313883
