Measurement Sequence started on: 15-12-46-377
Integration time: 28
Scans to Average: 2 
>>>>>Begin Spectral Data<<<<<
432.689 .0000100
433.621 .0000100
434.552 .0000100
435.482 .0000100
436.410 .0000100
437.337 .0000100
438.262 .0284120
439.187 .0602646
440.110 .0998936
441.031 .1445684
441.952 .1879350
442.871 .2220531
443.789 .2407142
444.705 .2417850
445.621 .2278315
446.535 .2045825
447.447 .1782442
448.359 .1380783
449.269 .1180148
450.178 .1052891
451.086 .0963394
451.993 .0895443
452.898 .0842097
453.803 .0799029
454.706 .0763804
455.608 .0734376
456.508 .0709064
457.408 .0687215
458.306 .0667891
459.204 .0650502
460.100 .0634665
460.995 .0620253
461.888 .0607090
462.781 .0595178
463.673 .0584300
464.563 .0574384
465.452 .0565255
466.340 .0556718
467.228 .0548714
468.114 .0541243
468.999 .0534331
469.882 .0527816
470.765 .0521854
471.647 .0516461
472.528 .0511660
473.407 .0507475
474.286 .0503966
475.163 .0501058
476.040 .0498637
476.915 .0496599
477.790 .0494740
478.663 .0492995
479.535 .0491420
480.407 .0489872
481.277 .0488413
482.147 .0487081
483.015 .0485856
483.883 .0484821
484.749 .0484001
485.615 .0483398
486.479 .0483052
487.343 .0482889
488.206 .0482887
489.067 .0482950
489.928 .0483112
490.788 .0483406
491.647 .0483779
492.505 .0484383
493.362 .0485205
494.218 .0486261
495.073 .0487602
495.928 .0489257
496.781 .0491168
497.634 .0493409
498.486 .0495864
499.337 .0498538
500.187 .0501353
501.036 .0504338
501.884 .0507490
502.731 .0510840
503.578 .0514442
504.424 .0518239
505.268 .0522263
506.113 .0526677
506.956 .0531373
507.798 .0536545
508.640 .0542221
509.480 .0548531
510.320 .0555614
511.160 .0563672
511.998 .0572730
512.836 .0582895
513.672 .0594366
514.508 .0607097
515.344 .0621053
516.178 .0636778
517.012 .0654378
517.845 .0674312
518.677 .0697174
519.508 .0723080
520.339 .0752773
521.169 .0787147
521.998 .0825876
522.826 .0869715
523.654 .0918800
524.481 .0973253
525.307 .1032991
526.133 .1097717
526.958 .1167210
527.782 .1240720
528.605 .1317006
529.428 .1395001
530.250 .1468187
531.072 .1535167
531.892 .1590718
532.712 .1632141
533.532 .1657640
534.350 .1664689
535.168 .1652823
535.986 .1623692
536.802 .1578758
537.618 .1521114
538.434 .1453072
539.249 .1380290
540.063 .1303955
540.876 .1227834
541.689 .1153625
542.501 .1083454
543.313 .1019291
544.124 .0961718
544.934 .0909398
545.744 .0862406
546.553 .0819817
547.361 .0781387
548.169 .0747133
548.976 .0716283
549.783 .0688696
550.589 .0664280
551.395 .0642153
552.200 .0622327
553.004 .0604381
553.808 .0587993
554.611 .0573122
555.414 .0559720
556.216 .0547468
557.018 .0536365
557.819 .0526308
558.619 .0517198
559.419 .0508943
560.218 .0501593
561.017 .0494861
561.815 .0488508
562.613 .0482516
563.410 .0476607
564.207 .0470752
565.003 .0464970
565.799 .0459188
566.594 .0453320
567.388 .0447640
568.182 .0442124
568.976 .0436728
569.769 .0431592
570.562 .0426615
571.354 .0421758
572.145 .0416976
572.936 .0412169
573.727 .0407319
574.517 .0402471
575.307 .0397700
576.096 .0392949
576.885 .0388369
577.673 .0384008
578.461 .0379938
579.248 .0376167
580.035 .0372722
580.821 .0369524
581.607 .0366519
582.392 .0363714
583.177 .0361050
583.962 .0358536
584.746 .0356207
585.529 .0354049
586.313 .0352094
587.095 .0350327
587.878 .0348756
588.660 .0347337
589.441 .0346071
590.222 .0344901
591.003 .0343809
591.783 .0342768
592.563 .0341770
593.342 .0340813
594.121 .0339895
594.899 .0339042
595.678 .0338234
596.455 .0337477
597.233 .0336772
598.009 .0336097
598.786 .0335467
599.562 .0334862
600.338 .0334276
601.113 .0333714
601.888 .0333180
602.663 .0332675
603.437 .0332204
604.211 .0331770
604.984 .0331364
605.757 .0330992
606.530 .0330638
607.302 .0330298
608.074 .0329967
608.845 .0329651
609.616 .0329336
610.387 .0329034
611.158 .0328748
611.928 .0328472
612.697 .0328209
613.467 .0327967
614.236 .0327734
615.004 .0327516
615.773 .0327303
616.541 .0327098
617.308 .0326900
618.076 .0326724
618.843 .0326555
619.609 .0326411
620.375 .0326293
621.141 .0326193
621.907 .0326103
622.672 .0326031
623.437 .0325959
624.202 .0325886
624.966 .0325808
625.730 .0325724
626.493 .0325626
627.257 .0325520
628.020 .0325400
628.782 .0325273
629.545 .0325132
630.307 .0324978
631.068 .0324804
631.830 .0324617
632.591 .0324406
633.352 .0324169
634.112 .0323908
634.872 .0323631
635.632 .0323336
636.392 .0323024
637.151 .0322707
637.910 .0322391
638.668 .0322070
639.427 .0321755
640.185 .0321439
640.943 .0321125
641.700 .0320804
642.457 .0320478
643.214 .0320141
643.971 .0319799
644.727 .0319455
645.483 .0319117
646.239 .0318786
646.994 .0318467
647.750 .0318154
648.505 .0317846
649.259 .0317548
650.014 .0317248
650.768 .0316938
651.521 .0316628
652.275 .0316309
653.028 .0315987
653.781 .0315655
654.534 .0315328
655.286 .0315002
656.039 .0314677
656.791 .0314353
657.542 .0314017
658.294 .0313675
659.045 .0313328
659.796 .0312967
660.546 .0312597
661.297 .0312220
662.047 .0311840
662.796 .0311458
663.546 .0311081
664.295 .0310709
665.044 .0310343
665.793 .0309982
666.542 .0309628
667.290 .0309280
668.038 .0308939
668.786 .0308615
669.533 .0308304
670.281 .0308009
671.028 .0307736
671.774 .0307478
672.521 .0307237
673.267 .0307011
674.013 .0306800
674.759 .0306592
675.505 .0306385
676.250 .0306182
676.995 .0305980
677.740 .0305786
678.484 .0305602
679.229 .0305432
679.973 .0305276
680.717 .0305136
681.460 .0305005
682.204 .0304886
682.947 .0304779
683.690 .0304675
684.433 .0304569
685.175 .0304459
685.917 .0304350
686.659 .0304237
687.401 .0304124
688.142 .0304020
688.884 .0303920
689.625 .0303828
690.365 .0303742
691.106 .0303660
691.846 .0303579
692.586 .0303500
693.326 .0303414
694.066 .0303316
694.805 .0303208
695.545 .0303083
696.284 .0302945
697.022 .0302801
697.761 .0302655
698.499 .0302504
699.237 .0302361
699.975 .0302224
700.713 .0302095
701.450 .0301979
702.187 .0301868
702.924 .0301765
703.661 .0301670
704.397 .0301577
705.133 .0301481
705.869 .0301390
706.605 .0301304
707.341 .0301218
708.076 .0301142
708.811 .0301066
709.546 .0300993
710.281 .0300922
711.015 .0300848
711.749 .0300765
712.483 .0300677
713.217 .0300577
713.950 .0300461
714.684 .0300331
715.417 .0300189
716.150 .0300033
716.882 .0299867
717.615 .0299695
718.347 .0299515
719.079 .0299325
719.811 .0299127
720.542 .0298920
721.273 .0298708
722.005 .0298483
722.735 .0298250
723.466 .0298012
724.196 .0297767
724.927 .0297516
725.656 .0297259
726.386 .0297002
727.116 .0296745
727.845 .0296484
728.574 .0296216
729.303 .0295945
730.031 .0295671
730.760 .0295396
731.488 .0295117
732.216 .0294846
732.944 .0294586
733.671 .0294342
734.398 .0294118
735.125 .0293915
735.852 .0293732
736.579 .0293567
737.305 .0293408
738.031 .0293252
738.757 .0293089
739.483 .0292916
740.208 .0292729
740.933 .0292530
741.658 .0292326
742.383 .0292117
743.108 .0291907
743.832 .0291700
744.556 .0291492
745.280 .0291280
746.004 .0291062
746.727 .0290835
747.450 .0290597
748.173 .0290346
748.896 .0290083
749.618 .0289814
750.340 .0289546
751.062 .0289285
751.784 .0289032
752.506 .0288797
753.227 .0288580
753.948 .0288371
754.669 .0288171
755.389 .0287972
756.110 .0287773
756.830 .0287571
757.550 .0287359
758.269 .0287139
758.989 .0286913
759.708 .0286682
760.427 .0286452
761.146 .0286227
761.864 .0286007
762.582 .0285792
763.300 .0285580
764.018 .0285373
764.736 .0285168
765.453 .0284965
766.170 .0284767
766.887 .0284571
767.603 .0284381
768.320 .0284195
769.036 .0284016
769.751 .0283846
770.467 .0283687
771.182 .0283539
771.897 .0283398
772.612 .0283267
773.327 .0283145
774.041 .0283030
774.755 .0282925
775.469 .0282827
776.183 .0282739
776.896 .0282660
777.609 .0282590
778.322 .0282525
779.035 .0282471
779.747 .0282426
780.459 .0282395
781.171 .0282376
781.882 .0282372
782.594 .0282380
783.305 .0282405
784.016 .0282443
784.726 .0282492
785.436 .0282547
786.147 .0282612
786.856 .0282679
787.566 .0282752
788.275 .0282825
788.984 .0282898
789.693 .0282971
790.401 .0283045
791.110 .0283111
791.818 .0283169
792.525 .0283221
793.233 .0283264
793.940 .0283297
794.647 .0283318
795.353 .0283327
796.060 .0283329
796.766 .0283322
797.472 .0283310
798.177 .0283292
798.883 .0283269
799.588 .0283242
800.292 .0283210
800.997 .0283172
801.701 .0283126
802.405 .0283074
803.109 .0283018
803.812 .0282963
804.515 .0282908
805.218 .0282850
805.921 .0282793
806.623 .0282739
807.325 .0282683
808.027 .0282621
808.728 .0282557
809.429 .0282483
810.130 .0282400
810.831 .0282311
811.531 .0282215
812.231 .0282112
812.931 .0282005
813.630 .0281895
814.330 .0281782
815.029 .0281672
815.727 .0281564
816.426 .0281461
817.124 .0281367
817.821 .0281275
818.519 .0281184
819.216 .0281096
819.913 .0281011
820.609 .0280927
821.306 .0280845
822.002 .0280770
822.697 .0280701
823.393 .0280643
824.088 .0280594
824.783 .0280555
825.477 .0280523
826.171 .0280492
826.865 .0280460
827.559 .0280422
828.252 .0280376
828.945 .0280318
829.638 .0280249
830.330 .0280174
831.023 .0280093
831.714 .0280007
832.406 .0279920
833.097 .0279834
833.788 .0279747
834.479 .0279655
835.169 .0279558
835.859 .0279456
836.548 .0279349
837.238 .0279235
837.927 .0279113
838.615 .0278990
839.304 .0278865
839.992 .0278735
840.680 .0278605
841.367 .0278474
842.054 .0278338
842.741 .0278197
843.428 .0278051
844.114 .0277899
844.800 .0277736
845.485 .0277562
846.170 .0277375
846.855 .0277177
847.540 .0276965
848.224 .0276746
848.908 .0276520
849.592 .0276293
850.275 .0276057
850.958 .0275819
851.641 .0275576
852.323 .0275327
853.005 .0275070
853.687 .0274802
854.368 .0274524
855.049 .0274238
855.730 .0273942
856.410 .0273639
857.090 .0273337
857.769 .0273031
858.449 .0272721
859.128 .0272410
859.806 .0272094
860.485 .0271778
861.163 .0271460
861.840 .0271145
862.518 .0270826
863.195 .0270510
863.871 .0270191
864.548 .0269874
865.224 .0269563
865.899 .0269255
866.574 .0268953
867.249 .0268663
867.924 .0268378
868.598 .0268100
869.272 .0267829
869.946 .0267564
870.619 .0267302
871.292 .0267047
871.964 .0266789
872.636 .0266538
873.308 .0266294
873.979 .0266057
874.651 .0265829
875.321 .0265611
875.992 .0265402
876.662 .0265197
877.331 .0265000
878.001 .0264804
878.670 .0264607
879.338 .0264419
880.007 .0264240
880.675 .0264073
881.342 .0263926
882.009 .0263796
882.676 .0263684
883.343 .0263591
884.009 .0263511
884.675 .0263440
885.340 .0263378
886.005 .0263326
886.670 .0263284
887.334 .0263251
887.998 .0263232
888.662 .0263226
889.325 .0263237
889.988 .0263260
890.650 .0263292
891.312 .0263329
891.974 .0263371
892.636 .0263413
893.297 .0263458
893.957 .0263498
894.618 .0263535
895.278 .0263568
895.937 .0263591
896.596 .0263607
897.255 .0263617
897.914 .0263618
898.572 .0263616
899.230 .0263608
899.887 .0263597
900.544 .0263577
901.201 .0263552
901.857 .0263517
902.513 .0263470
903.168 .0263412
903.823 .0263337
904.478 .0263253
905.132 .0263162
905.786 .0263067
906.440 .0262968
907.093 .0262866
907.746 .0262762
908.399 .0262652
909.051 .0262539
909.703 .0262423
910.354 .0262305
911.005 .0262190
911.656 .0262082
912.306 .0261986
912.956 .0261904
913.605 .0261833
914.254 .0261775
914.903 .0261731
915.551 .0261694
916.199 .0261664
916.847 .0261641
917.494 .0261626
918.141 .0261621
918.788 .0261620
919.434 .0261624
920.079 .0261629
920.725 .0261635
921.370 .0261638
922.014 .0261638
922.658 .0261634
923.302 .0261625
923.946 .0261608
924.589 .0261581
925.231 .0261544
925.873 .0261497
926.515 .0261442
927.157 .0261380
927.798 .0261311
928.439 .0261237
929.079 .0261163
929.719 .0261093
930.359 .0261022
930.998 .0260954
931.637 .0260889
932.275 .0260820
932.913 .0260749
933.551 .0260676
934.188 .0260603
934.825 .0260534
935.462 .0260478
936.098 .0260429
936.733 .0260395
937.369 .0260378
938.004 .0260375
938.638 .0260379
939.273 .0260397
939.907 .0260420
940.540 .0260452
941.173 .0260495
941.806 .0260553
942.438 .0260625
943.070 .0260716
943.702 .0260819
944.333 .0260930
944.964 .0261044
945.594 .0261157
946.224 .0261259
946.854 .0261357
947.483 .0261448
948.112 .0261530
948.741 .0261603
949.369 .0261674
949.996 .0261738
950.624 .0261800
951.251 .0261854
951.878 .0261900
952.504 .0261937
953.130 .0261966
953.755 .0261981
954.380 .0261991
955.005 .0261992
955.629 .0261987
956.253 .0261975
956.877 .0261964
957.500 .0261950
958.123 .0261937
958.746 .0261924
959.368 .0261911
959.990 .0261896
960.611 .0261881
961.232 .0261865
961.853 .0261852
962.473 .0261839
963.093 .0261819
963.712 .0261789
964.331 .0261750
964.950 .0261701
965.569 .0261647
966.187 .0261587
966.804 .0261529
967.422 .0261475
968.039 .0261424
968.655 .0261378
969.272 .0261334
969.887 .0261291
970.503 .0261238
971.118 .0261178
971.733 .0261105
972.347 .0261020
972.961 .0260933
973.575 .0260848
974.188 .0260761
974.801 .0260681
975.414 .0260600
976.026 .0260513
976.638 .0260421
977.250 .0260320
977.861 .0260201
978.472 .0260067
979.083 .0259916
979.693 .0259744
980.303 .0259552
980.912 .0259352
981.521 .0259135
982.130 .0258911
982.738 .0258680
983.346 .0258437
983.954 .0258182
984.562 .0257927
985.169 .0257667
985.775 .0257404
986.382 .0257143
986.988 .0256882
987.594 .0256621
988.199 .0256366
988.804 .0256114
989.409 .0255864
990.013 .0255623
990.617 .0255394
991.221 .0255169
991.824 .0254957
992.427 .0254752
993.030 .0254559
993.632 .0254376
994.234 .0254207
994.836 .0254042
995.438 .0253880
996.039 .0253720
996.640 .0253558
997.240 .0253392
997.840 .0253227
998.440 .0253059
999.040 .0252896
999.639 .0252738
1000.238 .0252589
1000.836 .0252444
1001.435 .0252313
1002.033 .0252187
1002.630 .0252060
1003.228 .0251926
1003.825 .0251784
1004.422 .0251627
1005.018 .0251463
1005.614 .0251292
1006.210 .0251116
1006.806 .0250938
1007.401 .0250762
1007.996 .0250585
1008.591 .0250418
1009.186 .0250257
1009.780 .0250107
1010.374 .0249960
1010.967 .0249819
1011.561 .0249675
1012.154 .0249528
1012.746 .0249376
1013.339 .0249225
1013.931 .0249074
1014.523 .0248927
1015.115 .0248783
1015.706 .0248649
1016.298 .0248527
1016.888 .0248418
1017.479 .0248322
1018.069 .0248237
1018.660 .0248157
1019.250 .0248074
1019.839 .0247982
1020.429 .0247884
1021.018 .0247775
1021.607 .0247655
1022.195 .0247524
1022.784 .0247397
1023.372 .0247271
1023.960 .0247156
1024.547 .0247052
1025.135 .0246967
1025.722 .0246901
1026.309 .0246848
1026.896 .0246807
1027.483 .0246771
1028.069 .0246735
1028.655 .0246695
1029.241 .0246650
1029.827 .0246602
1030.412 .0246541
1030.997 .0246479
1031.582 .0246417
1032.167 .0246355
1032.752 .0246299
1033.336 .0246243
1033.921 .0246194
1034.505 .0246152
1035.089 .0246104
1035.672 .0246051
1036.256 .0246005
1036.839 .0245952
1037.422 .0245895
1038.005 .0245843
1038.588 .0245802
1039.171 .0245767
1039.753 .0245746
1040.335 .0245737
1040.918 .0245734
1041.500 .0245744
1042.081 .0245758
1042.663 .0245766
1043.244 .0245776
1043.826 .0245772
1044.407 .0245747
1044.988 .0245709
1045.569 .0245652
1046.150 .0245560
1046.730 .0245454
1047.311 .0245329
1047.891 .0245184
1048.471 .0245030
1049.052 .0244877
1049.632 .0244732
1050.211 .0244606
1050.791 .0244497
1051.371 .0244395
1051.950 .0244310
1052.530 .0244236
1053.109 .0244154
1053.688 .0244068
1054.268 .0243988
1054.847 .0243910
1055.426 .0243840
1056.005 .0243790
1056.583 .0243761
1057.162 .0243758
1057.741 .0243779
1058.319 .0243807
1058.898 .0243835
1059.476 .0243842
1060.055 .0243826
1060.633 .0243776
1061.211 .0243700
1061.790 .0243602
1062.368 .0243498
1062.946 .0243416
1063.524 .0243366
1064.102 .0243352
1064.680 .0243370
1065.258 .0243412
1065.836 .0243478
1066.414 .0243539
1066.992 .0243601
1067.570 .0243660
1068.148 .0243713
1068.726 .0243771
1069.304 .0243859
1069.882 .0243977
1070.460 .0244133
1071.038 .0244323
1071.616 .0244536
1072.194 .0244752
1072.772 .0244968
1073.350 .0245166
1073.928 .0245351
1074.506 .0245529
1075.084 .0245691
1075.662 .0245836
1076.240 .0245988
1076.819 .0246139
1077.397 .0246280
1077.976 .0246412
1078.554 .0246524
1079.133 .0246605
1079.711 .0246666
1080.290 .0246715
1080.869 .0246769
1081.448 .0246842
1082.027 .0246943
1082.606 .0247064
1083.185 .0247211
1083.764 .0247378
1084.343 .0247555
1084.923 .0247741
1085.502 .0247932
1086.082 .0248127
1086.662 .0248324
1087.242 .0248524
1087.822 .0248749
1088.402 .0249004
1088.983 .0249282
1089.563 .0249559
1090.144 .0249831
1090.725 .0250107
1091.306 .0250364
1091.887 .0250610
1092.469 .0250847
1093.050 .0251090
1093.632 .0251339
1094.214 .0251578
1094.796 .0251824
1095.379 .0252066
1095.961 .0252306
1096.544 .0252523
1097.127 .0252723
1097.710 .0252919
1098.294 .0253105
1098.877 .0253305
1099.461 .0253541
1100.046 .0253822
1100.630 .0254136
1101.215 .0254482
1101.800 .0254844
1102.385 .0255186
1102.970 .0255504
1103.556 .0255773
1104.142 .0256021
1104.728 .0256249
1105.315 .0256484
1105.902 .0256720
1106.489 .0257018
1107.077 .0257376
1107.664 .0257770
1108.253 .0258205
1108.841 .0258652
1109.430 .0259077
1110.019 .0259477
1110.609 .0259843
1111.198 .0260200
1111.789 .0260559
1112.379 .0260968
1112.970 .0261409
1113.561 .0261930
1114.153 .0262531
1114.745 .0263190
1115.338 .0263896
1115.931 .0264634
1116.524 .0265364
1117.117 .0266078
1117.712 .0266763
1118.306 .0267417
1118.901 .0268036
1119.496 .0268638
1120.092 .0269207
1120.689 .0269770
1121.285 .0270320
1121.882 .0270830
1122.480 .0271323
1123.078 .0271810
1123.677 .0272258
1124.276 .0272649
1124.875 .0273025
1125.476 .0273382
1126.076 .0273729
1126.677 .0274088
1127.279 .0274455
1127.881 .0274865
1128.484 .0275341
1129.087 .0275868
1129.691 .0276492
1130.295 .0277255
1130.900 .0278126
1131.505 .0279060
1132.111 .0280113
1132.718 .0281224
1133.325 .0282338
1133.933 .0283478
1134.541 .0284643
1135.150 .0285820
1135.760 .0287025
1136.370 .0288312
1136.981 .0289678
1137.592 .0291139
1138.204 .0292673
1138.817 .0294191
1139.431 .0295702
1140.045 .0297301
1140.660 .0299002
1141.275 .0300795
1141.891 .0302874
1142.508 .0302200
1143.126 .0306646
1143.744 .0311289
1144.363 .0312863
1144.983 .0318044
