Measurement Sequence started on: 15-12-46-377
Integration time: 28
Scans to Average: 2 
>>>>>Begin Spectral Data<<<<<
432.689 .0000100
433.621 .0000100
434.552 .0000100
435.482 .0000100
436.410 .0000100
437.337 .0000100
438.262 .0273721
439.187 .0579269
440.110 .0958404
441.031 .1384923
441.952 .1798322
442.871 .2122333
443.789 .2297669
444.705 .2304461
445.621 .2168226
446.535 .1944180
447.447 .1692056
448.359 .1307928
449.269 .1118732
450.178 .0999944
451.086 .0916676
451.993 .0852601
452.898 .0801674
453.803 .0759855
454.706 .0724896
455.608 .0695066
456.508 .0669378
457.408 .0647392
458.306 .0628485
459.204 .0612309
460.100 .0598340
460.995 .0586013
461.888 .0575003
462.781 .0564811
463.673 .0555153
464.563 .0546056
465.452 .0537461
466.340 .0529234
467.228 .0521634
468.114 .0514634
468.999 .0508238
469.882 .0502437
470.765 .0497053
471.647 .0492015
472.528 .0487248
473.407 .0482729
474.286 .0478401
475.163 .0474233
476.040 .0470438
476.915 .0467004
477.790 .0463989
478.663 .0461364
479.535 .0459072
480.407 .0457186
481.277 .0455593
482.147 .0454221
483.015 .0453007
483.883 .0451951
484.749 .0451020
485.615 .0450332
486.479 .0449897
487.343 .0449746
488.206 .0449898
489.067 .0450313
489.928 .0450944
490.788 .0451785
491.647 .0452737
492.505 .0453906
493.362 .0455247
494.218 .0456843
495.073 .0458516
495.928 .0460437
496.781 .0462517
497.634 .0464774
498.486 .0467151
499.337 .0469622
500.187 .0472131
501.036 .0474734
501.884 .0477385
502.731 .0480243
503.578 .0483353
504.424 .0486837
505.268 .0490604
506.113 .0494743
506.956 .0499150
507.798 .0503973
508.640 .0509168
509.480 .0514835
510.320 .0521170
511.160 .0528289
511.998 .0536285
512.836 .0545239
513.672 .0555479
514.508 .0566958
515.344 .0579782
516.178 .0594027
517.012 .0609597
517.845 .0626667
518.677 .0645589
519.508 .0666320
520.339 .0689384
521.169 .0715430
521.998 .0744926
522.826 .0778440
523.654 .0816836
524.481 .0859873
525.307 .0908107
526.133 .0961610
526.958 .1020073
527.782 .1082061
528.605 .1146624
529.428 .1212736
530.250 .1276291
531.072 .1335331
531.892 .1387014
532.712 .1428533
533.532 .1458370
534.350 .1474501
535.168 .1474916
535.986 .1459275
536.802 .1429152
537.618 .1385808
538.434 .1331069
539.249 .1269114
540.063 .1202406
540.876 .1134364
541.689 .1067916
542.501 .1005086
543.313 .0946981
544.124 .0894918
544.934 .0848384
545.744 .0806260
546.553 .0768241
547.361 .0734143
548.169 .0703822
548.976 .0676631
549.783 .0652451
550.589 .0630841
551.395 .0611299
552.200 .0593751
553.004 .0577976
553.808 .0563595
554.611 .0550581
555.414 .0538884
556.216 .0528245
557.018 .0518640
557.819 .0509951
558.619 .0501736
559.419 .0494141
560.218 .0487033
561.017 .0480226
561.815 .0473461
562.613 .0466862
563.410 .0460261
564.207 .0453665
565.003 .0447131
565.799 .0440616
566.594 .0434044
567.388 .0427662
568.182 .0421424
568.976 .0415369
569.769 .0409589
570.562 .0404130
571.354 .0398954
572.145 .0394109
572.936 .0389483
573.727 .0385050
574.517 .0380767
575.307 .0376674
576.096 .0372722
576.885 .0368990
577.673 .0365450
578.461 .0362106
579.248 .0359020
580.035 .0356155
580.821 .0353460
581.607 .0350914
582.392 .0348498
583.177 .0346208
583.962 .0344013
584.746 .0341928
585.529 .0339962
586.313 .0338141
587.095 .0336464
587.878 .0334917
588.660 .0333516
589.441 .0332259
590.222 .0331131
591.003 .0330131
591.783 .0329229
592.563 .0328413
593.342 .0327675
594.121 .0326966
594.899 .0326287
595.678 .0325624
596.455 .0324978
597.233 .0324348
598.009 .0323735
598.786 .0323155
599.562 .0322604
600.338 .0322083
601.113 .0321595
601.888 .0321132
602.663 .0320683
603.437 .0320237
604.211 .0319790
604.984 .0319340
605.757 .0318895
606.530 .0318456
607.302 .0318039
608.074 .0317652
608.845 .0317301
609.616 .0316982
610.387 .0316697
611.158 .0316442
611.928 .0316198
612.697 .0315960
613.467 .0315725
614.236 .0315483
615.004 .0315240
615.773 .0314995
616.541 .0314756
617.308 .0314534
618.076 .0314339
618.843 .0314163
619.609 .0314012
620.375 .0313884
621.141 .0313765
621.907 .0313645
622.672 .0313520
623.437 .0313380
624.202 .0313229
624.966 .0313069
625.730 .0312900
626.493 .0312720
627.257 .0312534
628.020 .0312337
628.782 .0312130
629.545 .0311906
630.307 .0311659
631.068 .0311391
631.830 .0311108
632.591 .0310804
633.352 .0310483
634.112 .0310155
634.872 .0309819
635.632 .0309474
636.392 .0309117
637.151 .0308750
637.910 .0308378
638.668 .0308003
639.427 .0307630
640.185 .0307264
640.943 .0306913
641.700 .0306577
642.457 .0306264
643.214 .0305975
643.971 .0305694
644.727 .0305419
645.483 .0305153
646.239 .0304889
646.994 .0304631
647.750 .0304384
648.505 .0304151
649.259 .0303940
650.014 .0303747
650.768 .0303564
651.521 .0303395
652.275 .0303238
653.028 .0303081
653.781 .0302914
654.534 .0302743
655.286 .0302555
656.039 .0302351
656.791 .0302147
657.542 .0301929
658.294 .0301706
659.045 .0301481
659.796 .0301253
660.546 .0301028
661.297 .0300804
662.047 .0300578
662.796 .0300348
663.546 .0300120
664.295 .0299880
665.044 .0299629
665.793 .0299377
666.542 .0299120
667.290 .0298864
668.038 .0298614
668.786 .0298371
669.533 .0298137
670.281 .0297920
671.028 .0297716
671.774 .0297523
672.521 .0297343
673.267 .0297168
674.013 .0297004
674.759 .0296854
675.505 .0296715
676.250 .0296591
676.995 .0296487
677.740 .0296402
678.484 .0296327
679.229 .0296265
679.973 .0296204
680.717 .0296144
681.460 .0296077
682.204 .0295992
682.947 .0295892
683.690 .0295780
684.433 .0295656
685.175 .0295519
685.917 .0295370
686.659 .0295211
687.401 .0295043
688.142 .0294872
688.884 .0294692
689.625 .0294512
690.365 .0294332
691.106 .0294148
691.846 .0293963
692.586 .0293776
693.326 .0293586
694.066 .0293398
694.805 .0293211
695.545 .0293022
696.284 .0292827
697.022 .0292628
697.761 .0292420
698.499 .0292202
699.237 .0291973
699.975 .0291728
700.713 .0291474
701.450 .0291212
702.187 .0290943
702.924 .0290673
703.661 .0290411
704.397 .0290156
705.133 .0289906
705.869 .0289662
706.605 .0289420
707.341 .0289183
708.076 .0288955
708.811 .0288728
709.546 .0288507
710.281 .0288293
711.015 .0288087
711.749 .0287887
712.483 .0287694
713.217 .0287497
713.950 .0287294
714.684 .0287079
715.417 .0286848
716.150 .0286599
716.882 .0286340
717.615 .0286080
718.347 .0285819
719.079 .0285564
719.811 .0285315
720.542 .0285073
721.273 .0284843
722.005 .0284616
722.735 .0284392
723.466 .0284169
724.196 .0283947
724.927 .0283724
725.656 .0283503
726.386 .0283287
727.116 .0283076
727.845 .0282873
728.574 .0282678
729.303 .0282491
730.031 .0282315
730.760 .0282157
731.488 .0282016
732.216 .0281888
732.944 .0281778
733.671 .0281677
734.398 .0281588
735.125 .0281505
735.852 .0281427
736.579 .0281352
737.305 .0281284
738.031 .0281221
738.757 .0281166
739.483 .0281123
740.208 .0281089
740.933 .0281062
741.658 .0281041
742.383 .0281017
743.108 .0280987
743.832 .0280949
744.556 .0280905
745.280 .0280850
746.004 .0280791
746.727 .0280731
747.450 .0280673
748.173 .0280620
748.896 .0280572
749.618 .0280527
750.340 .0280486
751.062 .0280445
751.784 .0280404
752.506 .0280360
753.227 .0280317
753.948 .0280270
754.669 .0280225
755.389 .0280180
756.110 .0280136
756.830 .0280092
757.550 .0280049
758.269 .0280003
758.989 .0279952
759.708 .0279896
760.427 .0279830
761.146 .0279760
761.864 .0279682
762.582 .0279597
763.300 .0279508
764.018 .0279415
764.736 .0279320
765.453 .0279223
766.170 .0279126
766.887 .0279024
767.603 .0278914
768.320 .0278797
769.036 .0278669
769.751 .0278535
770.467 .0278394
771.182 .0278250
771.897 .0278105
772.612 .0277961
773.327 .0277817
774.041 .0277675
774.755 .0277530
775.469 .0277381
776.183 .0277227
776.896 .0277069
777.609 .0276909
778.322 .0276749
779.035 .0276596
779.747 .0276450
780.459 .0276312
781.171 .0276181
781.882 .0276051
782.594 .0275923
783.305 .0275794
784.016 .0275666
784.726 .0275541
785.436 .0275418
786.147 .0275304
786.856 .0275199
787.566 .0275103
788.275 .0275012
788.984 .0274923
789.693 .0274830
790.401 .0274729
791.110 .0274611
791.818 .0274475
792.525 .0274323
793.233 .0274154
793.940 .0273972
794.647 .0273775
795.353 .0273569
796.060 .0273355
796.766 .0273133
797.472 .0272903
798.177 .0272657
798.883 .0272401
799.588 .0272135
800.292 .0271863
800.997 .0271589
801.701 .0271312
802.405 .0271040
803.109 .0270776
803.812 .0270523
804.515 .0270281
805.218 .0270048
805.921 .0269827
806.623 .0269615
807.325 .0269409
808.027 .0269209
808.728 .0269016
809.429 .0268830
810.130 .0268650
810.831 .0268475
811.531 .0268301
812.231 .0268127
812.931 .0267952
813.630 .0267777
814.330 .0267594
815.029 .0267407
815.727 .0267218
816.426 .0267028
817.124 .0266846
817.821 .0266672
818.519 .0266510
819.216 .0266364
819.913 .0266236
820.609 .0266122
821.306 .0266022
822.002 .0265944
822.697 .0265880
823.393 .0265837
824.088 .0265812
824.783 .0265802
825.477 .0265809
826.171 .0265832
826.865 .0265869
827.559 .0265917
828.252 .0265975
828.945 .0266036
829.638 .0266101
830.330 .0266167
831.023 .0266233
831.714 .0266297
832.406 .0266359
833.097 .0266419
833.788 .0266474
834.479 .0266529
835.169 .0266585
835.859 .0266649
836.548 .0266725
837.238 .0266811
837.927 .0266911
838.615 .0267020
839.304 .0267139
839.992 .0267261
840.680 .0267382
841.367 .0267499
842.054 .0267603
842.741 .0267703
843.428 .0267794
844.114 .0267884
844.800 .0267976
845.485 .0268066
846.170 .0268149
846.855 .0268222
847.540 .0268280
848.224 .0268316
848.908 .0268333
849.592 .0268331
850.275 .0268308
850.958 .0268271
851.641 .0268227
852.323 .0268179
853.005 .0268128
853.687 .0268079
854.368 .0268022
855.049 .0267959
855.730 .0267885
856.410 .0267796
857.090 .0267693
857.769 .0267586
858.449 .0267474
859.128 .0267362
859.806 .0267255
860.485 .0267153
861.163 .0267055
861.840 .0266965
862.518 .0266872
863.195 .0266774
863.871 .0266670
864.548 .0266561
865.224 .0266446
865.899 .0266332
866.574 .0266221
867.249 .0266115
867.924 .0266019
868.598 .0265932
869.272 .0265846
869.946 .0265765
870.619 .0265681
871.292 .0265594
871.964 .0265497
872.636 .0265389
873.308 .0265268
873.979 .0265137
874.651 .0264996
875.321 .0264844
875.992 .0264689
876.662 .0264531
877.331 .0264371
878.001 .0264210
878.670 .0264045
879.338 .0263876
880.007 .0263706
880.675 .0263533
881.342 .0263355
882.009 .0263176
882.676 .0262993
883.343 .0262808
884.009 .0262628
884.675 .0262449
885.340 .0262275
886.005 .0262102
886.670 .0261941
887.334 .0261782
887.998 .0261628
888.662 .0261479
889.325 .0261330
889.988 .0261183
890.650 .0261036
891.312 .0260885
891.974 .0260735
892.636 .0260586
893.297 .0260440
893.957 .0260292
894.618 .0260149
895.278 .0260004
895.937 .0259859
896.596 .0259715
897.255 .0259570
897.914 .0259416
898.572 .0259257
899.230 .0259093
899.887 .0258920
900.544 .0258739
901.201 .0258549
901.857 .0258350
902.513 .0258145
903.168 .0257931
903.823 .0257704
904.478 .0257463
905.132 .0257211
905.786 .0256941
906.440 .0256659
907.093 .0256366
907.746 .0256066
908.399 .0255764
909.051 .0255459
909.703 .0255155
910.354 .0254846
911.005 .0254541
911.656 .0254233
912.306 .0253921
912.956 .0253609
913.605 .0253295
914.254 .0252984
914.903 .0252681
915.551 .0252385
916.199 .0252105
916.847 .0251841
917.494 .0251596
918.141 .0251362
918.788 .0251143
919.434 .0250934
920.079 .0250733
920.725 .0250540
921.370 .0250356
922.014 .0250175
922.658 .0250006
923.302 .0249841
923.946 .0249683
924.589 .0249529
925.231 .0249370
925.873 .0249208
926.515 .0249037
927.157 .0248855
927.798 .0248663
928.439 .0248467
929.079 .0248272
929.719 .0248077
930.359 .0247889
930.998 .0247711
931.637 .0247542
932.275 .0247385
932.913 .0247234
933.551 .0247094
934.188 .0246964
934.825 .0246842
935.462 .0246733
936.098 .0246641
936.733 .0246569
937.369 .0246518
938.004 .0246488
938.638 .0246478
939.273 .0246479
939.907 .0246491
940.540 .0246512
941.173 .0246542
941.806 .0246587
942.438 .0246644
943.070 .0246715
943.702 .0246806
944.333 .0246909
944.964 .0247024
945.594 .0247145
946.224 .0247269
946.854 .0247395
947.483 .0247522
948.112 .0247657
948.741 .0247795
949.369 .0247944
949.996 .0248098
950.624 .0248256
951.251 .0248420
951.878 .0248581
952.504 .0248734
953.130 .0248877
953.755 .0249008
954.380 .0249123
955.005 .0249222
955.629 .0249316
956.253 .0249407
956.877 .0249498
957.500 .0249591
958.123 .0249683
958.746 .0249775
959.368 .0249865
959.990 .0249947
960.611 .0250021
961.232 .0250086
961.853 .0250142
962.473 .0250190
963.093 .0250235
963.712 .0250280
964.331 .0250332
964.950 .0250392
965.569 .0250463
966.187 .0250544
966.804 .0250634
967.422 .0250733
968.039 .0250835
968.655 .0250940
969.272 .0251039
969.887 .0251133
970.503 .0251223
971.118 .0251309
971.733 .0251401
972.347 .0251494
972.961 .0251592
973.575 .0251691
974.188 .0251786
974.801 .0251870
975.414 .0251942
976.026 .0251995
976.638 .0252027
977.250 .0252043
977.861 .0252045
978.472 .0252039
979.083 .0252036
979.693 .0252031
980.303 .0252026
980.912 .0252017
981.521 .0252005
982.130 .0251973
982.738 .0251930
983.346 .0251873
983.954 .0251801
984.562 .0251727
985.169 .0251652
985.775 .0251577
986.382 .0251508
986.988 .0251441
987.594 .0251368
988.199 .0251286
988.804 .0251201
989.409 .0251102
990.013 .0251001
990.617 .0250904
991.221 .0250812
991.824 .0250736
992.427 .0250681
993.030 .0250644
993.632 .0250624
994.234 .0250622
994.836 .0250625
995.438 .0250629
996.039 .0250632
996.640 .0250629
997.240 .0250623
997.840 .0250615
998.440 .0250613
999.040 .0250611
999.639 .0250612
1000.238 .0250606
1000.836 .0250590
1001.435 .0250561
1002.033 .0250515
1002.630 .0250447
1003.228 .0250358
1003.825 .0250252
1004.422 .0250138
1005.018 .0250017
1005.614 .0249894
1006.210 .0249771
1006.806 .0249652
1007.401 .0249530
1007.996 .0249408
1008.591 .0249284
1009.186 .0249160
1009.780 .0249040
1010.374 .0248925
1010.967 .0248810
1011.561 .0248701
1012.154 .0248593
1012.746 .0248485
1013.339 .0248382
1013.931 .0248279
1014.523 .0248174
1015.115 .0248063
1015.706 .0247945
1016.298 .0247816
1016.888 .0247676
1017.479 .0247534
1018.069 .0247382
1018.660 .0247225
1019.250 .0247064
1019.839 .0246897
1020.429 .0246729
1021.018 .0246568
1021.607 .0246417
1022.195 .0246277
1022.784 .0246150
1023.372 .0246039
1023.960 .0245939
1024.547 .0245852
1025.135 .0245778
1025.722 .0245714
1026.309 .0245657
1026.896 .0245610
1027.483 .0245563
1028.069 .0245519
1028.655 .0245480
1029.241 .0245439
1029.827 .0245388
1030.412 .0245337
1030.997 .0245280
1031.582 .0245208
1032.167 .0245124
1032.752 .0245034
1033.336 .0244932
1033.921 .0244822
1034.505 .0244700
1035.089 .0244567
1035.672 .0244428
1036.256 .0244284
1036.839 .0244134
1037.422 .0243985
1038.005 .0243843
1038.588 .0243703
1039.171 .0243567
1039.753 .0243438
1040.335 .0243309
1040.918 .0243186
1041.500 .0243066
1042.081 .0242953
1042.663 .0242838
1043.244 .0242722
1043.826 .0242606
1044.407 .0242495
1044.988 .0242383
1045.569 .0242267
1046.150 .0242154
1046.730 .0242044
1047.311 .0241927
1047.891 .0241805
1048.471 .0241672
1049.052 .0241535
1049.632 .0241390
1050.211 .0241235
1050.791 .0241066
1051.371 .0240895
1051.950 .0240725
1052.530 .0240553
1053.109 .0240374
1053.688 .0240189
1054.268 .0240000
1054.847 .0239815
1055.426 .0239637
1056.005 .0239459
1056.583 .0239290
1057.162 .0239136
1057.741 .0238996
1058.319 .0238868
1058.898 .0238757
1059.476 .0238666
1060.055 .0238597
1060.633 .0238546
1061.211 .0238506
1061.790 .0238473
1062.368 .0238465
1062.946 .0238474
1063.524 .0238492
1064.102 .0238515
1064.680 .0238545
1065.258 .0238578
1065.836 .0238614
1066.414 .0238649
1066.992 .0238681
1067.570 .0238709
1068.148 .0238741
1068.726 .0238760
1069.304 .0238778
1069.882 .0238794
1070.460 .0238811
1071.038 .0238819
1071.616 .0238817
1072.194 .0238788
1072.772 .0238737
1073.350 .0238675
1073.928 .0238607
1074.506 .0238525
1075.084 .0238444
1075.662 .0238389
1076.240 .0238360
1076.819 .0238357
1077.397 .0238403
1077.976 .0238490
1078.554 .0238615
1079.133 .0238763
1079.711 .0238923
1080.290 .0239084
1080.869 .0239244
1081.448 .0239386
1082.027 .0239507
1082.606 .0239616
1083.185 .0239725
1083.764 .0239818
1084.343 .0239921
1084.923 .0240031
1085.502 .0240125
1086.082 .0240210
1086.662 .0240300
1087.242 .0240377
1087.822 .0240442
1088.402 .0240513
1088.983 .0240610
1089.563 .0240720
1090.144 .0240855
1090.725 .0241032
1091.306 .0241247
1091.887 .0241520
1092.469 .0241835
1093.050 .0242185
1093.632 .0242588
1094.214 .0243036
1094.796 .0243521
1095.379 .0244020
1095.961 .0244536
1096.544 .0245043
1097.127 .0245533
1097.710 .0246000
1098.294 .0246425
1098.877 .0246803
1099.461 .0247142
1100.046 .0247459
1100.630 .0247747
1101.215 .0248034
1101.800 .0248335
1102.385 .0248659
1102.970 .0249007
1103.556 .0249357
1104.142 .0249721
1104.728 .0250081
1105.315 .0250462
1105.902 .0250834
1106.489 .0251203
1107.077 .0251575
1107.664 .0251955
1108.253 .0252379
1108.841 .0252824
1109.430 .0253309
1110.019 .0253810
1110.609 .0254317
1111.198 .0254822
1111.789 .0255309
1112.379 .0255778
1112.970 .0256220
1113.561 .0256670
1114.153 .0257118
1114.745 .0257597
1115.338 .0258098
1115.931 .0258637
1116.524 .0259224
1117.117 .0259838
1117.712 .0260469
1118.306 .0261076
1118.901 .0261695
1119.496 .0262322
1120.092 .0262976
1120.689 .0263649
1121.285 .0264327
1121.882 .0265026
1122.480 .0265717
1123.078 .0266407
1123.677 .0267079
1124.276 .0267728
1124.875 .0268361
1125.476 .0268999
1126.076 .0269653
1126.677 .0270316
1127.279 .0271019
1127.881 .0271752
1128.484 .0272496
1129.087 .0273231
1129.691 .0273947
1130.295 .0274634
1130.900 .0275345
1131.505 .0276064
1132.111 .0276757
1132.718 .0277491
1133.325 .0278254
1133.933 .0279021
1134.541 .0279803
1135.150 .0280608
1135.760 .0281456
1136.370 .0282377
1136.981 .0283420
1137.592 .0284527
1138.204 .0285799
1138.817 .0287188
1139.431 .0288659
1140.045 .0290414
1140.660 .0292337
1141.275 .0294791
1141.891 .0297755
1142.508 .0296715
1143.126 .0304052
1143.744 .0305148
1144.363 .0317281
1144.983 .0322259
