Measurement Sequence started on: 15-12-46-377
Integration time: 28
Scans to Average: 2 
>>>>>Begin Spectral Data<<<<<
432.689 .0000100
433.621 .0000100
434.552 .0000100
435.482 .0000100
436.410 .0000100
437.337 .0000100
438.262 .0287345
439.187 .0608136
440.110 .1006867
441.031 .1456610
441.952 .1893036
442.871 .2236019
443.789 .2423693
444.705 .2434746
445.621 .2295713
446.535 .2063777
447.447 .1801255
448.359 .1398868
449.269 .1199875
450.178 .1073408
451.086 .0983067
451.993 .0913193
452.898 .0857512
453.803 .0811632
454.706 .0773746
455.608 .0741889
456.508 .0715048
457.408 .0692327
458.306 .0672454
459.204 .0654727
460.100 .0638635
460.995 .0623877
461.888 .0610257
462.781 .0597622
463.673 .0585915
464.563 .0575271
465.452 .0565520
466.340 .0556442
467.228 .0548049
468.114 .0540212
468.999 .0532785
469.882 .0525681
470.765 .0518939
471.647 .0512582
472.528 .0506592
473.407 .0501129
474.286 .0496152
475.163 .0491667
476.040 .0487669
476.915 .0484045
477.790 .0480775
478.663 .0477798
479.535 .0475095
480.407 .0472695
481.277 .0470702
482.147 .0469176
483.015 .0468059
483.883 .0467410
484.749 .0467268
485.615 .0467541
486.479 .0468110
487.343 .0468938
488.206 .0469948
489.067 .0471076
489.928 .0472282
490.788 .0473598
491.647 .0475064
492.505 .0476738
493.362 .0478660
494.218 .0480744
495.073 .0483040
495.928 .0485567
496.781 .0488156
497.634 .0490881
498.486 .0493675
499.337 .0496480
500.187 .0499313
501.036 .0502251
501.884 .0505420
502.731 .0508790
503.578 .0512474
504.424 .0516595
505.268 .0520981
506.113 .0525712
506.956 .0530734
507.798 .0536102
508.640 .0541967
509.480 .0548308
510.320 .0555266
511.160 .0563104
511.998 .0571800
512.836 .0581548
513.672 .0592236
514.508 .0604072
515.344 .0617008
516.178 .0631356
517.012 .0647586
517.845 .0666137
518.677 .0687617
519.508 .0712496
520.339 .0741384
521.169 .0775033
521.998 .0813344
522.826 .0856489
523.654 .0905058
524.481 .0958759
525.307 .1017750
526.133 .1082053
526.958 .1151672
527.782 .1226297
528.605 .1304259
529.428 .1384659
530.250 .1461998
531.072 .1533689
531.892 .1595374
532.712 .1642555
533.532 .1673514
534.350 .1685487
535.168 .1677220
535.986 .1650277
536.802 .1606672
537.618 .1549840
538.434 .1482048
539.249 .1408796
540.063 .1332079
540.876 .1254966
541.689 .1179881
542.501 .1108140
543.313 .1041537
544.124 .0980899
544.934 .0925502
545.744 .0875092
546.553 .0829704
547.361 .0789295
548.169 .0753732
548.976 .0722308
549.783 .0694679
550.589 .0670423
551.395 .0648782
552.200 .0629420
553.004 .0611925
553.808 .0595796
554.611 .0581229
555.414 .0567938
556.216 .0555814
557.018 .0544834
557.819 .0535001
558.619 .0526015
559.419 .0517696
560.218 .0509873
561.017 .0502400
561.815 .0495003
562.613 .0487730
563.410 .0480429
564.207 .0473162
565.003 .0466031
565.799 .0459005
566.594 .0452072
567.388 .0445503
568.182 .0439155
568.976 .0433102
569.769 .0427400
570.562 .0422040
571.354 .0416838
572.145 .0411870
572.936 .0407007
573.727 .0402238
574.517 .0397522
575.307 .0392929
576.096 .0388455
576.885 .0384179
577.673 .0380170
578.461 .0376399
579.248 .0372958
580.035 .0369843
580.821 .0366956
581.607 .0364292
582.392 .0361814
583.177 .0359487
583.962 .0357301
584.746 .0355250
585.529 .0353300
586.313 .0351482
587.095 .0349820
587.878 .0348300
588.660 .0346935
589.441 .0345722
590.222 .0344658
591.003 .0343716
591.783 .0342894
592.563 .0342132
593.342 .0341428
594.121 .0340757
594.899 .0340099
595.678 .0339454
596.455 .0338831
597.233 .0338228
598.009 .0337649
598.786 .0337099
599.562 .0336579
600.338 .0336079
601.113 .0335607
601.888 .0335136
602.663 .0334664
603.437 .0334183
604.211 .0333684
604.984 .0333170
605.757 .0332656
606.530 .0332138
607.302 .0331621
608.074 .0331125
608.845 .0330646
609.616 .0330181
610.387 .0329747
611.158 .0329333
611.928 .0328934
612.697 .0328555
613.467 .0328189
614.236 .0327837
615.004 .0327505
615.773 .0327193
616.541 .0326902
617.308 .0326638
618.076 .0326399
618.843 .0326169
619.609 .0325954
620.375 .0325752
621.141 .0325548
621.907 .0325339
622.672 .0325121
623.437 .0324883
624.202 .0324638
624.966 .0324383
625.730 .0324117
626.493 .0323843
627.257 .0323561
628.020 .0323279
628.782 .0322987
629.545 .0322676
630.307 .0322350
631.068 .0322008
631.830 .0321657
632.591 .0321292
633.352 .0320920
634.112 .0320546
634.872 .0320175
635.632 .0319812
636.392 .0319451
637.151 .0319099
637.910 .0318758
638.668 .0318422
639.427 .0318089
640.185 .0317764
640.943 .0317439
641.700 .0317118
642.457 .0316807
643.214 .0316495
643.971 .0316175
644.727 .0315854
645.483 .0315538
646.239 .0315228
646.994 .0314925
647.750 .0314642
648.505 .0314376
649.259 .0314137
650.014 .0313919
650.768 .0313718
651.521 .0313538
652.275 .0313372
653.028 .0313212
653.781 .0313051
654.534 .0312892
655.286 .0312739
656.039 .0312583
656.791 .0312431
657.542 .0312279
658.294 .0312123
659.045 .0311965
659.796 .0311803
660.546 .0311630
661.297 .0311444
662.047 .0311246
662.796 .0311038
663.546 .0310814
664.295 .0310573
665.044 .0310321
665.793 .0310056
666.542 .0309783
667.290 .0309502
668.038 .0309217
668.786 .0308942
669.533 .0308677
670.281 .0308423
671.028 .0308178
671.774 .0307940
672.521 .0307714
673.267 .0307494
674.013 .0307282
674.759 .0307069
675.505 .0306855
676.250 .0306645
676.995 .0306439
677.740 .0306235
678.484 .0306040
679.229 .0305851
679.973 .0305671
680.717 .0305494
681.460 .0305317
682.204 .0305142
682.947 .0304973
683.690 .0304807
684.433 .0304635
685.175 .0304453
685.917 .0304262
686.659 .0304061
687.401 .0303858
688.142 .0303658
688.884 .0303458
689.625 .0303263
690.365 .0303073
691.106 .0302885
691.846 .0302698
692.586 .0302508
693.326 .0302312
694.066 .0302108
694.805 .0301891
695.545 .0301657
696.284 .0301411
697.022 .0301162
697.761 .0300913
698.499 .0300666
699.237 .0300421
699.975 .0300180
700.713 .0299946
701.450 .0299719
702.187 .0299497
702.924 .0299281
703.661 .0299069
704.397 .0298861
705.133 .0298659
705.869 .0298457
706.605 .0298259
707.341 .0298067
708.076 .0297882
708.811 .0297701
709.546 .0297522
710.281 .0297341
711.015 .0297162
711.749 .0296985
712.483 .0296804
713.217 .0296618
713.950 .0296430
714.684 .0296238
715.417 .0296039
716.150 .0295837
716.882 .0295635
717.615 .0295434
718.347 .0295235
719.079 .0295040
719.811 .0294847
720.542 .0294660
721.273 .0294478
722.005 .0294302
722.735 .0294135
723.466 .0293976
724.196 .0293823
724.927 .0293670
725.656 .0293516
726.386 .0293364
727.116 .0293206
727.845 .0293045
728.574 .0292880
729.303 .0292709
730.031 .0292532
730.760 .0292353
731.488 .0292171
732.216 .0291987
732.944 .0291807
733.671 .0291626
734.398 .0291448
735.125 .0291276
735.852 .0291108
736.579 .0290943
737.305 .0290785
738.031 .0290634
738.757 .0290477
739.483 .0290321
740.208 .0290170
740.933 .0290020
741.658 .0289879
742.383 .0289743
743.108 .0289620
743.832 .0289510
744.556 .0289412
745.280 .0289318
746.004 .0289228
746.727 .0289141
747.450 .0289051
748.173 .0288953
748.896 .0288850
749.618 .0288746
750.340 .0288641
751.062 .0288544
751.784 .0288453
752.506 .0288365
753.227 .0288280
753.948 .0288190
754.669 .0288095
755.389 .0287995
756.110 .0287885
756.830 .0287769
757.550 .0287650
758.269 .0287535
758.989 .0287415
759.708 .0287291
760.427 .0287165
761.146 .0287034
761.864 .0286892
762.582 .0286737
763.300 .0286564
764.018 .0286387
764.736 .0286206
765.453 .0286028
766.170 .0285852
766.887 .0285687
767.603 .0285527
768.320 .0285370
769.036 .0285212
769.751 .0285056
770.467 .0284897
771.182 .0284743
771.897 .0284593
772.612 .0284446
773.327 .0284308
774.041 .0284184
774.755 .0284068
775.469 .0283965
776.183 .0283869
776.896 .0283778
777.609 .0283691
778.322 .0283607
779.035 .0283522
779.747 .0283438
780.459 .0283359
781.171 .0283281
781.882 .0283206
782.594 .0283135
783.305 .0283068
784.016 .0283007
784.726 .0282959
785.436 .0282917
786.147 .0282880
786.856 .0282848
787.566 .0282816
788.275 .0282781
788.984 .0282742
789.693 .0282699
790.401 .0282655
791.110 .0282609
791.818 .0282563
792.525 .0282514
793.233 .0282468
793.940 .0282416
794.647 .0282353
795.353 .0282277
796.060 .0282183
796.766 .0282068
797.472 .0281936
798.177 .0281788
798.883 .0281634
799.588 .0281481
800.292 .0281328
800.997 .0281177
801.701 .0281028
802.405 .0280875
803.109 .0280719
803.812 .0280561
804.515 .0280398
805.218 .0280230
805.921 .0280065
806.623 .0279899
807.325 .0279736
808.027 .0279582
808.728 .0279429
809.429 .0279274
810.130 .0279119
810.831 .0278954
811.531 .0278781
812.231 .0278600
812.931 .0278413
813.630 .0278220
814.330 .0278025
815.029 .0277830
815.727 .0277628
816.426 .0277427
817.124 .0277225
817.821 .0277019
818.519 .0276820
819.216 .0276628
819.913 .0276444
820.609 .0276277
821.306 .0276128
822.002 .0275999
822.697 .0275890
823.393 .0275803
824.088 .0275728
824.783 .0275669
825.477 .0275615
826.171 .0275566
826.865 .0275523
827.559 .0275485
828.252 .0275451
828.945 .0275420
829.638 .0275397
830.330 .0275380
831.023 .0275366
831.714 .0275355
832.406 .0275344
833.097 .0275328
833.788 .0275300
834.479 .0275260
835.169 .0275209
835.859 .0275151
836.548 .0275087
837.238 .0275024
837.927 .0274961
838.615 .0274901
839.304 .0274849
839.992 .0274801
840.680 .0274758
841.367 .0274717
842.054 .0274676
842.741 .0274632
843.428 .0274588
844.114 .0274543
844.800 .0274495
845.485 .0274446
846.170 .0274398
846.855 .0274345
847.540 .0274292
848.224 .0274239
848.908 .0274187
849.592 .0274136
850.275 .0274082
850.958 .0274021
851.641 .0273954
852.323 .0273877
853.005 .0273785
853.687 .0273675
854.368 .0273552
855.049 .0273413
855.730 .0273266
856.410 .0273110
857.090 .0272954
857.769 .0272796
858.449 .0272636
859.128 .0272470
859.806 .0272293
860.485 .0272111
861.163 .0271919
861.840 .0271722
862.518 .0271527
863.195 .0271335
863.871 .0271153
864.548 .0270984
865.224 .0270832
865.899 .0270692
866.574 .0270565
867.249 .0270445
867.924 .0270334
868.598 .0270232
869.272 .0270134
869.946 .0270046
870.619 .0269974
871.292 .0269913
871.964 .0269862
872.636 .0269815
873.308 .0269770
873.979 .0269722
874.651 .0269664
875.321 .0269595
875.992 .0269516
876.662 .0269436
877.331 .0269355
878.001 .0269279
878.670 .0269212
879.338 .0269155
880.007 .0269108
880.675 .0269071
881.342 .0269031
882.009 .0268991
882.676 .0268946
883.343 .0268897
884.009 .0268851
884.675 .0268805
885.340 .0268766
886.005 .0268738
886.670 .0268723
887.334 .0268722
887.998 .0268727
888.662 .0268743
889.325 .0268761
889.988 .0268783
890.650 .0268806
891.312 .0268826
891.974 .0268845
892.636 .0268871
893.297 .0268901
893.957 .0268934
894.618 .0268965
895.278 .0268996
895.937 .0269026
896.596 .0269050
897.255 .0269064
897.914 .0269069
898.572 .0269062
899.230 .0269047
899.887 .0269016
900.544 .0268973
901.201 .0268916
901.857 .0268843
902.513 .0268754
903.168 .0268643
903.823 .0268510
904.478 .0268355
905.132 .0268181
905.786 .0267992
906.440 .0267789
907.093 .0267580
907.746 .0267368
908.399 .0267159
909.051 .0266955
909.703 .0266757
910.354 .0266562
911.005 .0266370
911.656 .0266177
912.306 .0265980
912.956 .0265781
913.605 .0265578
914.254 .0265378
914.903 .0265183
915.551 .0264994
916.199 .0264820
916.847 .0264658
917.494 .0264508
918.141 .0264365
918.788 .0264229
919.434 .0264093
920.079 .0263950
920.725 .0263801
921.370 .0263645
922.014 .0263483
922.658 .0263314
923.302 .0263136
923.946 .0262954
924.589 .0262764
925.231 .0262560
925.873 .0262343
926.515 .0262116
927.157 .0261874
927.798 .0261620
928.439 .0261355
929.079 .0261080
929.719 .0260792
930.359 .0260499
930.998 .0260197
931.637 .0259891
932.275 .0259584
932.913 .0259275
933.551 .0258970
934.188 .0258678
934.825 .0258400
935.462 .0258143
936.098 .0257910
936.733 .0257704
937.369 .0257517
938.004 .0257349
938.638 .0257200
939.273 .0257068
939.907 .0256952
940.540 .0256854
941.173 .0256771
941.806 .0256710
942.438 .0256670
943.070 .0256643
943.702 .0256629
944.333 .0256625
944.964 .0256616
945.594 .0256596
946.224 .0256567
946.854 .0256529
947.483 .0256482
948.112 .0256433
948.741 .0256385
949.369 .0256334
949.996 .0256286
950.624 .0256235
951.251 .0256181
951.878 .0256127
952.504 .0256066
953.130 .0255999
953.755 .0255926
954.380 .0255852
955.005 .0255775
955.629 .0255702
956.253 .0255631
956.877 .0255557
957.500 .0255484
958.123 .0255405
958.746 .0255319
959.368 .0255224
959.990 .0255123
960.611 .0255012
961.232 .0254893
961.853 .0254768
962.473 .0254635
963.093 .0254499
963.712 .0254356
964.331 .0254209
964.950 .0254054
965.569 .0253901
966.187 .0253748
966.804 .0253604
967.422 .0253478
968.039 .0253369
968.655 .0253279
969.272 .0253208
969.887 .0253146
970.503 .0253090
971.118 .0253030
971.733 .0252969
972.347 .0252893
972.961 .0252808
973.575 .0252713
974.188 .0252610
974.801 .0252502
975.414 .0252391
976.026 .0252272
976.638 .0252150
977.250 .0252022
977.861 .0251880
978.472 .0251733
979.083 .0251581
979.693 .0251422
980.303 .0251265
980.912 .0251116
981.521 .0250977
982.130 .0250850
982.738 .0250737
983.346 .0250632
983.954 .0250533
984.562 .0250436
985.169 .0250335
985.775 .0250233
986.382 .0250132
986.988 .0250029
987.594 .0249931
988.199 .0249838
988.804 .0249750
989.409 .0249666
990.013 .0249583
990.617 .0249499
991.221 .0249409
991.824 .0249320
992.427 .0249238
993.030 .0249165
993.632 .0249112
994.234 .0249081
994.836 .0249079
995.438 .0249105
996.039 .0249154
996.640 .0249223
997.240 .0249307
997.840 .0249399
998.440 .0249496
999.040 .0249589
999.639 .0249681
1000.238 .0249769
1000.836 .0249849
1001.435 .0249925
1002.033 .0249989
1002.630 .0250042
1003.228 .0250084
1003.825 .0250117
1004.422 .0250141
1005.018 .0250160
1005.614 .0250176
1006.210 .0250193
1006.806 .0250208
1007.401 .0250223
1007.996 .0250231
1008.591 .0250238
1009.186 .0250244
1009.780 .0250249
1010.374 .0250252
1010.967 .0250263
1011.561 .0250278
1012.154 .0250302
1012.746 .0250333
1013.339 .0250379
1013.931 .0250431
1014.523 .0250496
1015.115 .0250566
1015.706 .0250638
1016.298 .0250712
1016.888 .0250789
1017.479 .0250867
1018.069 .0250948
1018.660 .0251034
1019.250 .0251125
1019.839 .0251221
1020.429 .0251331
1021.018 .0251452
1021.607 .0251587
1022.195 .0251732
1022.784 .0251888
1023.372 .0252048
1023.960 .0252218
1024.547 .0252382
1025.135 .0252547
1025.722 .0252711
1026.309 .0252869
1026.896 .0253018
1027.483 .0253161
1028.069 .0253303
1028.655 .0253439
1029.241 .0253571
1029.827 .0253702
1030.412 .0253823
1030.997 .0253941
1031.582 .0254048
1032.167 .0254145
1032.752 .0254237
1033.336 .0254319
1033.921 .0254385
1034.505 .0254444
1035.089 .0254493
1035.672 .0254530
1036.256 .0254558
1036.839 .0254583
1037.422 .0254614
1038.005 .0254650
1038.588 .0254692
1039.171 .0254749
1039.753 .0254823
1040.335 .0254911
1040.918 .0255005
1041.500 .0255100
1042.081 .0255192
1042.663 .0255269
1043.244 .0255327
1043.826 .0255362
1044.407 .0255376
1044.988 .0255381
1045.569 .0255376
1046.150 .0255369
1046.730 .0255364
1047.311 .0255355
1047.891 .0255347
1048.471 .0255341
1049.052 .0255324
1049.632 .0255295
1050.211 .0255265
1050.791 .0255236
1051.371 .0255214
1051.950 .0255204
1052.530 .0255219
1053.109 .0255261
1053.688 .0255332
1054.268 .0255433
1054.847 .0255553
1055.426 .0255696
1056.005 .0255857
1056.583 .0256029
1057.162 .0256209
1057.741 .0256390
1058.319 .0256574
1058.898 .0256753
1059.476 .0256932
1060.055 .0257097
1060.633 .0257237
1061.211 .0257358
1061.790 .0257453
1062.368 .0257521
1062.946 .0257561
1063.524 .0257573
1064.102 .0257571
1064.680 .0257557
1065.258 .0257529
1065.836 .0257488
1066.414 .0257445
1066.992 .0257405
1067.570 .0257356
1068.148 .0257296
1068.726 .0257233
1069.304 .0257167
1069.882 .0257112
1070.460 .0257069
1071.038 .0257040
1071.616 .0257038
1072.194 .0257059
1072.772 .0257097
1073.350 .0257156
1073.928 .0257222
1074.506 .0257287
1075.084 .0257328
1075.662 .0257347
1076.240 .0257337
1076.819 .0257288
1077.397 .0257224
1077.976 .0257143
1078.554 .0257067
1079.133 .0257000
1079.711 .0256934
1080.290 .0256876
1080.869 .0256831
1081.448 .0256792
1082.027 .0256749
1082.606 .0256706
1083.185 .0256676
1083.764 .0256654
1084.343 .0256648
1084.923 .0256674
1085.502 .0256740
1086.082 .0256831
1086.662 .0256960
1087.242 .0257088
1087.822 .0257243
1088.402 .0257394
1088.983 .0257542
1089.563 .0257685
1090.144 .0257832
1090.725 .0257984
1091.306 .0258120
1091.887 .0258258
1092.469 .0258418
1093.050 .0258562
1093.632 .0258707
1094.214 .0258837
1094.796 .0258955
1095.379 .0259067
1095.961 .0259184
1096.544 .0259288
1097.127 .0259413
1097.710 .0259547
1098.294 .0259697
1098.877 .0259862
1099.461 .0260052
1100.046 .0260251
1100.630 .0260450
1101.215 .0260667
1101.800 .0260879
1102.385 .0261079
1102.970 .0261295
1103.556 .0261502
1104.142 .0261710
1104.728 .0261915
1105.315 .0262108
1105.902 .0262306
1106.489 .0262504
1107.077 .0262691
1107.664 .0262861
1108.253 .0263006
1108.841 .0263113
1109.430 .0263186
1110.019 .0263257
1110.609 .0263325
1111.198 .0263403
1111.789 .0263510
1112.379 .0263633
1112.970 .0263769
1113.561 .0263900
1114.153 .0264031
1114.745 .0264142
1115.338 .0264233
1115.931 .0264273
1116.524 .0264304
1117.117 .0264362
1117.712 .0264446
1118.306 .0264575
1118.901 .0264778
1119.496 .0265038
1120.092 .0265330
1120.689 .0265642
1121.285 .0265969
1121.882 .0266278
1122.480 .0266588
1123.078 .0266902
1123.677 .0267256
1124.276 .0267662
1124.875 .0268154
1125.476 .0268712
1126.076 .0269357
1126.677 .0270041
1127.279 .0270737
1127.881 .0271420
1128.484 .0272085
1129.087 .0272683
1129.691 .0273219
1130.295 .0273709
1130.900 .0274169
1131.505 .0274601
1132.111 .0275075
1132.718 .0275611
1133.325 .0276253
1133.933 .0277008
1134.541 .0277901
1135.150 .0278927
1135.760 .0280090
1136.370 .0281361
1136.981 .0282736
1137.592 .0284152
1138.204 .0285632
1138.817 .0287194
1139.431 .0288872
1140.045 .0290715
1140.660 .0292603
1141.275 .0294498
1141.891 .0296475
1142.508 .0299614
1143.126 .0302632
1143.744 .0301918
1144.363 .0301875
1144.983 .0306214
