Measurement Sequence started on: 15-12-46-377
Integration time: 28
Scans to Average: 2 
>>>>>Begin Spectral Data<<<<<
432.689 .0000100
433.621 .0000100
434.552 .0000100
435.482 .0000100
436.410 .0000100
437.337 .0000100
438.262 .0269391
439.187 .0569157
440.110 .0942479
441.031 .1363528
441.952 .1772100
442.871 .2093414
443.789 .2269173
444.705 .2279827
445.621 .2150035
446.535 .1933359
447.447 .1688268
448.359 .1312338
449.269 .1128075
450.178 .1011354
451.086 .0929039
451.993 .0866205
452.898 .0816556
453.803 .0775906
454.706 .0742051
455.608 .0713269
456.508 .0688644
457.408 .0667370
458.306 .0648693
459.204 .0631913
460.100 .0616670
460.995 .0602768
461.888 .0589903
462.781 .0577833
463.673 .0566556
464.563 .0555936
465.452 .0546034
466.340 .0536706
467.228 .0528064
468.114 .0519994
468.999 .0512630
469.882 .0505863
470.765 .0499608
471.647 .0493949
472.528 .0488806
473.407 .0484154
474.286 .0480074
475.163 .0476422
476.040 .0473161
476.915 .0470292
477.790 .0467769
478.663 .0465558
479.535 .0463644
480.407 .0461975
481.277 .0460514
482.147 .0459282
483.015 .0458299
483.883 .0457497
484.749 .0456924
485.615 .0456600
486.479 .0456377
487.343 .0456362
488.206 .0456489
489.067 .0456668
489.928 .0456941
490.788 .0457335
491.647 .0457819
492.505 .0458454
493.362 .0459281
494.218 .0460328
495.073 .0461593
495.928 .0463156
496.781 .0464950
497.634 .0467060
498.486 .0469479
499.337 .0472189
500.187 .0475148
501.036 .0478418
501.884 .0481844
502.731 .0485493
503.578 .0489428
504.424 .0493629
505.268 .0498054
506.113 .0502742
506.956 .0507710
507.798 .0513129
508.640 .0518995
509.480 .0525502
510.320 .0532845
511.160 .0541069
511.998 .0550196
512.836 .0560415
513.672 .0571815
514.508 .0584573
515.344 .0598804
516.178 .0614844
517.012 .0632816
517.845 .0653012
518.677 .0675829
519.508 .0701381
520.339 .0730370
521.169 .0763234
521.998 .0799845
522.826 .0841153
523.654 .0886951
524.481 .0937155
525.307 .0992333
526.133 .1051606
526.958 .1114105
527.782 .1179057
528.605 .1244971
529.428 .1310376
530.250 .1371019
531.072 .1425409
531.892 .1470098
532.712 .1503051
533.532 .1522721
534.350 .1527273
535.168 .1516295
535.986 .1490629
536.802 .1450792
537.618 .1399465
538.434 .1338741
539.249 .1273086
540.063 .1204559
540.876 .1136512
541.689 .1071327
542.501 .1010515
543.313 .0955190
544.124 .0906020
544.934 .0861787
545.744 .0821945
546.553 .0785435
547.361 .0752238
548.169 .0722162
548.976 .0694824
549.783 .0670227
550.589 .0648303
551.395 .0628643
552.200 .0611018
553.004 .0594941
553.808 .0580255
554.611 .0566766
555.414 .0554421
556.216 .0542964
557.018 .0532372
557.819 .0522597
558.619 .0513422
559.419 .0504856
560.218 .0496901
561.017 .0489358
561.815 .0482126
562.613 .0475109
563.410 .0468270
564.207 .0461464
565.003 .0454729
565.799 .0448061
566.594 .0441494
567.388 .0435107
568.182 .0428775
568.976 .0422500
569.769 .0416426
570.562 .0410619
571.354 .0404977
572.145 .0399602
572.936 .0394538
573.727 .0389739
574.517 .0385225
575.307 .0380989
576.096 .0377010
576.885 .0373326
577.673 .0369915
578.461 .0366752
579.248 .0363825
580.035 .0361110
580.821 .0358557
581.607 .0356134
582.392 .0353870
583.177 .0351722
583.962 .0349666
584.746 .0347756
585.529 .0345968
586.313 .0344323
587.095 .0342825
587.878 .0341470
588.660 .0340236
589.441 .0339108
590.222 .0338059
591.003 .0337088
591.783 .0336180
592.563 .0335332
593.342 .0334541
594.121 .0333802
594.899 .0333119
595.678 .0332459
596.455 .0331834
597.233 .0331245
598.009 .0330661
598.786 .0330098
599.562 .0329533
600.338 .0328972
601.113 .0328416
601.888 .0327871
602.663 .0327331
603.437 .0326805
604.211 .0326285
604.984 .0325778
605.757 .0325281
606.530 .0324792
607.302 .0324302
608.074 .0323830
608.845 .0323380
609.616 .0322954
610.387 .0322551
611.158 .0322188
611.928 .0321855
612.697 .0321556
613.467 .0321274
614.236 .0321002
615.004 .0320727
615.773 .0320451
616.541 .0320163
617.308 .0319875
618.076 .0319598
618.843 .0319337
619.609 .0319099
620.375 .0318882
621.141 .0318684
621.907 .0318498
622.672 .0318312
623.437 .0318123
624.202 .0317912
624.966 .0317684
625.730 .0317429
626.493 .0317151
627.257 .0316859
628.020 .0316557
628.782 .0316254
629.545 .0315946
630.307 .0315634
631.068 .0315321
631.830 .0315009
632.591 .0314701
633.352 .0314396
634.112 .0314093
634.872 .0313787
635.632 .0313478
636.392 .0313168
637.151 .0312863
637.910 .0312559
638.668 .0312270
639.427 .0311996
640.185 .0311743
640.943 .0311518
641.700 .0311315
642.457 .0311144
643.214 .0311001
643.971 .0310868
644.727 .0310735
645.483 .0310595
646.239 .0310459
646.994 .0310312
647.750 .0310168
648.505 .0310029
649.259 .0309897
650.014 .0309777
650.768 .0309662
651.521 .0309554
652.275 .0309451
653.028 .0309342
653.781 .0309224
654.534 .0309092
655.286 .0308952
656.039 .0308799
656.791 .0308639
657.542 .0308475
658.294 .0308306
659.045 .0308134
659.796 .0307951
660.546 .0307767
661.297 .0307577
662.047 .0307378
662.796 .0307166
663.546 .0306946
664.295 .0306714
665.044 .0306475
665.793 .0306234
666.542 .0305991
667.290 .0305745
668.038 .0305496
668.786 .0305236
669.533 .0304971
670.281 .0304698
671.028 .0304420
671.774 .0304134
672.521 .0303850
673.267 .0303566
674.013 .0303289
674.759 .0303017
675.505 .0302753
676.250 .0302496
676.995 .0302242
677.740 .0301987
678.484 .0301735
679.229 .0301490
679.973 .0301248
680.717 .0301014
681.460 .0300795
682.204 .0300585
682.947 .0300385
683.690 .0300194
684.433 .0300005
685.175 .0299819
685.917 .0299631
686.659 .0299433
687.401 .0299227
688.142 .0299017
688.884 .0298798
689.625 .0298576
690.365 .0298354
691.106 .0298134
691.846 .0297913
692.586 .0297700
693.326 .0297483
694.066 .0297268
694.805 .0297053
695.545 .0296835
696.284 .0296614
697.022 .0296391
697.761 .0296169
698.499 .0295950
699.237 .0295739
699.975 .0295543
700.713 .0295360
701.450 .0295200
702.187 .0295054
702.924 .0294921
703.661 .0294800
704.397 .0294686
705.133 .0294578
705.869 .0294475
706.605 .0294376
707.341 .0294283
708.076 .0294196
708.811 .0294117
709.546 .0294046
710.281 .0293979
711.015 .0293917
711.749 .0293856
712.483 .0293796
713.217 .0293736
713.950 .0293676
714.684 .0293618
715.417 .0293562
716.150 .0293512
716.882 .0293461
717.615 .0293403
718.347 .0293341
719.079 .0293267
719.811 .0293176
720.542 .0293075
721.273 .0292960
722.005 .0292834
722.735 .0292698
723.466 .0292552
724.196 .0292399
724.927 .0292238
725.656 .0292070
726.386 .0291892
727.116 .0291706
727.845 .0291517
728.574 .0291318
729.303 .0291121
730.031 .0290932
730.760 .0290755
731.488 .0290587
732.216 .0290431
732.944 .0290289
733.671 .0290162
734.398 .0290049
735.125 .0289948
735.852 .0289860
736.579 .0289777
737.305 .0289699
738.031 .0289623
738.757 .0289547
739.483 .0289470
740.208 .0289388
740.933 .0289299
741.658 .0289200
742.383 .0289094
743.108 .0288980
743.832 .0288867
744.556 .0288764
745.280 .0288663
746.004 .0288569
746.727 .0288482
747.450 .0288401
748.173 .0288319
748.896 .0288239
749.618 .0288153
750.340 .0288058
751.062 .0287956
751.784 .0287842
752.506 .0287717
753.227 .0287585
753.948 .0287445
754.669 .0287294
755.389 .0287134
756.110 .0286965
756.830 .0286780
757.550 .0286586
758.269 .0286380
758.989 .0286161
759.708 .0285933
760.427 .0285697
761.146 .0285459
761.864 .0285220
762.582 .0284988
763.300 .0284758
764.018 .0284537
764.736 .0284323
765.453 .0284122
766.170 .0283929
766.887 .0283743
767.603 .0283565
768.320 .0283389
769.036 .0283214
769.751 .0283037
770.467 .0282853
771.182 .0282663
771.897 .0282465
772.612 .0282265
773.327 .0282061
774.041 .0281860
774.755 .0281663
775.469 .0281477
776.183 .0281303
776.896 .0281139
777.609 .0280987
778.322 .0280847
779.035 .0280720
779.747 .0280605
780.459 .0280505
781.171 .0280423
781.882 .0280360
782.594 .0280319
783.305 .0280297
784.016 .0280293
784.726 .0280305
785.436 .0280327
786.147 .0280355
786.856 .0280379
787.566 .0280396
788.275 .0280404
788.984 .0280406
789.693 .0280400
790.401 .0280388
791.110 .0280375
791.818 .0280358
792.525 .0280334
793.233 .0280301
793.940 .0280259
794.647 .0280208
795.353 .0280148
796.060 .0280078
796.766 .0280002
797.472 .0279922
798.177 .0279843
798.883 .0279768
799.588 .0279705
800.292 .0279653
800.997 .0279605
801.701 .0279558
802.405 .0279511
803.109 .0279455
803.812 .0279393
804.515 .0279321
805.218 .0279242
805.921 .0279154
806.623 .0279057
807.325 .0278955
808.027 .0278855
808.728 .0278755
809.429 .0278651
810.130 .0278542
810.831 .0278430
811.531 .0278308
812.231 .0278182
812.931 .0278053
813.630 .0277924
814.330 .0277797
815.029 .0277676
815.727 .0277558
816.426 .0277451
817.124 .0277352
817.821 .0277261
818.519 .0277179
819.216 .0277106
819.913 .0277037
820.609 .0276977
821.306 .0276927
822.002 .0276888
822.697 .0276861
823.393 .0276845
824.088 .0276835
824.783 .0276831
825.477 .0276829
826.171 .0276825
826.865 .0276823
827.559 .0276825
828.252 .0276831
828.945 .0276841
829.638 .0276858
830.330 .0276883
831.023 .0276915
831.714 .0276951
832.406 .0276984
833.097 .0277010
833.788 .0277024
834.479 .0277025
835.169 .0277013
835.859 .0276991
836.548 .0276961
837.238 .0276926
837.927 .0276886
838.615 .0276844
839.304 .0276800
839.992 .0276751
840.680 .0276699
841.367 .0276637
842.054 .0276561
842.741 .0276473
843.428 .0276375
844.114 .0276274
844.800 .0276171
845.485 .0276070
846.170 .0275967
846.855 .0275865
847.540 .0275760
848.224 .0275647
848.908 .0275527
849.592 .0275393
850.275 .0275241
850.958 .0275070
851.641 .0274885
852.323 .0274685
853.005 .0274480
853.687 .0274272
854.368 .0274055
855.049 .0273831
855.730 .0273595
856.410 .0273350
857.090 .0273095
857.769 .0272835
858.449 .0272569
859.128 .0272300
859.806 .0272037
860.485 .0271778
861.163 .0271527
861.840 .0271288
862.518 .0271059
863.195 .0270834
863.871 .0270614
864.548 .0270398
865.224 .0270188
865.899 .0269987
866.574 .0269792
867.249 .0269605
867.924 .0269422
868.598 .0269240
869.272 .0269058
869.946 .0268876
870.619 .0268699
871.292 .0268519
871.964 .0268345
872.636 .0268171
873.308 .0268002
873.979 .0267840
874.651 .0267679
875.321 .0267521
875.992 .0267362
876.662 .0267201
877.331 .0267042
878.001 .0266885
878.670 .0266737
879.338 .0266596
880.007 .0266468
880.675 .0266353
881.342 .0266250
882.009 .0266155
882.676 .0266072
883.343 .0265995
884.009 .0265929
884.675 .0265865
885.340 .0265806
886.005 .0265750
886.670 .0265700
887.334 .0265656
887.998 .0265614
888.662 .0265577
889.325 .0265546
889.988 .0265517
890.650 .0265494
891.312 .0265474
891.974 .0265463
892.636 .0265454
893.297 .0265447
893.957 .0265442
894.618 .0265435
895.278 .0265425
895.937 .0265416
896.596 .0265406
897.255 .0265398
897.914 .0265393
898.572 .0265388
899.230 .0265385
899.887 .0265383
900.544 .0265377
901.201 .0265367
901.857 .0265349
902.513 .0265322
903.168 .0265286
903.823 .0265244
904.478 .0265194
905.132 .0265134
905.786 .0265069
906.440 .0264995
907.093 .0264914
907.746 .0264823
908.399 .0264724
909.051 .0264620
909.703 .0264513
910.354 .0264407
911.005 .0264302
911.656 .0264203
912.306 .0264105
912.956 .0264009
913.605 .0263912
914.254 .0263813
914.903 .0263712
915.551 .0263613
916.199 .0263521
916.847 .0263432
917.494 .0263354
918.141 .0263289
918.788 .0263232
919.434 .0263188
920.079 .0263141
920.725 .0263089
921.370 .0263029
922.014 .0262957
922.658 .0262871
923.302 .0262778
923.946 .0262679
924.589 .0262572
925.231 .0262459
925.873 .0262339
926.515 .0262208
927.157 .0262070
927.798 .0261920
928.439 .0261759
929.079 .0261588
929.719 .0261414
930.359 .0261235
930.998 .0261063
931.637 .0260898
932.275 .0260746
932.913 .0260603
933.551 .0260472
934.188 .0260355
934.825 .0260252
935.462 .0260167
936.098 .0260097
936.733 .0260041
937.369 .0260000
938.004 .0259969
938.638 .0259949
939.273 .0259935
939.907 .0259927
940.540 .0259922
941.173 .0259918
941.806 .0259916
942.438 .0259916
943.070 .0259921
943.702 .0259930
944.333 .0259940
944.964 .0259948
945.594 .0259957
946.224 .0259961
946.854 .0259969
947.483 .0259978
948.112 .0259992
948.741 .0260007
949.369 .0260024
949.996 .0260045
950.624 .0260064
951.251 .0260080
951.878 .0260090
952.504 .0260086
953.130 .0260070
953.755 .0260036
954.380 .0259986
955.005 .0259922
955.629 .0259841
956.253 .0259750
956.877 .0259650
957.500 .0259548
958.123 .0259444
958.746 .0259339
959.368 .0259235
959.990 .0259135
960.611 .0259031
961.232 .0258926
961.853 .0258820
962.473 .0258718
963.093 .0258619
963.712 .0258524
964.331 .0258436
964.950 .0258357
965.569 .0258289
966.187 .0258236
966.804 .0258187
967.422 .0258149
968.039 .0258111
968.655 .0258074
969.272 .0258030
969.887 .0257971
970.503 .0257901
971.118 .0257825
971.733 .0257739
972.347 .0257646
972.961 .0257554
973.575 .0257468
974.188 .0257384
974.801 .0257298
975.414 .0257203
976.026 .0257096
976.638 .0256972
977.250 .0256832
977.861 .0256671
978.472 .0256500
979.083 .0256317
979.693 .0256126
980.303 .0255932
980.912 .0255737
981.521 .0255539
982.130 .0255338
982.738 .0255135
983.346 .0254924
983.954 .0254699
984.562 .0254466
985.169 .0254230
985.775 .0253991
986.382 .0253752
986.988 .0253512
987.594 .0253277
988.199 .0253051
988.804 .0252829
989.409 .0252614
990.013 .0252409
990.617 .0252210
991.221 .0252017
991.824 .0251832
992.427 .0251661
993.030 .0251506
993.632 .0251373
994.234 .0251262
994.836 .0251172
995.438 .0251100
996.039 .0251046
996.640 .0251001
997.240 .0250969
997.840 .0250940
998.440 .0250908
999.040 .0250877
999.639 .0250842
1000.238 .0250805
1000.836 .0250767
1001.435 .0250727
1002.033 .0250686
1002.630 .0250640
1003.228 .0250594
1003.825 .0250541
1004.422 .0250493
1005.018 .0250449
1005.614 .0250407
1006.210 .0250373
1006.806 .0250343
1007.401 .0250317
1007.996 .0250292
1008.591 .0250274
1009.186 .0250255
1009.780 .0250239
1010.374 .0250226
1010.967 .0250219
1011.561 .0250221
1012.154 .0250231
1012.746 .0250250
1013.339 .0250266
1013.931 .0250276
1014.523 .0250279
1015.115 .0250268
1015.706 .0250252
1016.298 .0250229
1016.888 .0250210
1017.479 .0250196
1018.069 .0250193
1018.660 .0250198
1019.250 .0250208
1019.839 .0250229
1020.429 .0250252
1021.018 .0250267
1021.607 .0250276
1022.195 .0250274
1022.784 .0250264
1023.372 .0250245
1023.960 .0250225
1024.547 .0250209
1025.135 .0250200
1025.722 .0250197
1026.309 .0250203
1026.896 .0250223
1027.483 .0250253
1028.069 .0250286
1028.655 .0250325
1029.241 .0250375
1029.827 .0250429
1030.412 .0250493
1030.997 .0250576
1031.582 .0250675
1032.167 .0250797
1032.752 .0250938
1033.336 .0251101
1033.921 .0251280
1034.505 .0251463
1035.089 .0251637
1035.672 .0251793
1036.256 .0251936
1036.839 .0252046
1037.422 .0252128
1038.005 .0252202
1038.588 .0252269
1039.171 .0252325
1039.753 .0252376
1040.335 .0252429
1040.918 .0252471
1041.500 .0252500
1042.081 .0252503
1042.663 .0252486
1043.244 .0252461
1043.826 .0252436
1044.407 .0252408
1044.988 .0252401
1045.569 .0252414
1046.150 .0252433
1046.730 .0252466
1047.311 .0252502
1047.891 .0252532
1048.471 .0252566
1049.052 .0252606
1049.632 .0252649
1050.211 .0252707
1050.791 .0252789
1051.371 .0252886
1051.950 .0253004
1052.530 .0253130
1053.109 .0253239
1053.688 .0253325
1054.268 .0253387
1054.847 .0253414
1055.426 .0253411
1056.005 .0253394
1056.583 .0253368
1057.162 .0253360
1057.741 .0253368
1058.319 .0253386
1058.898 .0253420
1059.476 .0253463
1060.055 .0253506
1060.633 .0253531
1061.211 .0253550
1061.790 .0253564
1062.368 .0253588
1062.946 .0253626
1063.524 .0253683
1064.102 .0253776
1064.680 .0253900
1065.258 .0254047
1065.836 .0254208
1066.414 .0254369
1066.992 .0254508
1067.570 .0254633
1068.148 .0254730
1068.726 .0254790
1069.304 .0254833
1069.882 .0254861
1070.460 .0254888
1071.038 .0254923
1071.616 .0254960
1072.194 .0255005
1072.772 .0255057
1073.350 .0255113
1073.928 .0255146
1074.506 .0255173
1075.084 .0255187
1075.662 .0255183
1076.240 .0255190
1076.819 .0255200
1077.397 .0255211
1077.976 .0255242
1078.554 .0255293
1079.133 .0255363
1079.711 .0255440
1080.290 .0255526
1080.869 .0255607
1081.448 .0255688
1082.027 .0255751
1082.606 .0255787
1083.185 .0255820
1083.764 .0255864
1084.343 .0255906
1084.923 .0255961
1085.502 .0256055
1086.082 .0256180
1086.662 .0256335
1087.242 .0256531
1087.822 .0256737
1088.402 .0256954
1088.983 .0257168
1089.563 .0257376
1090.144 .0257565
1090.725 .0257754
1091.306 .0257935
1091.887 .0258116
1092.469 .0258330
1093.050 .0258556
1093.632 .0258779
1094.214 .0259017
1094.796 .0259268
1095.379 .0259502
1095.961 .0259727
1096.544 .0259948
1097.127 .0260142
1097.710 .0260315
1098.294 .0260472
1098.877 .0260609
1099.461 .0260741
1100.046 .0260874
1100.630 .0261005
1101.215 .0261134
1101.800 .0261281
1102.385 .0261417
1102.970 .0261552
1103.556 .0261698
1104.142 .0261845
1104.728 .0261978
1105.315 .0262124
1105.902 .0262273
1106.489 .0262448
1107.077 .0262657
1107.664 .0262915
1108.253 .0263222
1108.841 .0263582
1109.430 .0263991
1110.019 .0264429
1110.609 .0264882
1111.198 .0265341
1111.789 .0265778
1112.379 .0266194
1112.970 .0266551
1113.561 .0266869
1114.153 .0267150
1114.745 .0267413
1115.338 .0267661
1115.931 .0267907
1116.524 .0268154
1117.117 .0268424
1117.712 .0268718
1118.306 .0269000
1118.901 .0269275
1119.496 .0269538
1120.092 .0269781
1120.689 .0270021
1121.285 .0270263
1121.882 .0270540
1122.480 .0270884
1123.078 .0271349
1123.677 .0271938
1124.276 .0272653
1124.875 .0273501
1125.476 .0274410
1126.076 .0275356
1126.677 .0276314
1127.279 .0277201
1127.881 .0278030
1128.484 .0278799
1129.087 .0279509
1129.691 .0280169
1130.295 .0280831
1130.900 .0281483
1131.505 .0282176
1132.111 .0282914
1132.718 .0283684
1133.325 .0284452
1133.933 .0285266
1134.541 .0286086
1135.150 .0286902
1135.760 .0287765
1136.370 .0288678
1136.981 .0289623
1137.592 .0290676
1138.204 .0291804
1138.817 .0293046
1139.431 .0294417
1140.045 .0295954
1140.660 .0297677
1141.275 .0299501
1141.891 .0301572
1142.508 .0303315
1143.126 .0305888
1143.744 .0309071
1144.363 .0309376
1144.983 .0315045
