Measurement Sequence started on: 15-12-46-377
Integration time: 28
Scans to Average: 2 
>>>>>Begin Spectral Data<<<<<
432.689 .0000100
433.621 .0000100
434.552 .0000100
435.482 .0000100
436.410 .0000100
437.337 .0000100
438.262 .0292471
439.187 .0616929
440.110 .1020766
441.031 .1475193
441.952 .1915596
442.871 .2260594
443.789 .2447314
444.705 .2454463
445.621 .2309308
446.535 .2070440
447.447 .1801324
448.359 .1390781
449.269 .1189323
450.178 .1061361
451.086 .0971472
451.993 .0902745
452.898 .0848730
453.803 .0804666
454.706 .0768300
455.608 .0737312
456.508 .0710577
457.408 .0687389
458.306 .0666941
459.204 .0648766
460.100 .0632524
460.995 .0617855
461.888 .0604517
462.781 .0592304
463.673 .0581133
464.563 .0570862
465.452 .0561418
466.340 .0552613
467.228 .0544596
468.114 .0537223
468.999 .0530556
469.882 .0524486
470.765 .0519113
471.647 .0514304
472.528 .0509991
473.407 .0506066
474.286 .0502454
475.163 .0499078
476.040 .0495956
476.915 .0493118
477.790 .0490585
478.663 .0488307
479.535 .0486344
480.407 .0484746
481.277 .0483505
482.147 .0482557
483.015 .0481898
483.883 .0481437
484.749 .0481082
485.615 .0480786
486.479 .0480521
487.343 .0480324
488.206 .0480323
489.067 .0480463
489.928 .0480806
490.788 .0481419
491.647 .0482272
492.505 .0483307
493.362 .0484581
494.218 .0486028
495.073 .0487543
495.928 .0489244
496.781 .0491041
497.634 .0493046
498.486 .0495325
499.337 .0497946
500.187 .0500818
501.036 .0504010
501.884 .0507455
502.731 .0511046
503.578 .0514905
504.424 .0519034
505.268 .0523390
506.113 .0528067
506.956 .0533085
507.798 .0538450
508.640 .0544203
509.480 .0550514
510.320 .0557268
511.160 .0564718
511.998 .0572804
512.836 .0581744
513.672 .0591690
514.508 .0603021
515.344 .0615800
516.178 .0630624
517.012 .0647706
517.845 .0667253
518.677 .0689747
519.508 .0715049
520.339 .0743552
521.169 .0775911
521.998 .0812705
522.826 .0854295
523.654 .0901162
524.481 .0953996
525.307 .1013189
526.133 .1078623
526.958 .1149279
527.782 .1224262
528.605 .1301049
529.428 .1378526
530.250 .1450588
531.072 .1514791
531.892 .1568034
532.712 .1607425
533.532 .1631380
534.350 .1637794
535.168 .1626551
535.986 .1598656
536.802 .1555198
537.618 .1499328
538.434 .1432038
539.249 .1358866
540.063 .1281643
540.876 .1203922
541.689 .1128333
542.501 .1057317
543.313 .0992667
544.124 .0935060
544.934 .0883861
545.744 .0838406
546.553 .0797734
547.361 .0761626
548.169 .0729756
548.976 .0701301
549.783 .0675842
550.589 .0653442
551.395 .0633331
552.200 .0615698
553.004 .0599965
553.808 .0585725
554.611 .0572732
555.414 .0561010
556.216 .0550142
557.018 .0540052
557.819 .0530793
558.619 .0522345
559.419 .0514446
560.218 .0507145
561.017 .0500154
561.815 .0493335
562.613 .0486608
563.410 .0479832
564.207 .0472843
565.003 .0465738
565.799 .0458547
566.594 .0451348
567.388 .0444425
568.182 .0437823
568.976 .0431601
569.769 .0425822
570.562 .0420496
571.354 .0415502
572.145 .0410731
572.936 .0406169
573.727 .0401712
574.517 .0397364
575.307 .0393178
576.096 .0389154
576.885 .0385399
577.673 .0381904
578.461 .0378731
579.248 .0375812
580.035 .0373155
580.821 .0370669
581.607 .0368357
582.392 .0366162
583.177 .0364070
583.962 .0362060
584.746 .0360178
585.529 .0358391
586.313 .0356748
587.095 .0355207
587.878 .0353788
588.660 .0352492
589.441 .0351301
590.222 .0350190
591.003 .0349199
591.783 .0348284
592.563 .0347460
593.342 .0346708
594.121 .0346035
594.899 .0345403
595.678 .0344801
596.455 .0344208
597.233 .0343620
598.009 .0343019
598.786 .0342425
599.562 .0341824
600.338 .0341229
601.113 .0340646
601.888 .0340065
602.663 .0339482
603.437 .0338908
604.211 .0338329
604.984 .0337760
605.757 .0337186
606.530 .0336617
607.302 .0336041
608.074 .0335468
608.845 .0334901
609.616 .0334333
610.387 .0333772
611.158 .0333222
611.928 .0332675
612.697 .0332138
613.467 .0331620
614.236 .0331118
615.004 .0330635
615.773 .0330184
616.541 .0329758
617.308 .0329357
618.076 .0328979
618.843 .0328623
619.609 .0328288
620.375 .0327973
621.141 .0327677
621.907 .0327396
622.672 .0327138
623.437 .0326896
624.202 .0326662
624.966 .0326440
625.730 .0326220
626.493 .0325993
627.257 .0325759
628.020 .0325512
628.782 .0325250
629.545 .0324977
630.307 .0324693
631.068 .0324400
631.830 .0324099
632.591 .0323791
633.352 .0323480
634.112 .0323163
634.872 .0322843
635.632 .0322527
636.392 .0322216
637.151 .0321923
637.910 .0321648
638.668 .0321402
639.427 .0321182
640.185 .0320991
640.943 .0320823
641.700 .0320673
642.457 .0320534
643.214 .0320406
643.971 .0320277
644.727 .0320156
645.483 .0320027
646.239 .0319895
646.994 .0319758
647.750 .0319621
648.505 .0319484
649.259 .0319354
650.014 .0319227
650.768 .0319105
651.521 .0318978
652.275 .0318848
653.028 .0318699
653.781 .0318525
654.534 .0318322
655.286 .0318086
656.039 .0317819
656.791 .0317532
657.542 .0317229
658.294 .0316924
659.045 .0316628
659.796 .0316340
660.546 .0316056
661.297 .0315767
662.047 .0315471
662.796 .0315155
663.546 .0314821
664.295 .0314475
665.044 .0314120
665.793 .0313775
666.542 .0313454
667.290 .0313160
668.038 .0312900
668.786 .0312662
669.533 .0312439
670.281 .0312211
671.028 .0311974
671.774 .0311709
672.521 .0311426
673.267 .0311126
674.013 .0310814
674.759 .0310496
675.505 .0310184
676.250 .0309873
676.995 .0309566
677.740 .0309258
678.484 .0308938
679.229 .0308608
679.973 .0308269
680.717 .0307918
681.460 .0307566
682.204 .0307213
682.947 .0306868
683.690 .0306537
684.433 .0306222
685.175 .0305914
685.917 .0305618
686.659 .0305341
687.401 .0305075
688.142 .0304816
688.884 .0304568
689.625 .0304329
690.365 .0304092
691.106 .0303854
691.846 .0303614
692.586 .0303369
693.326 .0303118
694.066 .0302861
694.805 .0302600
695.545 .0302338
696.284 .0302081
697.022 .0301823
697.761 .0301568
698.499 .0301317
699.237 .0301062
699.975 .0300806
700.713 .0300557
701.450 .0300316
702.187 .0300083
702.924 .0299865
703.661 .0299670
704.397 .0299494
705.133 .0299335
705.869 .0299192
706.605 .0299061
707.341 .0298937
708.076 .0298818
708.811 .0298700
709.546 .0298585
710.281 .0298476
711.015 .0298369
711.749 .0298263
712.483 .0298157
713.217 .0298047
713.950 .0297927
714.684 .0297795
715.417 .0297653
716.150 .0297499
716.882 .0297336
717.615 .0297170
718.347 .0297005
719.079 .0296845
719.811 .0296690
720.542 .0296541
721.273 .0296398
722.005 .0296259
722.735 .0296125
723.466 .0295999
724.196 .0295885
724.927 .0295780
725.656 .0295684
726.386 .0295600
727.116 .0295526
727.845 .0295464
728.574 .0295409
729.303 .0295358
730.031 .0295309
730.760 .0295261
731.488 .0295208
732.216 .0295155
732.944 .0295100
733.671 .0295042
734.398 .0294984
735.125 .0294925
735.852 .0294863
736.579 .0294799
737.305 .0294736
738.031 .0294679
738.757 .0294623
739.483 .0294571
740.208 .0294518
740.933 .0294467
741.658 .0294417
742.383 .0294364
743.108 .0294304
743.832 .0294240
744.556 .0294169
745.280 .0294089
746.004 .0293999
746.727 .0293907
747.450 .0293810
748.173 .0293706
748.896 .0293598
749.618 .0293478
750.340 .0293345
751.062 .0293207
751.784 .0293056
752.506 .0292889
753.227 .0292709
753.948 .0292515
754.669 .0292307
755.389 .0292093
756.110 .0291874
756.830 .0291653
757.550 .0291438
758.269 .0291229
758.989 .0291024
759.708 .0290823
760.427 .0290628
761.146 .0290428
761.864 .0290227
762.582 .0290017
763.300 .0289795
764.018 .0289567
764.736 .0289335
765.453 .0289104
766.170 .0288876
766.887 .0288650
767.603 .0288430
768.320 .0288211
769.036 .0287992
769.751 .0287768
770.467 .0287542
771.182 .0287312
771.897 .0287078
772.612 .0286843
773.327 .0286610
774.041 .0286384
774.755 .0286168
775.469 .0285958
776.183 .0285758
776.896 .0285567
777.609 .0285381
778.322 .0285198
779.035 .0285021
779.747 .0284852
780.459 .0284693
781.171 .0284544
781.882 .0284405
782.594 .0284273
783.305 .0284147
784.016 .0284023
784.726 .0283900
785.436 .0283775
786.147 .0283646
786.856 .0283508
787.566 .0283365
788.275 .0283218
788.984 .0283069
789.693 .0282918
790.401 .0282771
791.110 .0282625
791.818 .0282476
792.525 .0282324
793.233 .0282171
793.940 .0282018
794.647 .0281864
795.353 .0281708
796.060 .0281550
796.766 .0281390
797.472 .0281225
798.177 .0281059
798.883 .0280890
799.588 .0280725
800.292 .0280564
800.997 .0280411
801.701 .0280270
802.405 .0280138
803.109 .0280019
803.812 .0279912
804.515 .0279811
805.218 .0279707
805.921 .0279595
806.623 .0279475
807.325 .0279344
808.027 .0279211
808.728 .0279074
809.429 .0278939
810.130 .0278811
810.831 .0278694
811.531 .0278581
812.231 .0278472
812.931 .0278360
813.630 .0278241
814.330 .0278114
815.029 .0277980
815.727 .0277839
816.426 .0277697
817.124 .0277568
817.821 .0277458
818.519 .0277365
819.216 .0277300
819.913 .0277257
820.609 .0277234
821.306 .0277225
822.002 .0277228
822.697 .0277239
823.393 .0277264
824.088 .0277302
824.783 .0277351
825.477 .0277411
826.171 .0277483
826.865 .0277565
827.559 .0277653
828.252 .0277747
828.945 .0277836
829.638 .0277924
830.330 .0278012
831.023 .0278098
831.714 .0278188
832.406 .0278283
833.097 .0278384
833.788 .0278486
834.479 .0278585
835.169 .0278678
835.859 .0278765
836.548 .0278844
837.238 .0278914
837.927 .0278979
838.615 .0279040
839.304 .0279103
839.992 .0279171
840.680 .0279243
841.367 .0279319
842.054 .0279393
842.741 .0279460
843.428 .0279514
844.114 .0279559
844.800 .0279593
845.485 .0279620
846.170 .0279644
846.855 .0279662
847.540 .0279674
848.224 .0279681
848.908 .0279682
849.592 .0279671
850.275 .0279648
850.958 .0279604
851.641 .0279544
852.323 .0279467
853.005 .0279377
853.687 .0279277
854.368 .0279168
855.049 .0279056
855.730 .0278932
856.410 .0278795
857.090 .0278649
857.769 .0278486
858.449 .0278309
859.128 .0278119
859.806 .0277918
860.485 .0277712
861.163 .0277505
861.840 .0277303
862.518 .0277104
863.195 .0276909
863.871 .0276717
864.548 .0276523
865.224 .0276323
865.899 .0276121
866.574 .0275912
867.249 .0275704
867.924 .0275492
868.598 .0275281
869.272 .0275076
869.946 .0274881
870.619 .0274695
871.292 .0274522
871.964 .0274356
872.636 .0274202
873.308 .0274049
873.979 .0273900
874.651 .0273750
875.321 .0273599
875.992 .0273442
876.662 .0273279
877.331 .0273115
878.001 .0272948
878.670 .0272774
879.338 .0272600
880.007 .0272425
880.675 .0272249
881.342 .0272071
882.009 .0271894
882.676 .0271718
883.343 .0271545
884.009 .0271376
884.675 .0271210
885.340 .0271050
886.005 .0270895
886.670 .0270742
887.334 .0270594
887.998 .0270453
888.662 .0270314
889.325 .0270186
889.988 .0270068
890.650 .0269963
891.312 .0269867
891.974 .0269780
892.636 .0269702
893.297 .0269626
893.957 .0269548
894.618 .0269459
895.278 .0269355
895.937 .0269246
896.596 .0269123
897.255 .0268997
897.914 .0268870
898.572 .0268743
899.230 .0268617
899.887 .0268486
900.544 .0268344
901.201 .0268188
901.857 .0268013
902.513 .0267818
903.168 .0267600
903.823 .0267364
904.478 .0267112
905.132 .0266847
905.786 .0266577
906.440 .0266303
907.093 .0266018
907.746 .0265726
908.399 .0265416
909.051 .0265093
909.703 .0264755
910.354 .0264407
911.005 .0264055
911.656 .0263704
912.306 .0263361
912.956 .0263029
913.605 .0262707
914.254 .0262404
914.903 .0262106
915.551 .0261819
916.199 .0261542
916.847 .0261273
917.494 .0261012
918.141 .0260764
918.788 .0260530
919.434 .0260313
920.079 .0260107
920.725 .0259910
921.370 .0259719
922.014 .0259534
922.658 .0259349
923.302 .0259158
923.946 .0258965
924.589 .0258772
925.231 .0258571
925.873 .0258367
926.515 .0258157
927.157 .0257945
927.798 .0257728
928.439 .0257505
929.079 .0257276
929.719 .0257042
930.359 .0256804
930.998 .0256566
931.637 .0256330
932.275 .0256105
932.913 .0255887
933.551 .0255680
934.188 .0255486
934.825 .0255302
935.462 .0255130
936.098 .0254969
936.733 .0254820
937.369 .0254688
938.004 .0254571
938.638 .0254469
939.273 .0254384
939.907 .0254317
940.540 .0254269
941.173 .0254236
941.806 .0254218
942.438 .0254214
943.070 .0254220
943.702 .0254234
944.333 .0254253
944.964 .0254277
945.594 .0254309
946.224 .0254345
946.854 .0254391
947.483 .0254443
948.112 .0254508
948.741 .0254580
949.369 .0254653
949.996 .0254728
950.624 .0254801
951.251 .0254866
951.878 .0254924
952.504 .0254976
953.130 .0255027
953.755 .0255076
954.380 .0255131
955.005 .0255189
955.629 .0255256
956.253 .0255327
956.877 .0255405
957.500 .0255487
958.123 .0255574
958.746 .0255661
959.368 .0255744
959.990 .0255827
960.611 .0255903
961.232 .0255978
961.853 .0256055
962.473 .0256137
963.093 .0256219
963.712 .0256301
964.331 .0256381
964.950 .0256459
965.569 .0256534
966.187 .0256603
966.804 .0256666
967.422 .0256729
968.039 .0256788
968.655 .0256844
969.272 .0256899
969.887 .0256961
970.503 .0257027
971.118 .0257099
971.733 .0257174
972.347 .0257254
972.961 .0257341
973.575 .0257436
974.188 .0257538
974.801 .0257643
975.414 .0257750
976.026 .0257857
976.638 .0257960
977.250 .0258055
977.861 .0258142
978.472 .0258222
979.083 .0258295
979.693 .0258350
980.303 .0258390
980.912 .0258414
981.521 .0258432
982.130 .0258439
982.738 .0258434
983.346 .0258421
983.954 .0258403
984.562 .0258376
985.169 .0258342
985.775 .0258299
986.382 .0258254
986.988 .0258205
987.594 .0258155
988.199 .0258104
988.804 .0258059
989.409 .0258023
990.013 .0258000
990.617 .0257996
991.221 .0258007
991.824 .0258034
992.427 .0258073
993.030 .0258123
993.632 .0258179
994.234 .0258237
994.836 .0258293
995.438 .0258349
996.039 .0258404
996.640 .0258454
997.240 .0258507
997.840 .0258565
998.440 .0258629
999.040 .0258700
999.639 .0258773
1000.238 .0258841
1000.836 .0258902
1001.435 .0258947
1002.033 .0258971
1002.630 .0258977
1003.228 .0258968
1003.825 .0258947
1004.422 .0258923
1005.018 .0258907
1005.614 .0258902
1006.210 .0258906
1006.806 .0258922
1007.401 .0258941
1007.996 .0258957
1008.591 .0258969
1009.186 .0258967
1009.780 .0258956
1010.374 .0258934
1010.967 .0258905
1011.561 .0258872
1012.154 .0258841
1012.746 .0258819
1013.339 .0258802
1013.931 .0258792
1014.523 .0258796
1015.115 .0258797
1015.706 .0258801
1016.298 .0258802
1016.888 .0258803
1017.479 .0258803
1018.069 .0258797
1018.660 .0258780
1019.250 .0258760
1019.839 .0258735
1020.429 .0258711
1021.018 .0258680
1021.607 .0258656
1022.195 .0258632
1022.784 .0258603
1023.372 .0258571
1023.960 .0258537
1024.547 .0258495
1025.135 .0258451
1025.722 .0258398
1026.309 .0258350
1026.896 .0258301
1027.483 .0258257
1028.069 .0258225
1028.655 .0258214
1029.241 .0258210
1029.827 .0258215
1030.412 .0258223
1030.997 .0258235
1031.582 .0258244
1032.167 .0258248
1032.752 .0258247
1033.336 .0258244
1033.921 .0258237
1034.505 .0258218
1035.089 .0258190
1035.672 .0258160
1036.256 .0258120
1036.839 .0258073
1037.422 .0258020
1038.005 .0257960
1038.588 .0257891
1039.171 .0257823
1039.753 .0257753
1040.335 .0257680
1040.918 .0257608
1041.500 .0257527
1042.081 .0257437
1042.663 .0257332
1043.244 .0257218
1043.826 .0257089
1044.407 .0256946
1044.988 .0256789
1045.569 .0256611
1046.150 .0256409
1046.730 .0256183
1047.311 .0255933
1047.891 .0255659
1048.471 .0255366
1049.052 .0255060
1049.632 .0254750
1050.211 .0254461
1050.791 .0254188
1051.371 .0253943
1051.950 .0253735
1052.530 .0253568
1053.109 .0253426
1053.688 .0253298
1054.268 .0253199
1054.847 .0253115
1055.426 .0253043
1056.005 .0252985
1056.583 .0252934
1057.162 .0252889
1057.741 .0252849
1058.319 .0252809
1058.898 .0252769
1059.476 .0252723
1060.055 .0252666
1060.633 .0252582
1061.211 .0252475
1061.790 .0252338
1062.368 .0252170
1062.946 .0251975
1063.524 .0251773
1064.102 .0251551
1064.680 .0251323
1065.258 .0251101
1065.836 .0250890
1066.414 .0250707
1066.992 .0250551
1067.570 .0250425
1068.148 .0250320
1068.726 .0250229
1069.304 .0250154
1069.882 .0250073
1070.460 .0249999
1071.038 .0249916
1071.616 .0249825
1072.194 .0249729
1072.772 .0249625
1073.350 .0249528
1073.928 .0249437
1074.506 .0249371
1075.084 .0249322
1075.662 .0249279
1076.240 .0249237
1076.819 .0249177
1077.397 .0249108
1077.976 .0249019
1078.554 .0248906
1079.133 .0248769
1079.711 .0248613
1080.290 .0248460
1080.869 .0248307
1081.448 .0248173
1082.027 .0248054
1082.606 .0247961
1083.185 .0247895
1083.764 .0247848
1084.343 .0247815
1084.923 .0247797
1085.502 .0247787
1086.082 .0247772
1086.662 .0247756
1087.242 .0247722
1087.822 .0247683
1088.402 .0247643
1088.983 .0247606
1089.563 .0247582
1090.144 .0247581
1090.725 .0247625
1091.306 .0247702
1091.887 .0247812
1092.469 .0247946
1093.050 .0248078
1093.632 .0248187
1094.214 .0248258
1094.796 .0248280
1095.379 .0248262
1095.961 .0248230
1096.544 .0248205
1097.127 .0248203
1097.710 .0248236
1098.294 .0248311
1098.877 .0248411
1099.461 .0248533
1100.046 .0248641
1100.630 .0248720
1101.215 .0248772
1101.800 .0248810
1102.385 .0248836
1102.970 .0248869
1103.556 .0248935
1104.142 .0249028
1104.728 .0249148
1105.315 .0249293
1105.902 .0249447
1106.489 .0249615
1107.077 .0249781
1107.664 .0249966
1108.253 .0250152
1108.841 .0250358
1109.430 .0250560
1110.019 .0250764
1110.609 .0250970
1111.198 .0251150
1111.789 .0251302
1112.379 .0251440
1112.970 .0251588
1113.561 .0251771
1114.153 .0251996
1114.745 .0252284
1115.338 .0252638
1115.931 .0253046
1116.524 .0253480
1117.117 .0253929
1117.712 .0254379
1118.306 .0254842
1118.901 .0255323
1119.496 .0255846
1120.092 .0256431
1120.689 .0257096
1121.285 .0257855
1121.882 .0258680
1122.480 .0259573
1123.078 .0260481
1123.677 .0261376
1124.276 .0262265
1124.875 .0263138
1125.476 .0263985
1126.076 .0264823
1126.677 .0265694
1127.279 .0266574
1127.881 .0267458
1128.484 .0268356
1129.087 .0269251
1129.691 .0270158
1130.295 .0271077
1130.900 .0271988
1131.505 .0272925
1132.111 .0273896
1132.718 .0274854
1133.325 .0275784
1133.933 .0276666
1134.541 .0277491
1135.150 .0278268
1135.760 .0279046
1136.370 .0279867
1136.981 .0280777
1137.592 .0281832
1138.204 .0283032
1138.817 .0284383
1139.431 .0285857
1140.045 .0287420
1140.660 .0289174
1141.275 .0291329
1141.891 .0293640
1142.508 .0293556
1143.126 .0296094
1143.744 .0300962
1144.363 .0311157
1144.983 .0308844
