Measurement Sequence started on: 15-12-46-377
Integration time: 28
Scans to Average: 2 
>>>>>Begin Spectral Data<<<<<
432.689 .0000100
433.621 .0000100
434.552 .0000100
435.482 .0000100
436.410 .0000100
437.337 .0000100
438.262 .0257652
439.187 .0544092
440.110 .0900927
441.031 .1303277
441.952 .1693372
442.871 .2000219
443.789 .2168129
444.705 .2177877
445.621 .2053503
446.535 .1846140
447.447 .1611544
448.359 .1251860
449.269 .1075328
450.178 .0963089
451.086 .0883851
451.993 .0823498
452.898 .0775679
453.803 .0736708
454.706 .0704814
455.608 .0677709
456.508 .0654710
457.408 .0634981
458.306 .0617500
459.204 .0601912
460.100 .0587759
460.995 .0574776
461.888 .0562838
462.781 .0551778
463.673 .0541587
464.563 .0532228
465.452 .0523602
466.340 .0515414
467.228 .0507828
468.114 .0500723
468.999 .0494114
469.882 .0487861
470.765 .0482061
471.647 .0476645
472.528 .0471620
473.407 .0467079
474.286 .0462995
475.163 .0459330
476.040 .0456100
476.915 .0453289
477.790 .0450824
478.663 .0448700
479.535 .0446835
480.407 .0445207
481.277 .0443808
482.147 .0442552
483.015 .0441397
483.883 .0440314
484.749 .0439353
485.615 .0438471
486.479 .0437660
487.343 .0437035
488.206 .0436515
489.067 .0436168
489.928 .0435995
490.788 .0435989
491.647 .0436092
492.505 .0436384
493.362 .0436846
494.218 .0437535
495.073 .0438453
495.928 .0439692
496.781 .0441178
497.634 .0443008
498.486 .0445177
499.337 .0447620
500.187 .0450347
501.036 .0453353
501.884 .0456545
502.731 .0459951
503.578 .0463538
504.424 .0467352
505.268 .0471308
506.113 .0475464
506.956 .0479738
507.798 .0484232
508.640 .0489029
509.480 .0494345
510.320 .0500354
511.160 .0507286
511.998 .0515241
512.836 .0524374
513.672 .0534821
514.508 .0546534
515.344 .0559464
516.178 .0573793
517.012 .0589653
517.845 .0607465
518.677 .0627462
519.508 .0649861
520.339 .0675430
521.169 .0704712
521.998 .0737794
522.826 .0775100
523.654 .0816584
524.481 .0862576
525.307 .0913472
526.133 .0969002
526.958 .1028860
527.782 .1092790
528.605 .1160336
529.428 .1230333
530.250 .1298106
531.072 .1361354
531.892 .1416072
532.712 .1459944
533.532 .1490579
534.350 .1505342
535.168 .1503504
535.986 .1485357
536.802 .1452124
537.618 .1405785
538.434 .1348122
539.249 .1283855
540.063 .1215051
540.876 .1144942
541.689 .1075572
542.501 .1009301
543.313 .0948451
544.124 .0893657
544.934 .0844641
545.744 .0800483
546.553 .0760513
547.361 .0724916
548.169 .0693218
548.976 .0664610
549.783 .0639097
550.589 .0616269
551.395 .0595739
552.200 .0577307
553.004 .0560798
553.808 .0545862
554.611 .0532567
555.414 .0520828
556.216 .0510313
557.018 .0500931
557.819 .0492575
558.619 .0484833
559.419 .0477776
560.218 .0471245
561.017 .0465106
561.815 .0459227
562.613 .0453662
563.410 .0448314
564.207 .0443158
565.003 .0438187
565.799 .0433237
566.594 .0428238
567.388 .0423276
568.182 .0418204
568.976 .0413010
569.769 .0407745
570.562 .0402493
571.354 .0397262
572.145 .0392156
572.936 .0387177
573.727 .0382355
574.517 .0377750
575.307 .0373324
576.096 .0369059
576.885 .0364964
577.673 .0361075
578.461 .0357408
579.248 .0353971
580.035 .0350737
580.821 .0347712
581.607 .0344890
582.392 .0342259
583.177 .0339773
583.962 .0337443
584.746 .0335282
585.529 .0333276
586.313 .0331425
587.095 .0329756
587.878 .0328242
588.660 .0326901
589.441 .0325692
590.222 .0324588
591.003 .0323582
591.783 .0322628
592.563 .0321716
593.342 .0320848
594.121 .0320032
594.899 .0319273
595.678 .0318558
596.455 .0317917
597.233 .0317332
598.009 .0316795
598.786 .0316314
599.562 .0315851
600.338 .0315407
601.113 .0314968
601.888 .0314522
602.663 .0314076
603.437 .0313644
604.211 .0313231
604.984 .0312841
605.757 .0312483
606.530 .0312157
607.302 .0311852
608.074 .0311571
608.845 .0311314
609.616 .0311069
610.387 .0310846
611.158 .0310638
611.928 .0310440
612.697 .0310267
613.467 .0310117
614.236 .0309983
615.004 .0309869
615.773 .0309769
616.541 .0309680
617.308 .0309597
618.076 .0309525
618.843 .0309456
619.609 .0309396
620.375 .0309338
621.141 .0309280
621.907 .0309216
622.672 .0309149
623.437 .0309061
624.202 .0308958
624.966 .0308836
625.730 .0308695
626.493 .0308531
627.257 .0308357
628.020 .0308167
628.782 .0307970
629.545 .0307754
630.307 .0307521
631.068 .0307267
631.830 .0306996
632.591 .0306700
633.352 .0306392
634.112 .0306071
634.872 .0305749
635.632 .0305420
636.392 .0305101
637.151 .0304782
637.910 .0304479
638.668 .0304176
639.427 .0303867
640.185 .0303552
640.943 .0303231
641.700 .0302904
642.457 .0302580
643.214 .0302262
643.971 .0301961
644.727 .0301680
645.483 .0301426
646.239 .0301188
646.994 .0300972
647.750 .0300765
648.505 .0300564
649.259 .0300356
650.014 .0300142
650.768 .0299913
651.521 .0299679
652.275 .0299442
653.028 .0299195
653.781 .0298945
654.534 .0298696
655.286 .0298444
656.039 .0298193
656.791 .0297933
657.542 .0297673
658.294 .0297412
659.045 .0297156
659.796 .0296895
660.546 .0296632
661.297 .0296375
662.047 .0296122
662.796 .0295873
663.546 .0295635
664.295 .0295405
665.044 .0295188
665.793 .0294984
666.542 .0294788
667.290 .0294601
668.038 .0294421
668.786 .0294239
669.533 .0294057
670.281 .0293871
671.028 .0293678
671.774 .0293484
672.521 .0293294
673.267 .0293112
674.013 .0292940
674.759 .0292782
675.505 .0292639
676.250 .0292501
676.995 .0292375
677.740 .0292254
678.484 .0292134
679.229 .0292026
679.973 .0291922
680.717 .0291827
681.460 .0291741
682.204 .0291664
682.947 .0291589
683.690 .0291517
684.433 .0291441
685.175 .0291354
685.917 .0291264
686.659 .0291173
687.401 .0291082
688.142 .0290997
688.884 .0290923
689.625 .0290857
690.365 .0290791
691.106 .0290727
691.846 .0290654
692.586 .0290574
693.326 .0290483
694.066 .0290389
694.805 .0290291
695.545 .0290191
696.284 .0290094
697.022 .0289994
697.761 .0289895
698.499 .0289790
699.237 .0289674
699.975 .0289552
700.713 .0289418
701.450 .0289278
702.187 .0289129
702.924 .0288983
703.661 .0288837
704.397 .0288690
705.133 .0288539
705.869 .0288382
706.605 .0288221
707.341 .0288055
708.076 .0287888
708.811 .0287721
709.546 .0287555
710.281 .0287389
711.015 .0287222
711.749 .0287045
712.483 .0286853
713.217 .0286648
713.950 .0286424
714.684 .0286189
715.417 .0285945
716.150 .0285702
716.882 .0285466
717.615 .0285242
718.347 .0285025
719.079 .0284811
719.811 .0284598
720.542 .0284379
721.273 .0284150
722.005 .0283913
722.735 .0283669
723.466 .0283420
724.196 .0283176
724.927 .0282929
725.656 .0282687
726.386 .0282449
727.116 .0282211
727.845 .0281974
728.574 .0281732
729.303 .0281491
730.031 .0281251
730.760 .0281015
731.488 .0280785
732.216 .0280568
732.944 .0280366
733.671 .0280177
734.398 .0280005
735.125 .0279848
735.852 .0279704
736.579 .0279573
737.305 .0279455
738.031 .0279349
738.757 .0279250
739.483 .0279158
740.208 .0279065
740.933 .0278977
741.658 .0278886
742.383 .0278789
743.108 .0278689
743.832 .0278587
744.556 .0278481
745.280 .0278371
746.004 .0278258
746.727 .0278145
747.450 .0278033
748.173 .0277917
748.896 .0277795
749.618 .0277670
750.340 .0277543
751.062 .0277417
751.784 .0277292
752.506 .0277171
753.227 .0277058
753.948 .0276953
754.669 .0276860
755.389 .0276777
756.110 .0276701
756.830 .0276630
757.550 .0276558
758.269 .0276487
758.989 .0276410
759.708 .0276329
760.427 .0276250
761.146 .0276173
761.864 .0276099
762.582 .0276027
763.300 .0275957
764.018 .0275890
764.736 .0275826
765.453 .0275759
766.170 .0275686
766.887 .0275609
767.603 .0275524
768.320 .0275432
769.036 .0275339
769.751 .0275247
770.467 .0275155
771.182 .0275067
771.897 .0274985
772.612 .0274903
773.327 .0274828
774.041 .0274758
774.755 .0274692
775.469 .0274630
776.183 .0274574
776.896 .0274524
777.609 .0274486
778.322 .0274461
779.035 .0274447
779.747 .0274447
780.459 .0274459
781.171 .0274475
781.882 .0274496
782.594 .0274519
783.305 .0274540
784.016 .0274557
784.726 .0274571
785.436 .0274577
786.147 .0274576
786.856 .0274573
787.566 .0274563
788.275 .0274551
788.984 .0274536
789.693 .0274514
790.401 .0274483
791.110 .0274445
791.818 .0274396
792.525 .0274335
793.233 .0274266
793.940 .0274191
794.647 .0274108
795.353 .0274023
796.060 .0273940
796.766 .0273854
797.472 .0273770
798.177 .0273689
798.883 .0273600
799.588 .0273507
800.292 .0273410
800.997 .0273304
801.701 .0273190
802.405 .0273072
803.109 .0272948
803.812 .0272818
804.515 .0272690
805.218 .0272554
805.921 .0272406
806.623 .0272251
807.325 .0272080
808.027 .0271896
808.728 .0271700
809.429 .0271488
810.130 .0271262
810.831 .0271028
811.531 .0270785
812.231 .0270533
812.931 .0270275
813.630 .0270010
814.330 .0269738
815.029 .0269458
815.727 .0269177
816.426 .0268895
817.124 .0268619
817.821 .0268351
818.519 .0268094
819.216 .0267852
819.913 .0267625
820.609 .0267418
821.306 .0267236
822.002 .0267076
822.697 .0266940
823.393 .0266823
824.088 .0266721
824.783 .0266626
825.477 .0266531
826.171 .0266434
826.865 .0266334
827.559 .0266231
828.252 .0266127
828.945 .0266027
829.638 .0265934
830.330 .0265850
831.023 .0265771
831.714 .0265692
832.406 .0265610
833.097 .0265513
833.788 .0265398
834.479 .0265264
835.169 .0265117
835.859 .0264964
836.548 .0264812
837.238 .0264668
837.927 .0264536
838.615 .0264419
839.304 .0264315
839.992 .0264223
840.680 .0264136
841.367 .0264049
842.054 .0263961
842.741 .0263872
843.428 .0263782
844.114 .0263694
844.800 .0263610
845.485 .0263531
846.170 .0263454
846.855 .0263375
847.540 .0263289
848.224 .0263196
848.908 .0263093
849.592 .0262980
850.275 .0262856
850.958 .0262725
851.641 .0262589
852.323 .0262450
853.005 .0262309
853.687 .0262164
854.368 .0262022
855.049 .0261880
855.730 .0261737
856.410 .0261594
857.090 .0261451
857.769 .0261312
858.449 .0261177
859.128 .0261045
859.806 .0260920
860.485 .0260806
861.163 .0260702
861.840 .0260605
862.518 .0260515
863.195 .0260431
863.871 .0260347
864.548 .0260264
865.224 .0260177
865.899 .0260085
866.574 .0259990
867.249 .0259895
867.924 .0259804
868.598 .0259721
869.272 .0259647
869.946 .0259589
870.619 .0259538
871.292 .0259500
871.964 .0259464
872.636 .0259433
873.308 .0259406
873.979 .0259381
874.651 .0259349
875.321 .0259316
875.992 .0259286
876.662 .0259263
877.331 .0259248
878.001 .0259249
878.670 .0259259
879.338 .0259280
880.007 .0259311
880.675 .0259343
881.342 .0259372
882.009 .0259407
882.676 .0259435
883.343 .0259460
884.009 .0259486
884.675 .0259513
885.340 .0259543
886.005 .0259590
886.670 .0259646
887.334 .0259709
887.998 .0259780
888.662 .0259857
889.325 .0259931
889.988 .0260010
890.650 .0260091
891.312 .0260171
891.974 .0260258
892.636 .0260355
893.297 .0260455
893.957 .0260565
894.618 .0260680
895.278 .0260794
895.937 .0260905
896.596 .0261015
897.255 .0261109
897.914 .0261194
898.572 .0261272
899.230 .0261339
899.887 .0261394
900.544 .0261442
901.201 .0261477
901.857 .0261499
902.513 .0261507
903.168 .0261494
903.823 .0261459
904.478 .0261407
905.132 .0261332
905.786 .0261240
906.440 .0261129
907.093 .0261002
907.746 .0260861
908.399 .0260710
909.051 .0260552
909.703 .0260385
910.354 .0260212
911.005 .0260039
911.656 .0259862
912.306 .0259686
912.956 .0259511
913.605 .0259345
914.254 .0259186
914.903 .0259033
915.551 .0258879
916.199 .0258729
916.847 .0258581
917.494 .0258431
918.141 .0258277
918.788 .0258119
919.434 .0257961
920.079 .0257797
920.725 .0257634
921.370 .0257472
922.014 .0257307
922.658 .0257139
923.302 .0256965
923.946 .0256778
924.589 .0256574
925.231 .0256350
925.873 .0256109
926.515 .0255851
927.157 .0255583
927.798 .0255305
928.439 .0255022
929.079 .0254743
929.719 .0254464
930.359 .0254185
930.998 .0253909
931.637 .0253636
932.275 .0253362
932.913 .0253089
933.551 .0252816
934.188 .0252548
934.825 .0252287
935.462 .0252038
936.098 .0251802
936.733 .0251587
937.369 .0251394
938.004 .0251222
938.638 .0251070
939.273 .0250941
939.907 .0250821
940.540 .0250711
941.173 .0250604
941.806 .0250501
942.438 .0250397
943.070 .0250289
943.702 .0250178
944.333 .0250062
944.964 .0249946
945.594 .0249828
946.224 .0249705
946.854 .0249581
947.483 .0249452
948.112 .0249320
948.741 .0249181
949.369 .0249037
949.996 .0248888
950.624 .0248733
951.251 .0248575
951.878 .0248416
952.504 .0248255
953.130 .0248094
953.755 .0247936
954.380 .0247777
955.005 .0247617
955.629 .0247448
956.253 .0247271
956.877 .0247087
957.500 .0246898
958.123 .0246701
958.746 .0246498
959.368 .0246292
959.990 .0246083
960.611 .0245871
961.232 .0245660
961.853 .0245454
962.473 .0245256
963.093 .0245062
963.712 .0244878
964.331 .0244697
964.950 .0244526
965.569 .0244364
966.187 .0244214
966.804 .0244075
967.422 .0243946
968.039 .0243832
968.655 .0243730
969.272 .0243638
969.887 .0243558
970.503 .0243483
971.118 .0243419
971.733 .0243357
972.347 .0243290
972.961 .0243219
973.575 .0243145
974.188 .0243056
974.801 .0242951
975.414 .0242827
976.026 .0242692
976.638 .0242544
977.250 .0242394
977.861 .0242248
978.472 .0242113
979.083 .0241989
979.693 .0241871
980.303 .0241756
980.912 .0241643
981.521 .0241520
982.130 .0241388
982.738 .0241249
983.346 .0241106
983.954 .0240962
984.562 .0240826
985.169 .0240699
985.775 .0240589
986.382 .0240484
986.988 .0240392
987.594 .0240304
988.199 .0240211
988.804 .0240113
989.409 .0240012
990.013 .0239912
990.617 .0239817
991.221 .0239733
991.824 .0239669
992.427 .0239630
993.030 .0239618
993.632 .0239632
994.234 .0239674
994.836 .0239738
995.438 .0239820
996.039 .0239909
996.640 .0240004
997.240 .0240100
997.840 .0240197
998.440 .0240295
999.040 .0240386
999.639 .0240473
1000.238 .0240555
1000.836 .0240632
1001.435 .0240707
1002.033 .0240774
1002.630 .0240838
1003.228 .0240894
1003.825 .0240946
1004.422 .0240990
1005.018 .0241032
1005.614 .0241082
1006.210 .0241144
1006.806 .0241217
1007.401 .0241302
1007.996 .0241398
1008.591 .0241506
1009.186 .0241623
1009.780 .0241747
1010.374 .0241875
1010.967 .0242009
1011.561 .0242148
1012.154 .0242293
1012.746 .0242445
1013.339 .0242606
1013.931 .0242769
1014.523 .0242930
1015.115 .0243084
1015.706 .0243227
1016.298 .0243351
1016.888 .0243465
1017.479 .0243569
1018.069 .0243668
1018.660 .0243767
1019.250 .0243874
1019.839 .0243987
1020.429 .0244111
1021.018 .0244242
1021.607 .0244374
1022.195 .0244502
1022.784 .0244626
1023.372 .0244742
1023.960 .0244857
1024.547 .0244974
1025.135 .0245097
1025.722 .0245231
1026.309 .0245383
1026.896 .0245548
1027.483 .0245720
1028.069 .0245898
1028.655 .0246079
1029.241 .0246259
1029.827 .0246438
1030.412 .0246616
1030.997 .0246794
1031.582 .0246970
1032.167 .0247140
1032.752 .0247299
1033.336 .0247447
1033.921 .0247580
1034.505 .0247703
1035.089 .0247815
1035.672 .0247922
1036.256 .0248032
1036.839 .0248146
1037.422 .0248269
1038.005 .0248401
1038.588 .0248537
1039.171 .0248665
1039.753 .0248782
1040.335 .0248881
1040.918 .0248965
1041.500 .0249034
1042.081 .0249098
1042.663 .0249163
1043.244 .0249242
1043.826 .0249333
1044.407 .0249431
1044.988 .0249541
1045.569 .0249652
1046.150 .0249748
1046.730 .0249829
1047.311 .0249891
1047.891 .0249939
1048.471 .0249970
1049.052 .0249996
1049.632 .0250027
1050.211 .0250073
1050.791 .0250125
1051.371 .0250194
1051.950 .0250284
1052.530 .0250384
1053.109 .0250486
1053.688 .0250586
1054.268 .0250690
1054.847 .0250787
1055.426 .0250875
1056.005 .0250959
1056.583 .0251043
1057.162 .0251130
1057.741 .0251206
1058.319 .0251281
1058.898 .0251355
1059.476 .0251413
1060.055 .0251450
1060.633 .0251455
1061.211 .0251424
1061.790 .0251352
1062.368 .0251244
1062.946 .0251114
1063.524 .0250980
1064.102 .0250849
1064.680 .0250739
1065.258 .0250660
1065.836 .0250613
1066.414 .0250591
1066.992 .0250599
1067.570 .0250633
1068.148 .0250674
1068.726 .0250717
1069.304 .0250774
1069.882 .0250851
1070.460 .0250956
1071.038 .0251080
1071.616 .0251228
1072.194 .0251397
1072.772 .0251570
1073.350 .0251733
1073.928 .0251876
1074.506 .0252003
1075.084 .0252103
1075.662 .0252169
1076.240 .0252209
1076.819 .0252221
1077.397 .0252214
1077.976 .0252190
1078.554 .0252160
1079.133 .0252120
1079.711 .0252063
1080.290 .0252008
1080.869 .0251956
1081.448 .0251905
1082.027 .0251863
1082.606 .0251825
1083.185 .0251792
1083.764 .0251761
1084.343 .0251721
1084.923 .0251671
1085.502 .0251611
1086.082 .0251539
1086.662 .0251451
1087.242 .0251357
1087.822 .0251273
1088.402 .0251204
1088.983 .0251163
1089.563 .0251165
1090.144 .0251205
1090.725 .0251286
1091.306 .0251389
1091.887 .0251508
1092.469 .0251640
1093.050 .0251768
1093.632 .0251890
1094.214 .0252011
1094.796 .0252127
1095.379 .0252245
1095.961 .0252373
1096.544 .0252515
1097.127 .0252658
1097.710 .0252810
1098.294 .0252932
1098.877 .0253029
1099.461 .0253100
1100.046 .0253141
1100.630 .0253165
1101.215 .0253199
1101.800 .0253244
1102.385 .0253286
1102.970 .0253343
1103.556 .0253423
1104.142 .0253493
1104.728 .0253591
1105.315 .0253690
1105.902 .0253795
1106.489 .0253912
1107.077 .0254045
1107.664 .0254192
1108.253 .0254374
1108.841 .0254579
1109.430 .0254789
1110.019 .0255004
1110.609 .0255231
1111.198 .0255430
1111.789 .0255628
1112.379 .0255844
1112.970 .0256064
1113.561 .0256282
1114.153 .0256511
1114.745 .0256734
1115.338 .0256981
1115.931 .0257233
1116.524 .0257475
1117.117 .0257712
1117.712 .0257946
1118.306 .0258164
1118.901 .0258371
1119.496 .0258585
1120.092 .0258784
1120.689 .0258975
1121.285 .0259172
1121.882 .0259355
1122.480 .0259547
1123.078 .0259788
1123.677 .0260061
1124.276 .0260410
1124.875 .0260835
1125.476 .0261293
1126.076 .0261810
1126.677 .0262368
1127.279 .0262926
1127.881 .0263467
1128.484 .0264002
1129.087 .0264530
1129.691 .0265047
1130.295 .0265648
1130.900 .0266322
1131.505 .0267084
1132.111 .0267962
1132.718 .0268898
1133.325 .0269846
1133.933 .0270808
1134.541 .0271724
1135.150 .0272588
1135.760 .0273410
1136.370 .0274220
1136.981 .0275039
1137.592 .0275918
1138.204 .0276923
1138.817 .0278050
1139.431 .0279178
1140.045 .0280435
1140.660 .0281718
1141.275 .0283038
1141.891 .0284538
1142.508 .0283480
1143.126 .0287362
1143.744 .0288827
1144.363 .0290165
1144.983 .0296053
