Measurement Sequence started on: 15-12-46-377
Integration time: 28
Scans to Average: 2 
>>>>>Begin Spectral Data<<<<<
432.689 .0000100
433.621 .0000100
434.552 .0000100
435.482 .0000100
436.410 .0000100
437.337 .0000100
438.262 .0273911
439.187 .0579996
440.110 .0961022
441.031 .1390704
441.952 .1808180
442.871 .2136705
443.789 .2316978
444.705 .2329122
445.621 .2197878
446.535 .1978038
447.447 .1729350
448.359 .1347772
449.269 .1160292
450.178 .1042216
451.086 .0959282
451.993 .0895494
452.898 .0844825
453.803 .0802795
454.706 .0767054
455.608 .0736419
456.508 .0709792
457.408 .0686436
458.306 .0665743
459.204 .0647209
460.100 .0630153
460.995 .0614332
461.888 .0599702
462.781 .0586053
463.673 .0573374
464.563 .0561770
465.452 .0551210
466.340 .0541567
467.228 .0532931
468.114 .0525064
468.999 .0517952
469.882 .0511465
470.765 .0505382
471.647 .0499696
472.528 .0494397
473.407 .0489565
474.286 .0485330
475.163 .0481608
476.040 .0478575
476.915 .0476095
477.790 .0474106
478.663 .0472489
479.535 .0471203
480.407 .0470206
481.277 .0469355
482.147 .0468634
483.015 .0468046
483.883 .0467626
484.749 .0467392
485.615 .0467331
486.479 .0467488
487.343 .0467872
488.206 .0468453
489.067 .0469023
489.928 .0469678
490.788 .0470310
491.647 .0470903
492.505 .0471489
493.362 .0472134
494.218 .0472924
495.073 .0473868
495.928 .0475064
496.781 .0476567
497.634 .0478502
498.486 .0480910
499.337 .0483703
500.187 .0486907
501.036 .0490520
501.884 .0494526
502.731 .0498829
503.578 .0503616
504.424 .0508743
505.268 .0514242
506.113 .0520114
506.956 .0526226
507.798 .0532670
508.640 .0539438
509.480 .0546565
510.320 .0554216
511.160 .0562563
511.998 .0571672
512.836 .0581493
513.672 .0592465
514.508 .0604580
515.344 .0617863
516.178 .0632529
517.012 .0648847
517.845 .0666943
518.677 .0687360
519.508 .0709986
520.339 .0735437
521.169 .0764404
521.998 .0797162
522.826 .0834297
523.654 .0876512
524.481 .0924218
525.307 .0977670
526.133 .1036527
526.958 .1100646
527.782 .1168657
528.605 .1239747
529.428 .1311976
530.250 .1381484
531.072 .1445352
531.892 .1500010
532.712 .1542796
533.532 .1571552
534.350 .1583813
535.168 .1578634
535.986 .1556256
536.802 .1517926
537.618 .1465992
538.434 .1402989
539.249 .1333097
540.063 .1259519
540.876 .1185374
541.689 .1113032
542.501 .1044781
543.313 .0982535
544.124 .0926395
544.934 .0876267
545.744 .0831712
546.553 .0791776
547.361 .0756409
548.169 .0725242
548.976 .0697612
549.783 .0673157
550.589 .0651611
551.395 .0632258
552.200 .0614761
553.004 .0599042
553.808 .0584392
554.611 .0570931
555.414 .0558665
556.216 .0547489
557.018 .0537248
557.819 .0527884
558.619 .0519057
559.419 .0510687
560.218 .0502723
561.017 .0495062
561.815 .0487592
562.613 .0480371
563.410 .0473331
564.207 .0466430
565.003 .0459819
565.799 .0453484
566.594 .0447290
567.388 .0441432
568.182 .0435740
568.976 .0430268
569.769 .0424932
570.562 .0419768
571.354 .0414761
572.145 .0409972
572.936 .0405305
573.727 .0400665
574.517 .0396111
575.307 .0391663
576.096 .0387292
576.885 .0383053
577.673 .0379007
578.461 .0375178
579.248 .0371570
580.035 .0368221
580.821 .0365070
581.607 .0362143
582.392 .0359420
583.177 .0356860
583.962 .0354484
584.746 .0352302
585.529 .0350297
586.313 .0348469
587.095 .0346843
587.878 .0345386
588.660 .0344095
589.441 .0342950
590.222 .0341930
591.003 .0341017
591.783 .0340201
592.563 .0339463
593.342 .0338786
594.121 .0338143
594.899 .0337527
595.678 .0336914
596.455 .0336323
597.233 .0335741
598.009 .0335155
598.786 .0334584
599.562 .0334044
600.338 .0333525
601.113 .0333029
601.888 .0332539
602.663 .0332053
603.437 .0331575
604.211 .0331097
604.984 .0330596
605.757 .0330092
606.530 .0329590
607.302 .0329083
608.074 .0328585
608.845 .0328110
609.616 .0327652
610.387 .0327220
611.158 .0326811
611.928 .0326413
612.697 .0326017
613.467 .0325632
614.236 .0325242
615.004 .0324860
615.773 .0324486
616.541 .0324109
617.308 .0323739
618.076 .0323400
618.843 .0323076
619.609 .0322776
620.375 .0322505
621.141 .0322260
621.907 .0322033
622.672 .0321821
623.437 .0321616
624.202 .0321421
624.966 .0321240
625.730 .0321064
626.493 .0320883
627.257 .0320709
628.020 .0320530
628.782 .0320340
629.545 .0320145
630.307 .0319937
631.068 .0319714
631.830 .0319481
632.591 .0319227
633.352 .0318964
634.112 .0318693
634.872 .0318412
635.632 .0318123
636.392 .0317826
637.151 .0317525
637.910 .0317219
638.668 .0316918
639.427 .0316622
640.185 .0316341
640.943 .0316078
641.700 .0315832
642.457 .0315598
643.214 .0315378
643.971 .0315167
644.727 .0314960
645.483 .0314758
646.239 .0314557
646.994 .0314352
647.750 .0314145
648.505 .0313940
649.259 .0313745
650.014 .0313564
650.768 .0313403
651.521 .0313262
652.275 .0313133
653.028 .0313012
653.781 .0312889
654.534 .0312759
655.286 .0312618
656.039 .0312457
656.791 .0312270
657.542 .0312059
658.294 .0311827
659.045 .0311579
659.796 .0311317
660.546 .0311045
661.297 .0310759
662.047 .0310461
662.796 .0310150
663.546 .0309825
664.295 .0309485
665.044 .0309136
665.793 .0308779
666.542 .0308412
667.290 .0308046
668.038 .0307685
668.786 .0307336
669.533 .0307004
670.281 .0306693
671.028 .0306406
671.774 .0306144
672.521 .0305904
673.267 .0305681
674.013 .0305471
674.759 .0305266
675.505 .0305052
676.250 .0304829
676.995 .0304591
677.740 .0304340
678.484 .0304080
679.229 .0303824
679.973 .0303576
680.717 .0303342
681.460 .0303120
682.204 .0302907
682.947 .0302699
683.690 .0302484
684.433 .0302253
685.175 .0302010
685.917 .0301756
686.659 .0301496
687.401 .0301235
688.142 .0300982
688.884 .0300740
689.625 .0300511
690.365 .0300291
691.106 .0300070
691.846 .0299847
692.586 .0299616
693.326 .0299376
694.066 .0299128
694.805 .0298881
695.545 .0298633
696.284 .0298396
697.022 .0298164
697.761 .0297939
698.499 .0297717
699.237 .0297505
699.975 .0297297
700.713 .0297098
701.450 .0296908
702.187 .0296728
702.924 .0296559
703.661 .0296406
704.397 .0296263
705.133 .0296127
705.869 .0295988
706.605 .0295856
707.341 .0295717
708.076 .0295578
708.811 .0295441
709.546 .0295311
710.281 .0295189
711.015 .0295078
711.749 .0294964
712.483 .0294852
713.217 .0294737
713.950 .0294617
714.684 .0294486
715.417 .0294351
716.150 .0294210
716.882 .0294065
717.615 .0293921
718.347 .0293783
719.079 .0293644
719.811 .0293510
720.542 .0293375
721.273 .0293233
722.005 .0293086
722.735 .0292939
723.466 .0292793
724.196 .0292651
724.927 .0292516
725.656 .0292386
726.386 .0292257
727.116 .0292136
727.845 .0292017
728.574 .0291893
729.303 .0291772
730.031 .0291648
730.760 .0291523
731.488 .0291402
732.216 .0291286
732.944 .0291177
733.671 .0291077
734.398 .0290983
735.125 .0290890
735.852 .0290797
736.579 .0290704
737.305 .0290609
738.031 .0290513
738.757 .0290418
739.483 .0290323
740.208 .0290232
740.933 .0290145
741.658 .0290060
742.383 .0289975
743.108 .0289888
743.832 .0289796
744.556 .0289699
745.280 .0289594
746.004 .0289479
746.727 .0289350
747.450 .0289209
748.173 .0289052
748.896 .0288885
749.618 .0288707
750.340 .0288520
751.062 .0288329
751.784 .0288139
752.506 .0287946
753.227 .0287757
753.948 .0287569
754.669 .0287384
755.389 .0287197
756.110 .0287008
756.830 .0286816
757.550 .0286621
758.269 .0286429
758.989 .0286242
759.708 .0286056
760.427 .0285872
761.146 .0285686
761.864 .0285494
762.582 .0285294
763.300 .0285082
764.018 .0284861
764.736 .0284630
765.453 .0284397
766.170 .0284159
766.887 .0283923
767.603 .0283694
768.320 .0283470
769.036 .0283249
769.751 .0283035
770.467 .0282823
771.182 .0282614
771.897 .0282407
772.612 .0282204
773.327 .0282006
774.041 .0281814
774.755 .0281624
775.469 .0281440
776.183 .0281260
776.896 .0281084
777.609 .0280909
778.322 .0280742
779.035 .0280580
779.747 .0280423
780.459 .0280275
781.171 .0280129
781.882 .0279985
782.594 .0279841
783.305 .0279696
784.016 .0279552
784.726 .0279412
785.436 .0279277
786.147 .0279150
786.856 .0279037
787.566 .0278938
788.275 .0278849
788.984 .0278766
789.693 .0278686
790.401 .0278602
791.110 .0278510
791.818 .0278412
792.525 .0278306
793.233 .0278196
793.940 .0278090
794.647 .0277986
795.353 .0277889
796.060 .0277796
796.766 .0277698
797.472 .0277592
798.177 .0277473
798.883 .0277340
799.588 .0277191
800.292 .0277032
800.997 .0276870
801.701 .0276710
802.405 .0276559
803.109 .0276421
803.812 .0276296
804.515 .0276185
805.218 .0276080
805.921 .0275973
806.623 .0275867
807.325 .0275756
808.027 .0275644
808.728 .0275538
809.429 .0275437
810.130 .0275343
810.831 .0275261
811.531 .0275187
812.231 .0275111
812.931 .0275029
813.630 .0274937
814.330 .0274832
815.029 .0274717
815.727 .0274591
816.426 .0274457
817.124 .0274328
817.821 .0274210
818.519 .0274099
819.216 .0274003
819.913 .0273923
820.609 .0273850
821.306 .0273788
822.002 .0273739
822.697 .0273703
823.393 .0273685
824.088 .0273687
824.783 .0273707
825.477 .0273741
826.171 .0273788
826.865 .0273840
827.559 .0273899
828.252 .0273964
828.945 .0274027
829.638 .0274085
830.330 .0274147
831.023 .0274207
831.714 .0274267
832.406 .0274327
833.097 .0274383
833.788 .0274426
834.479 .0274457
835.169 .0274470
835.859 .0274470
836.548 .0274466
837.238 .0274462
837.927 .0274457
838.615 .0274459
839.304 .0274464
839.992 .0274469
840.680 .0274476
841.367 .0274483
842.054 .0274483
842.741 .0274483
843.428 .0274483
844.114 .0274485
844.800 .0274498
845.485 .0274522
846.170 .0274545
846.855 .0274569
847.540 .0274584
848.224 .0274586
848.908 .0274571
849.592 .0274543
850.275 .0274494
850.958 .0274430
851.641 .0274356
852.323 .0274265
853.005 .0274160
853.687 .0274038
854.368 .0273894
855.049 .0273726
855.730 .0273536
856.410 .0273323
857.090 .0273095
857.769 .0272864
858.449 .0272630
859.128 .0272399
859.806 .0272173
860.485 .0271953
861.163 .0271737
861.840 .0271529
862.518 .0271320
863.195 .0271108
863.871 .0270897
864.548 .0270687
865.224 .0270478
865.899 .0270277
866.574 .0270081
867.249 .0269896
867.924 .0269717
868.598 .0269543
869.272 .0269366
869.946 .0269194
870.619 .0269021
871.292 .0268845
871.964 .0268666
872.636 .0268482
873.308 .0268296
873.979 .0268111
874.651 .0267929
875.321 .0267750
875.992 .0267573
876.662 .0267401
877.331 .0267229
878.001 .0267064
878.670 .0266901
879.338 .0266738
880.007 .0266579
880.675 .0266426
881.342 .0266271
882.009 .0266114
882.676 .0265963
883.343 .0265812
884.009 .0265666
884.675 .0265520
885.340 .0265374
886.005 .0265230
886.670 .0265087
887.334 .0264943
887.998 .0264799
888.662 .0264662
889.325 .0264526
889.988 .0264391
890.650 .0264263
891.312 .0264136
891.974 .0264012
892.636 .0263893
893.297 .0263782
893.957 .0263672
894.618 .0263565
895.278 .0263461
895.937 .0263358
896.596 .0263257
897.255 .0263154
897.914 .0263044
898.572 .0262930
899.230 .0262808
899.887 .0262671
900.544 .0262521
901.201 .0262360
901.857 .0262187
902.513 .0261999
903.168 .0261796
903.823 .0261578
904.478 .0261345
905.132 .0261099
905.786 .0260839
906.440 .0260567
907.093 .0260289
907.746 .0260006
908.399 .0259724
909.051 .0259448
909.703 .0259181
910.354 .0258925
911.005 .0258675
911.656 .0258433
912.306 .0258192
912.956 .0257950
913.605 .0257713
914.254 .0257484
914.903 .0257261
915.551 .0257050
916.199 .0256852
916.847 .0256671
917.494 .0256501
918.141 .0256335
918.788 .0256171
919.434 .0256008
920.079 .0255843
920.725 .0255675
921.370 .0255505
922.014 .0255339
922.658 .0255174
923.302 .0255014
923.946 .0254857
924.589 .0254698
925.231 .0254537
925.873 .0254370
926.515 .0254197
927.157 .0254020
927.798 .0253837
928.439 .0253653
929.079 .0253472
929.719 .0253292
930.359 .0253112
930.998 .0252932
931.637 .0252756
932.275 .0252585
932.913 .0252420
933.551 .0252265
934.188 .0252123
934.825 .0251995
935.462 .0251885
936.098 .0251787
936.733 .0251706
937.369 .0251639
938.004 .0251584
938.638 .0251538
939.273 .0251502
939.907 .0251475
940.540 .0251460
941.173 .0251455
941.806 .0251461
942.438 .0251474
943.070 .0251491
943.702 .0251511
944.333 .0251531
944.964 .0251550
945.594 .0251574
946.224 .0251599
946.854 .0251632
947.483 .0251672
948.112 .0251719
948.741 .0251774
949.369 .0251834
949.996 .0251901
950.624 .0251974
951.251 .0252050
951.878 .0252131
952.504 .0252216
953.130 .0252305
953.755 .0252393
954.380 .0252483
955.005 .0252571
955.629 .0252653
956.253 .0252725
956.877 .0252791
957.500 .0252849
958.123 .0252903
958.746 .0252953
959.368 .0253000
959.990 .0253048
960.611 .0253096
961.232 .0253141
961.853 .0253186
962.473 .0253232
963.093 .0253279
963.712 .0253322
964.331 .0253366
964.950 .0253406
965.569 .0253445
966.187 .0253488
966.804 .0253536
967.422 .0253590
968.039 .0253654
968.655 .0253724
969.272 .0253797
969.887 .0253867
970.503 .0253934
971.118 .0253994
971.733 .0254048
972.347 .0254095
972.961 .0254129
973.575 .0254154
974.188 .0254173
974.801 .0254182
975.414 .0254184
976.026 .0254181
976.638 .0254168
977.250 .0254150
977.861 .0254126
978.472 .0254096
979.083 .0254065
979.693 .0254031
980.303 .0253995
980.912 .0253951
981.521 .0253897
982.130 .0253833
982.738 .0253765
983.346 .0253696
983.954 .0253627
984.562 .0253561
985.169 .0253501
985.775 .0253437
986.382 .0253376
986.988 .0253312
987.594 .0253244
988.199 .0253171
988.804 .0253094
989.409 .0253009
990.013 .0252928
990.617 .0252855
991.221 .0252788
991.824 .0252735
992.427 .0252695
993.030 .0252657
993.632 .0252625
994.234 .0252594
994.836 .0252565
995.438 .0252537
996.039 .0252518
996.640 .0252498
997.240 .0252488
997.840 .0252489
998.440 .0252499
999.040 .0252514
999.639 .0252536
1000.238 .0252552
1000.836 .0252561
1001.435 .0252562
1002.033 .0252552
1002.630 .0252533
1003.228 .0252516
1003.825 .0252497
1004.422 .0252487
1005.018 .0252483
1005.614 .0252488
1006.210 .0252501
1006.806 .0252523
1007.401 .0252541
1007.996 .0252548
1008.591 .0252549
1009.186 .0252540
1009.780 .0252519
1010.374 .0252491
1010.967 .0252465
1011.561 .0252444
1012.154 .0252426
1012.746 .0252409
1013.339 .0252394
1013.931 .0252383
1014.523 .0252369
1015.115 .0252334
1015.706 .0252285
1016.298 .0252219
1016.888 .0252141
1017.479 .0252057
1018.069 .0251974
1018.660 .0251892
1019.250 .0251811
1019.839 .0251734
1020.429 .0251652
1021.018 .0251560
1021.607 .0251466
1022.195 .0251364
1022.784 .0251257
1023.372 .0251152
1023.960 .0251055
1024.547 .0250975
1025.135 .0250931
1025.722 .0250914
1026.309 .0250916
1026.896 .0250935
1027.483 .0250965
1028.069 .0250993
1028.655 .0251016
1029.241 .0251031
1029.827 .0251037
1030.412 .0251039
1030.997 .0251035
1031.582 .0251019
1032.167 .0250994
1032.752 .0250963
1033.336 .0250915
1033.921 .0250851
1034.505 .0250766
1035.089 .0250661
1035.672 .0250547
1036.256 .0250431
1036.839 .0250315
1037.422 .0250203
1038.005 .0250099
1038.588 .0250001
1039.171 .0249915
1039.753 .0249841
1040.335 .0249775
1040.918 .0249720
1041.500 .0249683
1042.081 .0249662
1042.663 .0249650
1043.244 .0249650
1043.826 .0249648
1044.407 .0249640
1044.988 .0249623
1045.569 .0249578
1046.150 .0249513
1046.730 .0249426
1047.311 .0249316
1047.891 .0249189
1048.471 .0249044
1049.052 .0248884
1049.632 .0248712
1050.211 .0248533
1050.791 .0248345
1051.371 .0248145
1051.950 .0247945
1052.530 .0247749
1053.109 .0247552
1053.688 .0247357
1054.268 .0247168
1054.847 .0246982
1055.426 .0246814
1056.005 .0246658
1056.583 .0246528
1057.162 .0246413
1057.741 .0246321
1058.319 .0246265
1058.898 .0246223
1059.476 .0246184
1060.055 .0246149
1060.633 .0246104
1061.211 .0246042
1061.790 .0245959
1062.368 .0245854
1062.946 .0245727
1063.524 .0245595
1064.102 .0245453
1064.680 .0245296
1065.258 .0245134
1065.836 .0244970
1066.414 .0244788
1066.992 .0244613
1067.570 .0244446
1068.148 .0244264
1068.726 .0244094
1069.304 .0243947
1069.882 .0243813
1070.460 .0243698
1071.038 .0243601
1071.616 .0243525
1072.194 .0243465
1072.772 .0243428
1073.350 .0243402
1073.928 .0243390
1074.506 .0243406
1075.084 .0243416
1075.662 .0243410
1076.240 .0243400
1076.819 .0243365
1077.397 .0243314
1077.976 .0243251
1078.554 .0243187
1079.133 .0243126
1079.711 .0243086
1080.290 .0243079
1080.869 .0243102
1081.448 .0243146
1082.027 .0243206
1082.606 .0243270
1083.185 .0243345
1083.764 .0243438
1084.343 .0243535
1084.923 .0243664
1085.502 .0243830
1086.082 .0244020
1086.662 .0244238
1087.242 .0244457
1087.822 .0244680
1088.402 .0244897
1088.983 .0245091
1089.563 .0245272
1090.144 .0245430
1090.725 .0245591
1091.306 .0245731
1091.887 .0245869
1092.469 .0245997
1093.050 .0246108
1093.632 .0246196
1094.214 .0246267
1094.796 .0246287
1095.379 .0246291
1095.961 .0246283
1096.544 .0246264
1097.127 .0246251
1097.710 .0246260
1098.294 .0246279
1098.877 .0246315
1099.461 .0246350
1100.046 .0246387
1100.630 .0246400
1101.215 .0246429
1101.800 .0246443
1102.385 .0246465
1102.970 .0246525
1103.556 .0246616
1104.142 .0246744
1104.728 .0246951
1105.315 .0247214
1105.902 .0247511
1106.489 .0247847
1107.077 .0248205
1107.664 .0248562
1108.253 .0248916
1108.841 .0249278
1109.430 .0249640
1110.019 .0250016
1110.609 .0250404
1111.198 .0250798
1111.789 .0251219
1112.379 .0251657
1112.970 .0252072
1113.561 .0252476
1114.153 .0252878
1114.745 .0253270
1115.338 .0253646
1115.931 .0254035
1116.524 .0254414
1117.117 .0254805
1117.712 .0255194
1118.306 .0255612
1118.901 .0256026
1119.496 .0256440
1120.092 .0256843
1120.689 .0257242
1121.285 .0257634
1121.882 .0258013
1122.480 .0258403
1123.078 .0258823
1123.677 .0259275
1124.276 .0259776
1124.875 .0260304
1125.476 .0260905
1126.076 .0261586
1126.677 .0262346
1127.279 .0263163
1127.881 .0264071
1128.484 .0265001
1129.087 .0265938
1129.691 .0266894
1130.295 .0267854
1130.900 .0268831
1131.505 .0269821
1132.111 .0270886
1132.718 .0272035
1133.325 .0273280
1133.933 .0274582
1134.541 .0275890
1135.150 .0277213
1135.760 .0278445
1136.370 .0279521
1136.981 .0280461
1137.592 .0281268
1138.204 .0282014
1138.817 .0282746
1139.431 .0283445
1140.045 .0284124
1140.660 .0284688
1141.275 .0285313
1141.891 .0285780
1142.508 .0287191
1143.126 .0286492
1143.744 .0283512
1144.363 .0288989
1144.983 .0287014
