Measurement Sequence started on: 15-12-46-377
Integration time: 28
Scans to Average: 2 
>>>>>Begin Spectral Data<<<<<
432.689 .0000100
433.621 .0000100
434.552 .0000100
435.482 .0000100
436.410 .0000100
437.337 .0000100
438.262 .0271210
439.187 .0576522
440.110 .0956614
441.031 .1386380
441.952 .1805016
442.871 .2136522
443.789 .2320704
444.705 .2336953
445.621 .2209459
446.535 .1992135
447.447 .1744137
448.359 .1363204
449.269 .1172829
450.178 .1052507
451.086 .0967638
451.993 .0902892
452.898 .0851844
453.803 .0810243
454.706 .0775204
455.608 .0744847
456.508 .0718075
457.408 .0694432
458.306 .0673131
459.204 .0653946
460.100 .0636713
460.995 .0621315
461.888 .0607610
462.781 .0595186
463.673 .0583923
464.563 .0573542
465.452 .0563782
466.340 .0554555
467.228 .0545909
468.114 .0537869
468.999 .0530524
469.882 .0523847
470.765 .0517904
471.647 .0512764
472.528 .0508255
473.407 .0504369
474.286 .0501053
475.163 .0498230
476.040 .0495825
476.915 .0493770
477.790 .0492026
478.663 .0490539
479.535 .0489297
480.407 .0488290
481.277 .0487433
482.147 .0486712
483.015 .0486057
483.883 .0485496
484.749 .0484989
485.615 .0484513
486.479 .0484045
487.343 .0483652
488.206 .0483305
489.067 .0483011
489.928 .0482664
490.788 .0482411
491.647 .0482252
492.505 .0482269
493.362 .0482412
494.218 .0482758
495.073 .0483294
495.928 .0484060
496.781 .0485054
497.634 .0486382
498.486 .0487929
499.337 .0489795
500.187 .0491878
501.036 .0494205
501.884 .0496762
502.731 .0499603
503.578 .0502695
504.424 .0506138
505.268 .0509742
506.113 .0513616
506.956 .0517782
507.798 .0522515
508.640 .0527749
509.480 .0533631
510.320 .0540339
511.160 .0548087
511.998 .0556889
512.836 .0566993
513.672 .0578490
514.508 .0591504
515.344 .0606100
516.178 .0622431
517.012 .0640752
517.845 .0661384
518.677 .0684865
519.508 .0711503
520.339 .0741533
521.169 .0775609
521.998 .0813677
522.826 .0856225
523.654 .0903809
524.481 .0956172
525.307 .1013554
526.133 .1075724
526.958 .1142435
527.782 .1212661
528.605 .1285337
529.428 .1358957
530.250 .1428404
531.072 .1491429
531.892 .1543925
532.712 .1582351
533.532 .1605402
534.350 .1610997
535.168 .1598254
535.986 .1568437
536.802 .1523621
537.618 .1466659
538.434 .1400267
539.249 .1329182
540.063 .1255005
540.876 .1180985
541.689 .1109399
542.501 .1041330
543.313 .0978503
544.124 .0921726
544.934 .0870253
545.744 .0824081
546.553 .0782690
547.361 .0746179
548.169 .0714266
548.976 .0686440
549.783 .0662013
550.589 .0640609
551.395 .0621480
552.200 .0604381
553.004 .0588934
553.808 .0574902
554.611 .0561941
555.414 .0550259
556.216 .0539798
557.018 .0530447
557.819 .0522165
558.619 .0514907
559.419 .0508286
560.218 .0502293
561.017 .0496492
561.815 .0490743
562.613 .0484962
563.410 .0479082
564.207 .0473044
565.003 .0466896
565.799 .0460701
566.594 .0454508
567.388 .0448512
568.182 .0442780
568.976 .0437184
569.769 .0431751
570.562 .0426451
571.354 .0421218
572.145 .0416065
572.936 .0411029
573.727 .0406101
574.517 .0401328
575.307 .0396722
576.096 .0392256
576.885 .0388051
577.673 .0384101
578.461 .0380397
579.248 .0376926
580.035 .0373688
580.821 .0370608
581.607 .0367681
582.392 .0364938
583.177 .0362382
583.962 .0360001
584.746 .0357833
585.529 .0355823
586.313 .0354003
587.095 .0352318
587.878 .0350762
588.660 .0349333
589.441 .0348033
590.222 .0346796
591.003 .0345641
591.783 .0344554
592.563 .0343523
593.342 .0342544
594.121 .0341614
594.899 .0340720
595.678 .0339857
596.455 .0339034
597.233 .0338243
598.009 .0337478
598.786 .0336749
599.562 .0336036
600.338 .0335347
601.113 .0334671
601.888 .0333997
602.663 .0333333
603.437 .0332690
604.211 .0332056
604.984 .0331441
605.757 .0330853
606.530 .0330281
607.302 .0329728
608.074 .0329197
608.845 .0328689
609.616 .0328194
610.387 .0327728
611.158 .0327299
611.928 .0326904
612.697 .0326553
613.467 .0326241
614.236 .0325970
615.004 .0325744
615.773 .0325544
616.541 .0325365
617.308 .0325212
618.076 .0325083
618.843 .0324966
619.609 .0324869
620.375 .0324789
621.141 .0324730
621.907 .0324676
622.672 .0324629
623.437 .0324579
624.202 .0324512
624.966 .0324435
625.730 .0324339
626.493 .0324222
627.257 .0324089
628.020 .0323933
628.782 .0323770
629.545 .0323595
630.307 .0323410
631.068 .0323217
631.830 .0323018
632.591 .0322816
633.352 .0322606
634.112 .0322379
634.872 .0322148
635.632 .0321909
636.392 .0321664
637.151 .0321419
637.910 .0321172
638.668 .0320932
639.427 .0320697
640.185 .0320463
640.943 .0320231
641.700 .0319986
642.457 .0319734
643.214 .0319472
643.971 .0319192
644.727 .0318907
645.483 .0318617
646.239 .0318338
646.994 .0318071
647.750 .0317822
648.505 .0317587
649.259 .0317365
650.014 .0317152
650.768 .0316938
651.521 .0316714
652.275 .0316486
653.028 .0316249
653.781 .0316005
654.534 .0315755
655.286 .0315499
656.039 .0315234
656.791 .0314963
657.542 .0314678
658.294 .0314377
659.045 .0314063
659.796 .0313734
660.546 .0313387
661.297 .0313025
662.047 .0312648
662.796 .0312250
663.546 .0311832
664.295 .0311397
665.044 .0310946
665.793 .0310482
666.542 .0310016
667.290 .0309555
668.038 .0309111
668.786 .0308685
669.533 .0308280
670.281 .0307901
671.028 .0307544
671.774 .0307201
672.521 .0306874
673.267 .0306559
674.013 .0306259
674.759 .0305969
675.505 .0305697
676.250 .0305435
676.995 .0305188
677.740 .0304949
678.484 .0304720
679.229 .0304495
679.973 .0304273
680.717 .0304049
681.460 .0303828
682.204 .0303610
682.947 .0303394
683.690 .0303181
684.433 .0302977
685.175 .0302774
685.917 .0302577
686.659 .0302379
687.401 .0302190
688.142 .0302001
688.884 .0301822
689.625 .0301642
690.365 .0301470
691.106 .0301296
691.846 .0301123
692.586 .0300954
693.326 .0300791
694.066 .0300626
694.805 .0300466
695.545 .0300309
696.284 .0300155
697.022 .0299996
697.761 .0299840
698.499 .0299678
699.237 .0299522
699.975 .0299363
700.713 .0299208
701.450 .0299063
702.187 .0298931
702.924 .0298808
703.661 .0298698
704.397 .0298600
705.133 .0298514
705.869 .0298435
706.605 .0298368
707.341 .0298308
708.076 .0298255
708.811 .0298208
709.546 .0298164
710.281 .0298119
711.015 .0298077
711.749 .0298024
712.483 .0297963
713.217 .0297893
713.950 .0297816
714.684 .0297733
715.417 .0297647
716.150 .0297563
716.882 .0297477
717.615 .0297389
718.347 .0297293
719.079 .0297187
719.811 .0297071
720.542 .0296942
721.273 .0296797
722.005 .0296643
722.735 .0296486
723.466 .0296321
724.196 .0296161
724.927 .0295998
725.656 .0295830
726.386 .0295654
727.116 .0295468
727.845 .0295274
728.574 .0295071
729.303 .0294864
730.031 .0294654
730.760 .0294443
731.488 .0294237
732.216 .0294032
732.944 .0293836
733.671 .0293651
734.398 .0293473
735.125 .0293296
735.852 .0293128
736.579 .0292960
737.305 .0292798
738.031 .0292640
738.757 .0292485
739.483 .0292335
740.208 .0292187
740.933 .0292046
741.658 .0291910
742.383 .0291776
743.108 .0291643
743.832 .0291505
744.556 .0291357
745.280 .0291195
746.004 .0291012
746.727 .0290817
747.450 .0290613
748.173 .0290397
748.896 .0290177
749.618 .0289954
750.340 .0289729
751.062 .0289501
751.784 .0289265
752.506 .0289023
753.227 .0288768
753.948 .0288504
754.669 .0288232
755.389 .0287953
756.110 .0287677
756.830 .0287398
757.550 .0287118
758.269 .0286840
758.989 .0286564
759.708 .0286284
760.427 .0286003
761.146 .0285726
761.864 .0285454
762.582 .0285187
763.300 .0284926
764.018 .0284672
764.736 .0284421
765.453 .0284174
766.170 .0283922
766.887 .0283661
767.603 .0283399
768.320 .0283133
769.036 .0282870
769.751 .0282615
770.467 .0282372
771.182 .0282143
771.897 .0281929
772.612 .0281731
773.327 .0281543
774.041 .0281360
774.755 .0281179
775.469 .0280998
776.183 .0280820
776.896 .0280645
777.609 .0280477
778.322 .0280321
779.035 .0280183
779.747 .0280064
780.459 .0279964
781.171 .0279882
781.882 .0279819
782.594 .0279770
783.305 .0279730
784.016 .0279699
784.726 .0279674
785.436 .0279650
786.147 .0279627
786.856 .0279608
787.566 .0279593
788.275 .0279585
788.984 .0279584
789.693 .0279588
790.401 .0279595
791.110 .0279604
791.818 .0279607
792.525 .0279607
793.233 .0279606
793.940 .0279595
794.647 .0279573
795.353 .0279544
796.060 .0279507
796.766 .0279460
797.472 .0279409
798.177 .0279352
798.883 .0279291
799.588 .0279231
800.292 .0279171
800.997 .0279115
801.701 .0279067
802.405 .0279027
803.109 .0278995
803.812 .0278967
804.515 .0278945
805.218 .0278923
805.921 .0278900
806.623 .0278876
807.325 .0278848
808.027 .0278816
808.728 .0278778
809.429 .0278732
810.130 .0278681
810.831 .0278626
811.531 .0278567
812.231 .0278501
812.931 .0278429
813.630 .0278355
814.330 .0278276
815.029 .0278194
815.727 .0278111
816.426 .0278027
817.124 .0277946
817.821 .0277868
818.519 .0277795
819.216 .0277734
819.913 .0277683
820.609 .0277649
821.306 .0277631
822.002 .0277631
822.697 .0277649
823.393 .0277682
824.088 .0277731
824.783 .0277790
825.477 .0277855
826.171 .0277922
826.865 .0277991
827.559 .0278059
828.252 .0278126
828.945 .0278190
829.638 .0278255
830.330 .0278319
831.023 .0278381
831.714 .0278438
832.406 .0278484
833.097 .0278520
833.788 .0278543
834.479 .0278547
835.169 .0278538
835.859 .0278518
836.548 .0278490
837.238 .0278455
837.927 .0278417
838.615 .0278374
839.304 .0278329
839.992 .0278279
840.680 .0278221
841.367 .0278151
842.054 .0278072
842.741 .0277980
843.428 .0277884
844.114 .0277782
844.800 .0277680
845.485 .0277579
846.170 .0277478
846.855 .0277372
847.540 .0277260
848.224 .0277138
848.908 .0277002
849.592 .0276848
850.275 .0276678
850.958 .0276487
851.641 .0276282
852.323 .0276060
853.005 .0275826
853.687 .0275583
854.368 .0275336
855.049 .0275082
855.730 .0274828
856.410 .0274571
857.090 .0274312
857.769 .0274049
858.449 .0273784
859.128 .0273511
859.806 .0273234
860.485 .0272954
861.163 .0272675
861.840 .0272394
862.518 .0272122
863.195 .0271850
863.871 .0271581
864.548 .0271310
865.224 .0271033
865.899 .0270743
866.574 .0270442
867.249 .0270131
867.924 .0269809
868.598 .0269486
869.272 .0269166
869.946 .0268848
870.619 .0268540
871.292 .0268240
871.964 .0267942
872.636 .0267648
873.308 .0267359
873.979 .0267071
874.651 .0266785
875.321 .0266509
875.992 .0266247
876.662 .0266002
877.331 .0265774
878.001 .0265566
878.670 .0265371
879.338 .0265190
880.007 .0265014
880.675 .0264843
881.342 .0264676
882.009 .0264512
882.676 .0264348
883.343 .0264189
884.009 .0264035
884.675 .0263885
885.340 .0263736
886.005 .0263593
886.670 .0263451
887.334 .0263311
887.998 .0263173
888.662 .0263038
889.325 .0262904
889.988 .0262775
890.650 .0262648
891.312 .0262525
891.974 .0262406
892.636 .0262292
893.297 .0262179
893.957 .0262071
894.618 .0261966
895.278 .0261863
895.937 .0261766
896.596 .0261676
897.255 .0261590
897.914 .0261508
898.572 .0261430
899.230 .0261354
899.887 .0261276
900.544 .0261198
901.201 .0261112
901.857 .0261021
902.513 .0260923
903.168 .0260817
903.823 .0260701
904.478 .0260581
905.132 .0260453
905.786 .0260317
906.440 .0260170
907.093 .0260013
907.746 .0259843
908.399 .0259662
909.051 .0259474
909.703 .0259277
910.354 .0259074
911.005 .0258874
911.656 .0258676
912.306 .0258485
912.956 .0258295
913.605 .0258112
914.254 .0257933
914.903 .0257756
915.551 .0257579
916.199 .0257408
916.847 .0257246
917.494 .0257098
918.141 .0256962
918.788 .0256845
919.434 .0256746
920.079 .0256659
920.725 .0256579
921.370 .0256506
922.014 .0256437
922.658 .0256367
923.302 .0256294
923.946 .0256228
924.589 .0256160
925.231 .0256096
925.873 .0256036
926.515 .0255979
927.157 .0255924
927.798 .0255865
928.439 .0255799
929.079 .0255727
929.719 .0255648
930.359 .0255560
930.998 .0255466
931.637 .0255374
932.275 .0255283
932.913 .0255189
933.551 .0255100
934.188 .0255022
934.825 .0254953
935.462 .0254898
936.098 .0254855
936.733 .0254827
937.369 .0254817
938.004 .0254819
938.638 .0254833
939.273 .0254860
939.907 .0254902
940.540 .0254956
941.173 .0255024
941.806 .0255110
942.438 .0255214
943.070 .0255332
943.702 .0255464
944.333 .0255601
944.964 .0255736
945.594 .0255862
946.224 .0255975
946.854 .0256078
947.483 .0256174
948.112 .0256266
948.741 .0256366
949.369 .0256473
949.996 .0256590
950.624 .0256711
951.251 .0256830
951.878 .0256944
952.504 .0257049
953.130 .0257135
953.755 .0257204
954.380 .0257262
955.005 .0257314
955.629 .0257362
956.253 .0257419
956.877 .0257487
957.500 .0257564
958.123 .0257651
958.746 .0257741
959.368 .0257828
959.990 .0257916
960.611 .0258000
961.232 .0258076
961.853 .0258150
962.473 .0258220
963.093 .0258282
963.712 .0258345
964.331 .0258404
964.950 .0258457
965.569 .0258509
966.187 .0258561
966.804 .0258613
967.422 .0258667
968.039 .0258726
968.655 .0258783
969.272 .0258836
969.887 .0258879
970.503 .0258905
971.118 .0258918
971.733 .0258921
972.347 .0258911
972.961 .0258898
973.575 .0258885
974.188 .0258874
974.801 .0258865
975.414 .0258856
976.026 .0258836
976.638 .0258801
977.250 .0258743
977.861 .0258661
978.472 .0258556
979.083 .0258433
979.693 .0258295
980.303 .0258149
980.912 .0258000
981.521 .0257852
982.130 .0257708
982.738 .0257574
983.346 .0257446
983.954 .0257320
984.562 .0257200
985.169 .0257081
985.775 .0256965
986.382 .0256849
986.988 .0256739
987.594 .0256629
988.199 .0256516
988.804 .0256403
989.409 .0256283
990.013 .0256160
990.617 .0256033
991.221 .0255896
991.824 .0255755
992.427 .0255607
993.030 .0255457
993.632 .0255305
994.234 .0255162
994.836 .0255020
995.438 .0254884
996.039 .0254756
996.640 .0254632
997.240 .0254515
997.840 .0254407
998.440 .0254307
999.040 .0254211
999.639 .0254120
1000.238 .0254031
1000.836 .0253940
1001.435 .0253855
1002.033 .0253765
1002.630 .0253674
1003.228 .0253585
1003.825 .0253492
1004.422 .0253398
1005.018 .0253304
1005.614 .0253212
1006.210 .0253115
1006.806 .0253019
1007.401 .0252922
1007.996 .0252824
1008.591 .0252725
1009.186 .0252630
1009.780 .0252535
1010.374 .0252442
1010.967 .0252349
1011.561 .0252254
1012.154 .0252161
1012.746 .0252066
1013.339 .0251968
1013.931 .0251866
1014.523 .0251758
1015.115 .0251645
1015.706 .0251523
1016.298 .0251397
1016.888 .0251270
1017.479 .0251141
1018.069 .0251013
1018.660 .0250889
1019.250 .0250769
1019.839 .0250654
1020.429 .0250548
1021.018 .0250451
1021.607 .0250362
1022.195 .0250274
1022.784 .0250190
1023.372 .0250102
1023.960 .0250021
1024.547 .0249940
1025.135 .0249861
1025.722 .0249787
1026.309 .0249711
1026.896 .0249638
1027.483 .0249562
1028.069 .0249480
1028.655 .0249401
1029.241 .0249317
1029.827 .0249237
1030.412 .0249147
1030.997 .0249062
1031.582 .0248979
1032.167 .0248894
1032.752 .0248809
1033.336 .0248714
1033.921 .0248612
1034.505 .0248499
1035.089 .0248379
1035.672 .0248254
1036.256 .0248130
1036.839 .0248003
1037.422 .0247876
1038.005 .0247750
1038.588 .0247619
1039.171 .0247480
1039.753 .0247341
1040.335 .0247206
1040.918 .0247068
1041.500 .0246924
1042.081 .0246785
1042.663 .0246647
1043.244 .0246515
1043.826 .0246374
1044.407 .0246234
1044.988 .0246090
1045.569 .0245940
1046.150 .0245783
1046.730 .0245623
1047.311 .0245473
1047.891 .0245332
1048.471 .0245206
1049.052 .0245097
1049.632 .0244989
1050.211 .0244889
1050.791 .0244785
1051.371 .0244673
1051.950 .0244552
1052.530 .0244411
1053.109 .0244268
1053.688 .0244128
1054.268 .0243993
1054.847 .0243870
1055.426 .0243763
1056.005 .0243677
1056.583 .0243596
1057.162 .0243516
1057.741 .0243431
1058.319 .0243325
1058.898 .0243212
1059.476 .0243080
1060.055 .0242935
1060.633 .0242804
1061.211 .0242681
1061.790 .0242583
1062.368 .0242521
1062.946 .0242478
1063.524 .0242449
1064.102 .0242439
1064.680 .0242433
1065.258 .0242426
1065.836 .0242421
1066.414 .0242430
1066.992 .0242438
1067.570 .0242467
1068.148 .0242516
1068.726 .0242574
1069.304 .0242657
1069.882 .0242748
1070.460 .0242818
1071.038 .0242881
1071.616 .0242924
1072.194 .0242947
1072.772 .0242952
1073.350 .0242964
1073.928 .0242966
1074.506 .0242973
1075.084 .0242975
1075.662 .0242981
1076.240 .0242985
1076.819 .0242989
1077.397 .0242973
1077.976 .0242954
1078.554 .0242924
1079.133 .0242887
1079.711 .0242846
1080.290 .0242824
1080.869 .0242815
1081.448 .0242820
1082.027 .0242826
1082.606 .0242845
1083.185 .0242869
1083.764 .0242894
1084.343 .0242897
1084.923 .0242903
1085.502 .0242883
1086.082 .0242846
1086.662 .0242798
1087.242 .0242741
1087.822 .0242686
1088.402 .0242647
1088.983 .0242635
1089.563 .0242645
1090.144 .0242671
1090.725 .0242739
1091.306 .0242820
1091.887 .0242938
1092.469 .0243077
1093.050 .0243228
1093.632 .0243416
1094.214 .0243643
1094.796 .0243895
1095.379 .0244186
1095.961 .0244519
1096.544 .0244887
1097.127 .0245291
1097.710 .0245716
1098.294 .0246166
1098.877 .0246625
1099.461 .0247106
1100.046 .0247576
1100.630 .0248024
1101.215 .0248457
1101.800 .0248853
1102.385 .0249214
1102.970 .0249546
1103.556 .0249844
1104.142 .0250131
1104.728 .0250399
1105.315 .0250669
1105.902 .0250932
1106.489 .0251186
1107.077 .0251429
1107.664 .0251659
1108.253 .0251875
1108.841 .0252093
1109.430 .0252324
1110.019 .0252598
1110.609 .0252927
1111.198 .0253323
1111.789 .0253782
1112.379 .0254288
1112.970 .0254838
1113.561 .0255399
1114.153 .0255969
1114.745 .0256555
1115.338 .0257150
1115.931 .0257770
1116.524 .0258428
1117.117 .0259131
1117.712 .0259889
1118.306 .0260686
1118.901 .0261493
1119.496 .0262271
1120.092 .0263025
1120.689 .0263726
1121.285 .0264379
1121.882 .0264989
1122.480 .0265574
1123.078 .0266167
1123.677 .0266796
1124.276 .0267456
1124.875 .0268136
1125.476 .0268860
1126.076 .0269600
1126.677 .0270348
1127.279 .0271099
1127.881 .0271813
1128.484 .0272515
1129.087 .0273190
1129.691 .0273867
1130.295 .0274529
1130.900 .0275169
1131.505 .0275823
1132.111 .0276494
1132.718 .0277215
1133.325 .0277938
1133.933 .0278692
1134.541 .0279478
1135.150 .0280303
1135.760 .0281123
1136.370 .0281933
1136.981 .0282793
1137.592 .0283685
1138.204 .0284654
1138.817 .0285699
1139.431 .0286891
1140.045 .0288239
1140.660 .0289766
1141.275 .0291579
1141.891 .0293766
1142.508 .0295665
1143.126 .0296824
1143.744 .0299453
1144.363 .0304637
1144.983 .0311994
