Measurement Sequence started on: 15-12-46-377
Integration time: 28
Scans to Average: 2 
>>>>>Begin Spectral Data<<<<<
432.689 .0000100
433.621 .0000100
434.552 .0000100
435.482 .0000100
436.410 .0000100
437.337 .0000100
438.262 .0262239
439.187 .0558249
440.110 .0927244
441.031 .1344923
441.952 .1751990
442.871 .2075049
443.789 .2256007
444.705 .2274402
445.621 .2153471
446.535 .1945117
447.447 .1706905
448.359 .1339621
449.269 .1155752
450.178 .1039256
451.086 .0956663
451.993 .0893644
452.898 .0843520
453.803 .0802499
454.706 .0768311
455.608 .0739206
456.508 .0714269
457.408 .0692659
458.306 .0673764
459.204 .0656737
460.100 .0641312
460.995 .0627264
461.888 .0614397
462.781 .0602490
463.673 .0591350
464.563 .0581010
465.452 .0571253
466.340 .0561990
467.228 .0553148
468.114 .0544739
468.999 .0536896
469.882 .0529528
470.765 .0522724
471.647 .0516478
472.528 .0510797
473.407 .0505677
474.286 .0501198
475.163 .0497207
476.040 .0493671
476.915 .0490596
477.790 .0487906
478.663 .0485578
479.535 .0483587
480.407 .0482011
481.277 .0480762
482.147 .0479906
483.015 .0479400
483.883 .0479161
484.749 .0479188
485.615 .0479404
486.479 .0479762
487.343 .0480348
488.206 .0481058
489.067 .0481862
489.928 .0482725
490.788 .0483728
491.647 .0484759
492.505 .0485841
493.362 .0487012
494.218 .0488327
495.073 .0489700
495.928 .0491255
496.781 .0492889
497.634 .0494735
498.486 .0496760
499.337 .0498961
500.187 .0501336
501.036 .0503903
501.884 .0506645
502.731 .0509661
503.578 .0513021
504.424 .0516840
505.268 .0521061
506.113 .0525788
506.956 .0531001
507.798 .0536783
508.640 .0543040
509.480 .0549822
510.320 .0557383
511.160 .0565828
511.998 .0575250
512.836 .0585867
513.672 .0597773
514.508 .0611014
515.344 .0625818
516.178 .0642111
517.012 .0660127
517.845 .0680314
518.677 .0703166
519.508 .0728609
520.339 .0757577
521.169 .0790715
521.998 .0828310
522.826 .0871088
523.654 .0919578
524.481 .0973409
525.307 .1033270
526.133 .1098533
526.958 .1168502
527.782 .1242425
528.605 .1319026
529.428 .1396157
530.250 .1469285
531.072 .1535967
531.892 .1591638
532.712 .1633746
533.532 .1660472
534.350 .1669231
535.168 .1659669
535.986 .1632425
536.802 .1589246
537.618 .1532787
538.434 .1465757
539.249 .1392456
540.063 .1315470
540.876 .1238111
541.689 .1162295
542.501 .1090395
543.313 .1024240
544.124 .0964360
544.934 .0910533
545.744 .0862014
546.553 .0818310
547.361 .0779337
548.169 .0744732
548.976 .0713617
549.783 .0686056
550.589 .0661514
551.395 .0639372
552.200 .0619409
553.004 .0601338
553.808 .0584617
554.611 .0569383
555.414 .0555578
556.216 .0542821
557.018 .0531310
557.819 .0521005
558.619 .0511763
559.419 .0503459
560.218 .0496068
561.017 .0489346
561.815 .0483017
562.613 .0477123
563.410 .0471247
564.207 .0465522
565.003 .0459955
565.799 .0454476
566.594 .0449108
567.388 .0443992
568.182 .0439048
568.976 .0434186
569.769 .0429515
570.562 .0424987
571.354 .0420505
572.145 .0416091
572.936 .0411680
573.727 .0407316
574.517 .0402987
575.307 .0398728
576.096 .0394544
576.885 .0390523
577.673 .0386660
578.461 .0382948
579.248 .0379419
580.035 .0376053
580.821 .0372889
581.607 .0369912
582.392 .0367151
583.177 .0364600
583.962 .0362213
584.746 .0360035
585.529 .0358049
586.313 .0356270
587.095 .0354646
587.878 .0353168
588.660 .0351864
589.441 .0350670
590.222 .0349580
591.003 .0348596
591.783 .0347682
592.563 .0346834
593.342 .0346013
594.121 .0345211
594.899 .0344424
595.678 .0343652
596.455 .0342881
597.233 .0342128
598.009 .0341377
598.786 .0340639
599.562 .0339893
600.338 .0339152
601.113 .0338410
601.888 .0337654
602.663 .0336910
603.437 .0336164
604.211 .0335414
604.984 .0334678
605.757 .0333961
606.530 .0333281
607.302 .0332631
608.074 .0332015
608.845 .0331443
609.616 .0330902
610.387 .0330392
611.158 .0329918
611.928 .0329472
612.697 .0329057
613.467 .0328669
614.236 .0328311
615.004 .0327984
615.773 .0327681
616.541 .0327403
617.308 .0327143
618.076 .0326907
618.843 .0326685
619.609 .0326475
620.375 .0326280
621.141 .0326089
621.907 .0325896
622.672 .0325704
623.437 .0325504
624.202 .0325289
624.966 .0325057
625.730 .0324811
626.493 .0324548
627.257 .0324275
628.020 .0323997
628.782 .0323719
629.545 .0323445
630.307 .0323180
631.068 .0322912
631.830 .0322648
632.591 .0322375
633.352 .0322105
634.112 .0321830
634.872 .0321553
635.632 .0321284
636.392 .0321026
637.151 .0320788
637.910 .0320567
638.668 .0320360
639.427 .0320173
640.185 .0320001
640.943 .0319839
641.700 .0319680
642.457 .0319536
643.214 .0319400
643.971 .0319266
644.727 .0319132
645.483 .0319001
646.239 .0318861
646.994 .0318716
647.750 .0318562
648.505 .0318396
649.259 .0318226
650.014 .0318049
650.768 .0317868
651.521 .0317690
652.275 .0317502
653.028 .0317304
653.781 .0317088
654.534 .0316850
655.286 .0316579
656.039 .0316283
656.791 .0315965
657.542 .0315628
658.294 .0315275
659.045 .0314918
659.796 .0314567
660.546 .0314227
661.297 .0313893
662.047 .0313562
662.796 .0313237
663.546 .0312911
664.295 .0312578
665.044 .0312243
665.793 .0311906
666.542 .0311572
667.290 .0311241
668.038 .0310912
668.786 .0310590
669.533 .0310268
670.281 .0309945
671.028 .0309618
671.774 .0309288
672.521 .0308953
673.267 .0308614
674.013 .0308282
674.759 .0307957
675.505 .0307635
676.250 .0307320
676.995 .0307016
677.740 .0306718
678.484 .0306422
679.229 .0306129
679.973 .0305838
680.717 .0305551
681.460 .0305265
682.204 .0304983
682.947 .0304710
683.690 .0304452
684.433 .0304205
685.175 .0303966
685.917 .0303735
686.659 .0303510
687.401 .0303282
688.142 .0303055
688.884 .0302824
689.625 .0302589
690.365 .0302352
691.106 .0302109
691.846 .0301867
692.586 .0301627
693.326 .0301388
694.066 .0301157
694.805 .0300931
695.545 .0300710
696.284 .0300495
697.022 .0300286
697.761 .0300081
698.499 .0299885
699.237 .0299696
699.975 .0299512
700.713 .0299334
701.450 .0299166
702.187 .0299008
702.924 .0298864
703.661 .0298739
704.397 .0298627
705.133 .0298531
705.869 .0298451
706.605 .0298378
707.341 .0298312
708.076 .0298249
708.811 .0298182
709.546 .0298105
710.281 .0298019
711.015 .0297917
711.749 .0297800
712.483 .0297676
713.217 .0297542
713.950 .0297404
714.684 .0297262
715.417 .0297119
716.150 .0296979
716.882 .0296843
717.615 .0296710
718.347 .0296576
719.079 .0296444
719.811 .0296314
720.542 .0296185
721.273 .0296059
722.005 .0295936
722.735 .0295819
723.466 .0295710
724.196 .0295606
724.927 .0295503
725.656 .0295404
726.386 .0295304
727.116 .0295201
727.845 .0295092
728.574 .0294975
729.303 .0294848
730.031 .0294716
730.760 .0294584
731.488 .0294450
732.216 .0294317
732.944 .0294191
733.671 .0294071
734.398 .0293957
735.125 .0293850
735.852 .0293749
736.579 .0293650
737.305 .0293555
738.031 .0293459
738.757 .0293363
739.483 .0293263
740.208 .0293162
740.933 .0293058
741.658 .0292951
742.383 .0292839
743.108 .0292722
743.832 .0292603
744.556 .0292484
745.280 .0292363
746.004 .0292239
746.727 .0292111
747.450 .0291984
748.173 .0291851
748.896 .0291720
749.618 .0291590
750.340 .0291456
751.062 .0291321
751.784 .0291184
752.506 .0291039
753.227 .0290882
753.948 .0290708
754.669 .0290519
755.389 .0290312
756.110 .0290092
756.830 .0289854
757.550 .0289608
758.269 .0289359
758.989 .0289102
759.708 .0288831
760.427 .0288553
761.146 .0288261
761.864 .0287956
762.582 .0287644
763.300 .0287326
764.018 .0287009
764.736 .0286704
765.453 .0286410
766.170 .0286131
766.887 .0285865
767.603 .0285611
768.320 .0285361
769.036 .0285117
769.751 .0284870
770.467 .0284623
771.182 .0284382
771.897 .0284149
772.612 .0283926
773.327 .0283721
774.041 .0283531
774.755 .0283358
775.469 .0283199
776.183 .0283049
776.896 .0282903
777.609 .0282760
778.322 .0282612
779.035 .0282461
779.747 .0282308
780.459 .0282151
781.171 .0281995
781.882 .0281844
782.594 .0281698
783.305 .0281560
784.016 .0281431
784.726 .0281307
785.436 .0281189
786.147 .0281076
786.856 .0280963
787.566 .0280850
788.275 .0280738
788.984 .0280625
789.693 .0280511
790.401 .0280403
791.110 .0280300
791.818 .0280202
792.525 .0280112
793.233 .0280026
793.940 .0279940
794.647 .0279854
795.353 .0279766
796.060 .0279673
796.766 .0279574
797.472 .0279469
798.177 .0279358
798.883 .0279241
799.588 .0279122
800.292 .0279003
800.997 .0278890
801.701 .0278781
802.405 .0278684
803.109 .0278598
803.812 .0278527
804.515 .0278464
805.218 .0278403
805.921 .0278343
806.623 .0278278
807.325 .0278206
808.027 .0278131
808.728 .0278051
809.429 .0277972
810.130 .0277894
810.831 .0277822
811.531 .0277753
812.231 .0277686
812.931 .0277621
813.630 .0277550
814.330 .0277474
815.029 .0277394
815.727 .0277307
816.426 .0277224
817.124 .0277151
817.821 .0277089
818.519 .0277043
819.216 .0277012
819.913 .0277000
820.609 .0277000
821.306 .0277012
822.002 .0277036
822.697 .0277065
823.393 .0277105
824.088 .0277150
824.783 .0277198
825.477 .0277255
826.171 .0277320
826.865 .0277392
827.559 .0277467
828.252 .0277551
828.945 .0277637
829.638 .0277724
830.330 .0277815
831.023 .0277907
831.714 .0277995
832.406 .0278082
833.097 .0278158
833.788 .0278223
834.479 .0278278
835.169 .0278326
835.859 .0278369
836.548 .0278409
837.238 .0278450
837.927 .0278490
838.615 .0278529
839.304 .0278566
839.992 .0278598
840.680 .0278622
841.367 .0278640
842.054 .0278647
842.741 .0278652
843.428 .0278651
844.114 .0278652
844.800 .0278652
845.485 .0278654
846.170 .0278650
846.855 .0278639
847.540 .0278614
848.224 .0278575
848.908 .0278520
849.592 .0278448
850.275 .0278358
850.958 .0278258
851.641 .0278146
852.323 .0278026
853.005 .0277895
853.687 .0277753
854.368 .0277593
855.049 .0277416
855.730 .0277218
856.410 .0277001
857.090 .0276769
857.769 .0276522
858.449 .0276265
859.128 .0276006
859.806 .0275744
860.485 .0275488
861.163 .0275242
861.840 .0275006
862.518 .0274776
863.195 .0274547
863.871 .0274315
864.548 .0274080
865.224 .0273837
865.899 .0273586
866.574 .0273330
867.249 .0273074
867.924 .0272818
868.598 .0272571
869.272 .0272336
869.946 .0272114
870.619 .0271899
871.292 .0271690
871.964 .0271476
872.636 .0271250
873.308 .0271011
873.979 .0270760
874.651 .0270498
875.321 .0270233
875.992 .0269968
876.662 .0269710
877.331 .0269466
878.001 .0269237
878.670 .0269020
879.338 .0268820
880.007 .0268631
880.675 .0268448
881.342 .0268267
882.009 .0268090
882.676 .0267913
883.343 .0267738
884.009 .0267567
884.675 .0267397
885.340 .0267231
886.005 .0267062
886.670 .0266895
887.334 .0266729
887.998 .0266566
888.662 .0266404
889.325 .0266246
889.988 .0266093
890.650 .0265944
891.312 .0265795
891.974 .0265647
892.636 .0265500
893.297 .0265360
893.957 .0265218
894.618 .0265079
895.278 .0264946
895.937 .0264820
896.596 .0264706
897.255 .0264608
897.914 .0264518
898.572 .0264439
899.230 .0264362
899.887 .0264281
900.544 .0264187
901.201 .0264080
901.857 .0263951
902.513 .0263801
903.168 .0263635
903.823 .0263449
904.478 .0263246
905.132 .0263033
905.786 .0262806
906.440 .0262567
907.093 .0262313
907.746 .0262043
908.399 .0261755
909.051 .0261454
909.703 .0261139
910.354 .0260815
911.005 .0260491
911.656 .0260174
912.306 .0259863
912.956 .0259566
913.605 .0259286
914.254 .0259025
914.903 .0258784
915.551 .0258562
916.199 .0258361
916.847 .0258183
917.494 .0258022
918.141 .0257877
918.788 .0257744
919.434 .0257622
920.079 .0257503
920.725 .0257388
921.370 .0257276
922.014 .0257164
922.658 .0257052
923.302 .0256939
923.946 .0256826
924.589 .0256707
925.231 .0256578
925.873 .0256439
926.515 .0256289
927.157 .0256127
927.798 .0255952
928.439 .0255771
929.079 .0255589
929.719 .0255407
930.359 .0255227
930.998 .0255056
931.637 .0254894
932.275 .0254742
932.913 .0254598
933.551 .0254464
934.188 .0254341
934.825 .0254231
935.462 .0254134
936.098 .0254053
936.733 .0253991
937.369 .0253948
938.004 .0253924
938.638 .0253918
939.273 .0253925
939.907 .0253945
940.540 .0253978
941.173 .0254023
941.806 .0254081
942.438 .0254155
943.070 .0254245
943.702 .0254347
944.333 .0254460
944.964 .0254581
945.594 .0254702
946.224 .0254819
946.854 .0254930
947.483 .0255032
948.112 .0255125
948.741 .0255211
949.369 .0255296
949.996 .0255379
950.624 .0255465
951.251 .0255550
951.878 .0255636
952.504 .0255721
953.130 .0255801
953.755 .0255871
954.380 .0255934
955.005 .0255993
955.629 .0256042
956.253 .0256088
956.877 .0256135
957.500 .0256185
958.123 .0256239
958.746 .0256296
959.368 .0256355
959.990 .0256413
960.611 .0256473
961.232 .0256533
961.853 .0256593
962.473 .0256659
963.093 .0256726
963.712 .0256796
964.331 .0256867
964.950 .0256940
965.569 .0257010
966.187 .0257082
966.804 .0257161
967.422 .0257244
968.039 .0257332
968.655 .0257429
969.272 .0257533
969.887 .0257637
970.503 .0257741
971.118 .0257837
971.733 .0257924
972.347 .0258006
972.961 .0258079
973.575 .0258144
974.188 .0258205
974.801 .0258258
975.414 .0258301
976.026 .0258337
976.638 .0258362
977.250 .0258369
977.861 .0258364
978.472 .0258348
979.083 .0258319
979.693 .0258281
980.303 .0258240
980.912 .0258199
981.521 .0258157
982.130 .0258113
982.738 .0258061
983.346 .0258003
983.954 .0257943
984.562 .0257874
985.169 .0257801
985.775 .0257727
986.382 .0257654
986.988 .0257580
987.594 .0257512
988.199 .0257450
988.804 .0257390
989.409 .0257332
990.013 .0257272
990.617 .0257202
991.221 .0257123
991.824 .0257039
992.427 .0256956
993.030 .0256879
993.632 .0256814
994.234 .0256756
994.836 .0256711
995.438 .0256683
996.039 .0256667
996.640 .0256657
997.240 .0256657
997.840 .0256656
998.440 .0256654
999.040 .0256650
999.639 .0256647
1000.238 .0256644
1000.836 .0256646
1001.435 .0256644
1002.033 .0256642
1002.630 .0256634
1003.228 .0256622
1003.825 .0256601
1004.422 .0256577
1005.018 .0256544
1005.614 .0256505
1006.210 .0256460
1006.806 .0256415
1007.401 .0256367
1007.996 .0256325
1008.591 .0256284
1009.186 .0256248
1009.780 .0256211
1010.374 .0256176
1010.967 .0256144
1011.561 .0256117
1012.154 .0256082
1012.746 .0256043
1013.339 .0255995
1013.931 .0255940
1014.523 .0255871
1015.115 .0255792
1015.706 .0255699
1016.298 .0255594
1016.888 .0255475
1017.479 .0255349
1018.069 .0255216
1018.660 .0255085
1019.250 .0254958
1019.839 .0254839
1020.429 .0254731
1021.018 .0254636
1021.607 .0254555
1022.195 .0254489
1022.784 .0254430
1023.372 .0254373
1023.960 .0254319
1024.547 .0254273
1025.135 .0254238
1025.722 .0254210
1026.309 .0254197
1026.896 .0254196
1027.483 .0254201
1028.069 .0254209
1028.655 .0254211
1029.241 .0254197
1029.827 .0254162
1030.412 .0254097
1030.997 .0254004
1031.582 .0253886
1032.167 .0253753
1032.752 .0253610
1033.336 .0253470
1033.921 .0253331
1034.505 .0253193
1035.089 .0253056
1035.672 .0252919
1036.256 .0252772
1036.839 .0252620
1037.422 .0252455
1038.005 .0252286
1038.588 .0252116
1039.171 .0251950
1039.753 .0251794
1040.335 .0251654
1040.918 .0251526
1041.500 .0251410
1042.081 .0251295
1042.663 .0251184
1043.244 .0251073
1043.826 .0250958
1044.407 .0250838
1044.988 .0250715
1045.569 .0250589
1046.150 .0250457
1046.730 .0250323
1047.311 .0250182
1047.891 .0250027
1048.471 .0249864
1049.052 .0249684
1049.632 .0249488
1050.211 .0249293
1050.791 .0249093
1051.371 .0248891
1051.950 .0248697
1052.530 .0248513
1053.109 .0248336
1053.688 .0248168
1054.268 .0248012
1054.847 .0247851
1055.426 .0247696
1056.005 .0247537
1056.583 .0247370
1057.162 .0247206
1057.741 .0247047
1058.319 .0246894
1058.898 .0246756
1059.476 .0246632
1060.055 .0246516
1060.633 .0246405
1061.211 .0246297
1061.790 .0246195
1062.368 .0246096
1062.946 .0245991
1063.524 .0245894
1064.102 .0245807
1064.680 .0245738
1065.258 .0245672
1065.836 .0245622
1066.414 .0245578
1066.992 .0245523
1067.570 .0245469
1068.148 .0245393
1068.726 .0245319
1069.304 .0245254
1069.882 .0245198
1070.460 .0245157
1071.038 .0245134
1071.616 .0245120
1072.194 .0245105
1072.772 .0245099
1073.350 .0245091
1073.928 .0245066
1074.506 .0245031
1075.084 .0244988
1075.662 .0244947
1076.240 .0244924
1076.819 .0244932
1077.397 .0244960
1077.976 .0245016
1078.554 .0245077
1079.133 .0245128
1079.711 .0245164
1080.290 .0245177
1080.869 .0245162
1081.448 .0245132
1082.027 .0245085
1082.606 .0245029
1083.185 .0244977
1083.764 .0244934
1084.343 .0244897
1084.923 .0244863
1085.502 .0244819
1086.082 .0244761
1086.662 .0244698
1087.242 .0244633
1087.822 .0244560
1088.402 .0244496
1088.983 .0244431
1089.563 .0244363
1090.144 .0244295
1090.725 .0244232
1091.306 .0244161
1091.887 .0244109
1092.469 .0244076
1093.050 .0244071
1093.632 .0244101
1094.214 .0244177
1094.796 .0244299
1095.379 .0244456
1095.961 .0244646
1096.544 .0244849
1097.127 .0245043
1097.710 .0245240
1098.294 .0245433
1098.877 .0245626
1099.461 .0245817
1100.046 .0246010
1100.630 .0246213
1101.215 .0246441
1101.800 .0246687
1102.385 .0246934
1102.970 .0247188
1103.556 .0247442
1104.142 .0247691
1104.728 .0247924
1105.315 .0248179
1105.902 .0248428
1106.489 .0248698
1107.077 .0248990
1107.664 .0249301
1108.253 .0249642
1108.841 .0250030
1109.430 .0250470
1110.019 .0250948
1110.609 .0251447
1111.198 .0251960
1111.789 .0252489
1112.379 .0253055
1112.970 .0253609
1113.561 .0254180
1114.153 .0254782
1114.745 .0255421
1115.338 .0256062
1115.931 .0256727
1116.524 .0257413
1117.117 .0258104
1117.712 .0258795
1118.306 .0259463
1118.901 .0260123
1119.496 .0260760
1120.092 .0261382
1120.689 .0262004
1121.285 .0262633
1121.882 .0263229
1122.480 .0263783
1123.078 .0264339
1123.677 .0264870
1124.276 .0265354
1124.875 .0265834
1125.476 .0266322
1126.076 .0266881
1126.677 .0267473
1127.279 .0268125
1127.881 .0268847
1128.484 .0269649
1129.087 .0270468
1129.691 .0271293
1130.295 .0272149
1130.900 .0273017
1131.505 .0273881
1132.111 .0274816
1132.718 .0275750
1133.325 .0276697
1133.933 .0277616
1134.541 .0278513
1135.150 .0279322
1135.760 .0280065
1136.370 .0280731
1136.981 .0281361
1137.592 .0281995
1138.204 .0282669
1138.817 .0283383
1139.431 .0284201
1140.045 .0285001
1140.660 .0285918
1141.275 .0286987
1141.891 .0288508
1142.508 .0289127
1143.126 .0287522
1143.744 .0291688
1144.363 .0296409
1144.983 .0305833
