Measurement Sequence started on: 15-12-46-377
Integration time: 28
Scans to Average: 2 
>>>>>Begin Spectral Data<<<<<
432.689 .0000100
433.621 .0000100
434.552 .0000100
435.482 .0000100
436.410 .0000100
437.337 .0000100
438.262 .0278162
439.187 .0589315
440.110 .0976218
441.031 .1412079
441.952 .1834627
442.871 .2166503
443.789 .2347017
444.705 .2355399
445.621 .2217725
446.535 .1990131
447.447 .1733687
448.359 .1342943
449.269 .1150330
450.178 .1029887
451.086 .0946384
451.993 .0883656
452.898 .0834371
453.803 .0794399
454.706 .0761434
455.608 .0733184
456.508 .0708592
457.408 .0687115
458.306 .0668341
459.204 .0651490
460.100 .0636202
460.995 .0622299
461.888 .0609445
462.781 .0597632
463.673 .0586660
464.563 .0576502
465.452 .0567048
466.340 .0558165
467.228 .0550015
468.114 .0542503
468.999 .0535703
469.882 .0529448
470.765 .0523742
471.647 .0518602
472.528 .0513924
473.407 .0509593
474.286 .0505671
475.163 .0502117
476.040 .0498926
476.915 .0495996
477.790 .0493287
478.663 .0490794
479.535 .0488503
480.407 .0486422
481.277 .0484572
482.147 .0482985
483.015 .0481676
483.883 .0480636
484.749 .0479883
485.615 .0479400
486.479 .0479092
487.343 .0478936
488.206 .0478915
489.067 .0478966
489.928 .0479114
490.788 .0479422
491.647 .0480009
492.505 .0480905
493.362 .0482162
494.218 .0483684
495.073 .0485431
495.928 .0487401
496.781 .0489325
497.634 .0491267
498.486 .0493208
499.337 .0495186
500.187 .0497277
501.036 .0499594
501.884 .0502327
502.731 .0505521
503.578 .0509240
504.424 .0513475
505.268 .0518063
506.113 .0522975
506.956 .0528175
507.798 .0533693
508.640 .0539611
509.480 .0546064
510.320 .0553119
511.160 .0561096
511.998 .0569802
512.836 .0579486
513.672 .0590144
514.508 .0601850
515.344 .0614802
516.178 .0629183
517.012 .0645268
517.845 .0663652
518.677 .0684627
519.508 .0708446
520.339 .0735700
521.169 .0766949
521.998 .0801936
522.826 .0841521
523.654 .0885783
524.481 .0934929
525.307 .0989366
526.133 .1049684
526.958 .1115069
527.782 .1184897
528.605 .1257703
529.428 .1331240
530.250 .1400161
531.072 .1462110
531.892 .1512150
532.712 .1548047
533.532 .1568196
534.350 .1570472
535.168 .1554679
535.986 .1523344
536.802 .1478129
537.618 .1422065
538.434 .1357891
539.249 .1290384
540.063 .1220769
540.876 .1152329
541.689 .1086595
542.501 .1024980
543.313 .0968938
544.124 .0918514
544.934 .0872649
545.744 .0831512
546.553 .0794421
547.361 .0761454
548.169 .0732444
548.976 .0706875
549.783 .0684319
550.589 .0664101
551.395 .0645537
552.200 .0628499
553.004 .0612443
553.808 .0597232
554.611 .0582865
555.414 .0569451
556.216 .0556961
557.018 .0545491
557.819 .0535129
558.619 .0525585
559.419 .0516787
560.218 .0508674
561.017 .0500934
561.815 .0493415
562.613 .0486112
563.410 .0478836
564.207 .0471733
565.003 .0464887
565.799 .0458251
566.594 .0451839
567.388 .0445803
568.182 .0439997
568.976 .0434382
569.769 .0428956
570.562 .0423724
571.354 .0418566
572.145 .0413624
572.936 .0408825
573.727 .0404117
574.517 .0399560
575.307 .0395140
576.096 .0390826
576.885 .0386674
577.673 .0382652
578.461 .0378787
579.248 .0375075
580.035 .0371543
580.821 .0368179
581.607 .0364993
582.392 .0362030
583.177 .0359299
583.962 .0356790
584.746 .0354511
585.529 .0352443
586.313 .0350586
587.095 .0348939
587.878 .0347465
588.660 .0346162
589.441 .0345000
590.222 .0343962
591.003 .0343046
591.783 .0342230
592.563 .0341512
593.342 .0340900
594.121 .0340346
594.899 .0339856
595.678 .0339399
596.455 .0338962
597.233 .0338539
598.009 .0338120
598.786 .0337703
599.562 .0337286
600.338 .0336873
601.113 .0336481
601.888 .0336092
602.663 .0335722
603.437 .0335357
604.211 .0334995
604.984 .0334633
605.757 .0334269
606.530 .0333905
607.302 .0333543
608.074 .0333182
608.845 .0332830
609.616 .0332477
610.387 .0332135
611.158 .0331795
611.928 .0331457
612.697 .0331121
613.467 .0330802
614.236 .0330493
615.004 .0330197
615.773 .0329924
616.541 .0329670
617.308 .0329432
618.076 .0329208
618.843 .0328984
619.609 .0328759
620.375 .0328539
621.141 .0328317
621.907 .0328079
622.672 .0327839
623.437 .0327585
624.202 .0327317
624.966 .0327029
625.730 .0326715
626.493 .0326369
627.257 .0325994
628.020 .0325601
628.782 .0325173
629.545 .0324731
630.307 .0324273
631.068 .0323805
631.830 .0323328
632.591 .0322836
633.352 .0322331
634.112 .0321816
634.872 .0321305
635.632 .0320796
636.392 .0320294
637.151 .0319821
637.910 .0319372
638.668 .0318960
639.427 .0318574
640.185 .0318213
640.943 .0317870
641.700 .0317541
642.457 .0317217
643.214 .0316892
643.971 .0316571
644.727 .0316265
645.483 .0315977
646.239 .0315714
646.994 .0315475
647.750 .0315264
648.505 .0315075
649.259 .0314904
650.014 .0314741
650.768 .0314580
651.521 .0314417
652.275 .0314251
653.028 .0314081
653.781 .0313906
654.534 .0313732
655.286 .0313553
656.039 .0313373
656.791 .0313192
657.542 .0312999
658.294 .0312798
659.045 .0312593
659.796 .0312381
660.546 .0312159
661.297 .0311931
662.047 .0311702
662.796 .0311466
663.546 .0311237
664.295 .0311010
665.044 .0310786
665.793 .0310569
666.542 .0310360
667.290 .0310163
668.038 .0309984
668.786 .0309820
669.533 .0309669
670.281 .0309529
671.028 .0309400
671.774 .0309272
672.521 .0309148
673.267 .0309033
674.013 .0308928
674.759 .0308832
675.505 .0308749
676.250 .0308672
676.995 .0308605
677.740 .0308541
678.484 .0308473
679.229 .0308396
679.973 .0308304
680.717 .0308200
681.460 .0308082
682.204 .0307952
682.947 .0307816
683.690 .0307671
684.433 .0307517
685.175 .0307356
685.917 .0307179
686.659 .0306988
687.401 .0306784
688.142 .0306571
688.884 .0306345
689.625 .0306107
690.365 .0305861
691.106 .0305607
691.846 .0305352
692.586 .0305096
693.326 .0304837
694.066 .0304581
694.805 .0304331
695.545 .0304081
696.284 .0303831
697.022 .0303580
697.761 .0303324
698.499 .0303061
699.237 .0302786
699.975 .0302499
700.713 .0302201
701.450 .0301900
702.187 .0301597
702.924 .0301299
703.661 .0301010
704.397 .0300733
705.133 .0300467
705.869 .0300212
706.605 .0299963
707.341 .0299717
708.076 .0299471
708.811 .0299226
709.546 .0298981
710.281 .0298739
711.015 .0298500
711.749 .0298270
712.483 .0298047
713.217 .0297824
713.950 .0297602
714.684 .0297376
715.417 .0297138
716.150 .0296892
716.882 .0296632
717.615 .0296360
718.347 .0296079
719.079 .0295791
719.811 .0295494
720.542 .0295200
721.273 .0294904
722.005 .0294609
722.735 .0294312
723.466 .0294021
724.196 .0293726
724.927 .0293435
725.656 .0293150
726.386 .0292873
727.116 .0292604
727.845 .0292345
728.574 .0292088
729.303 .0291841
730.031 .0291603
730.760 .0291371
731.488 .0291146
732.216 .0290933
732.944 .0290732
733.671 .0290545
734.398 .0290373
735.125 .0290226
735.852 .0290097
736.579 .0289987
737.305 .0289892
738.031 .0289808
738.757 .0289733
739.483 .0289665
740.208 .0289604
740.933 .0289555
741.658 .0289518
742.383 .0289487
743.108 .0289462
743.832 .0289449
744.556 .0289445
745.280 .0289442
746.004 .0289437
746.727 .0289428
747.450 .0289408
748.173 .0289381
748.896 .0289346
749.618 .0289303
750.340 .0289258
751.062 .0289215
751.784 .0289169
752.506 .0289123
753.227 .0289080
753.948 .0289037
754.669 .0288994
755.389 .0288954
756.110 .0288911
756.830 .0288867
757.550 .0288825
758.269 .0288788
758.989 .0288754
759.708 .0288718
760.427 .0288679
761.146 .0288634
761.864 .0288584
762.582 .0288521
763.300 .0288441
764.018 .0288356
764.736 .0288264
765.453 .0288162
766.170 .0288052
766.887 .0287937
767.603 .0287822
768.320 .0287705
769.036 .0287582
769.751 .0287455
770.467 .0287326
771.182 .0287202
771.897 .0287080
772.612 .0286964
773.327 .0286860
774.041 .0286768
774.755 .0286685
775.469 .0286617
776.183 .0286562
776.896 .0286518
777.609 .0286480
778.322 .0286444
779.035 .0286402
779.747 .0286356
780.459 .0286302
781.171 .0286241
781.882 .0286171
782.594 .0286094
783.305 .0286005
784.016 .0285916
784.726 .0285823
785.436 .0285724
786.147 .0285616
786.856 .0285506
787.566 .0285382
788.275 .0285248
788.984 .0285105
789.693 .0284955
790.401 .0284802
791.110 .0284648
791.818 .0284490
792.525 .0284328
793.233 .0284166
793.940 .0284001
794.647 .0283827
795.353 .0283650
796.060 .0283461
796.766 .0283259
797.472 .0283047
798.177 .0282825
798.883 .0282591
799.588 .0282347
800.292 .0282095
800.997 .0281833
801.701 .0281560
802.405 .0281283
803.109 .0280999
803.812 .0280712
804.515 .0280424
805.218 .0280132
805.921 .0279838
806.623 .0279544
807.325 .0279247
808.027 .0278953
808.728 .0278661
809.429 .0278373
810.130 .0278086
810.831 .0277802
811.531 .0277523
812.231 .0277241
812.931 .0276955
813.630 .0276672
814.330 .0276386
815.029 .0276104
815.727 .0275825
816.426 .0275553
817.124 .0275287
817.821 .0275030
818.519 .0274783
819.216 .0274540
819.913 .0274307
820.609 .0274085
821.306 .0273872
822.002 .0273679
822.697 .0273505
823.393 .0273353
824.088 .0273223
824.783 .0273113
825.477 .0273013
826.171 .0272921
826.865 .0272836
827.559 .0272751
828.252 .0272669
828.945 .0272593
829.638 .0272521
830.330 .0272455
831.023 .0272400
831.714 .0272354
832.406 .0272310
833.097 .0272270
833.788 .0272222
834.479 .0272166
835.169 .0272101
835.859 .0272029
836.548 .0271953
837.238 .0271886
837.927 .0271822
838.615 .0271768
839.304 .0271725
839.992 .0271693
840.680 .0271667
841.367 .0271649
842.054 .0271635
842.741 .0271623
843.428 .0271615
844.114 .0271613
844.800 .0271612
845.485 .0271622
846.170 .0271634
846.855 .0271649
847.540 .0271669
848.224 .0271692
848.908 .0271712
849.592 .0271732
850.275 .0271746
850.958 .0271753
851.641 .0271748
852.323 .0271733
853.005 .0271706
853.687 .0271672
854.368 .0271631
855.049 .0271583
855.730 .0271531
856.410 .0271478
857.090 .0271419
857.769 .0271355
858.449 .0271286
859.128 .0271208
859.806 .0271121
860.485 .0271030
861.163 .0270936
861.840 .0270848
862.518 .0270765
863.195 .0270692
863.871 .0270628
864.548 .0270576
865.224 .0270530
865.899 .0270489
866.574 .0270455
867.249 .0270426
867.924 .0270398
868.598 .0270379
869.272 .0270365
869.946 .0270361
870.619 .0270370
871.292 .0270388
871.964 .0270412
872.636 .0270440
873.308 .0270466
873.979 .0270491
874.651 .0270508
875.321 .0270520
875.992 .0270521
876.662 .0270521
877.331 .0270516
878.001 .0270505
878.670 .0270493
879.338 .0270481
880.007 .0270466
880.675 .0270453
881.342 .0270436
882.009 .0270419
882.676 .0270403
883.343 .0270393
884.009 .0270386
884.675 .0270387
885.340 .0270398
886.005 .0270418
886.670 .0270455
887.334 .0270507
887.998 .0270568
888.662 .0270641
889.325 .0270718
889.988 .0270791
890.650 .0270859
891.312 .0270919
891.974 .0270972
892.636 .0271023
893.297 .0271072
893.957 .0271120
894.618 .0271167
895.278 .0271215
895.937 .0271254
896.596 .0271283
897.255 .0271300
897.914 .0271295
898.572 .0271268
899.230 .0271227
899.887 .0271166
900.544 .0271092
901.201 .0271009
901.857 .0270911
902.513 .0270795
903.168 .0270665
903.823 .0270509
904.478 .0270330
905.132 .0270127
905.786 .0269903
906.440 .0269660
907.093 .0269410
907.746 .0269151
908.399 .0268887
909.051 .0268623
909.703 .0268351
910.354 .0268061
911.005 .0267762
911.656 .0267445
912.306 .0267116
912.956 .0266780
913.605 .0266442
914.254 .0266109
914.903 .0265790
915.551 .0265480
916.199 .0265181
916.847 .0264889
917.494 .0264597
918.141 .0264297
918.788 .0263991
919.434 .0263677
920.079 .0263351
920.725 .0263026
921.370 .0262709
922.014 .0262398
922.658 .0262100
923.302 .0261813
923.946 .0261538
924.589 .0261271
925.231 .0260999
925.873 .0260719
926.515 .0260426
927.157 .0260120
927.798 .0259795
928.439 .0259455
929.079 .0259108
929.719 .0258753
930.359 .0258398
930.998 .0258042
931.637 .0257688
932.275 .0257335
932.913 .0256982
933.551 .0256633
934.188 .0256286
934.825 .0255940
935.462 .0255597
936.098 .0255263
936.733 .0254942
937.369 .0254634
938.004 .0254346
938.638 .0254078
939.273 .0253835
939.907 .0253606
940.540 .0253395
941.173 .0253202
941.806 .0253026
942.438 .0252861
943.070 .0252705
943.702 .0252552
944.333 .0252400
944.964 .0252245
945.594 .0252088
946.224 .0251933
946.854 .0251779
947.483 .0251627
948.112 .0251484
948.741 .0251345
949.369 .0251211
949.996 .0251078
950.624 .0250946
951.251 .0250812
951.878 .0250667
952.504 .0250516
953.130 .0250361
953.755 .0250211
954.380 .0250064
955.005 .0249919
955.629 .0249783
956.253 .0249649
956.877 .0249518
957.500 .0249385
958.123 .0249247
958.746 .0249104
959.368 .0248956
959.990 .0248805
960.611 .0248651
961.232 .0248498
961.853 .0248348
962.473 .0248207
963.093 .0248073
963.712 .0247943
964.331 .0247813
964.950 .0247688
965.569 .0247573
966.187 .0247464
966.804 .0247369
967.422 .0247292
968.039 .0247239
968.655 .0247210
969.272 .0247197
969.887 .0247196
970.503 .0247203
971.118 .0247219
971.733 .0247234
972.347 .0247246
972.961 .0247258
973.575 .0247270
974.188 .0247281
974.801 .0247288
975.414 .0247294
976.026 .0247289
976.638 .0247279
977.250 .0247257
977.861 .0247223
978.472 .0247181
979.083 .0247128
979.693 .0247070
980.303 .0247015
980.912 .0246957
981.521 .0246895
982.130 .0246835
982.738 .0246778
983.346 .0246720
983.954 .0246665
984.562 .0246612
985.169 .0246566
985.775 .0246528
986.382 .0246499
986.988 .0246481
987.594 .0246479
988.199 .0246489
988.804 .0246512
989.409 .0246550
990.013 .0246603
990.617 .0246663
991.221 .0246736
991.824 .0246820
992.427 .0246918
993.030 .0247031
993.632 .0247153
994.234 .0247285
994.836 .0247429
995.438 .0247574
996.039 .0247720
996.640 .0247865
997.240 .0248008
997.840 .0248145
998.440 .0248276
999.040 .0248396
999.639 .0248508
1000.238 .0248611
1000.836 .0248709
1001.435 .0248800
1002.033 .0248890
1002.630 .0248979
1003.228 .0249070
1003.825 .0249176
1004.422 .0249299
1005.018 .0249439
1005.614 .0249600
1006.210 .0249782
1006.806 .0249976
1007.401 .0250174
1007.996 .0250373
1008.591 .0250571
1009.186 .0250773
1009.780 .0250972
1010.374 .0251170
1010.967 .0251368
1011.561 .0251571
1012.154 .0251775
1012.746 .0251972
1013.339 .0252169
1013.931 .0252352
1014.523 .0252523
1015.115 .0252677
1015.706 .0252819
1016.298 .0252949
1016.888 .0253075
1017.479 .0253194
1018.069 .0253304
1018.660 .0253408
1019.250 .0253509
1019.839 .0253603
1020.429 .0253698
1021.018 .0253801
1021.607 .0253913
1022.195 .0254035
1022.784 .0254174
1023.372 .0254321
1023.960 .0254483
1024.547 .0254649
1025.135 .0254814
1025.722 .0254973
1026.309 .0255131
1026.896 .0255291
1027.483 .0255454
1028.069 .0255637
1028.655 .0255838
1029.241 .0256053
1029.827 .0256280
1030.412 .0256510
1030.997 .0256734
1031.582 .0256946
1032.167 .0257140
1032.752 .0257314
1033.336 .0257468
1033.921 .0257610
1034.505 .0257740
1035.089 .0257862
1035.672 .0257974
1036.256 .0258071
1036.839 .0258151
1037.422 .0258218
1038.005 .0258264
1038.588 .0258293
1039.171 .0258310
1039.753 .0258324
1040.335 .0258330
1040.918 .0258332
1041.500 .0258335
1042.081 .0258336
1042.663 .0258330
1043.244 .0258323
1043.826 .0258309
1044.407 .0258287
1044.988 .0258264
1045.569 .0258244
1046.150 .0258222
1046.730 .0258201
1047.311 .0258178
1047.891 .0258153
1048.471 .0258136
1049.052 .0258118
1049.632 .0258093
1050.211 .0258079
1050.791 .0258077
1051.371 .0258078
1051.950 .0258077
1052.530 .0258082
1053.109 .0258082
1053.688 .0258072
1054.268 .0258052
1054.847 .0258015
1055.426 .0257976
1056.005 .0257944
1056.583 .0257919
1057.162 .0257908
1057.741 .0257916
1058.319 .0257942
1058.898 .0257986
1059.476 .0258040
1060.055 .0258085
1060.633 .0258113
1061.211 .0258120
1061.790 .0258116
1062.368 .0258089
1062.946 .0258042
1063.524 .0257985
1064.102 .0257931
1064.680 .0257889
1065.258 .0257850
1065.836 .0257817
1066.414 .0257782
1066.992 .0257737
1067.570 .0257680
1068.148 .0257583
1068.726 .0257457
1069.304 .0257303
1069.882 .0257137
1070.460 .0256942
1071.038 .0256730
1071.616 .0256507
1072.194 .0256286
1072.772 .0256072
1073.350 .0255859
1073.928 .0255639
1074.506 .0255419
1075.084 .0255209
1075.662 .0255004
1076.240 .0254801
1076.819 .0254618
1077.397 .0254448
1077.976 .0254295
1078.554 .0254144
1079.133 .0253997
1079.711 .0253850
1080.290 .0253720
1080.869 .0253603
1081.448 .0253503
1082.027 .0253418
1082.606 .0253352
1083.185 .0253309
1083.764 .0253283
1084.343 .0253268
1084.923 .0253259
1085.502 .0253234
1086.082 .0253207
1086.662 .0253155
1087.242 .0253089
1087.822 .0253015
1088.402 .0252950
1088.983 .0252897
1089.563 .0252852
1090.144 .0252807
1090.725 .0252775
1091.306 .0252758
1091.887 .0252777
1092.469 .0252818
1093.050 .0252875
1093.632 .0252936
1094.214 .0253004
1094.796 .0253060
1095.379 .0253101
1095.961 .0253123
1096.544 .0253138
1097.127 .0253123
1097.710 .0253086
1098.294 .0253015
1098.877 .0252934
1099.461 .0252862
1100.046 .0252814
1100.630 .0252769
1101.215 .0252737
1101.800 .0252701
1102.385 .0252662
1102.970 .0252621
1103.556 .0252571
1104.142 .0252513
1104.728 .0252455
1105.315 .0252396
1105.902 .0252358
1106.489 .0252357
1107.077 .0252419
1107.664 .0252553
1108.253 .0252761
1108.841 .0253004
1109.430 .0253247
1110.019 .0253486
1110.609 .0253694
1111.198 .0253857
1111.789 .0253989
1112.379 .0254095
1112.970 .0254194
1113.561 .0254334
1114.153 .0254501
1114.745 .0254706
1115.338 .0254985
1115.931 .0255281
1116.524 .0255574
1117.117 .0255848
1117.712 .0256086
1118.306 .0256280
1118.901 .0256485
1119.496 .0256723
1120.092 .0257027
1120.689 .0257436
1121.285 .0257948
1121.882 .0258515
1122.480 .0259162
1123.078 .0259842
1123.677 .0260525
1124.276 .0261203
1124.875 .0261834
1125.476 .0262378
1126.076 .0262909
1126.677 .0263409
1127.279 .0263913
1127.881 .0264419
1128.484 .0264954
1129.087 .0265468
1129.691 .0265984
1130.295 .0266454
1130.900 .0266891
1131.505 .0267317
1132.111 .0267733
1132.718 .0268128
1133.325 .0268557
1133.933 .0269040
1134.541 .0269616
1135.150 .0270326
1135.760 .0271193
1136.370 .0272175
1136.981 .0273270
1137.592 .0274431
1138.204 .0275653
1138.817 .0276889
1139.431 .0278165
1140.045 .0279489
1140.660 .0280778
1141.275 .0281990
1141.891 .0282966
1142.508 .0285221
1143.126 .0287470
1143.744 .0286507
1144.363 .0285780
1144.983 .0282406
