Measurement Sequence started on: 15-12-46-377
Integration time: 28
Scans to Average: 2 
>>>>>Begin Spectral Data<<<<<
432.689 .0000100
433.621 .0000100
434.552 .0000100
435.482 .0000100
436.410 .0000100
437.337 .0000100
438.262 .0263912
439.187 .0559105
440.110 .0925163
441.031 .1337893
441.952 .1737425
442.871 .2050256
443.789 .2219342
444.705 .2225307
445.621 .2092937
446.535 .1875442
447.447 .1630700
448.359 .1258907
449.269 .1074956
450.178 .0959933
451.086 .0878812
451.993 .0817324
452.898 .0768645
453.803 .0728478
454.706 .0694789
455.608 .0665922
456.508 .0640891
457.408 .0619116
458.306 .0599847
459.204 .0582760
460.100 .0567286
460.995 .0553495
461.888 .0541009
462.781 .0529700
463.673 .0519346
464.563 .0510047
465.452 .0501347
466.340 .0493301
467.228 .0485849
468.114 .0478848
468.999 .0472379
469.882 .0466343
470.765 .0460771
471.647 .0455778
472.528 .0451314
473.407 .0447442
474.286 .0444013
475.163 .0441077
476.040 .0438557
476.915 .0436419
477.790 .0434584
478.663 .0433022
479.535 .0431619
480.407 .0430454
481.277 .0429478
482.147 .0428658
483.015 .0427964
483.883 .0427411
484.749 .0426987
485.615 .0426644
486.479 .0426358
487.343 .0426213
488.206 .0426116
489.067 .0426193
489.928 .0426340
490.788 .0426509
491.647 .0426746
492.505 .0427046
493.362 .0427394
494.218 .0427750
495.073 .0428125
495.928 .0428607
496.781 .0429146
497.634 .0429912
498.486 .0430896
499.337 .0432196
500.187 .0433874
501.036 .0435875
501.884 .0438239
502.731 .0441017
503.578 .0444163
504.424 .0447659
505.268 .0451538
506.113 .0455754
506.956 .0460189
507.798 .0464876
508.640 .0469923
509.480 .0475375
510.320 .0481331
511.160 .0488165
511.998 .0495778
512.836 .0504387
513.672 .0514094
514.508 .0524814
515.344 .0536697
516.178 .0549720
517.012 .0564152
517.845 .0580092
518.677 .0597856
519.508 .0617650
520.339 .0639638
521.169 .0665134
521.998 .0694432
522.826 .0728197
523.654 .0766883
524.481 .0810987
525.307 .0860439
526.133 .0915158
526.958 .0974517
527.782 .1037828
528.605 .1103205
529.428 .1169894
530.250 .1233102
531.072 .1290816
531.892 .1340518
532.712 .1379369
533.532 .1405676
534.350 .1418760
535.168 .1416336
535.986 .1399442
536.802 .1368935
537.618 .1327143
538.434 .1274944
539.249 .1216487
540.063 .1153820
540.876 .1089251
541.689 .1025456
542.501 .0964258
543.313 .0906885
544.124 .0855243
544.934 .0808325
545.744 .0765582
546.553 .0726768
547.361 .0691999
548.169 .0660998
548.976 .0633256
549.783 .0608635
550.589 .0587187
551.395 .0568094
552.200 .0551241
553.004 .0536330
553.808 .0522959
554.611 .0511167
555.414 .0500569
556.216 .0491037
557.018 .0482457
557.819 .0474765
558.619 .0467862
559.419 .0461555
560.218 .0455866
561.017 .0450509
561.815 .0445264
562.613 .0440183
563.410 .0435000
564.207 .0429639
565.003 .0424191
565.799 .0418667
566.594 .0413009
567.388 .0407441
568.182 .0401900
568.976 .0396478
569.769 .0391262
570.562 .0386267
571.354 .0381384
572.145 .0376644
572.936 .0372102
573.727 .0367685
574.517 .0363450
575.307 .0359389
576.096 .0355505
576.885 .0351862
577.673 .0348472
578.461 .0345285
579.248 .0342300
580.035 .0339511
580.821 .0336888
581.607 .0334370
582.392 .0331987
583.177 .0329732
583.962 .0327616
584.746 .0325655
585.529 .0323827
586.313 .0322115
587.095 .0320555
587.878 .0319098
588.660 .0317789
589.441 .0316590
590.222 .0315507
591.003 .0314502
591.783 .0313593
592.563 .0312769
593.342 .0312025
594.121 .0311347
594.899 .0310745
595.678 .0310184
596.455 .0309678
597.233 .0309216
598.009 .0308792
598.786 .0308406
599.562 .0308060
600.338 .0307737
601.113 .0307451
601.888 .0307173
602.663 .0306893
603.437 .0306607
604.211 .0306316
604.984 .0306015
605.757 .0305709
606.530 .0305414
607.302 .0305129
608.074 .0304855
608.845 .0304603
609.616 .0304364
610.387 .0304142
611.158 .0303937
611.928 .0303741
612.697 .0303566
613.467 .0303408
614.236 .0303266
615.004 .0303142
615.773 .0303042
616.541 .0302958
617.308 .0302875
618.076 .0302789
618.843 .0302703
619.609 .0302607
620.375 .0302503
621.141 .0302395
621.907 .0302287
622.672 .0302177
623.437 .0302053
624.202 .0301907
624.966 .0301738
625.730 .0301534
626.493 .0301289
627.257 .0300999
628.020 .0300678
628.782 .0300329
629.545 .0299959
630.307 .0299588
631.068 .0299217
631.830 .0298843
632.591 .0298467
633.352 .0298091
634.112 .0297715
634.872 .0297339
635.632 .0296964
636.392 .0296599
637.151 .0296257
637.910 .0295936
638.668 .0295633
639.427 .0295351
640.185 .0295091
640.943 .0294843
641.700 .0294602
642.457 .0294376
643.214 .0294158
643.971 .0293956
644.727 .0293774
645.483 .0293609
646.239 .0293464
646.994 .0293329
647.750 .0293202
648.505 .0293077
649.259 .0292958
650.014 .0292843
650.768 .0292729
651.521 .0292635
652.275 .0292557
653.028 .0292497
653.781 .0292457
654.534 .0292434
655.286 .0292417
656.039 .0292399
656.791 .0292376
657.542 .0292333
658.294 .0292277
659.045 .0292211
659.796 .0292132
660.546 .0292045
661.297 .0291952
662.047 .0291855
662.796 .0291741
663.546 .0291622
664.295 .0291487
665.044 .0291341
665.793 .0291191
666.542 .0291038
667.290 .0290891
668.038 .0290754
668.786 .0290628
669.533 .0290511
670.281 .0290399
671.028 .0290288
671.774 .0290163
672.521 .0290031
673.267 .0289889
674.013 .0289737
674.759 .0289579
675.505 .0289419
676.250 .0289263
676.995 .0289106
677.740 .0288949
678.484 .0288784
679.229 .0288610
679.973 .0288419
680.717 .0288208
681.460 .0287979
682.204 .0287734
682.947 .0287485
683.690 .0287233
684.433 .0286988
685.175 .0286752
685.917 .0286524
686.659 .0286306
687.401 .0286092
688.142 .0285885
688.884 .0285673
689.625 .0285461
690.365 .0285238
691.106 .0285003
691.846 .0284760
692.586 .0284503
693.326 .0284240
694.066 .0283974
694.805 .0283704
695.545 .0283433
696.284 .0283166
697.022 .0282907
697.761 .0282653
698.499 .0282412
699.237 .0282179
699.975 .0281951
700.713 .0281728
701.450 .0281511
702.187 .0281299
702.924 .0281100
703.661 .0280913
704.397 .0280735
705.133 .0280574
705.869 .0280427
706.605 .0280291
707.341 .0280167
708.076 .0280049
708.811 .0279932
709.546 .0279814
710.281 .0279698
711.015 .0279580
711.749 .0279465
712.483 .0279357
713.217 .0279255
713.950 .0279157
714.684 .0279062
715.417 .0278969
716.150 .0278879
716.882 .0278791
717.615 .0278702
718.347 .0278612
719.079 .0278529
719.811 .0278451
720.542 .0278377
721.273 .0278314
722.005 .0278256
722.735 .0278200
723.466 .0278147
724.196 .0278089
724.927 .0278024
725.656 .0277949
726.386 .0277868
727.116 .0277779
727.845 .0277686
728.574 .0277594
729.303 .0277510
730.031 .0277438
730.760 .0277380
731.488 .0277329
732.216 .0277288
732.944 .0277257
733.671 .0277226
734.398 .0277199
735.125 .0277170
735.852 .0277142
736.579 .0277111
737.305 .0277082
738.031 .0277059
738.757 .0277044
739.483 .0277035
740.208 .0277031
740.933 .0277027
741.658 .0277019
742.383 .0277002
743.108 .0276978
743.832 .0276940
744.556 .0276891
745.280 .0276827
746.004 .0276749
746.727 .0276654
747.450 .0276547
748.173 .0276423
748.896 .0276290
749.618 .0276142
750.340 .0275978
751.062 .0275803
751.784 .0275618
752.506 .0275423
753.227 .0275220
753.948 .0275009
754.669 .0274793
755.389 .0274567
756.110 .0274335
756.830 .0274089
757.550 .0273837
758.269 .0273572
758.989 .0273293
759.708 .0273002
760.427 .0272699
761.146 .0272386
761.864 .0272072
762.582 .0271760
763.300 .0271450
764.018 .0271144
764.736 .0270843
765.453 .0270544
766.170 .0270248
766.887 .0269948
767.603 .0269651
768.320 .0269357
769.036 .0269073
769.751 .0268797
770.467 .0268535
771.182 .0268295
771.897 .0268070
772.612 .0267860
773.327 .0267665
774.041 .0267480
774.755 .0267309
775.469 .0267146
776.183 .0266998
776.896 .0266865
777.609 .0266749
778.322 .0266648
779.035 .0266563
779.747 .0266489
780.459 .0266423
781.171 .0266359
781.882 .0266301
782.594 .0266240
783.305 .0266181
784.016 .0266123
784.726 .0266064
785.436 .0266008
786.147 .0265951
786.856 .0265893
787.566 .0265837
788.275 .0265779
788.984 .0265721
789.693 .0265662
790.401 .0265604
791.110 .0265549
791.818 .0265493
792.525 .0265439
793.233 .0265388
793.940 .0265337
794.647 .0265292
795.353 .0265253
796.060 .0265225
796.766 .0265208
797.472 .0265195
798.177 .0265192
798.883 .0265194
799.588 .0265199
800.292 .0265208
800.997 .0265210
801.701 .0265212
802.405 .0265214
803.109 .0265216
803.812 .0265226
804.515 .0265249
805.218 .0265283
805.921 .0265325
806.623 .0265373
807.325 .0265424
808.027 .0265471
808.728 .0265521
809.429 .0265564
810.130 .0265600
810.831 .0265634
811.531 .0265659
812.231 .0265673
812.931 .0265684
813.630 .0265682
814.330 .0265668
815.029 .0265644
815.727 .0265604
816.426 .0265552
817.124 .0265487
817.821 .0265414
818.519 .0265334
819.216 .0265254
819.913 .0265176
820.609 .0265098
821.306 .0265031
822.002 .0264973
822.697 .0264920
823.393 .0264879
824.088 .0264848
824.783 .0264823
825.477 .0264803
826.171 .0264783
826.865 .0264763
827.559 .0264745
828.252 .0264725
828.945 .0264701
829.638 .0264674
830.330 .0264646
831.023 .0264612
831.714 .0264569
832.406 .0264519
833.097 .0264455
833.788 .0264376
834.479 .0264279
835.169 .0264164
835.859 .0264037
836.548 .0263898
837.238 .0263756
837.927 .0263610
838.615 .0263462
839.304 .0263312
839.992 .0263155
840.680 .0262993
841.367 .0262823
842.054 .0262646
842.741 .0262461
843.428 .0262270
844.114 .0262074
844.800 .0261877
845.485 .0261674
846.170 .0261465
846.855 .0261250
847.540 .0261022
848.224 .0260780
848.908 .0260525
849.592 .0260258
850.275 .0259984
850.958 .0259703
851.641 .0259418
852.323 .0259127
853.005 .0258830
853.687 .0258522
854.368 .0258204
855.049 .0257873
855.730 .0257528
856.410 .0257170
857.090 .0256806
857.769 .0256444
858.449 .0256089
859.128 .0255743
859.806 .0255411
860.485 .0255090
861.163 .0254781
861.840 .0254478
862.518 .0254181
863.195 .0253892
863.871 .0253611
864.548 .0253341
865.224 .0253085
865.899 .0252844
866.574 .0252626
867.249 .0252429
867.924 .0252254
868.598 .0252094
869.272 .0251946
869.946 .0251807
870.619 .0251670
871.292 .0251537
871.964 .0251403
872.636 .0251269
873.308 .0251137
873.979 .0251011
874.651 .0250891
875.321 .0250778
875.992 .0250673
876.662 .0250578
877.331 .0250491
878.001 .0250404
878.670 .0250318
879.338 .0250237
880.007 .0250160
880.675 .0250090
881.342 .0250024
882.009 .0249970
882.676 .0249930
883.343 .0249906
884.009 .0249897
884.675 .0249905
885.340 .0249930
886.005 .0249970
886.670 .0250020
887.334 .0250080
887.998 .0250149
888.662 .0250226
889.325 .0250312
889.988 .0250406
890.650 .0250505
891.312 .0250609
891.974 .0250721
892.636 .0250838
893.297 .0250958
893.957 .0251081
894.618 .0251203
895.278 .0251329
895.937 .0251455
896.596 .0251583
897.255 .0251711
897.914 .0251843
898.572 .0251981
899.230 .0252122
899.887 .0252263
900.544 .0252410
901.201 .0252561
901.857 .0252711
902.513 .0252856
903.168 .0252991
903.823 .0253113
904.478 .0253220
905.132 .0253307
905.786 .0253377
906.440 .0253430
907.093 .0253470
907.746 .0253498
908.399 .0253515
909.051 .0253526
909.703 .0253532
910.354 .0253533
911.005 .0253530
911.656 .0253521
912.306 .0253506
912.956 .0253488
913.605 .0253470
914.254 .0253454
914.903 .0253445
915.551 .0253448
916.199 .0253465
916.847 .0253494
917.494 .0253530
918.141 .0253568
918.788 .0253599
919.434 .0253623
920.079 .0253632
920.725 .0253626
921.370 .0253610
922.014 .0253585
922.658 .0253551
923.302 .0253511
923.946 .0253464
924.589 .0253408
925.231 .0253337
925.873 .0253257
926.515 .0253159
927.157 .0253045
927.798 .0252918
928.439 .0252775
929.079 .0252620
929.719 .0252454
930.359 .0252275
930.998 .0252088
931.637 .0251896
932.275 .0251701
932.913 .0251507
933.551 .0251317
934.188 .0251137
934.825 .0250964
935.462 .0250801
936.098 .0250649
936.733 .0250505
937.369 .0250371
938.004 .0250242
938.638 .0250117
939.273 .0250001
939.907 .0249892
940.540 .0249795
941.173 .0249711
941.806 .0249636
942.438 .0249566
943.070 .0249494
943.702 .0249413
944.333 .0249317
944.964 .0249200
945.594 .0249065
946.224 .0248912
946.854 .0248746
947.483 .0248573
948.112 .0248395
948.741 .0248217
949.369 .0248036
949.996 .0247854
950.624 .0247665
951.251 .0247468
951.878 .0247263
952.504 .0247047
953.130 .0246822
953.755 .0246591
954.380 .0246361
955.005 .0246131
955.629 .0245906
956.253 .0245684
956.877 .0245469
957.500 .0245257
958.123 .0245045
958.746 .0244825
959.368 .0244595
959.990 .0244353
960.611 .0244098
961.232 .0243831
961.853 .0243557
962.473 .0243278
963.093 .0243000
963.712 .0242720
964.331 .0242438
964.950 .0242154
965.569 .0241873
966.187 .0241591
966.804 .0241310
967.422 .0241033
968.039 .0240763
968.655 .0240496
969.272 .0240238
969.887 .0239985
970.503 .0239738
971.118 .0239494
971.733 .0239252
972.347 .0239009
972.961 .0238764
973.575 .0238519
974.188 .0238271
974.801 .0238024
975.414 .0237773
976.026 .0237515
976.638 .0237247
977.250 .0236969
977.861 .0236676
978.472 .0236372
979.083 .0236060
979.693 .0235746
980.303 .0235430
980.912 .0235119
981.521 .0234813
982.130 .0234522
982.738 .0234241
983.346 .0233971
983.954 .0233709
984.562 .0233462
985.169 .0233220
985.775 .0232986
986.382 .0232762
986.988 .0232551
987.594 .0232351
988.199 .0232165
988.804 .0231991
989.409 .0231826
990.013 .0231670
990.617 .0231522
991.221 .0231382
991.824 .0231255
992.427 .0231139
993.030 .0231038
993.632 .0230961
994.234 .0230909
994.836 .0230881
995.438 .0230879
996.039 .0230900
996.640 .0230938
997.240 .0230990
997.840 .0231058
998.440 .0231139
999.040 .0231232
999.639 .0231338
1000.238 .0231454
1000.836 .0231584
1001.435 .0231718
1002.033 .0231853
1002.630 .0231986
1003.228 .0232112
1003.825 .0232228
1004.422 .0232334
1005.018 .0232432
1005.614 .0232526
1006.210 .0232620
1006.806 .0232712
1007.401 .0232803
1007.996 .0232892
1008.591 .0232976
1009.186 .0233054
1009.780 .0233125
1010.374 .0233192
1010.967 .0233252
1011.561 .0233314
1012.154 .0233381
1012.746 .0233453
1013.339 .0233540
1013.931 .0233639
1014.523 .0233751
1015.115 .0233874
1015.706 .0234011
1016.298 .0234156
1016.888 .0234316
1017.479 .0234494
1018.069 .0234690
1018.660 .0234900
1019.250 .0235133
1019.839 .0235381
1020.429 .0235646
1021.018 .0235932
1021.607 .0236228
1022.195 .0236533
1022.784 .0236843
1023.372 .0237151
1023.960 .0237458
1024.547 .0237761
1025.135 .0238057
1025.722 .0238346
1026.309 .0238630
1026.896 .0238906
1027.483 .0239177
1028.069 .0239442
1028.655 .0239703
1029.241 .0239954
1029.827 .0240209
1030.412 .0240455
1030.997 .0240696
1031.582 .0240944
1032.167 .0241194
1032.752 .0241453
1033.336 .0241722
1033.921 .0241998
1034.505 .0242280
1035.089 .0242565
1035.672 .0242844
1036.256 .0243113
1036.839 .0243380
1037.422 .0243642
1038.005 .0243900
1038.588 .0244163
1039.171 .0244429
1039.753 .0244697
1040.335 .0244976
1040.918 .0245258
1041.500 .0245534
1042.081 .0245801
1042.663 .0246051
1043.244 .0246282
1043.826 .0246493
1044.407 .0246690
1044.988 .0246872
1045.569 .0247039
1046.150 .0247189
1046.730 .0247314
1047.311 .0247417
1047.891 .0247500
1048.471 .0247557
1049.052 .0247594
1049.632 .0247614
1050.211 .0247622
1050.791 .0247620
1051.371 .0247626
1051.950 .0247652
1052.530 .0247692
1053.109 .0247747
1053.688 .0247814
1054.268 .0247888
1054.847 .0247975
1055.426 .0248073
1056.005 .0248196
1056.583 .0248344
1057.162 .0248518
1057.741 .0248715
1058.319 .0248936
1058.898 .0249178
1059.476 .0249422
1060.055 .0249654
1060.633 .0249866
1061.211 .0250038
1061.790 .0250162
1062.368 .0250253
1062.946 .0250315
1063.524 .0250361
1064.102 .0250390
1064.680 .0250403
1065.258 .0250400
1065.836 .0250373
1066.414 .0250332
1066.992 .0250267
1067.570 .0250198
1068.148 .0250129
1068.726 .0250063
1069.304 .0250031
1069.882 .0250021
1070.460 .0250031
1071.038 .0250054
1071.616 .0250074
1072.194 .0250086
1072.772 .0250073
1073.350 .0250045
1073.928 .0250011
1074.506 .0249985
1075.084 .0249981
1075.662 .0250004
1076.240 .0250053
1076.819 .0250123
1077.397 .0250184
1077.976 .0250227
1078.554 .0250217
1079.133 .0250150
1079.711 .0250030
1080.290 .0249867
1080.869 .0249683
1081.448 .0249500
1082.027 .0249328
1082.606 .0249203
1083.185 .0249114
1083.764 .0249060
1084.343 .0249022
1084.923 .0248996
1085.502 .0248955
1086.082 .0248896
1086.662 .0248812
1087.242 .0248711
1087.822 .0248600
1088.402 .0248507
1088.983 .0248428
1089.563 .0248371
1090.144 .0248342
1090.725 .0248335
1091.306 .0248340
1091.887 .0248348
1092.469 .0248350
1093.050 .0248326
1093.632 .0248279
1094.214 .0248221
1094.796 .0248141
1095.379 .0248057
1095.961 .0247976
1096.544 .0247908
1097.127 .0247851
1097.710 .0247805
1098.294 .0247778
1098.877 .0247757
1099.461 .0247780
1100.046 .0247832
1100.630 .0247902
1101.215 .0248002
1101.800 .0248111
1102.385 .0248214
1102.970 .0248302
1103.556 .0248354
1104.142 .0248373
1104.728 .0248365
1105.315 .0248346
1105.902 .0248308
1106.489 .0248276
1107.077 .0248270
1107.664 .0248265
1108.253 .0248258
1108.841 .0248251
1109.430 .0248221
1110.019 .0248171
1110.609 .0248117
1111.198 .0248053
1111.789 .0248008
1112.379 .0248012
1112.970 .0248079
1113.561 .0248226
1114.153 .0248460
1114.745 .0248758
1115.338 .0249085
1115.931 .0249409
1116.524 .0249708
1117.117 .0249946
1117.712 .0250154
1118.306 .0250317
1118.901 .0250448
1119.496 .0250568
1120.092 .0250700
1120.689 .0250855
1121.285 .0251047
1121.882 .0251260
1122.480 .0251477
1123.078 .0251706
1123.677 .0251935
1124.276 .0252135
1124.875 .0252355
1125.476 .0252601
1126.076 .0252912
1126.677 .0253254
1127.279 .0253651
1127.881 .0254077
1128.484 .0254553
1129.087 .0255065
1129.691 .0255590
1130.295 .0256116
1130.900 .0256680
1131.505 .0257226
1132.111 .0257791
1132.718 .0258345
1133.325 .0258906
1133.933 .0259458
1134.541 .0260001
1135.150 .0260523
1135.760 .0261076
1136.370 .0261635
1136.981 .0262266
1137.592 .0262925
1138.204 .0263699
1138.817 .0264507
1139.431 .0265360
1140.045 .0266302
1140.660 .0267355
1141.275 .0268548
1141.891 .0269445
1142.508 .0269761
1143.126 .0272182
1143.744 .0274912
1144.363 .0277301
1144.983 .0266521
