Measurement Sequence started on: 15-12-46-377
Integration time: 28
Scans to Average: 2 
>>>>>Begin Spectral Data<<<<<
432.689 .0000100
433.621 .0000100
434.552 .0000100
435.482 .0000100
436.410 .0000100
437.337 .0000100
438.262 .0262823
439.187 .0556510
440.110 .0921395
441.031 .1332928
441.952 .1731741
442.871 .2045161
443.789 .2216175
444.705 .2225685
445.621 .2097974
446.535 .1885990
447.447 .1647014
448.359 .1281410
449.269 .1102886
450.178 .0992049
451.086 .0914897
451.993 .0856790
452.898 .0810850
453.803 .0772953
454.706 .0740977
455.608 .0713317
456.508 .0688968
457.408 .0667623
458.306 .0648548
459.204 .0631519
460.100 .0616151
460.995 .0602344
461.888 .0589949
462.781 .0578570
463.673 .0568150
464.563 .0558492
465.452 .0549354
466.340 .0540645
467.228 .0532434
468.114 .0524715
468.999 .0517621
469.882 .0511078
470.765 .0505174
471.647 .0499862
472.528 .0495148
473.407 .0491067
474.286 .0487495
475.163 .0484421
476.040 .0481692
476.915 .0479239
477.790 .0477106
478.663 .0475167
479.535 .0473492
480.407 .0472100
481.277 .0470929
482.147 .0470009
483.015 .0469299
483.883 .0468798
484.749 .0468481
485.615 .0468372
486.479 .0468408
487.343 .0468599
488.206 .0468941
489.067 .0469423
489.928 .0469959
490.788 .0470633
491.647 .0471268
492.505 .0471914
493.362 .0472715
494.218 .0473656
495.073 .0474712
495.928 .0476140
496.781 .0477854
497.634 .0480003
498.486 .0482486
499.337 .0485315
500.187 .0488399
501.036 .0491822
501.884 .0495471
502.731 .0499291
503.578 .0503458
504.424 .0508049
505.268 .0512885
506.113 .0518250
506.956 .0523988
507.798 .0530093
508.640 .0536515
509.480 .0543416
510.320 .0550684
511.160 .0558555
511.998 .0566964
512.836 .0576206
513.672 .0586496
514.508 .0598035
515.344 .0610893
516.178 .0625300
517.012 .0641634
517.845 .0660084
518.677 .0680880
519.508 .0704630
520.339 .0731846
521.169 .0763167
521.998 .0798855
522.826 .0839564
523.654 .0885837
524.481 .0937855
525.307 .0995467
526.133 .1058484
526.958 .1126095
527.782 .1197562
528.605 .1270765
529.428 .1344477
530.250 .1414194
531.072 .1477539
531.892 .1530231
532.712 .1570074
533.532 .1594810
534.350 .1602623
535.168 .1592494
535.986 .1565700
536.802 .1523381
537.618 .1468636
538.434 .1403365
539.249 .1332923
540.063 .1259469
540.876 .1186666
541.689 .1116081
542.501 .1050077
543.313 .0989651
544.124 .0935343
544.934 .0886336
545.744 .0842429
546.553 .0802876
547.361 .0767821
548.169 .0736578
548.976 .0708881
549.783 .0684376
550.589 .0662651
551.395 .0642917
552.200 .0625021
553.004 .0608205
553.808 .0592368
554.611 .0577558
555.414 .0563926
556.216 .0551257
557.018 .0539741
557.819 .0529268
558.619 .0519638
559.419 .0510590
560.218 .0502075
561.017 .0493857
561.815 .0485735
562.613 .0477846
563.410 .0470010
564.207 .0462399
565.003 .0455101
565.799 .0448088
566.594 .0441463
567.388 .0435239
568.182 .0429282
568.976 .0423525
569.769 .0418028
570.562 .0412809
571.354 .0407747
572.145 .0403020
572.936 .0398512
573.727 .0394241
574.517 .0390135
575.307 .0386181
576.096 .0382283
576.885 .0378486
577.673 .0374783
578.461 .0371172
579.248 .0367688
580.035 .0364381
580.821 .0361292
581.607 .0358443
582.392 .0355832
583.177 .0353450
583.962 .0351270
584.746 .0349328
585.529 .0347539
586.313 .0345926
587.095 .0344465
587.878 .0343167
588.660 .0342028
589.441 .0341014
590.222 .0340128
591.003 .0339363
591.783 .0338694
592.563 .0338106
593.342 .0337562
594.121 .0337048
594.899 .0336534
595.678 .0336032
596.455 .0335514
597.233 .0334997
598.009 .0334481
598.786 .0333977
599.562 .0333473
600.338 .0332984
601.113 .0332504
601.888 .0332020
602.663 .0331531
603.437 .0331042
604.211 .0330537
604.984 .0330040
605.757 .0329539
606.530 .0329041
607.302 .0328549
608.074 .0328072
608.845 .0327592
609.616 .0327122
610.387 .0326658
611.158 .0326194
611.928 .0325734
612.697 .0325291
613.467 .0324857
614.236 .0324441
615.004 .0324046
615.773 .0323669
616.541 .0323303
617.308 .0322960
618.076 .0322619
618.843 .0322288
619.609 .0321975
620.375 .0321673
621.141 .0321388
621.907 .0321127
622.672 .0320890
623.437 .0320668
624.202 .0320458
624.966 .0320245
625.730 .0320021
626.493 .0319785
627.257 .0319527
628.020 .0319248
628.782 .0318950
629.545 .0318633
630.307 .0318302
631.068 .0317960
631.830 .0317619
632.591 .0317270
633.352 .0316918
634.112 .0316555
634.872 .0316185
635.632 .0315808
636.392 .0315425
637.151 .0315045
637.910 .0314679
638.668 .0314328
639.427 .0313996
640.185 .0313679
640.943 .0313389
641.700 .0313122
642.457 .0312876
643.214 .0312646
643.971 .0312432
644.727 .0312228
645.483 .0312036
646.239 .0311853
646.994 .0311684
647.750 .0311521
648.505 .0311362
649.259 .0311206
650.014 .0311058
650.768 .0310912
651.521 .0310771
652.275 .0310632
653.028 .0310500
653.781 .0310367
654.534 .0310229
655.286 .0310091
656.039 .0309953
656.791 .0309817
657.542 .0309674
658.294 .0309521
659.045 .0309369
659.796 .0309207
660.546 .0309035
661.297 .0308851
662.047 .0308658
662.796 .0308450
663.546 .0308233
664.295 .0308004
665.044 .0307768
665.793 .0307530
666.542 .0307291
667.290 .0307049
668.038 .0306807
668.786 .0306564
669.533 .0306315
670.281 .0306067
671.028 .0305818
671.774 .0305568
672.521 .0305323
673.267 .0305089
674.013 .0304869
674.759 .0304664
675.505 .0304470
676.250 .0304278
676.995 .0304087
677.740 .0303894
678.484 .0303690
679.229 .0303476
679.973 .0303253
680.717 .0303026
681.460 .0302790
682.204 .0302552
682.947 .0302313
683.690 .0302078
684.433 .0301840
685.175 .0301597
685.917 .0301350
686.659 .0301097
687.401 .0300838
688.142 .0300579
688.884 .0300320
689.625 .0300068
690.365 .0299816
691.106 .0299561
691.846 .0299305
692.586 .0299050
693.326 .0298788
694.066 .0298520
694.805 .0298248
695.545 .0297973
696.284 .0297694
697.022 .0297413
697.761 .0297135
698.499 .0296859
699.237 .0296586
699.975 .0296313
700.713 .0296041
701.450 .0295772
702.187 .0295507
702.924 .0295249
703.661 .0295004
704.397 .0294771
705.133 .0294551
705.869 .0294343
706.605 .0294149
707.341 .0293961
708.076 .0293778
708.811 .0293598
709.546 .0293418
710.281 .0293235
711.015 .0293047
711.749 .0292853
712.483 .0292651
713.217 .0292445
713.950 .0292233
714.684 .0292017
715.417 .0291795
716.150 .0291569
716.882 .0291337
717.615 .0291102
718.347 .0290869
719.079 .0290639
719.811 .0290415
720.542 .0290200
721.273 .0289995
722.005 .0289799
722.735 .0289613
723.466 .0289436
724.196 .0289265
724.927 .0289094
725.656 .0288917
726.386 .0288732
727.116 .0288543
727.845 .0288351
728.574 .0288161
729.303 .0287982
730.031 .0287824
730.760 .0287680
731.488 .0287559
732.216 .0287461
732.944 .0287382
733.671 .0287319
734.398 .0287265
735.125 .0287217
735.852 .0287174
736.579 .0287136
737.305 .0287109
738.031 .0287097
738.757 .0287106
739.483 .0287126
740.208 .0287162
740.933 .0287208
741.658 .0287250
742.383 .0287283
743.108 .0287305
743.832 .0287305
744.556 .0287285
745.280 .0287242
746.004 .0287181
746.727 .0287113
747.450 .0287042
748.173 .0286968
748.896 .0286900
749.618 .0286836
750.340 .0286771
751.062 .0286707
751.784 .0286646
752.506 .0286579
753.227 .0286507
753.948 .0286435
754.669 .0286360
755.389 .0286281
756.110 .0286201
756.830 .0286115
757.550 .0286023
758.269 .0285923
758.989 .0285806
759.708 .0285669
760.427 .0285515
761.146 .0285342
761.864 .0285152
762.582 .0284950
763.300 .0284738
764.018 .0284519
764.736 .0284298
765.453 .0284077
766.170 .0283853
766.887 .0283629
767.603 .0283409
768.320 .0283192
769.036 .0282979
769.751 .0282774
770.467 .0282574
771.182 .0282389
771.897 .0282214
772.612 .0282044
773.327 .0281881
774.041 .0281720
774.755 .0281559
775.469 .0281396
776.183 .0281233
776.896 .0281071
777.609 .0280908
778.322 .0280748
779.035 .0280588
779.747 .0280426
780.459 .0280265
781.171 .0280104
781.882 .0279940
782.594 .0279778
783.305 .0279615
784.016 .0279453
784.726 .0279297
785.436 .0279143
786.147 .0278988
786.856 .0278835
787.566 .0278683
788.275 .0278526
788.984 .0278365
789.693 .0278201
790.401 .0278035
791.110 .0277867
791.818 .0277693
792.525 .0277514
793.233 .0277330
793.940 .0277138
794.647 .0276936
795.353 .0276728
796.060 .0276514
796.766 .0276292
797.472 .0276069
798.177 .0275842
798.883 .0275616
799.588 .0275389
800.292 .0275162
800.997 .0274934
801.701 .0274705
802.405 .0274476
803.109 .0274248
803.812 .0274026
804.515 .0273807
805.218 .0273592
805.921 .0273380
806.623 .0273172
807.325 .0272968
808.027 .0272768
808.728 .0272570
809.429 .0272371
810.130 .0272171
810.831 .0271969
811.531 .0271766
812.231 .0271561
812.931 .0271351
813.630 .0271140
814.330 .0270927
815.029 .0270710
815.727 .0270493
816.426 .0270282
817.124 .0270076
817.821 .0269877
818.519 .0269684
819.216 .0269498
819.913 .0269323
820.609 .0269163
821.306 .0269022
822.002 .0268907
822.697 .0268817
823.393 .0268751
824.088 .0268710
824.783 .0268692
825.477 .0268687
826.171 .0268694
826.865 .0268711
827.559 .0268739
828.252 .0268775
828.945 .0268823
829.638 .0268883
830.330 .0268959
831.023 .0269047
831.714 .0269135
832.406 .0269219
833.097 .0269294
833.788 .0269355
834.479 .0269400
835.169 .0269430
835.859 .0269454
836.548 .0269471
837.238 .0269489
837.927 .0269507
838.615 .0269525
839.304 .0269541
839.992 .0269554
840.680 .0269561
841.367 .0269564
842.054 .0269562
842.741 .0269561
843.428 .0269570
844.114 .0269590
844.800 .0269620
845.485 .0269659
846.170 .0269706
846.855 .0269755
847.540 .0269797
848.224 .0269834
848.908 .0269868
849.592 .0269896
850.275 .0269920
850.958 .0269937
851.641 .0269951
852.323 .0269961
853.005 .0269961
853.687 .0269947
854.368 .0269917
855.049 .0269867
855.730 .0269800
856.410 .0269714
857.090 .0269618
857.769 .0269514
858.449 .0269406
859.128 .0269300
859.806 .0269195
860.485 .0269090
861.163 .0268987
861.840 .0268884
862.518 .0268778
863.195 .0268668
863.871 .0268550
864.548 .0268430
865.224 .0268312
865.899 .0268199
866.574 .0268092
867.249 .0267993
867.924 .0267906
868.598 .0267822
869.272 .0267747
869.946 .0267678
870.619 .0267606
871.292 .0267537
871.964 .0267465
872.636 .0267388
873.308 .0267310
873.979 .0267227
874.651 .0267142
875.321 .0267059
875.992 .0266978
876.662 .0266894
877.331 .0266815
878.001 .0266742
878.670 .0266672
879.338 .0266597
880.007 .0266524
880.675 .0266444
881.342 .0266359
882.009 .0266268
882.676 .0266169
883.343 .0266065
884.009 .0265966
884.675 .0265864
885.340 .0265769
886.005 .0265679
886.670 .0265596
887.334 .0265513
887.998 .0265432
888.662 .0265348
889.325 .0265256
889.988 .0265158
890.650 .0265059
891.312 .0264957
891.974 .0264858
892.636 .0264760
893.297 .0264670
893.957 .0264585
894.618 .0264501
895.278 .0264416
895.937 .0264333
896.596 .0264247
897.255 .0264157
897.914 .0264061
898.572 .0263961
899.230 .0263860
899.887 .0263753
900.544 .0263636
901.201 .0263511
901.857 .0263376
902.513 .0263224
903.168 .0263049
903.823 .0262853
904.478 .0262631
905.132 .0262384
905.786 .0262115
906.440 .0261824
907.093 .0261518
907.746 .0261201
908.399 .0260873
909.051 .0260539
909.703 .0260199
910.354 .0259850
911.005 .0259495
911.656 .0259134
912.306 .0258765
912.956 .0258392
913.605 .0258021
914.254 .0257654
914.903 .0257298
915.551 .0256959
916.199 .0256639
916.847 .0256333
917.494 .0256045
918.141 .0255767
918.788 .0255495
919.434 .0255228
920.079 .0254957
920.725 .0254684
921.370 .0254412
922.014 .0254146
922.658 .0253887
923.302 .0253638
923.946 .0253398
924.589 .0253161
925.231 .0252921
925.873 .0252675
926.515 .0252417
927.157 .0252146
927.798 .0251863
928.439 .0251567
929.079 .0251260
929.719 .0250949
930.359 .0250636
930.998 .0250327
931.637 .0250023
932.275 .0249722
932.913 .0249422
933.551 .0249125
934.188 .0248834
934.825 .0248547
935.462 .0248269
936.098 .0248006
936.733 .0247758
937.369 .0247530
938.004 .0247323
938.638 .0247134
939.273 .0246970
939.907 .0246824
940.540 .0246692
941.173 .0246574
941.806 .0246470
942.438 .0246379
943.070 .0246302
943.702 .0246236
944.333 .0246177
944.964 .0246125
945.594 .0246080
946.224 .0246040
946.854 .0246011
947.483 .0245994
948.112 .0245984
948.741 .0245981
949.369 .0245988
949.996 .0245991
950.624 .0245996
951.251 .0245996
951.878 .0245989
952.504 .0245975
953.130 .0245955
953.755 .0245933
954.380 .0245911
955.005 .0245893
955.629 .0245881
956.253 .0245868
956.877 .0245862
957.500 .0245851
958.123 .0245834
958.746 .0245811
959.368 .0245782
959.990 .0245746
960.611 .0245711
961.232 .0245679
961.853 .0245656
962.473 .0245645
963.093 .0245647
963.712 .0245657
964.331 .0245669
964.950 .0245683
965.569 .0245698
966.187 .0245714
966.804 .0245737
967.422 .0245766
968.039 .0245806
968.655 .0245860
969.272 .0245923
969.887 .0245995
970.503 .0246071
971.118 .0246148
971.733 .0246222
972.347 .0246289
972.961 .0246357
973.575 .0246424
974.188 .0246488
974.801 .0246551
975.414 .0246607
976.026 .0246651
976.638 .0246684
977.250 .0246703
977.861 .0246713
978.472 .0246711
979.083 .0246706
979.693 .0246699
980.303 .0246699
980.912 .0246713
981.521 .0246742
982.130 .0246784
982.738 .0246844
983.346 .0246910
983.954 .0246980
984.562 .0247055
985.169 .0247127
985.775 .0247197
986.382 .0247263
986.988 .0247324
987.594 .0247382
988.199 .0247434
988.804 .0247480
989.409 .0247521
990.013 .0247563
990.617 .0247599
991.221 .0247626
991.824 .0247654
992.427 .0247686
993.030 .0247716
993.632 .0247751
994.234 .0247794
994.836 .0247843
995.438 .0247904
996.039 .0247972
996.640 .0248044
997.240 .0248127
997.840 .0248217
998.440 .0248315
999.040 .0248418
999.639 .0248526
1000.238 .0248625
1000.836 .0248722
1001.435 .0248812
1002.033 .0248891
1002.630 .0248960
1003.228 .0249027
1003.825 .0249088
1004.422 .0249152
1005.018 .0249219
1005.614 .0249295
1006.210 .0249382
1006.806 .0249483
1007.401 .0249581
1007.996 .0249683
1008.591 .0249784
1009.186 .0249884
1009.780 .0249988
1010.374 .0250094
1010.967 .0250202
1011.561 .0250313
1012.154 .0250422
1012.746 .0250525
1013.339 .0250619
1013.931 .0250707
1014.523 .0250784
1015.115 .0250852
1015.706 .0250914
1016.298 .0250966
1016.888 .0251020
1017.479 .0251078
1018.069 .0251134
1018.660 .0251191
1019.250 .0251255
1019.839 .0251308
1020.429 .0251360
1021.018 .0251410
1021.607 .0251455
1022.195 .0251491
1022.784 .0251524
1023.372 .0251549
1023.960 .0251574
1024.547 .0251605
1025.135 .0251645
1025.722 .0251687
1026.309 .0251754
1026.896 .0251829
1027.483 .0251919
1028.069 .0252018
1028.655 .0252121
1029.241 .0252215
1029.827 .0252306
1030.412 .0252385
1030.997 .0252452
1031.582 .0252513
1032.167 .0252574
1032.752 .0252631
1033.336 .0252693
1033.921 .0252751
1034.505 .0252803
1035.089 .0252838
1035.672 .0252865
1036.256 .0252866
1036.839 .0252840
1037.422 .0252791
1038.005 .0252729
1038.588 .0252660
1039.171 .0252591
1039.753 .0252526
1040.335 .0252468
1040.918 .0252418
1041.500 .0252373
1042.081 .0252321
1042.663 .0252269
1043.244 .0252215
1043.826 .0252151
1044.407 .0252077
1044.988 .0252003
1045.569 .0251921
1046.150 .0251829
1046.730 .0251732
1047.311 .0251628
1047.891 .0251516
1048.471 .0251399
1049.052 .0251276
1049.632 .0251161
1050.211 .0251067
1050.791 .0250980
1051.371 .0250902
1051.950 .0250844
1052.530 .0250794
1053.109 .0250734
1053.688 .0250665
1054.268 .0250582
1054.847 .0250483
1055.426 .0250373
1056.005 .0250253
1056.583 .0250131
1057.162 .0250009
1057.741 .0249875
1058.319 .0249727
1058.898 .0249561
1059.476 .0249360
1060.055 .0249111
1060.633 .0248833
1061.211 .0248523
1061.790 .0248190
1062.368 .0247844
1062.946 .0247501
1063.524 .0247175
1064.102 .0246866
1064.680 .0246573
1065.258 .0246286
1065.836 .0246015
1066.414 .0245752
1066.992 .0245484
1067.570 .0245237
1068.148 .0245011
1068.726 .0244814
1069.304 .0244656
1069.882 .0244544
1070.460 .0244459
1071.038 .0244406
1071.616 .0244377
1072.194 .0244349
1072.772 .0244313
1073.350 .0244265
1073.928 .0244205
1074.506 .0244127
1075.084 .0244056
1075.662 .0243998
1076.240 .0243970
1076.819 .0243978
1077.397 .0244015
1077.976 .0244064
1078.554 .0244122
1079.133 .0244173
1079.711 .0244205
1080.290 .0244222
1080.869 .0244218
1081.448 .0244196
1082.027 .0244176
1082.606 .0244161
1083.185 .0244156
1083.764 .0244138
1084.343 .0244111
1084.923 .0244061
1085.502 .0243965
1086.082 .0243818
1086.662 .0243634
1087.242 .0243431
1087.822 .0243217
1088.402 .0243002
1088.983 .0242801
1089.563 .0242616
1090.144 .0242454
1090.725 .0242317
1091.306 .0242175
1091.887 .0242042
1092.469 .0241909
1093.050 .0241783
1093.632 .0241681
1094.214 .0241613
1094.796 .0241570
1095.379 .0241574
1095.961 .0241623
1096.544 .0241716
1097.127 .0241815
1097.710 .0241941
1098.294 .0242078
1098.877 .0242227
1099.461 .0242369
1100.046 .0242501
1100.630 .0242628
1101.215 .0242774
1101.800 .0242909
1102.385 .0243039
1102.970 .0243165
1103.556 .0243312
1104.142 .0243472
1104.728 .0243664
1105.315 .0243883
1105.902 .0244127
1106.489 .0244371
1107.077 .0244629
1107.664 .0244876
1108.253 .0245112
1108.841 .0245320
1109.430 .0245513
1110.019 .0245687
1110.609 .0245845
1111.198 .0245991
1111.789 .0246165
1112.379 .0246371
1112.970 .0246632
1113.561 .0246917
1114.153 .0247262
1114.745 .0247660
1115.338 .0248096
1115.931 .0248541
1116.524 .0249001
1117.117 .0249448
1117.712 .0249879
1118.306 .0250284
1118.901 .0250701
1119.496 .0251142
1120.092 .0251642
1120.689 .0252178
1121.285 .0252735
1121.882 .0253303
1122.480 .0253874
1123.078 .0254416
1123.677 .0254945
1124.276 .0255427
1124.875 .0255901
1125.476 .0256339
1126.076 .0256815
1126.677 .0257332
1127.279 .0257911
1127.881 .0258592
1128.484 .0259345
1129.087 .0260153
1129.691 .0261016
1130.295 .0261871
1130.900 .0262761
1131.505 .0263648
1132.111 .0264538
1132.718 .0265395
1133.325 .0266246
1133.933 .0267106
1134.541 .0267984
1135.150 .0268866
1135.760 .0269809
1136.370 .0270768
1136.981 .0271813
1137.592 .0272875
1138.204 .0273990
1138.817 .0275153
1139.431 .0276429
1140.045 .0277900
1140.660 .0279515
1141.275 .0281326
1141.891 .0283366
1142.508 .0284571
1143.126 .0289158
1143.744 .0290471
1144.363 .0293376
1144.983 .0295628
