Measurement Sequence started on: 15-12-46-377
Integration time: 28
Scans to Average: 2 
>>>>>Begin Spectral Data<<<<<
432.689 .0000100
433.621 .0000100
434.552 .0000100
435.482 .0000100
436.410 .0000100
437.337 .0000100
438.262 .0270682
439.187 .0573564
440.110 .0950532
441.031 .1376413
441.952 .1790055
442.871 .2116888
443.789 .2297471
444.705 .2311172
445.621 .2182504
446.535 .1965372
447.447 .1718535
448.359 .1339199
449.269 .1150711
450.178 .1030825
451.086 .0945487
451.993 .0880538
452.898 .0828757
453.803 .0786687
454.706 .0752145
455.608 .0722981
456.508 .0697920
457.408 .0676346
458.306 .0657375
459.204 .0640637
460.100 .0625709
460.995 .0612376
461.888 .0600300
462.781 .0589308
463.673 .0579207
464.563 .0569880
465.452 .0561073
466.340 .0552585
467.228 .0544492
468.114 .0536905
468.999 .0529770
469.882 .0523088
470.765 .0517000
471.647 .0511475
472.528 .0506525
473.407 .0502043
474.286 .0497988
475.163 .0494277
476.040 .0490997
476.915 .0488012
477.790 .0485364
478.663 .0483011
479.535 .0480960
480.407 .0479193
481.277 .0477767
482.147 .0476589
483.015 .0475607
483.883 .0474809
484.749 .0474222
485.615 .0473783
486.479 .0473532
487.343 .0473440
488.206 .0473564
489.067 .0473847
489.928 .0474322
490.788 .0474923
491.647 .0475719
492.505 .0476749
493.362 .0478036
494.218 .0479568
495.073 .0481390
495.928 .0483456
496.781 .0485694
497.634 .0488090
498.486 .0490690
499.337 .0493428
500.187 .0496303
501.036 .0499378
501.884 .0502653
502.731 .0506176
503.578 .0509982
504.424 .0513968
505.268 .0518133
506.113 .0522518
506.956 .0527053
507.798 .0531851
508.640 .0537127
509.480 .0543045
510.320 .0549796
511.160 .0557530
511.998 .0566433
512.836 .0576438
513.672 .0587510
514.508 .0599729
515.344 .0613139
516.178 .0628204
517.012 .0645029
517.845 .0664269
518.677 .0686481
519.508 .0712022
520.339 .0741323
521.169 .0774770
521.998 .0812550
522.826 .0855032
523.654 .0902083
524.481 .0954190
525.307 .1011864
526.133 .1075287
526.958 .1144155
527.782 .1218372
528.605 .1295822
529.428 .1374453
530.250 .1448851
531.072 .1516135
531.892 .1571008
532.712 .1610720
533.532 .1632618
534.350 .1635591
535.168 .1620161
535.986 .1587484
536.802 .1539411
537.618 .1479860
538.434 .1411244
539.249 .1337811
540.063 .1261277
540.876 .1185481
541.689 .1111959
542.501 .1043166
543.313 .0980175
544.124 .0923638
544.934 .0873502
545.744 .0829252
546.553 .0789808
547.361 .0754948
548.169 .0724177
548.976 .0696779
549.783 .0672374
550.589 .0650713
551.395 .0630947
552.200 .0612904
553.004 .0596347
553.808 .0580993
554.611 .0566670
555.414 .0553441
556.216 .0541144
557.018 .0529853
557.819 .0519568
558.619 .0510047
559.419 .0501304
560.218 .0493390
561.017 .0486229
561.815 .0479553
562.613 .0473312
563.410 .0467295
564.207 .0461385
565.003 .0455591
565.799 .0449884
566.594 .0444161
567.388 .0438598
568.182 .0433124
568.976 .0427783
569.769 .0422604
570.562 .0417628
571.354 .0412787
572.145 .0408085
572.936 .0403412
573.727 .0398789
574.517 .0394187
575.307 .0389679
576.096 .0385251
576.885 .0381025
577.673 .0377048
578.461 .0373364
579.248 .0369961
580.035 .0366903
580.821 .0364132
581.607 .0361661
582.392 .0359371
583.177 .0357239
583.962 .0355232
584.746 .0353335
585.529 .0351540
586.313 .0349852
587.095 .0348267
587.878 .0346803
588.660 .0345446
589.441 .0344208
590.222 .0343055
591.003 .0341994
591.783 .0341015
592.563 .0340088
593.342 .0339203
594.121 .0338355
594.899 .0337558
595.678 .0336820
596.455 .0336136
597.233 .0335500
598.009 .0334896
598.786 .0334330
599.562 .0333797
600.338 .0333283
601.113 .0332774
601.888 .0332284
602.663 .0331799
603.437 .0331325
604.211 .0330854
604.984 .0330392
605.757 .0329941
606.530 .0329501
607.302 .0329060
608.074 .0328620
608.845 .0328189
609.616 .0327774
610.387 .0327370
611.158 .0326991
611.928 .0326625
612.697 .0326275
613.467 .0325946
614.236 .0325633
615.004 .0325324
615.773 .0325035
616.541 .0324765
617.308 .0324521
618.076 .0324303
618.843 .0324111
619.609 .0323939
620.375 .0323793
621.141 .0323658
621.907 .0323521
622.672 .0323374
623.437 .0323217
624.202 .0323037
624.966 .0322840
625.730 .0322626
626.493 .0322395
627.257 .0322154
628.020 .0321901
628.782 .0321629
629.545 .0321330
630.307 .0320997
631.068 .0320632
631.830 .0320242
632.591 .0319825
633.352 .0319389
634.112 .0318947
634.872 .0318514
635.632 .0318097
636.392 .0317706
637.151 .0317340
637.910 .0317001
638.668 .0316681
639.427 .0316375
640.185 .0316077
640.943 .0315796
641.700 .0315521
642.457 .0315257
643.214 .0315011
643.971 .0314777
644.727 .0314555
645.483 .0314354
646.239 .0314169
646.994 .0313994
647.750 .0313820
648.505 .0313646
649.259 .0313465
650.014 .0313285
650.768 .0313097
651.521 .0312902
652.275 .0312711
653.028 .0312524
653.781 .0312339
654.534 .0312163
655.286 .0311994
656.039 .0311825
656.791 .0311653
657.542 .0311471
658.294 .0311279
659.045 .0311076
659.796 .0310862
660.546 .0310642
661.297 .0310414
662.047 .0310184
662.796 .0309951
663.546 .0309720
664.295 .0309485
665.044 .0309239
665.793 .0308984
666.542 .0308714
667.290 .0308438
668.038 .0308156
668.786 .0307873
669.533 .0307601
670.281 .0307342
671.028 .0307095
671.774 .0306860
672.521 .0306641
673.267 .0306429
674.013 .0306224
674.759 .0306022
675.505 .0305818
676.250 .0305616
676.995 .0305423
677.740 .0305233
678.484 .0305046
679.229 .0304867
679.973 .0304684
680.717 .0304496
681.460 .0304299
682.204 .0304084
682.947 .0303862
683.690 .0303630
684.433 .0303393
685.175 .0303150
685.917 .0302914
686.659 .0302683
687.401 .0302458
688.142 .0302236
688.884 .0302017
689.625 .0301790
690.365 .0301558
691.106 .0301315
691.846 .0301069
692.586 .0300822
693.326 .0300573
694.066 .0300331
694.805 .0300096
695.545 .0299857
696.284 .0299621
697.022 .0299377
697.761 .0299129
698.499 .0298867
699.237 .0298592
699.975 .0298307
700.713 .0298019
701.450 .0297733
702.187 .0297452
702.924 .0297185
703.661 .0296938
704.397 .0296703
705.133 .0296485
705.869 .0296286
706.605 .0296103
707.341 .0295934
708.076 .0295774
708.811 .0295615
709.546 .0295456
710.281 .0295295
711.015 .0295130
711.749 .0294959
712.483 .0294786
713.217 .0294606
713.950 .0294418
714.684 .0294227
715.417 .0294029
716.150 .0293823
716.882 .0293607
717.615 .0293383
718.347 .0293145
719.079 .0292898
719.811 .0292650
720.542 .0292405
721.273 .0292169
722.005 .0291945
722.735 .0291734
723.466 .0291535
724.196 .0291350
724.927 .0291173
725.656 .0291000
726.386 .0290833
727.116 .0290671
727.845 .0290515
728.574 .0290367
729.303 .0290229
730.031 .0290102
730.760 .0289988
731.488 .0289883
732.216 .0289783
732.944 .0289692
733.671 .0289608
734.398 .0289529
735.125 .0289458
735.852 .0289399
736.579 .0289351
737.305 .0289318
738.031 .0289299
738.757 .0289289
739.483 .0289282
740.208 .0289273
740.933 .0289260
741.658 .0289240
742.383 .0289208
743.108 .0289169
743.832 .0289121
744.556 .0289072
745.280 .0289018
746.004 .0288957
746.727 .0288893
747.450 .0288824
748.173 .0288740
748.896 .0288645
749.618 .0288538
750.340 .0288425
751.062 .0288306
751.784 .0288193
752.506 .0288087
753.227 .0287992
753.948 .0287907
754.669 .0287829
755.389 .0287752
756.110 .0287674
756.830 .0287584
757.550 .0287481
758.269 .0287365
758.989 .0287236
759.708 .0287089
760.427 .0286934
761.146 .0286773
761.864 .0286607
762.582 .0286438
763.300 .0286266
764.018 .0286091
764.736 .0285919
765.453 .0285745
766.170 .0285573
766.887 .0285402
767.603 .0285235
768.320 .0285067
769.036 .0284900
769.751 .0284732
770.467 .0284559
771.182 .0284382
771.897 .0284200
772.612 .0284013
773.327 .0283825
774.041 .0283635
774.755 .0283443
775.469 .0283254
776.183 .0283069
776.896 .0282885
777.609 .0282702
778.322 .0282521
779.035 .0282342
779.747 .0282166
780.459 .0281994
781.171 .0281831
781.882 .0281679
782.594 .0281544
783.305 .0281424
784.016 .0281316
784.726 .0281220
785.436 .0281133
786.147 .0281050
786.856 .0280971
787.566 .0280892
788.275 .0280812
788.984 .0280729
789.693 .0280643
790.401 .0280549
791.110 .0280446
791.818 .0280332
792.525 .0280205
793.233 .0280058
793.940 .0279895
794.647 .0279715
795.353 .0279524
796.060 .0279329
796.766 .0279131
797.472 .0278930
798.177 .0278726
798.883 .0278514
799.588 .0278289
800.292 .0278051
800.997 .0277798
801.701 .0277530
802.405 .0277255
803.109 .0276978
803.812 .0276708
804.515 .0276454
805.218 .0276215
805.921 .0275988
806.623 .0275773
807.325 .0275564
808.027 .0275355
808.728 .0275146
809.429 .0274932
810.130 .0274714
810.831 .0274495
811.531 .0274276
812.231 .0274056
812.931 .0273838
813.630 .0273619
814.330 .0273403
815.029 .0273188
815.727 .0272974
816.426 .0272763
817.124 .0272562
817.821 .0272368
818.519 .0272184
819.216 .0272012
819.913 .0271853
820.609 .0271708
821.306 .0271577
822.002 .0271462
822.697 .0271367
823.393 .0271297
824.088 .0271249
824.783 .0271222
825.477 .0271225
826.171 .0271247
826.865 .0271287
827.559 .0271343
828.252 .0271404
828.945 .0271471
829.638 .0271539
830.330 .0271607
831.023 .0271671
831.714 .0271733
832.406 .0271792
833.097 .0271848
833.788 .0271899
834.479 .0271942
835.169 .0271977
835.859 .0272011
836.548 .0272038
837.238 .0272059
837.927 .0272077
838.615 .0272094
839.304 .0272108
839.992 .0272123
840.680 .0272135
841.367 .0272153
842.054 .0272173
842.741 .0272198
843.428 .0272230
844.114 .0272268
844.800 .0272313
845.485 .0272365
846.170 .0272417
846.855 .0272469
847.540 .0272515
848.224 .0272559
848.908 .0272596
849.592 .0272627
850.275 .0272648
850.958 .0272658
851.641 .0272655
852.323 .0272641
853.005 .0272606
853.687 .0272557
854.368 .0272492
855.049 .0272411
855.730 .0272317
856.410 .0272210
857.090 .0272095
857.769 .0271973
858.449 .0271845
859.128 .0271713
859.806 .0271575
860.485 .0271442
861.163 .0271309
861.840 .0271181
862.518 .0271060
863.195 .0270944
863.871 .0270832
864.548 .0270725
865.224 .0270624
865.899 .0270527
866.574 .0270436
867.249 .0270349
867.924 .0270264
868.598 .0270179
869.272 .0270097
869.946 .0270019
870.619 .0269939
871.292 .0269861
871.964 .0269774
872.636 .0269683
873.308 .0269592
873.979 .0269496
874.651 .0269400
875.321 .0269305
875.992 .0269212
876.662 .0269118
877.331 .0269024
878.001 .0268934
878.670 .0268847
879.338 .0268763
880.007 .0268684
880.675 .0268609
881.342 .0268541
882.009 .0268485
882.676 .0268435
883.343 .0268387
884.009 .0268338
884.675 .0268280
885.340 .0268214
886.005 .0268133
886.670 .0268044
887.334 .0267944
887.998 .0267840
888.662 .0267736
889.325 .0267628
889.988 .0267517
890.650 .0267406
891.312 .0267290
891.974 .0267169
892.636 .0267043
893.297 .0266914
893.957 .0266787
894.618 .0266669
895.278 .0266559
895.937 .0266463
896.596 .0266384
897.255 .0266320
897.914 .0266262
898.572 .0266208
899.230 .0266150
899.887 .0266082
900.544 .0265997
901.201 .0265895
901.857 .0265776
902.513 .0265640
903.168 .0265486
903.823 .0265312
904.478 .0265113
905.132 .0264888
905.786 .0264634
906.440 .0264351
907.093 .0264038
907.746 .0263699
908.399 .0263338
909.051 .0262970
909.703 .0262600
910.354 .0262234
911.005 .0261879
911.656 .0261540
912.306 .0261211
912.956 .0260893
913.605 .0260583
914.254 .0260283
914.903 .0259989
915.551 .0259705
916.199 .0259428
916.847 .0259161
917.494 .0258905
918.141 .0258659
918.788 .0258419
919.434 .0258188
920.079 .0257949
920.725 .0257710
921.370 .0257464
922.014 .0257212
922.658 .0256952
923.302 .0256688
923.946 .0256423
924.589 .0256152
925.231 .0255878
925.873 .0255605
926.515 .0255325
927.157 .0255046
927.798 .0254762
928.439 .0254475
929.079 .0254186
929.719 .0253899
930.359 .0253613
930.998 .0253331
931.637 .0253052
932.275 .0252777
932.913 .0252505
933.551 .0252240
934.188 .0251982
934.825 .0251727
935.462 .0251481
936.098 .0251245
936.733 .0251018
937.369 .0250808
938.004 .0250613
938.638 .0250435
939.273 .0250276
939.907 .0250136
940.540 .0250010
941.173 .0249898
941.806 .0249801
942.438 .0249712
943.070 .0249631
943.702 .0249555
944.333 .0249479
944.964 .0249403
945.594 .0249330
946.224 .0249262
946.854 .0249201
947.483 .0249152
948.112 .0249115
948.741 .0249085
949.369 .0249065
949.996 .0249047
950.624 .0249029
951.251 .0249011
951.878 .0248991
952.504 .0248966
953.130 .0248941
953.755 .0248915
954.380 .0248888
955.005 .0248866
955.629 .0248843
956.253 .0248819
956.877 .0248795
957.500 .0248769
958.123 .0248738
958.746 .0248707
959.368 .0248673
959.990 .0248640
960.611 .0248608
961.232 .0248575
961.853 .0248538
962.473 .0248506
963.093 .0248481
963.712 .0248465
964.331 .0248462
964.950 .0248475
965.569 .0248503
966.187 .0248553
966.804 .0248617
967.422 .0248696
968.039 .0248783
968.655 .0248878
969.272 .0248967
969.887 .0249049
970.503 .0249120
971.118 .0249184
971.733 .0249243
972.347 .0249301
972.961 .0249357
973.575 .0249413
974.188 .0249469
974.801 .0249526
975.414 .0249578
976.026 .0249625
976.638 .0249666
977.250 .0249703
977.861 .0249730
978.472 .0249749
979.083 .0249757
979.693 .0249761
980.303 .0249763
980.912 .0249762
981.521 .0249764
982.130 .0249769
982.738 .0249782
983.346 .0249802
983.954 .0249826
984.562 .0249849
985.169 .0249866
985.775 .0249873
986.382 .0249863
986.988 .0249841
987.594 .0249811
988.199 .0249780
988.804 .0249757
989.409 .0249748
990.013 .0249755
990.617 .0249783
991.221 .0249827
991.824 .0249881
992.427 .0249943
993.030 .0250007
993.632 .0250069
994.234 .0250132
994.836 .0250199
995.438 .0250273
996.039 .0250356
996.640 .0250451
997.240 .0250558
997.840 .0250676
998.440 .0250801
999.040 .0250932
999.639 .0251062
1000.238 .0251180
1000.836 .0251283
1001.435 .0251377
1002.033 .0251461
1002.630 .0251531
1003.228 .0251594
1003.825 .0251653
1004.422 .0251712
1005.018 .0251770
1005.614 .0251831
1006.210 .0251893
1006.806 .0251961
1007.401 .0252026
1007.996 .0252084
1008.591 .0252138
1009.186 .0252193
1009.780 .0252246
1010.374 .0252303
1010.967 .0252365
1011.561 .0252431
1012.154 .0252498
1012.746 .0252572
1013.339 .0252650
1013.931 .0252727
1014.523 .0252805
1015.115 .0252880
1015.706 .0252954
1016.298 .0253022
1016.888 .0253087
1017.479 .0253155
1018.069 .0253220
1018.660 .0253283
1019.250 .0253340
1019.839 .0253391
1020.429 .0253438
1021.018 .0253478
1021.607 .0253515
1022.195 .0253550
1022.784 .0253589
1023.372 .0253629
1023.960 .0253678
1024.547 .0253740
1025.135 .0253819
1025.722 .0253907
1026.309 .0254009
1026.896 .0254122
1027.483 .0254236
1028.069 .0254349
1028.655 .0254462
1029.241 .0254570
1029.827 .0254674
1030.412 .0254774
1030.997 .0254878
1031.582 .0254980
1032.167 .0255088
1032.752 .0255196
1033.336 .0255297
1033.921 .0255394
1034.505 .0255470
1035.089 .0255520
1035.672 .0255551
1036.256 .0255558
1036.839 .0255540
1037.422 .0255504
1038.005 .0255463
1038.588 .0255412
1039.171 .0255356
1039.753 .0255305
1040.335 .0255251
1040.918 .0255201
1041.500 .0255150
1042.081 .0255089
1042.663 .0255017
1043.244 .0254937
1043.826 .0254833
1044.407 .0254710
1044.988 .0254574
1045.569 .0254426
1046.150 .0254273
1046.730 .0254129
1047.311 .0253998
1047.891 .0253880
1048.471 .0253780
1049.052 .0253693
1049.632 .0253607
1050.211 .0253530
1050.791 .0253447
1051.371 .0253362
1051.950 .0253276
1052.530 .0253187
1053.109 .0253096
1053.688 .0253013
1054.268 .0252936
1054.847 .0252863
1055.426 .0252798
1056.005 .0252731
1056.583 .0252657
1057.162 .0252573
1057.741 .0252471
1058.319 .0252354
1058.898 .0252216
1059.476 .0252055
1060.055 .0251872
1060.633 .0251680
1061.211 .0251474
1061.790 .0251268
1062.368 .0251082
1062.946 .0250910
1063.524 .0250758
1064.102 .0250630
1064.680 .0250515
1065.258 .0250418
1065.836 .0250329
1066.414 .0250239
1066.992 .0250137
1067.570 .0250038
1068.148 .0249921
1068.726 .0249797
1069.304 .0249691
1069.882 .0249592
1070.460 .0249495
1071.038 .0249410
1071.616 .0249314
1072.194 .0249195
1072.772 .0249062
1073.350 .0248912
1073.928 .0248729
1074.506 .0248538
1075.084 .0248335
1075.662 .0248137
1076.240 .0247959
1076.819 .0247824
1077.397 .0247721
1077.976 .0247667
1078.554 .0247653
1079.133 .0247645
1079.711 .0247659
1080.290 .0247686
1080.869 .0247704
1081.448 .0247722
1082.027 .0247729
1082.606 .0247732
1083.185 .0247717
1083.764 .0247695
1084.343 .0247655
1084.923 .0247584
1085.502 .0247489
1086.082 .0247354
1086.662 .0247187
1087.242 .0246990
1087.822 .0246759
1088.402 .0246511
1088.983 .0246258
1089.563 .0245990
1090.144 .0245715
1090.725 .0245440
1091.306 .0245164
1091.887 .0244906
1092.469 .0244665
1093.050 .0244460
1093.632 .0244320
1094.214 .0244251
1094.796 .0244265
1095.379 .0244338
1095.961 .0244472
1096.544 .0244648
1097.127 .0244853
1097.710 .0245069
1098.294 .0245268
1098.877 .0245467
1099.461 .0245672
1100.046 .0245867
1100.630 .0246077
1101.215 .0246306
1101.800 .0246555
1102.385 .0246800
1102.970 .0247047
1103.556 .0247264
1104.142 .0247476
1104.728 .0247670
1105.315 .0247856
1105.902 .0248034
1106.489 .0248203
1107.077 .0248359
1107.664 .0248521
1108.253 .0248693
1108.841 .0248867
1109.430 .0249024
1110.019 .0249192
1110.609 .0249357
1111.198 .0249542
1111.789 .0249736
1112.379 .0249968
1112.970 .0250205
1113.561 .0250470
1114.153 .0250723
1114.745 .0250969
1115.338 .0251204
1115.931 .0251432
1116.524 .0251651
1117.117 .0251866
1117.712 .0252067
1118.306 .0252300
1118.901 .0252561
1119.496 .0252883
1120.092 .0253240
1120.689 .0253646
1121.285 .0254107
1121.882 .0254613
1122.480 .0255153
1123.078 .0255752
1123.677 .0256402
1124.276 .0257116
1124.875 .0257869
1125.476 .0258664
1126.076 .0259497
1126.677 .0260346
1127.279 .0261201
1127.881 .0262054
1128.484 .0262886
1129.087 .0263697
1129.691 .0264500
1130.295 .0265314
1130.900 .0266152
1131.505 .0267008
1132.111 .0267917
1132.718 .0268868
1133.325 .0269859
1133.933 .0270861
1134.541 .0271831
1135.150 .0272794
1135.760 .0273758
1136.370 .0274688
1136.981 .0275632
1137.592 .0276598
1138.204 .0277640
1138.817 .0278719
1139.431 .0279868
1140.045 .0281040
1140.660 .0282243
1141.275 .0283551
1141.891 .0284698
1142.508 .0286152
1143.126 .0286449
1143.744 .0287784
1144.363 .0291856
1144.983 .0287839
