Measurement Sequence started on: 15-12-46-377
Integration time: 28
Scans to Average: 2 
>>>>>Begin Spectral Data<<<<<
432.689 .0000100
433.621 .0000100
434.552 .0000100
435.482 .0000100
436.410 .0000100
437.337 .0000100
438.262 .0281552
439.187 .0595409
440.110 .0985116
441.031 .1424396
441.952 .1851035
442.871 .2186252
443.789 .2369722
444.705 .2380528
445.621 .2244459
446.535 .2017486
447.447 .1760279
448.359 .1365784
449.269 .1170472
450.178 .1045976
451.086 .0956927
451.993 .0887763
452.898 .0833106
453.803 .0788301
454.706 .0751485
455.608 .0720464
456.508 .0693971
457.408 .0671080
458.306 .0650678
459.204 .0632350
460.100 .0615792
460.995 .0600711
461.888 .0587131
462.781 .0574873
463.673 .0563859
464.563 .0554101
465.452 .0545390
466.340 .0537387
467.228 .0530289
468.114 .0523786
468.999 .0517832
469.882 .0512287
470.765 .0507166
471.647 .0502494
472.528 .0498290
473.407 .0494638
474.286 .0491418
475.163 .0488641
476.040 .0486273
476.915 .0484100
477.790 .0482206
478.663 .0480506
479.535 .0478909
480.407 .0477465
481.277 .0476248
482.147 .0475193
483.015 .0474279
483.883 .0473606
484.749 .0473129
485.615 .0472849
486.479 .0472761
487.343 .0472851
488.206 .0473113
489.067 .0473540
489.928 .0474055
490.788 .0474675
491.647 .0475459
492.505 .0476340
493.362 .0477276
494.218 .0478344
495.073 .0479498
495.928 .0480837
496.781 .0482355
497.634 .0484180
498.486 .0486295
499.337 .0488717
500.187 .0491367
501.036 .0494227
501.884 .0497328
502.731 .0500644
503.578 .0504199
504.424 .0508042
505.268 .0512184
506.113 .0516706
506.956 .0521626
507.798 .0527023
508.640 .0532983
509.480 .0539538
510.320 .0546579
511.160 .0554062
511.998 .0562083
512.836 .0570659
513.672 .0580010
514.508 .0590331
515.344 .0601863
516.178 .0614943
517.012 .0629905
517.845 .0647149
518.677 .0667066
519.508 .0689508
520.339 .0715106
521.169 .0744484
521.998 .0778277
522.826 .0816844
523.654 .0860993
524.481 .0911078
525.307 .0967872
526.133 .1030840
526.958 .1099090
527.782 .1172103
528.605 .1248493
529.428 .1325884
530.250 .1398867
531.072 .1465107
531.892 .1520611
532.712 .1562701
533.532 .1589838
534.350 .1599576
535.168 .1591482
535.986 .1566754
536.802 .1526613
537.618 .1473431
538.434 .1409723
539.249 .1340161
540.063 .1266203
540.876 .1191872
541.689 .1119143
542.501 .1049942
543.313 .0986765
544.124 .0930293
544.934 .0879607
545.744 .0834001
546.553 .0793109
547.361 .0756572
548.169 .0723915
548.976 .0694718
549.783 .0668251
550.589 .0644430
551.395 .0622960
552.200 .0603359
553.004 .0585564
553.808 .0569547
554.611 .0555350
555.414 .0542721
556.216 .0531488
557.018 .0521530
557.819 .0512665
558.619 .0504622
559.419 .0497276
560.218 .0490562
561.017 .0484275
561.815 .0478332
562.613 .0472600
563.410 .0467036
564.207 .0461668
565.003 .0456385
565.799 .0451156
566.594 .0445796
567.388 .0440453
568.182 .0435018
568.976 .0429506
569.769 .0424003
570.562 .0418528
571.354 .0413120
572.145 .0407891
572.936 .0402811
573.727 .0397904
574.517 .0393233
575.307 .0388817
576.096 .0384630
576.885 .0380671
577.673 .0376976
578.461 .0373547
579.248 .0370348
580.035 .0367416
580.821 .0364663
581.607 .0362087
582.392 .0359638
583.177 .0357289
583.962 .0355069
584.746 .0352971
585.529 .0351019
586.313 .0349224
587.095 .0347577
587.878 .0346082
588.660 .0344730
589.441 .0343522
590.222 .0342444
591.003 .0341465
591.783 .0340554
592.563 .0339710
593.342 .0338913
594.121 .0338155
594.899 .0337440
595.678 .0336775
596.455 .0336161
597.233 .0335589
598.009 .0335050
598.786 .0334523
599.562 .0334011
600.338 .0333504
601.113 .0332990
601.888 .0332458
602.663 .0331919
603.437 .0331362
604.211 .0330790
604.984 .0330211
605.757 .0329637
606.530 .0329068
607.302 .0328516
608.074 .0327986
608.845 .0327477
609.616 .0326993
610.387 .0326535
611.158 .0326100
611.928 .0325684
612.697 .0325283
613.467 .0324888
614.236 .0324503
615.004 .0324125
615.773 .0323745
616.541 .0323375
617.308 .0323023
618.076 .0322697
618.843 .0322387
619.609 .0322107
620.375 .0321856
621.141 .0321620
621.907 .0321397
622.672 .0321177
623.437 .0320958
624.202 .0320739
624.966 .0320524
625.730 .0320318
626.493 .0320122
627.257 .0319943
628.020 .0319773
628.782 .0319608
629.545 .0319434
630.307 .0319246
631.068 .0319033
631.830 .0318798
632.591 .0318543
633.352 .0318269
634.112 .0317996
634.872 .0317735
635.632 .0317490
636.392 .0317251
637.151 .0317022
637.910 .0316789
638.668 .0316540
639.427 .0316274
640.185 .0315994
640.943 .0315703
641.700 .0315422
642.457 .0315160
643.214 .0314926
643.971 .0314720
644.727 .0314557
645.483 .0314413
646.239 .0314279
646.994 .0314137
647.750 .0313981
648.505 .0313808
649.259 .0313631
650.014 .0313446
650.768 .0313272
651.521 .0313111
652.275 .0312966
653.028 .0312828
653.781 .0312701
654.534 .0312574
655.286 .0312437
656.039 .0312281
656.791 .0312111
657.542 .0311914
658.294 .0311707
659.045 .0311490
659.796 .0311265
660.546 .0311033
661.297 .0310785
662.047 .0310523
662.796 .0310239
663.546 .0309930
664.295 .0309605
665.044 .0309262
665.793 .0308915
666.542 .0308559
667.290 .0308198
668.038 .0307844
668.786 .0307494
669.533 .0307144
670.281 .0306797
671.028 .0306454
671.774 .0306122
672.521 .0305799
673.267 .0305497
674.013 .0305216
674.759 .0304954
675.505 .0304715
676.250 .0304484
676.995 .0304259
677.740 .0304043
678.484 .0303823
679.229 .0303610
679.973 .0303399
680.717 .0303186
681.460 .0302974
682.204 .0302764
682.947 .0302554
683.690 .0302341
684.433 .0302126
685.175 .0301910
685.917 .0301689
686.659 .0301468
687.401 .0301244
688.142 .0301019
688.884 .0300799
689.625 .0300574
690.365 .0300340
691.106 .0300099
691.846 .0299848
692.586 .0299591
693.326 .0299327
694.066 .0299060
694.805 .0298794
695.545 .0298527
696.284 .0298261
697.022 .0297990
697.761 .0297716
698.499 .0297437
699.237 .0297153
699.975 .0296869
700.713 .0296586
701.450 .0296315
702.187 .0296063
702.924 .0295834
703.661 .0295631
704.397 .0295451
705.133 .0295291
705.869 .0295150
706.605 .0295019
707.341 .0294891
708.076 .0294767
708.811 .0294646
709.546 .0294525
710.281 .0294404
711.015 .0294286
711.749 .0294168
712.483 .0294052
713.217 .0293933
713.950 .0293809
714.684 .0293674
715.417 .0293531
716.150 .0293375
716.882 .0293207
717.615 .0293028
718.347 .0292847
719.079 .0292667
719.811 .0292495
720.542 .0292329
721.273 .0292174
722.005 .0292027
722.735 .0291889
723.466 .0291757
724.196 .0291630
724.927 .0291508
725.656 .0291394
726.386 .0291282
727.116 .0291180
727.845 .0291084
728.574 .0290992
729.303 .0290908
730.031 .0290827
730.760 .0290748
731.488 .0290666
732.216 .0290581
732.944 .0290495
733.671 .0290408
734.398 .0290324
735.125 .0290244
735.852 .0290167
736.579 .0290091
737.305 .0290015
738.031 .0289938
738.757 .0289861
739.483 .0289783
740.208 .0289700
740.933 .0289613
741.658 .0289523
742.383 .0289430
743.108 .0289334
743.832 .0289237
744.556 .0289144
745.280 .0289049
746.004 .0288951
746.727 .0288852
747.450 .0288752
748.173 .0288653
748.896 .0288555
749.618 .0288457
750.340 .0288360
751.062 .0288261
751.784 .0288158
752.506 .0288051
753.227 .0287939
753.948 .0287822
754.669 .0287696
755.389 .0287559
756.110 .0287418
756.830 .0287265
757.550 .0287103
758.269 .0286932
758.989 .0286748
759.708 .0286549
760.427 .0286332
761.146 .0286097
761.864 .0285845
762.582 .0285578
763.300 .0285300
764.018 .0285013
764.736 .0284728
765.453 .0284442
766.170 .0284159
766.887 .0283882
767.603 .0283615
768.320 .0283353
769.036 .0283103
769.751 .0282864
770.467 .0282632
771.182 .0282405
771.897 .0282183
772.612 .0281960
773.327 .0281742
774.041 .0281523
774.755 .0281302
775.469 .0281084
776.183 .0280871
776.896 .0280664
777.609 .0280465
778.322 .0280277
779.035 .0280094
779.747 .0279913
780.459 .0279732
781.171 .0279549
781.882 .0279363
782.594 .0279180
783.305 .0279001
784.016 .0278838
784.726 .0278692
785.436 .0278563
786.147 .0278452
786.856 .0278358
787.566 .0278271
788.275 .0278185
788.984 .0278090
789.693 .0277986
790.401 .0277869
791.110 .0277742
791.818 .0277608
792.525 .0277472
793.233 .0277337
793.940 .0277199
794.647 .0277061
795.353 .0276921
796.060 .0276773
796.766 .0276617
797.472 .0276445
798.177 .0276262
798.883 .0276065
799.588 .0275863
800.292 .0275663
800.997 .0275464
801.701 .0275276
802.405 .0275101
803.109 .0274939
803.812 .0274793
804.515 .0274658
805.218 .0274531
805.921 .0274410
806.623 .0274287
807.325 .0274161
808.027 .0274031
808.728 .0273899
809.429 .0273762
810.130 .0273623
810.831 .0273489
811.531 .0273356
812.231 .0273226
812.931 .0273102
813.630 .0272980
814.330 .0272861
815.029 .0272743
815.727 .0272626
816.426 .0272513
817.124 .0272406
817.821 .0272302
818.519 .0272208
819.216 .0272128
819.913 .0272061
820.609 .0272012
821.306 .0271981
822.002 .0271971
822.697 .0271979
823.393 .0272004
824.088 .0272045
824.783 .0272098
825.477 .0272159
826.171 .0272223
826.865 .0272289
827.559 .0272356
828.252 .0272420
828.945 .0272484
829.638 .0272549
830.330 .0272614
831.023 .0272678
831.714 .0272741
832.406 .0272802
833.097 .0272862
833.788 .0272912
834.479 .0272953
835.169 .0272989
835.859 .0273019
836.548 .0273048
837.238 .0273080
837.927 .0273116
838.615 .0273157
839.304 .0273202
839.992 .0273251
840.680 .0273296
841.367 .0273337
842.054 .0273374
842.741 .0273406
843.428 .0273439
844.114 .0273471
844.800 .0273509
845.485 .0273554
846.170 .0273600
846.855 .0273642
847.540 .0273670
848.224 .0273679
848.908 .0273664
849.592 .0273619
850.275 .0273547
850.958 .0273453
851.641 .0273345
852.323 .0273230
853.005 .0273111
853.687 .0272993
854.368 .0272874
855.049 .0272749
855.730 .0272615
856.410 .0272465
857.090 .0272298
857.769 .0272122
858.449 .0271935
859.128 .0271744
859.806 .0271552
860.485 .0271371
861.163 .0271200
861.840 .0271043
862.518 .0270898
863.195 .0270760
863.871 .0270624
864.548 .0270489
865.224 .0270347
865.899 .0270196
866.574 .0270038
867.249 .0269875
867.924 .0269706
868.598 .0269537
869.272 .0269371
869.946 .0269214
870.619 .0269066
871.292 .0268932
871.964 .0268804
872.636 .0268679
873.308 .0268554
873.979 .0268423
874.651 .0268283
875.321 .0268135
875.992 .0267980
876.662 .0267823
877.331 .0267666
878.001 .0267513
878.670 .0267365
879.338 .0267225
880.007 .0267088
880.675 .0266949
881.342 .0266803
882.009 .0266649
882.676 .0266484
883.343 .0266311
884.009 .0266134
884.675 .0265954
885.340 .0265782
886.005 .0265613
886.670 .0265456
887.334 .0265308
887.998 .0265162
888.662 .0265018
889.325 .0264870
889.988 .0264722
890.650 .0264571
891.312 .0264419
891.974 .0264273
892.636 .0264133
893.297 .0264006
893.957 .0263886
894.618 .0263770
895.278 .0263662
895.937 .0263547
896.596 .0263424
897.255 .0263288
897.914 .0263136
898.572 .0262972
899.230 .0262800
899.887 .0262623
900.544 .0262448
901.201 .0262269
901.857 .0262090
902.513 .0261904
903.168 .0261709
903.823 .0261493
904.478 .0261253
905.132 .0260990
905.786 .0260705
906.440 .0260402
907.093 .0260089
907.746 .0259772
908.399 .0259463
909.051 .0259162
909.703 .0258863
910.354 .0258571
911.005 .0258281
911.656 .0257988
912.306 .0257691
912.956 .0257386
913.605 .0257079
914.254 .0256774
914.903 .0256476
915.551 .0256189
916.199 .0255915
916.847 .0255659
917.494 .0255418
918.141 .0255192
918.788 .0254977
919.434 .0254769
920.079 .0254564
920.725 .0254368
921.370 .0254174
922.014 .0253982
922.658 .0253794
923.302 .0253612
923.946 .0253433
924.589 .0253256
925.231 .0253077
925.873 .0252899
926.515 .0252720
927.157 .0252542
927.798 .0252356
928.439 .0252165
929.079 .0251970
929.719 .0251765
930.359 .0251551
930.998 .0251333
931.637 .0251112
932.275 .0250893
932.913 .0250679
933.551 .0250474
934.188 .0250279
934.825 .0250101
935.462 .0249940
936.098 .0249795
936.733 .0249667
937.369 .0249556
938.004 .0249456
938.638 .0249373
939.273 .0249304
939.907 .0249247
940.540 .0249202
941.173 .0249172
941.806 .0249149
942.438 .0249134
943.070 .0249119
943.702 .0249107
944.333 .0249092
944.964 .0249081
945.594 .0249071
946.224 .0249069
946.854 .0249079
947.483 .0249103
948.112 .0249144
948.741 .0249199
949.369 .0249265
949.996 .0249341
950.624 .0249423
951.251 .0249511
951.878 .0249606
952.504 .0249706
953.130 .0249813
953.755 .0249932
954.380 .0250055
955.005 .0250178
955.629 .0250295
956.253 .0250397
956.877 .0250484
957.500 .0250553
958.123 .0250606
958.746 .0250641
959.368 .0250675
959.990 .0250713
960.611 .0250751
961.232 .0250798
961.853 .0250851
962.473 .0250909
963.093 .0250971
963.712 .0251029
964.331 .0251084
964.950 .0251142
965.569 .0251208
966.187 .0251284
966.804 .0251376
967.422 .0251488
968.039 .0251614
968.655 .0251748
969.272 .0251883
969.887 .0252011
970.503 .0252122
971.118 .0252216
971.733 .0252293
972.347 .0252353
972.961 .0252397
973.575 .0252435
974.188 .0252463
974.801 .0252488
975.414 .0252510
976.026 .0252524
976.638 .0252533
977.250 .0252534
977.861 .0252526
978.472 .0252507
979.083 .0252483
979.693 .0252452
980.303 .0252413
980.912 .0252374
981.521 .0252333
982.130 .0252289
982.738 .0252250
983.346 .0252217
983.954 .0252193
984.562 .0252183
985.169 .0252180
985.775 .0252178
986.382 .0252176
986.988 .0252167
987.594 .0252148
988.199 .0252118
988.804 .0252080
989.409 .0252037
990.013 .0252001
990.617 .0251976
991.221 .0251965
991.824 .0251981
992.427 .0252025
993.030 .0252086
993.632 .0252160
994.234 .0252236
994.836 .0252306
995.438 .0252366
996.039 .0252415
996.640 .0252450
997.240 .0252480
997.840 .0252512
998.440 .0252549
999.040 .0252594
999.639 .0252651
1000.238 .0252708
1000.836 .0252763
1001.435 .0252810
1002.033 .0252833
1002.630 .0252827
1003.228 .0252799
1003.825 .0252751
1004.422 .0252688
1005.018 .0252621
1005.614 .0252562
1006.210 .0252518
1006.806 .0252492
1007.401 .0252483
1007.996 .0252483
1008.591 .0252497
1009.186 .0252517
1009.780 .0252532
1010.374 .0252544
1010.967 .0252552
1011.561 .0252550
1012.154 .0252543
1012.746 .0252526
1013.339 .0252504
1013.931 .0252471
1014.523 .0252431
1015.115 .0252385
1015.706 .0252332
1016.298 .0252275
1016.888 .0252220
1017.479 .0252166
1018.069 .0252117
1018.660 .0252060
1019.250 .0252001
1019.839 .0251940
1020.429 .0251877
1021.018 .0251809
1021.607 .0251740
1022.195 .0251675
1022.784 .0251618
1023.372 .0251568
1023.960 .0251533
1024.547 .0251515
1025.135 .0251513
1025.722 .0251515
1026.309 .0251516
1026.896 .0251516
1027.483 .0251512
1028.069 .0251498
1028.655 .0251482
1029.241 .0251456
1029.827 .0251426
1030.412 .0251401
1030.997 .0251378
1031.582 .0251363
1032.167 .0251356
1032.752 .0251355
1033.336 .0251355
1033.921 .0251359
1034.505 .0251365
1035.089 .0251360
1035.672 .0251356
1036.256 .0251343
1036.839 .0251312
1037.422 .0251267
1038.005 .0251207
1038.588 .0251133
1039.171 .0251052
1039.753 .0250962
1040.335 .0250856
1040.918 .0250735
1041.500 .0250606
1042.081 .0250452
1042.663 .0250289
1043.244 .0250116
1043.826 .0249924
1044.407 .0249714
1044.988 .0249500
1045.569 .0249276
1046.150 .0249047
1046.730 .0248817
1047.311 .0248585
1047.891 .0248352
1048.471 .0248123
1049.052 .0247886
1049.632 .0247660
1050.211 .0247459
1050.791 .0247281
1051.371 .0247129
1051.950 .0247012
1052.530 .0246920
1053.109 .0246848
1053.688 .0246783
1054.268 .0246720
1054.847 .0246641
1055.426 .0246543
1056.005 .0246437
1056.583 .0246325
1057.162 .0246223
1057.741 .0246137
1058.319 .0246074
1058.898 .0246043
1059.476 .0246021
1060.055 .0245987
1060.633 .0245935
1061.211 .0245854
1061.790 .0245745
1062.368 .0245595
1062.946 .0245421
1063.524 .0245229
1064.102 .0245030
1064.680 .0244834
1065.258 .0244634
1065.836 .0244429
1066.414 .0244220
1066.992 .0243995
1067.570 .0243768
1068.148 .0243514
1068.726 .0243260
1069.304 .0243010
1069.882 .0242782
1070.460 .0242569
1071.038 .0242382
1071.616 .0242218
1072.194 .0242082
1072.772 .0241968
1073.350 .0241868
1073.928 .0241778
1074.506 .0241710
1075.084 .0241658
1075.662 .0241631
1076.240 .0241630
1076.819 .0241654
1077.397 .0241696
1077.976 .0241771
1078.554 .0241840
1079.133 .0241899
1079.711 .0241942
1080.290 .0241976
1080.869 .0241982
1081.448 .0241970
1082.027 .0241954
1082.606 .0241938
1083.185 .0241950
1083.764 .0241987
1084.343 .0242040
1084.923 .0242124
1085.502 .0242205
1086.082 .0242269
1086.662 .0242312
1087.242 .0242330
1087.822 .0242308
1088.402 .0242262
1088.983 .0242206
1089.563 .0242145
1090.144 .0242087
1090.725 .0242062
1091.306 .0242058
1091.887 .0242074
1092.469 .0242102
1093.050 .0242131
1093.632 .0242155
1094.214 .0242187
1094.796 .0242214
1095.379 .0242271
1095.961 .0242360
1096.544 .0242497
1097.127 .0242655
1097.710 .0242862
1098.294 .0243108
1098.877 .0243371
1099.461 .0243628
1100.046 .0243883
1100.630 .0244114
1101.215 .0244327
1101.800 .0244524
1102.385 .0244720
1102.970 .0244912
1103.556 .0245118
1104.142 .0245308
1104.728 .0245497
1105.315 .0245662
1105.902 .0245805
1106.489 .0245911
1107.077 .0245991
1107.664 .0246046
1108.253 .0246075
1108.841 .0246100
1109.430 .0246143
1110.019 .0246194
1110.609 .0246265
1111.198 .0246333
1111.789 .0246394
1112.379 .0246445
1112.970 .0246483
1113.561 .0246524
1114.153 .0246585
1114.745 .0246694
1115.338 .0246876
1115.931 .0247133
1116.524 .0247464
1117.117 .0247885
1117.712 .0248385
1118.306 .0248962
1118.901 .0249612
1119.496 .0250325
1120.092 .0251086
1120.689 .0251897
1121.285 .0252745
1121.882 .0253616
1122.480 .0254509
1123.078 .0255428
1123.677 .0256331
1124.276 .0257247
1124.875 .0258179
1125.476 .0259105
1126.076 .0260052
1126.677 .0261020
1127.279 .0261984
1127.881 .0262969
1128.484 .0263944
1129.087 .0264865
1129.691 .0265732
1130.295 .0266590
1130.900 .0267396
1131.505 .0268166
1132.111 .0268940
1132.718 .0269719
1133.325 .0270538
1133.933 .0271421
1134.541 .0272355
1135.150 .0273341
1135.760 .0274390
1136.370 .0275463
1136.981 .0276542
1137.592 .0277637
1138.204 .0278730
1138.817 .0279894
1139.431 .0281098
1140.045 .0282393
1140.660 .0283774
1141.275 .0285272
1141.891 .0286968
1142.508 .0287963
1143.126 .0290824
1143.744 .0292147
1144.363 .0294392
1144.983 .0298109
