Measurement Sequence started on: 15-12-46-377
Integration time: 28
Scans to Average: 2 
>>>>>Begin Spectral Data<<<<<
432.689 .0000100
433.621 .0000100
434.552 .0000100
435.482 .0000100
436.410 .0000100
437.337 .0000100
438.262 .0282959
439.187 .0599246
440.110 .0992345
441.031 .1435002
441.952 .1864475
442.871 .2201771
443.789 .2385386
444.705 .2394672
445.621 .2255848
446.535 .2025487
447.447 .1765364
448.359 .1368200
449.269 .1171816
450.178 .1048028
451.086 .0961221
451.993 .0894804
452.898 .0842487
453.803 .0799960
454.706 .0764754
455.608 .0734995
456.508 .0709535
457.408 .0687376
458.306 .0667741
459.204 .0650321
460.100 .0634473
460.995 .0620125
461.888 .0607230
462.781 .0595524
463.673 .0584828
464.563 .0575052
465.452 .0565917
466.340 .0557379
467.228 .0549466
468.114 .0541972
468.999 .0534929
469.882 .0528346
470.765 .0522160
471.647 .0516447
472.528 .0511274
473.407 .0506675
474.286 .0502552
475.163 .0498915
476.040 .0495751
476.915 .0492939
477.790 .0490399
478.663 .0488067
479.535 .0485909
480.407 .0483872
481.277 .0481884
482.147 .0480025
483.015 .0478286
483.883 .0476683
484.749 .0475211
485.615 .0473898
486.479 .0472730
487.343 .0471750
488.206 .0470990
489.067 .0470441
489.928 .0470095
490.788 .0469950
491.647 .0469979
492.505 .0470243
493.362 .0470788
494.218 .0471554
495.073 .0472572
495.928 .0474003
496.781 .0475653
497.634 .0477667
498.486 .0480145
499.337 .0483090
500.187 .0486398
501.036 .0490098
501.884 .0494146
502.731 .0498456
503.578 .0503041
504.424 .0507899
505.268 .0512925
506.113 .0518316
506.956 .0523988
507.798 .0530044
508.640 .0536741
509.480 .0544268
510.320 .0552465
511.160 .0561588
511.998 .0571563
512.836 .0582357
513.672 .0594137
514.508 .0607014
515.344 .0620911
516.178 .0636265
517.012 .0653220
517.845 .0672250
518.677 .0693813
519.508 .0718299
520.339 .0746121
521.169 .0778026
521.998 .0814203
522.826 .0855043
523.654 .0901161
524.481 .0953031
525.307 .1010879
526.133 .1074877
526.958 .1144667
527.782 .1219303
528.605 .1297306
529.428 .1377746
530.250 .1454352
531.072 .1524871
531.892 .1585016
532.712 .1631921
533.532 .1662769
534.350 .1675631
535.168 .1669760
535.986 .1646071
536.802 .1606224
537.618 .1552418
538.434 .1487098
539.249 .1415848
540.063 .1340247
540.876 .1263577
541.689 .1188083
542.501 .1116585
543.313 .1050290
544.124 .0989936
544.934 .0935250
545.744 .0885945
546.553 .0841525
547.361 .0801534
548.169 .0765944
548.976 .0733938
549.783 .0705157
550.589 .0679086
551.395 .0654999
552.200 .0632960
553.004 .0612745
553.808 .0594130
554.611 .0577399
555.414 .0562630
556.216 .0549369
557.018 .0537779
557.819 .0527687
558.619 .0518648
559.419 .0510350
560.218 .0502633
561.017 .0495242
561.815 .0488038
562.613 .0481050
563.410 .0474205
564.207 .0467622
565.003 .0461520
565.799 .0455700
566.594 .0450123
567.388 .0444934
568.182 .0439919
568.976 .0434944
569.769 .0430008
570.562 .0425084
571.354 .0420188
572.145 .0415365
572.936 .0410631
573.727 .0406000
574.517 .0401538
575.307 .0397226
576.096 .0393046
576.885 .0388965
577.673 .0385006
578.461 .0381097
579.248 .0377297
580.035 .0373629
580.821 .0370121
581.607 .0366790
582.392 .0363669
583.177 .0360791
583.962 .0358158
584.746 .0355788
585.529 .0353671
586.313 .0351776
587.095 .0350093
587.878 .0348604
588.660 .0347269
589.441 .0346050
590.222 .0344947
591.003 .0343955
591.783 .0343047
592.563 .0342220
593.342 .0341465
594.121 .0340758
594.899 .0340092
595.678 .0339449
596.455 .0338830
597.233 .0338240
598.009 .0337644
598.786 .0337059
599.562 .0336470
600.338 .0335875
601.113 .0335266
601.888 .0334653
602.663 .0334047
603.437 .0333442
604.211 .0332841
604.984 .0332254
605.757 .0331695
606.530 .0331156
607.302 .0330630
608.074 .0330130
608.845 .0329656
609.616 .0329198
610.387 .0328764
611.158 .0328365
611.928 .0327999
612.697 .0327665
613.467 .0327366
614.236 .0327093
615.004 .0326843
615.773 .0326606
616.541 .0326380
617.308 .0326161
618.076 .0325948
618.843 .0325732
619.609 .0325525
620.375 .0325325
621.141 .0325120
621.907 .0324905
622.672 .0324687
623.437 .0324455
624.202 .0324213
624.966 .0323960
625.730 .0323700
626.493 .0323438
627.257 .0323176
628.020 .0322910
628.782 .0322640
629.545 .0322372
630.307 .0322095
631.068 .0321822
631.830 .0321552
632.591 .0321279
633.352 .0321010
634.112 .0320752
634.872 .0320500
635.632 .0320249
636.392 .0319998
637.151 .0319741
637.910 .0319470
638.668 .0319192
639.427 .0318900
640.185 .0318600
640.943 .0318306
641.700 .0318023
642.457 .0317751
643.214 .0317496
643.971 .0317243
644.727 .0316995
645.483 .0316751
646.239 .0316504
646.994 .0316245
647.750 .0315979
648.505 .0315719
649.259 .0315461
650.014 .0315210
650.768 .0314965
651.521 .0314728
652.275 .0314495
653.028 .0314262
653.781 .0314017
654.534 .0313762
655.286 .0313500
656.039 .0313235
656.791 .0312971
657.542 .0312710
658.294 .0312458
659.045 .0312222
659.796 .0312000
660.546 .0311790
661.297 .0311577
662.047 .0311358
662.796 .0311130
663.546 .0310892
664.295 .0310643
665.044 .0310386
665.793 .0310138
666.542 .0309902
667.290 .0309680
668.038 .0309466
668.786 .0309261
669.533 .0309057
670.281 .0308848
671.028 .0308625
671.774 .0308387
672.521 .0308142
673.267 .0307889
674.013 .0307638
674.759 .0307394
675.505 .0307159
676.250 .0306938
676.995 .0306723
677.740 .0306517
678.484 .0306310
679.229 .0306098
679.973 .0305882
680.717 .0305660
681.460 .0305430
682.204 .0305189
682.947 .0304941
683.690 .0304687
684.433 .0304428
685.175 .0304164
685.917 .0303896
686.659 .0303627
687.401 .0303356
688.142 .0303085
688.884 .0302812
689.625 .0302540
690.365 .0302265
691.106 .0301986
691.846 .0301706
692.586 .0301421
693.326 .0301134
694.066 .0300848
694.805 .0300569
695.545 .0300296
696.284 .0300030
697.022 .0299773
697.761 .0299525
698.499 .0299285
699.237 .0299048
699.975 .0298810
700.713 .0298571
701.450 .0298328
702.187 .0298078
702.924 .0297824
703.661 .0297570
704.397 .0297315
705.133 .0297069
705.869 .0296835
706.605 .0296615
707.341 .0296409
708.076 .0296219
708.811 .0296042
709.546 .0295872
710.281 .0295704
711.015 .0295532
711.749 .0295354
712.483 .0295170
713.217 .0294978
713.950 .0294785
714.684 .0294597
715.417 .0294418
716.150 .0294247
716.882 .0294092
717.615 .0293943
718.347 .0293801
719.079 .0293661
719.811 .0293523
720.542 .0293387
721.273 .0293250
722.005 .0293117
722.735 .0292990
723.466 .0292871
724.196 .0292762
724.927 .0292656
725.656 .0292554
726.386 .0292448
727.116 .0292339
727.845 .0292220
728.574 .0292094
729.303 .0291963
730.031 .0291831
730.760 .0291700
731.488 .0291570
732.216 .0291440
732.944 .0291313
733.671 .0291189
734.398 .0291068
735.125 .0290949
735.852 .0290842
736.579 .0290745
737.305 .0290666
738.031 .0290608
738.757 .0290575
739.483 .0290560
740.208 .0290559
740.933 .0290566
741.658 .0290567
742.383 .0290559
743.108 .0290538
743.832 .0290502
744.556 .0290451
745.280 .0290385
746.004 .0290311
746.727 .0290228
747.450 .0290139
748.173 .0290038
748.896 .0289929
749.618 .0289814
750.340 .0289689
751.062 .0289557
751.784 .0289424
752.506 .0289291
753.227 .0289158
753.948 .0289024
754.669 .0288888
755.389 .0288750
756.110 .0288608
756.830 .0288462
757.550 .0288314
758.269 .0288160
758.989 .0288002
759.708 .0287839
760.427 .0287675
761.146 .0287502
761.864 .0287319
762.582 .0287126
763.300 .0286923
764.018 .0286711
764.736 .0286495
765.453 .0286280
766.170 .0286076
766.887 .0285880
767.603 .0285696
768.320 .0285522
769.036 .0285358
769.751 .0285199
770.467 .0285046
771.182 .0284892
771.897 .0284737
772.612 .0284576
773.327 .0284413
774.041 .0284245
774.755 .0284076
775.469 .0283902
776.183 .0283725
776.896 .0283549
777.609 .0283373
778.322 .0283195
779.035 .0283021
779.747 .0282848
780.459 .0282680
781.171 .0282512
781.882 .0282341
782.594 .0282164
783.305 .0281986
784.016 .0281808
784.726 .0281634
785.436 .0281467
786.147 .0281310
786.856 .0281167
787.566 .0281035
788.275 .0280909
788.984 .0280786
789.693 .0280662
790.401 .0280533
791.110 .0280394
791.818 .0280244
792.525 .0280084
793.233 .0279920
793.940 .0279756
794.647 .0279593
795.353 .0279431
796.060 .0279269
796.766 .0279105
797.472 .0278937
798.177 .0278764
798.883 .0278582
799.588 .0278393
800.292 .0278202
800.997 .0278011
801.701 .0277821
802.405 .0277635
803.109 .0277455
803.812 .0277284
804.515 .0277118
805.218 .0276951
805.921 .0276784
806.623 .0276616
807.325 .0276448
808.027 .0276278
808.728 .0276105
809.429 .0275931
810.130 .0275758
810.831 .0275584
811.531 .0275410
812.231 .0275232
812.931 .0275051
813.630 .0274868
814.330 .0274684
815.029 .0274506
815.727 .0274333
816.426 .0274173
817.124 .0274029
817.821 .0273902
818.519 .0273793
819.216 .0273702
819.913 .0273626
820.609 .0273566
821.306 .0273519
822.002 .0273485
822.697 .0273464
823.393 .0273460
824.088 .0273474
824.783 .0273500
825.477 .0273538
826.171 .0273580
826.865 .0273630
827.559 .0273683
828.252 .0273733
828.945 .0273778
829.638 .0273822
830.330 .0273862
831.023 .0273899
831.714 .0273939
832.406 .0273985
833.097 .0274034
833.788 .0274086
834.479 .0274140
835.169 .0274198
835.859 .0274261
836.548 .0274325
837.238 .0274391
837.927 .0274458
838.615 .0274519
839.304 .0274574
839.992 .0274624
840.680 .0274668
841.367 .0274707
842.054 .0274744
842.741 .0274780
843.428 .0274820
844.114 .0274865
844.800 .0274916
845.485 .0274968
846.170 .0275019
846.855 .0275057
847.540 .0275079
848.224 .0275086
848.908 .0275077
849.592 .0275055
850.275 .0275026
850.958 .0274992
851.641 .0274956
852.323 .0274917
853.005 .0274874
853.687 .0274822
854.368 .0274759
855.049 .0274681
855.730 .0274586
856.410 .0274476
857.090 .0274351
857.769 .0274216
858.449 .0274072
859.128 .0273924
859.806 .0273768
860.485 .0273607
861.163 .0273448
861.840 .0273288
862.518 .0273130
863.195 .0272977
863.871 .0272832
864.548 .0272691
865.224 .0272555
865.899 .0272423
866.574 .0272289
867.249 .0272154
867.924 .0272018
868.598 .0271879
869.272 .0271741
869.946 .0271608
870.619 .0271479
871.292 .0271357
871.964 .0271239
872.636 .0271121
873.308 .0270997
873.979 .0270867
874.651 .0270728
875.321 .0270582
875.992 .0270435
876.662 .0270291
877.331 .0270155
878.001 .0270030
878.670 .0269915
879.338 .0269809
880.007 .0269710
880.675 .0269614
881.342 .0269517
882.009 .0269415
882.676 .0269309
883.343 .0269201
884.009 .0269093
884.675 .0268987
885.340 .0268887
886.005 .0268791
886.670 .0268697
887.334 .0268605
887.998 .0268512
888.662 .0268418
889.325 .0268324
889.988 .0268229
890.650 .0268134
891.312 .0268042
891.974 .0267951
892.636 .0267863
893.297 .0267779
893.957 .0267694
894.618 .0267607
895.278 .0267513
895.937 .0267410
896.596 .0267299
897.255 .0267179
897.914 .0267051
898.572 .0266911
899.230 .0266761
899.887 .0266600
900.544 .0266423
901.201 .0266234
901.857 .0266032
902.513 .0265815
903.168 .0265585
903.823 .0265343
904.478 .0265085
905.132 .0264817
905.786 .0264539
906.440 .0264256
907.093 .0263967
907.746 .0263672
908.399 .0263371
909.051 .0263066
909.703 .0262763
910.354 .0262458
911.005 .0262153
911.656 .0261854
912.306 .0261556
912.956 .0261259
913.605 .0260961
914.254 .0260666
914.903 .0260373
915.551 .0260083
916.199 .0259799
916.847 .0259519
917.494 .0259247
918.141 .0258986
918.788 .0258733
919.434 .0258492
920.079 .0258257
920.725 .0258023
921.370 .0257789
922.014 .0257556
922.658 .0257318
923.302 .0257078
923.946 .0256837
924.589 .0256592
925.231 .0256344
925.873 .0256096
926.515 .0255848
927.157 .0255601
927.798 .0255354
928.439 .0255105
929.079 .0254858
929.719 .0254611
930.359 .0254362
930.998 .0254117
931.637 .0253876
932.275 .0253639
932.913 .0253404
933.551 .0253170
934.188 .0252938
934.825 .0252706
935.462 .0252479
936.098 .0252257
936.733 .0252050
937.369 .0251861
938.004 .0251697
938.638 .0251557
939.273 .0251439
939.907 .0251345
940.540 .0251268
941.173 .0251208
941.806 .0251160
942.438 .0251121
943.070 .0251098
943.702 .0251084
944.333 .0251083
944.964 .0251091
945.594 .0251111
946.224 .0251138
946.854 .0251172
947.483 .0251210
948.112 .0251252
948.741 .0251292
949.369 .0251331
949.996 .0251368
950.624 .0251396
951.251 .0251416
951.878 .0251427
952.504 .0251430
953.130 .0251427
953.755 .0251417
954.380 .0251409
955.005 .0251402
955.629 .0251401
956.253 .0251403
956.877 .0251409
957.500 .0251419
958.123 .0251424
958.746 .0251420
959.368 .0251409
959.990 .0251390
960.611 .0251368
961.232 .0251346
961.853 .0251333
962.473 .0251332
963.093 .0251343
963.712 .0251368
964.331 .0251401
964.950 .0251438
965.569 .0251483
966.187 .0251528
966.804 .0251578
967.422 .0251640
968.039 .0251712
968.655 .0251797
969.272 .0251897
969.887 .0252005
970.503 .0252116
971.118 .0252227
971.733 .0252337
972.347 .0252437
972.961 .0252531
973.575 .0252622
974.188 .0252701
974.801 .0252775
975.414 .0252842
976.026 .0252897
976.638 .0252944
977.250 .0252980
977.861 .0253009
978.472 .0253035
979.083 .0253058
979.693 .0253077
980.303 .0253097
980.912 .0253120
981.521 .0253138
982.130 .0253151
982.738 .0253161
983.346 .0253162
983.954 .0253157
984.562 .0253145
985.169 .0253125
985.775 .0253102
986.382 .0253078
986.988 .0253055
987.594 .0253034
988.199 .0253017
988.804 .0253003
989.409 .0252994
990.013 .0252994
990.617 .0252997
991.221 .0253004
991.824 .0253022
992.427 .0253046
993.030 .0253077
993.632 .0253118
994.234 .0253172
994.836 .0253240
995.438 .0253321
996.039 .0253411
996.640 .0253508
997.240 .0253607
997.840 .0253703
998.440 .0253794
999.040 .0253879
999.639 .0253958
1000.238 .0254026
1000.836 .0254092
1001.435 .0254155
1002.033 .0254213
1002.630 .0254274
1003.228 .0254330
1003.825 .0254382
1004.422 .0254429
1005.018 .0254469
1005.614 .0254509
1006.210 .0254550
1006.806 .0254594
1007.401 .0254638
1007.996 .0254691
1008.591 .0254747
1009.186 .0254803
1009.780 .0254859
1010.374 .0254916
1010.967 .0254963
1011.561 .0255006
1012.154 .0255044
1012.746 .0255078
1013.339 .0255109
1013.931 .0255143
1014.523 .0255173
1015.115 .0255207
1015.706 .0255239
1016.298 .0255268
1016.888 .0255293
1017.479 .0255319
1018.069 .0255334
1018.660 .0255341
1019.250 .0255345
1019.839 .0255344
1020.429 .0255339
1021.018 .0255340
1021.607 .0255342
1022.195 .0255351
1022.784 .0255366
1023.372 .0255382
1023.960 .0255399
1024.547 .0255421
1025.135 .0255440
1025.722 .0255452
1026.309 .0255463
1026.896 .0255468
1027.483 .0255469
1028.069 .0255466
1028.655 .0255459
1029.241 .0255446
1029.827 .0255426
1030.412 .0255401
1030.997 .0255375
1031.582 .0255350
1032.167 .0255329
1032.752 .0255309
1033.336 .0255295
1033.921 .0255280
1034.505 .0255265
1035.089 .0255248
1035.672 .0255230
1036.256 .0255212
1036.839 .0255189
1037.422 .0255164
1038.005 .0255152
1038.588 .0255149
1039.171 .0255153
1039.753 .0255172
1040.335 .0255207
1040.918 .0255245
1041.500 .0255282
1042.081 .0255310
1042.663 .0255330
1043.244 .0255343
1043.826 .0255338
1044.407 .0255308
1044.988 .0255254
1045.569 .0255180
1046.150 .0255077
1046.730 .0254953
1047.311 .0254813
1047.891 .0254662
1048.471 .0254501
1049.052 .0254329
1049.632 .0254143
1050.211 .0253948
1050.791 .0253742
1051.371 .0253530
1051.950 .0253316
1052.530 .0253093
1053.109 .0252872
1053.688 .0252663
1054.268 .0252461
1054.847 .0252273
1055.426 .0252102
1056.005 .0251943
1056.583 .0251793
1057.162 .0251648
1057.741 .0251494
1058.319 .0251345
1058.898 .0251206
1059.476 .0251064
1060.055 .0250917
1060.633 .0250768
1061.211 .0250615
1061.790 .0250454
1062.368 .0250296
1062.946 .0250123
1063.524 .0249950
1064.102 .0249787
1064.680 .0249617
1065.258 .0249448
1065.836 .0249278
1066.414 .0249119
1066.992 .0248962
1067.570 .0248808
1068.148 .0248654
1068.726 .0248505
1069.304 .0248381
1069.882 .0248274
1070.460 .0248177
1071.038 .0248099
1071.616 .0248029
1072.194 .0247967
1072.772 .0247902
1073.350 .0247824
1073.928 .0247742
1074.506 .0247668
1075.084 .0247591
1075.662 .0247530
1076.240 .0247483
1076.819 .0247452
1077.397 .0247432
1077.976 .0247418
1078.554 .0247408
1079.133 .0247378
1079.711 .0247345
1080.290 .0247300
1080.869 .0247240
1081.448 .0247171
1082.027 .0247096
1082.606 .0247038
1083.185 .0247012
1083.764 .0247005
1084.343 .0247015
1084.923 .0247027
1085.502 .0247053
1086.082 .0247057
1086.662 .0247057
1087.242 .0247041
1087.822 .0247013
1088.402 .0246961
1088.983 .0246902
1089.563 .0246814
1090.144 .0246720
1090.725 .0246630
1091.306 .0246542
1091.887 .0246453
1092.469 .0246382
1093.050 .0246319
1093.632 .0246278
1094.214 .0246255
1094.796 .0246257
1095.379 .0246260
1095.961 .0246306
1096.544 .0246354
1097.127 .0246416
1097.710 .0246522
1098.294 .0246666
1098.877 .0246833
1099.461 .0247029
1100.046 .0247243
1100.630 .0247466
1101.215 .0247677
1101.800 .0247887
1102.385 .0248068
1102.970 .0248244
1103.556 .0248399
1104.142 .0248537
1104.728 .0248685
1105.315 .0248847
1105.902 .0249006
1106.489 .0249186
1107.077 .0249386
1107.664 .0249576
1108.253 .0249755
1108.841 .0249935
1109.430 .0250124
1110.019 .0250310
1110.609 .0250483
1111.198 .0250665
1111.789 .0250860
1112.379 .0251061
1112.970 .0251248
1113.561 .0251457
1114.153 .0251711
1114.745 .0251997
1115.338 .0252345
1115.931 .0252752
1116.524 .0253246
1117.117 .0253825
1117.712 .0254451
1118.306 .0255113
1118.901 .0255790
1119.496 .0256444
1120.092 .0257059
1120.689 .0257650
1121.285 .0258231
1121.882 .0258794
1122.480 .0259377
1123.078 .0260011
1123.677 .0260671
1124.276 .0261370
1124.875 .0262062
1125.476 .0262699
1126.076 .0263277
1126.677 .0263732
1127.279 .0264044
1127.881 .0264254
1128.484 .0264398
1129.087 .0264526
1129.691 .0264706
1130.295 .0264968
1130.900 .0265324
1131.505 .0265779
1132.111 .0266325
1132.718 .0266890
1133.325 .0267468
1133.933 .0268018
1134.541 .0268560
1135.150 .0269143
1135.760 .0269815
1136.370 .0270603
1136.981 .0271625
1137.592 .0272841
1138.204 .0274290
1138.817 .0275899
1139.431 .0277727
1140.045 .0279715
1140.660 .0281919
1141.275 .0284365
1141.891 .0287160
1142.508 .0289130
1143.126 .0291698
1143.744 .0295737
1144.363 .0301016
1144.983 .0307372
