Measurement Sequence started on: 15-12-46-377
Integration time: 28
Scans to Average: 2 
>>>>>Begin Spectral Data<<<<<
432.689 .0000100
433.621 .0000100
434.552 .0000100
435.482 .0000100
436.410 .0000100
437.337 .0000100
438.262 .0276123
439.187 .0582818
440.110 .0964424
441.031 .1395329
441.952 .1813544
442.871 .2143137
443.789 .2324421
444.705 .2337453
445.621 .2206956
446.535 .1987792
447.447 .1739294
448.359 .1356078
449.269 .1168623
450.178 .1049678
451.086 .0964813
451.993 .0899820
452.898 .0848032
453.803 .0805463
454.706 .0769836
455.608 .0739397
456.508 .0712746
457.408 .0689234
458.306 .0668182
459.204 .0649235
460.100 .0631898
460.995 .0616411
461.888 .0602458
462.781 .0589732
463.673 .0578283
464.563 .0567897
465.452 .0558488
466.340 .0549763
467.228 .0541823
468.114 .0534527
468.999 .0527929
469.882 .0521867
470.765 .0516249
471.647 .0511122
472.528 .0506606
473.407 .0502452
474.286 .0498714
475.163 .0495428
476.040 .0492505
476.915 .0489825
477.790 .0487398
478.663 .0485148
479.535 .0483055
480.407 .0481113
481.277 .0479321
482.147 .0477618
483.015 .0476159
483.883 .0474849
484.749 .0473789
485.615 .0473007
486.479 .0472506
487.343 .0472174
488.206 .0472105
489.067 .0472220
489.928 .0472390
490.788 .0472675
491.647 .0473076
492.505 .0473601
493.362 .0474314
494.218 .0475235
495.073 .0476424
495.928 .0477974
496.781 .0479901
497.634 .0482191
498.486 .0484963
499.337 .0488144
500.187 .0491641
501.036 .0495335
501.884 .0499182
502.731 .0503110
503.578 .0507072
504.424 .0511125
505.268 .0515264
506.113 .0519616
506.956 .0524250
507.798 .0529248
508.640 .0534741
509.480 .0540704
510.320 .0547338
511.160 .0554569
511.998 .0562327
512.836 .0570668
513.672 .0579785
514.508 .0589787
515.344 .0600884
516.178 .0613622
517.012 .0628398
517.845 .0645683
518.677 .0666005
519.508 .0689434
520.339 .0716596
521.169 .0748059
521.998 .0783755
522.826 .0823701
523.654 .0867985
524.481 .0916224
525.307 .0968746
526.133 .1025669
526.958 .1086282
527.782 .1150596
528.605 .1217149
529.428 .1285910
530.250 .1351341
531.072 .1411546
531.892 .1462625
532.712 .1501976
533.532 .1527033
534.350 .1535480
535.168 .1526593
535.986 .1502198
536.802 .1463732
537.618 .1414474
538.434 .1355974
539.249 .1293678
540.063 .1228715
540.876 .1163954
541.689 .1100380
542.501 .1040357
543.313 .0984382
544.124 .0933369
544.934 .0886504
545.744 .0843779
546.553 .0804809
547.361 .0769792
548.169 .0738709
548.976 .0710980
549.783 .0686111
550.589 .0664026
551.395 .0643828
552.200 .0625707
553.004 .0609042
553.808 .0593685
554.611 .0579450
555.414 .0566580
556.216 .0554683
557.018 .0543818
557.819 .0533958
558.619 .0524987
559.419 .0516648
560.218 .0508807
561.017 .0501300
561.815 .0493820
562.613 .0486426
563.410 .0478996
564.207 .0471573
565.003 .0464333
565.799 .0457322
566.594 .0450513
567.388 .0444096
568.182 .0438048
568.976 .0432208
569.769 .0426548
570.562 .0421094
571.354 .0415693
572.145 .0410358
572.936 .0405111
573.727 .0400036
574.517 .0395109
575.307 .0390440
576.096 .0386000
576.885 .0381875
577.673 .0378047
578.461 .0374471
579.248 .0371097
580.035 .0367937
580.821 .0364931
581.607 .0362036
582.392 .0359284
583.177 .0356722
583.962 .0354337
584.746 .0352167
585.529 .0350204
586.313 .0348465
587.095 .0346918
587.878 .0345546
588.660 .0344301
589.441 .0343134
590.222 .0342004
591.003 .0340922
591.783 .0339885
592.563 .0338895
593.342 .0337964
594.121 .0337096
594.899 .0336309
595.678 .0335609
596.455 .0334974
597.233 .0334387
598.009 .0333817
598.786 .0333258
599.562 .0332679
600.338 .0332077
601.113 .0331460
601.888 .0330826
602.663 .0330207
603.437 .0329616
604.211 .0329050
604.984 .0328526
605.757 .0328043
606.530 .0327591
607.302 .0327158
608.074 .0326730
608.845 .0326287
609.616 .0325838
610.387 .0325389
611.158 .0324942
611.928 .0324498
612.697 .0324084
613.467 .0323695
614.236 .0323335
615.004 .0323010
615.773 .0322709
616.541 .0322428
617.308 .0322175
618.076 .0321932
618.843 .0321703
619.609 .0321494
620.375 .0321311
621.141 .0321151
621.907 .0321023
622.672 .0320914
623.437 .0320813
624.202 .0320719
624.966 .0320626
625.730 .0320513
626.493 .0320378
627.257 .0320217
628.020 .0320028
628.782 .0319814
629.545 .0319581
630.307 .0319328
631.068 .0319064
631.830 .0318797
632.591 .0318523
633.352 .0318232
634.112 .0317936
634.872 .0317634
635.632 .0317336
636.392 .0317043
637.151 .0316766
637.910 .0316503
638.668 .0316266
639.427 .0316056
640.185 .0315865
640.943 .0315695
641.700 .0315543
642.457 .0315396
643.214 .0315249
643.971 .0315095
644.727 .0314934
645.483 .0314759
646.239 .0314578
646.994 .0314377
647.750 .0314159
648.505 .0313926
649.259 .0313683
650.014 .0313432
650.768 .0313176
651.521 .0312922
652.275 .0312670
653.028 .0312426
653.781 .0312187
654.534 .0311947
655.286 .0311713
656.039 .0311478
656.791 .0311245
657.542 .0311006
658.294 .0310768
659.045 .0310529
659.796 .0310289
660.546 .0310054
661.297 .0309815
662.047 .0309578
662.796 .0309340
663.546 .0309101
664.295 .0308856
665.044 .0308607
665.793 .0308360
666.542 .0308108
667.290 .0307863
668.038 .0307618
668.786 .0307371
669.533 .0307122
670.281 .0306875
671.028 .0306628
671.774 .0306384
672.521 .0306152
673.267 .0305924
674.013 .0305700
674.759 .0305473
675.505 .0305242
676.250 .0305001
676.995 .0304751
677.740 .0304489
678.484 .0304214
679.229 .0303939
679.973 .0303664
680.717 .0303395
681.460 .0303141
682.204 .0302897
682.947 .0302659
683.690 .0302416
684.433 .0302170
685.175 .0301914
685.917 .0301652
686.659 .0301386
687.401 .0301120
688.142 .0300859
688.884 .0300604
689.625 .0300357
690.365 .0300123
691.106 .0299891
691.846 .0299662
692.586 .0299428
693.326 .0299187
694.066 .0298934
694.805 .0298675
695.545 .0298411
696.284 .0298149
697.022 .0297893
697.761 .0297640
698.499 .0297392
699.237 .0297149
699.975 .0296914
700.713 .0296686
701.450 .0296468
702.187 .0296257
702.924 .0296056
703.661 .0295872
704.397 .0295702
705.133 .0295547
705.869 .0295408
706.605 .0295286
707.341 .0295173
708.076 .0295063
708.811 .0294956
709.546 .0294847
710.281 .0294738
711.015 .0294623
711.749 .0294507
712.483 .0294387
713.217 .0294262
713.950 .0294132
714.684 .0293998
715.417 .0293857
716.150 .0293708
716.882 .0293548
717.615 .0293384
718.347 .0293216
719.079 .0293051
719.811 .0292887
720.542 .0292736
721.273 .0292596
722.005 .0292466
722.735 .0292339
723.466 .0292218
724.196 .0292097
724.927 .0291981
725.656 .0291864
726.386 .0291752
727.116 .0291645
727.845 .0291544
728.574 .0291448
729.303 .0291359
730.031 .0291272
730.760 .0291190
731.488 .0291101
732.216 .0291007
732.944 .0290905
733.671 .0290799
734.398 .0290689
735.125 .0290579
735.852 .0290481
736.579 .0290392
737.305 .0290314
738.031 .0290251
738.757 .0290193
739.483 .0290138
740.208 .0290079
740.933 .0290009
741.658 .0289929
742.383 .0289833
743.108 .0289722
743.832 .0289605
744.556 .0289485
745.280 .0289364
746.004 .0289242
746.727 .0289121
747.450 .0289000
748.173 .0288866
748.896 .0288725
749.618 .0288574
750.340 .0288416
751.062 .0288256
751.784 .0288089
752.506 .0287925
753.227 .0287764
753.948 .0287603
754.669 .0287444
755.389 .0287274
756.110 .0287094
756.830 .0286894
757.550 .0286676
758.269 .0286441
758.989 .0286195
759.708 .0285941
760.427 .0285690
761.146 .0285440
761.864 .0285189
762.582 .0284934
763.300 .0284677
764.018 .0284415
764.736 .0284143
765.453 .0283862
766.170 .0283576
766.887 .0283290
767.603 .0283017
768.320 .0282752
769.036 .0282507
769.751 .0282283
770.467 .0282074
771.182 .0281874
771.897 .0281680
772.612 .0281481
773.327 .0281279
774.041 .0281069
774.755 .0280854
775.469 .0280637
776.183 .0280425
776.896 .0280220
777.609 .0280026
778.322 .0279844
779.035 .0279667
779.747 .0279492
780.459 .0279325
781.171 .0279158
781.882 .0278991
782.594 .0278833
783.305 .0278685
784.016 .0278551
784.726 .0278432
785.436 .0278326
786.147 .0278234
786.856 .0278152
787.566 .0278078
788.275 .0278011
788.984 .0277948
789.693 .0277891
790.401 .0277832
791.110 .0277774
791.818 .0277711
792.525 .0277638
793.233 .0277555
793.940 .0277461
794.647 .0277356
795.353 .0277239
796.060 .0277114
796.766 .0276985
797.472 .0276848
798.177 .0276708
798.883 .0276561
799.588 .0276412
800.292 .0276257
800.997 .0276102
801.701 .0275947
802.405 .0275800
803.109 .0275662
803.812 .0275535
804.515 .0275418
805.218 .0275308
805.921 .0275199
806.623 .0275088
807.325 .0274969
808.027 .0274848
808.728 .0274720
809.429 .0274594
810.130 .0274474
810.831 .0274366
811.531 .0274266
812.231 .0274173
812.931 .0274082
813.630 .0273989
814.330 .0273887
815.029 .0273774
815.727 .0273653
816.426 .0273526
817.124 .0273403
817.821 .0273287
818.519 .0273182
819.216 .0273098
819.913 .0273032
820.609 .0272985
821.306 .0272951
822.002 .0272930
822.697 .0272918
823.393 .0272915
824.088 .0272924
824.783 .0272937
825.477 .0272960
826.171 .0272991
826.865 .0273033
827.559 .0273086
828.252 .0273153
828.945 .0273235
829.638 .0273330
830.330 .0273437
831.023 .0273549
831.714 .0273659
832.406 .0273763
833.097 .0273853
833.788 .0273924
834.479 .0273977
835.169 .0274013
835.859 .0274039
836.548 .0274065
837.238 .0274092
837.927 .0274126
838.615 .0274168
839.304 .0274216
839.992 .0274266
840.680 .0274308
841.367 .0274343
842.054 .0274362
842.741 .0274374
843.428 .0274377
844.114 .0274378
844.800 .0274381
845.485 .0274385
846.170 .0274387
846.855 .0274385
847.540 .0274376
848.224 .0274357
848.908 .0274323
849.592 .0274275
850.275 .0274208
850.958 .0274129
851.641 .0274039
852.323 .0273940
853.005 .0273831
853.687 .0273712
854.368 .0273577
855.049 .0273422
855.730 .0273254
856.410 .0273073
857.090 .0272882
857.769 .0272685
858.449 .0272483
859.128 .0272277
859.806 .0272065
860.485 .0271852
861.163 .0271635
861.840 .0271416
862.518 .0271190
863.195 .0270955
863.871 .0270717
864.548 .0270477
865.224 .0270239
865.899 .0270010
866.574 .0269793
867.249 .0269590
867.924 .0269396
868.598 .0269218
869.272 .0269057
869.946 .0268912
870.619 .0268777
871.292 .0268651
871.964 .0268528
872.636 .0268407
873.308 .0268284
873.979 .0268158
874.651 .0268031
875.321 .0267898
875.992 .0267763
876.662 .0267624
877.331 .0267482
878.001 .0267337
878.670 .0267184
879.338 .0267024
880.007 .0266851
880.675 .0266659
881.342 .0266452
882.009 .0266233
882.676 .0266009
883.343 .0265781
884.009 .0265560
884.675 .0265349
885.340 .0265153
886.005 .0264970
886.670 .0264801
887.334 .0264643
887.998 .0264491
888.662 .0264344
889.325 .0264202
889.988 .0264064
890.650 .0263933
891.312 .0263808
891.974 .0263693
892.636 .0263583
893.297 .0263478
893.957 .0263372
894.618 .0263265
895.278 .0263152
895.937 .0263031
896.596 .0262903
897.255 .0262775
897.914 .0262641
898.572 .0262509
899.230 .0262383
899.887 .0262254
900.544 .0262121
901.201 .0261981
901.857 .0261831
902.513 .0261670
903.168 .0261494
903.823 .0261303
904.478 .0261102
905.132 .0260895
905.786 .0260675
906.440 .0260446
907.093 .0260212
907.746 .0259969
908.399 .0259711
909.051 .0259442
909.703 .0259162
910.354 .0258870
911.005 .0258574
911.656 .0258275
912.306 .0257978
912.956 .0257685
913.605 .0257396
914.254 .0257112
914.903 .0256834
915.551 .0256564
916.199 .0256300
916.847 .0256047
917.494 .0255807
918.141 .0255582
918.788 .0255370
919.434 .0255178
920.079 .0255004
920.725 .0254841
921.370 .0254689
922.014 .0254544
922.658 .0254403
923.302 .0254262
923.946 .0254118
924.589 .0253969
925.231 .0253816
925.873 .0253663
926.515 .0253503
927.157 .0253349
927.798 .0253199
928.439 .0253050
929.079 .0252902
929.719 .0252753
930.359 .0252596
930.998 .0252430
931.637 .0252252
932.275 .0252062
932.913 .0251864
933.551 .0251662
934.188 .0251463
934.825 .0251274
935.462 .0251107
936.098 .0250956
936.733 .0250831
937.369 .0250731
938.004 .0250646
938.638 .0250577
939.273 .0250521
939.907 .0250474
940.540 .0250438
941.173 .0250414
941.806 .0250400
942.438 .0250407
943.070 .0250434
943.702 .0250478
944.333 .0250538
944.964 .0250612
945.594 .0250693
946.224 .0250776
946.854 .0250866
947.483 .0250953
948.112 .0251043
948.741 .0251133
949.369 .0251218
949.996 .0251297
950.624 .0251370
951.251 .0251434
951.878 .0251491
952.504 .0251543
953.130 .0251585
953.755 .0251623
954.380 .0251662
955.005 .0251698
955.629 .0251733
956.253 .0251762
956.877 .0251790
957.500 .0251811
958.123 .0251826
958.746 .0251835
959.368 .0251845
959.990 .0251861
960.611 .0251885
961.232 .0251916
961.853 .0251961
962.473 .0252022
963.093 .0252101
963.712 .0252192
964.331 .0252293
964.950 .0252403
965.569 .0252522
966.187 .0252648
966.804 .0252783
967.422 .0252921
968.039 .0253069
968.655 .0253215
969.272 .0253353
969.887 .0253476
970.503 .0253583
971.118 .0253672
971.733 .0253745
972.347 .0253800
972.961 .0253841
973.575 .0253870
974.188 .0253890
974.801 .0253896
975.414 .0253889
976.026 .0253866
976.638 .0253828
977.250 .0253778
977.861 .0253718
978.472 .0253656
979.083 .0253602
979.693 .0253553
980.303 .0253508
980.912 .0253465
981.521 .0253417
982.130 .0253367
982.738 .0253313
983.346 .0253259
983.954 .0253200
984.562 .0253141
985.169 .0253080
985.775 .0253014
986.382 .0252946
986.988 .0252873
987.594 .0252793
988.199 .0252708
988.804 .0252614
989.409 .0252513
990.013 .0252416
990.617 .0252330
991.221 .0252254
991.824 .0252192
992.427 .0252148
993.030 .0252118
993.632 .0252099
994.234 .0252093
994.836 .0252098
995.438 .0252117
996.039 .0252142
996.640 .0252177
997.240 .0252221
997.840 .0252278
998.440 .0252348
999.040 .0252426
999.639 .0252511
1000.238 .0252597
1000.836 .0252673
1001.435 .0252744
1002.033 .0252807
1002.630 .0252857
1003.228 .0252889
1003.825 .0252905
1004.422 .0252907
1005.018 .0252893
1005.614 .0252869
1006.210 .0252841
1006.806 .0252810
1007.401 .0252775
1007.996 .0252735
1008.591 .0252689
1009.186 .0252640
1009.780 .0252582
1010.374 .0252517
1010.967 .0252449
1011.561 .0252374
1012.154 .0252301
1012.746 .0252223
1013.339 .0252154
1013.931 .0252084
1014.523 .0252016
1015.115 .0251943
1015.706 .0251871
1016.298 .0251803
1016.888 .0251730
1017.479 .0251659
1018.069 .0251590
1018.660 .0251521
1019.250 .0251456
1019.839 .0251393
1020.429 .0251338
1021.018 .0251286
1021.607 .0251245
1022.195 .0251205
1022.784 .0251171
1023.372 .0251145
1023.960 .0251132
1024.547 .0251128
1025.135 .0251138
1025.722 .0251156
1026.309 .0251180
1026.896 .0251218
1027.483 .0251261
1028.069 .0251302
1028.655 .0251344
1029.241 .0251378
1029.827 .0251407
1030.412 .0251425
1030.997 .0251444
1031.582 .0251455
1032.167 .0251467
1032.752 .0251474
1033.336 .0251469
1033.921 .0251460
1034.505 .0251443
1035.089 .0251409
1035.672 .0251365
1036.256 .0251308
1036.839 .0251236
1037.422 .0251152
1038.005 .0251066
1038.588 .0250974
1039.171 .0250881
1039.753 .0250790
1040.335 .0250694
1040.918 .0250590
1041.500 .0250485
1042.081 .0250370
1042.663 .0250246
1043.244 .0250120
1043.826 .0249977
1044.407 .0249826
1044.988 .0249674
1045.569 .0249517
1046.150 .0249347
1046.730 .0249170
1047.311 .0248984
1047.891 .0248789
1048.471 .0248588
1049.052 .0248383
1049.632 .0248167
1050.211 .0247959
1050.791 .0247741
1051.371 .0247516
1051.950 .0247293
1052.530 .0247074
1053.109 .0246857
1053.688 .0246651
1054.268 .0246452
1054.847 .0246270
1055.426 .0246103
1056.005 .0245963
1056.583 .0245834
1057.162 .0245712
1057.741 .0245598
1058.319 .0245474
1058.898 .0245350
1059.476 .0245220
1060.055 .0245081
1060.633 .0244950
1061.211 .0244821
1061.790 .0244698
1062.368 .0244586
1062.946 .0244485
1063.524 .0244401
1064.102 .0244320
1064.680 .0244239
1065.258 .0244140
1065.836 .0244026
1066.414 .0243900
1066.992 .0243766
1067.570 .0243626
1068.148 .0243485
1068.726 .0243342
1069.304 .0243219
1069.882 .0243103
1070.460 .0243006
1071.038 .0242927
1071.616 .0242853
1072.194 .0242774
1072.772 .0242682
1073.350 .0242571
1073.928 .0242452
1074.506 .0242326
1075.084 .0242202
1075.662 .0242076
1076.240 .0241977
1076.819 .0241897
1077.397 .0241849
1077.976 .0241835
1078.554 .0241853
1079.133 .0241897
1079.711 .0241965
1080.290 .0242035
1080.869 .0242115
1081.448 .0242198
1082.027 .0242283
1082.606 .0242368
1083.185 .0242463
1083.764 .0242564
1084.343 .0242681
1084.923 .0242802
1085.502 .0242931
1086.082 .0243052
1086.662 .0243169
1087.242 .0243253
1087.822 .0243302
1088.402 .0243319
1088.983 .0243292
1089.563 .0243234
1090.144 .0243161
1090.725 .0243071
1091.306 .0242985
1091.887 .0242926
1092.469 .0242910
1093.050 .0242936
1093.632 .0243008
1094.214 .0243108
1094.796 .0243247
1095.379 .0243418
1095.961 .0243590
1096.544 .0243775
1097.127 .0243977
1097.710 .0244205
1098.294 .0244436
1098.877 .0244683
1099.461 .0244941
1100.046 .0245209
1100.630 .0245479
1101.215 .0245745
1101.800 .0245999
1102.385 .0246235
1102.970 .0246452
1103.556 .0246651
1104.142 .0246842
1104.728 .0247037
1105.315 .0247227
1105.902 .0247433
1106.489 .0247647
1107.077 .0247874
1107.664 .0248114
1108.253 .0248395
1108.841 .0248718
1109.430 .0249071
1110.019 .0249450
1110.609 .0249855
1111.198 .0250267
1111.789 .0250702
1112.379 .0251130
1112.970 .0251536
1113.561 .0251939
1114.153 .0252332
1114.745 .0252708
1115.338 .0253096
1115.931 .0253491
1116.524 .0253884
1117.117 .0254287
1117.712 .0254704
1118.306 .0255093
1118.901 .0255498
1119.496 .0255926
1120.092 .0256386
1120.689 .0256881
1121.285 .0257429
1121.882 .0257987
1122.480 .0258597
1123.078 .0259256
1123.677 .0259920
1124.276 .0260623
1124.875 .0261391
1125.476 .0262170
1126.076 .0262993
1126.677 .0263877
1127.279 .0264801
1127.881 .0265745
1128.484 .0266715
1129.087 .0267630
1129.691 .0268512
1130.295 .0269354
1130.900 .0270187
1131.505 .0271017
1132.111 .0271879
1132.718 .0272766
1133.325 .0273656
1133.933 .0274577
1134.541 .0275493
1135.150 .0276347
1135.760 .0277200
1136.370 .0278046
1136.981 .0278934
1137.592 .0279851
1138.204 .0280903
1138.817 .0282112
1139.431 .0283382
1140.045 .0284782
1140.660 .0286290
1141.275 .0287963
1141.891 .0289990
1142.508 .0289331
1143.126 .0292608
1143.744 .0295474
1144.363 .0299584
1144.983 .0307161
