Measurement Sequence started on: 15-12-46-377
Integration time: 28
Scans to Average: 2 
>>>>>Begin Spectral Data<<<<<
432.689 .0000100
433.621 .0000100
434.552 .0000100
435.482 .0000100
436.410 .0000100
437.337 .0000100
438.262 .0294691
439.187 .0624821
440.110 .1035294
441.031 .1498680
441.952 .1948946
442.871 .2304181
443.789 .2499641
444.705 .2513321
445.621 .2371814
446.535 .2133893
447.447 .1863583
448.359 .1449235
449.269 .1242783
450.178 .1111541
451.086 .1018158
451.993 .0946565
452.898 .0889781
453.803 .0843746
454.706 .0805553
455.608 .0773183
456.508 .0745252
457.408 .0721011
458.306 .0699332
459.204 .0679816
460.100 .0662130
460.995 .0646012
461.888 .0631393
462.781 .0618106
463.673 .0606024
464.563 .0595129
465.452 .0585094
466.340 .0575639
467.228 .0566738
468.114 .0558323
468.999 .0550336
469.882 .0542848
470.765 .0535909
471.647 .0529540
472.528 .0523821
473.407 .0518809
474.286 .0514439
475.163 .0510567
476.040 .0507198
476.915 .0504136
477.790 .0501389
478.663 .0498871
479.535 .0496654
480.407 .0494825
481.277 .0493344
482.147 .0492223
483.015 .0491400
483.883 .0490808
484.749 .0490333
485.615 .0489896
486.479 .0489511
487.343 .0489105
488.206 .0488702
489.067 .0488316
489.928 .0487996
490.788 .0487864
491.647 .0487925
492.505 .0488130
493.362 .0488536
494.218 .0489065
495.073 .0489686
495.928 .0490482
496.781 .0491405
497.634 .0492607
498.486 .0494079
499.337 .0495969
500.187 .0498245
501.036 .0500982
501.884 .0504194
502.731 .0507857
503.578 .0511886
504.424 .0516238
505.268 .0520736
506.113 .0525546
506.956 .0530628
507.798 .0536235
508.640 .0542366
509.480 .0549272
510.320 .0557053
511.160 .0565966
511.998 .0575810
512.836 .0586761
513.672 .0598750
514.508 .0611853
515.344 .0626033
516.178 .0641698
517.012 .0659012
517.845 .0678753
518.677 .0701305
519.508 .0727097
520.339 .0756344
521.169 .0789996
521.998 .0827628
522.826 .0869809
523.654 .0916647
524.481 .0968430
525.307 .1025419
526.133 .1088120
526.958 .1155765
527.782 .1228207
528.605 .1303578
529.428 .1380203
530.250 .1452817
531.072 .1519135
531.892 .1574917
532.712 .1617279
533.532 .1643929
534.350 .1653499
535.168 .1644928
535.986 .1619595
536.802 .1578505
537.618 .1524156
538.434 .1458831
539.249 .1386698
540.063 .1309934
540.876 .1232416
541.689 .1156812
542.501 .1085915
543.313 .1020966
544.124 .0963091
544.934 .0911551
545.744 .0865594
546.553 .0824575
547.361 .0787619
548.169 .0754224
548.976 .0723761
549.783 .0695816
550.589 .0670634
551.395 .0647781
552.200 .0627499
553.004 .0609583
553.808 .0593688
554.611 .0579681
555.414 .0567136
556.216 .0555741
557.018 .0545415
557.819 .0535848
558.619 .0526817
559.419 .0518236
560.218 .0510149
561.017 .0502561
561.815 .0495298
562.613 .0488422
563.410 .0481798
564.207 .0475349
565.003 .0469077
565.799 .0462915
566.594 .0456822
567.388 .0450914
568.182 .0445205
568.976 .0439631
569.769 .0434221
570.562 .0428971
571.354 .0423845
572.145 .0418851
572.936 .0413977
573.727 .0409160
574.517 .0404443
575.307 .0399946
576.096 .0395636
576.885 .0391526
577.673 .0387696
578.461 .0384136
579.248 .0380788
580.035 .0377620
580.821 .0374615
581.607 .0371703
582.392 .0368942
583.177 .0366298
583.962 .0363812
584.746 .0361536
585.529 .0359477
586.313 .0357639
587.095 .0356028
587.878 .0354619
588.660 .0353366
589.441 .0352213
590.222 .0351169
591.003 .0350181
591.783 .0349244
592.563 .0348349
593.342 .0347516
594.121 .0346730
594.899 .0346005
595.678 .0345335
596.455 .0344723
597.233 .0344149
598.009 .0343590
598.786 .0343033
599.562 .0342476
600.338 .0341907
601.113 .0341337
601.888 .0340763
602.663 .0340208
603.437 .0339676
604.211 .0339168
604.984 .0338695
605.757 .0338254
606.530 .0337848
607.302 .0337471
608.074 .0337117
608.845 .0336785
609.616 .0336471
610.387 .0336178
611.158 .0335902
611.928 .0335644
612.697 .0335401
613.467 .0335173
614.236 .0334953
615.004 .0334737
615.773 .0334531
616.541 .0334316
617.308 .0334102
618.076 .0333880
618.843 .0333652
619.609 .0333415
620.375 .0333171
621.141 .0332921
621.907 .0332659
622.672 .0332395
623.437 .0332129
624.202 .0331861
624.966 .0331601
625.730 .0331338
626.493 .0331074
627.257 .0330808
628.020 .0330541
628.782 .0330258
629.545 .0329967
630.307 .0329659
631.068 .0329340
631.830 .0329005
632.591 .0328658
633.352 .0328302
634.112 .0327938
634.872 .0327570
635.632 .0327193
636.392 .0326802
637.151 .0326403
637.910 .0325991
638.668 .0325575
639.427 .0325154
640.185 .0324732
640.943 .0324313
641.700 .0323903
642.457 .0323513
643.214 .0323148
643.971 .0322800
644.727 .0322483
645.483 .0322189
646.239 .0321920
646.994 .0321669
647.750 .0321432
648.505 .0321212
649.259 .0321006
650.014 .0320807
650.768 .0320607
651.521 .0320407
652.275 .0320211
653.028 .0320009
653.781 .0319799
654.534 .0319581
655.286 .0319349
656.039 .0319099
656.791 .0318835
657.542 .0318551
658.294 .0318251
659.045 .0317942
659.796 .0317629
660.546 .0317316
661.297 .0317005
662.047 .0316699
662.796 .0316401
663.546 .0316117
664.295 .0315842
665.044 .0315571
665.793 .0315314
666.542 .0315073
667.290 .0314841
668.038 .0314624
668.786 .0314418
669.533 .0314217
670.281 .0314027
671.028 .0313842
671.774 .0313659
672.521 .0313484
673.267 .0313319
674.013 .0313157
674.759 .0312999
675.505 .0312851
676.250 .0312702
676.995 .0312558
677.740 .0312418
678.484 .0312273
679.229 .0312129
679.973 .0311992
680.717 .0311856
681.460 .0311717
682.204 .0311581
682.947 .0311438
683.690 .0311290
684.433 .0311135
685.175 .0310969
685.917 .0310792
686.659 .0310609
687.401 .0310415
688.142 .0310203
688.884 .0309983
689.625 .0309751
690.365 .0309503
691.106 .0309247
691.846 .0308976
692.586 .0308693
693.326 .0308405
694.066 .0308113
694.805 .0307820
695.545 .0307530
696.284 .0307243
697.022 .0306952
697.761 .0306659
698.499 .0306364
699.237 .0306067
699.975 .0305772
700.713 .0305483
701.450 .0305201
702.187 .0304928
702.924 .0304666
703.661 .0304421
704.397 .0304188
705.133 .0303966
705.869 .0303748
706.605 .0303532
707.341 .0303315
708.076 .0303095
708.811 .0302872
709.546 .0302651
710.281 .0302431
711.015 .0302208
711.749 .0301980
712.483 .0301753
713.217 .0301520
713.950 .0301284
714.684 .0301042
715.417 .0300794
716.150 .0300535
716.882 .0300268
717.615 .0299996
718.347 .0299728
719.079 .0299470
719.811 .0299223
720.542 .0298994
721.273 .0298781
722.005 .0298580
722.735 .0298390
723.466 .0298207
724.196 .0298025
724.927 .0297839
725.656 .0297647
726.386 .0297455
727.116 .0297268
727.845 .0297093
728.574 .0296929
729.303 .0296786
730.031 .0296660
730.760 .0296538
731.488 .0296423
732.216 .0296306
732.944 .0296185
733.671 .0296059
734.398 .0295931
735.125 .0295805
735.852 .0295686
736.579 .0295582
737.305 .0295493
738.031 .0295426
738.757 .0295378
739.483 .0295336
740.208 .0295298
740.933 .0295259
741.658 .0295214
742.383 .0295162
743.108 .0295104
743.832 .0295043
744.556 .0294986
745.280 .0294933
746.004 .0294882
746.727 .0294838
747.450 .0294796
748.173 .0294754
748.896 .0294707
749.618 .0294651
750.340 .0294582
751.062 .0294501
751.784 .0294413
752.506 .0294315
753.227 .0294217
753.948 .0294119
754.669 .0294021
755.389 .0293927
756.110 .0293832
756.830 .0293729
757.550 .0293619
758.269 .0293500
758.989 .0293371
759.708 .0293226
760.427 .0293074
761.146 .0292920
761.864 .0292771
762.582 .0292624
763.300 .0292482
764.018 .0292342
764.736 .0292204
765.453 .0292066
766.170 .0291923
766.887 .0291774
767.603 .0291621
768.320 .0291464
769.036 .0291303
769.751 .0291143
770.467 .0290981
771.182 .0290818
771.897 .0290657
772.612 .0290497
773.327 .0290333
774.041 .0290172
774.755 .0290012
775.469 .0289855
776.183 .0289707
776.896 .0289563
777.609 .0289426
778.322 .0289298
779.035 .0289171
779.747 .0289048
780.459 .0288919
781.171 .0288791
781.882 .0288660
782.594 .0288529
783.305 .0288401
784.016 .0288276
784.726 .0288157
785.436 .0288042
786.147 .0287925
786.856 .0287810
787.566 .0287686
788.275 .0287551
788.984 .0287404
789.693 .0287240
790.401 .0287060
791.110 .0286871
791.818 .0286674
792.525 .0286479
793.233 .0286283
793.940 .0286090
794.647 .0285898
795.353 .0285707
796.060 .0285516
796.766 .0285317
797.472 .0285114
798.177 .0284901
798.883 .0284675
799.588 .0284444
800.292 .0284207
800.997 .0283971
801.701 .0283737
802.405 .0283507
803.109 .0283282
803.812 .0283062
804.515 .0282845
805.218 .0282626
805.921 .0282407
806.623 .0282186
807.325 .0281964
808.027 .0281748
808.728 .0281539
809.429 .0281338
810.130 .0281149
810.831 .0280975
811.531 .0280807
812.231 .0280644
812.931 .0280480
813.630 .0280312
814.330 .0280142
815.029 .0279968
815.727 .0279793
816.426 .0279624
817.124 .0279464
817.821 .0279313
818.519 .0279173
819.216 .0279045
819.913 .0278925
820.609 .0278812
821.306 .0278705
822.002 .0278605
822.697 .0278513
823.393 .0278436
824.088 .0278377
824.783 .0278337
825.477 .0278321
826.171 .0278326
826.865 .0278355
827.559 .0278405
828.252 .0278470
828.945 .0278544
829.638 .0278623
830.330 .0278712
831.023 .0278798
831.714 .0278882
832.406 .0278963
833.097 .0279035
833.788 .0279096
834.479 .0279150
835.169 .0279197
835.859 .0279243
836.548 .0279288
837.238 .0279333
837.927 .0279376
838.615 .0279416
839.304 .0279451
839.992 .0279479
840.680 .0279500
841.367 .0279513
842.054 .0279515
842.741 .0279513
843.428 .0279513
844.114 .0279521
844.800 .0279543
845.485 .0279577
846.170 .0279622
846.855 .0279670
847.540 .0279717
848.224 .0279759
848.908 .0279789
849.592 .0279803
850.275 .0279797
850.958 .0279774
851.641 .0279736
852.323 .0279689
853.005 .0279637
853.687 .0279576
854.368 .0279509
855.049 .0279428
855.730 .0279323
856.410 .0279198
857.090 .0279051
857.769 .0278882
858.449 .0278695
859.128 .0278495
859.806 .0278291
860.485 .0278089
861.163 .0277897
861.840 .0277716
862.518 .0277544
863.195 .0277382
863.871 .0277224
864.548 .0277068
865.224 .0276914
865.899 .0276761
866.574 .0276609
867.249 .0276464
867.924 .0276322
868.598 .0276183
869.272 .0276048
869.946 .0275914
870.619 .0275780
871.292 .0275638
871.964 .0275491
872.636 .0275336
873.308 .0275180
873.979 .0275021
874.651 .0274859
875.321 .0274700
875.992 .0274544
876.662 .0274392
877.331 .0274242
878.001 .0274096
878.670 .0273954
879.338 .0273812
880.007 .0273674
880.675 .0273540
881.342 .0273410
882.009 .0273288
882.676 .0273169
883.343 .0273051
884.009 .0272930
884.675 .0272805
885.340 .0272670
886.005 .0272522
886.670 .0272364
887.334 .0272197
887.998 .0272026
888.662 .0271858
889.325 .0271693
889.988 .0271538
890.650 .0271395
891.312 .0271260
891.974 .0271130
892.636 .0271006
893.297 .0270882
893.957 .0270760
894.618 .0270639
895.278 .0270520
895.937 .0270403
896.596 .0270296
897.255 .0270192
897.914 .0270088
898.572 .0269982
899.230 .0269872
899.887 .0269752
900.544 .0269621
901.201 .0269472
901.857 .0269306
902.513 .0269118
903.168 .0268915
903.823 .0268689
904.478 .0268446
905.132 .0268184
905.786 .0267904
906.440 .0267609
907.093 .0267302
907.746 .0266985
908.399 .0266668
909.051 .0266350
909.703 .0266037
910.354 .0265725
911.005 .0265418
911.656 .0265122
912.306 .0264833
912.956 .0264550
913.605 .0264278
914.254 .0264017
914.903 .0263769
915.551 .0263535
916.199 .0263318
916.847 .0263115
917.494 .0262932
918.141 .0262761
918.788 .0262595
919.434 .0262438
920.079 .0262290
920.725 .0262144
921.370 .0261999
922.014 .0261850
922.658 .0261694
923.302 .0261532
923.946 .0261366
924.589 .0261190
925.231 .0261010
925.873 .0260829
926.515 .0260646
927.157 .0260459
927.798 .0260272
928.439 .0260080
929.079 .0259886
929.719 .0259686
930.359 .0259477
930.998 .0259257
931.637 .0259034
932.275 .0258814
932.913 .0258598
933.551 .0258394
934.188 .0258199
934.825 .0258017
935.462 .0257850
936.098 .0257696
936.733 .0257555
937.369 .0257432
938.004 .0257331
938.638 .0257248
939.273 .0257186
939.907 .0257145
940.540 .0257129
941.173 .0257137
941.806 .0257164
942.438 .0257210
943.070 .0257268
943.702 .0257340
944.333 .0257416
944.964 .0257502
945.594 .0257594
946.224 .0257690
946.854 .0257793
947.483 .0257899
948.112 .0258008
948.741 .0258117
949.369 .0258225
949.996 .0258331
950.624 .0258428
951.251 .0258518
951.878 .0258594
952.504 .0258662
953.130 .0258720
953.755 .0258769
954.380 .0258814
955.005 .0258854
955.629 .0258890
956.253 .0258921
956.877 .0258951
957.500 .0258979
958.123 .0259000
958.746 .0259017
959.368 .0259027
959.990 .0259034
960.611 .0259037
961.232 .0259044
961.853 .0259059
962.473 .0259085
963.093 .0259127
963.712 .0259181
964.331 .0259245
964.950 .0259312
965.569 .0259382
966.187 .0259449
966.804 .0259514
967.422 .0259577
968.039 .0259633
968.655 .0259689
969.272 .0259746
969.887 .0259805
970.503 .0259866
971.118 .0259930
971.733 .0259992
972.347 .0260049
972.961 .0260103
973.575 .0260144
974.188 .0260172
974.801 .0260186
975.414 .0260183
976.026 .0260158
976.638 .0260120
977.250 .0260074
977.861 .0260024
978.472 .0259976
979.083 .0259930
979.693 .0259879
980.303 .0259822
980.912 .0259752
981.521 .0259670
982.130 .0259571
982.738 .0259461
983.346 .0259338
983.954 .0259212
984.562 .0259091
985.169 .0258981
985.775 .0258883
986.382 .0258806
986.988 .0258743
987.594 .0258690
988.199 .0258640
988.804 .0258588
989.409 .0258534
990.013 .0258481
990.617 .0258427
991.221 .0258371
991.824 .0258317
992.427 .0258272
993.030 .0258234
993.632 .0258208
994.234 .0258183
994.836 .0258154
995.438 .0258119
996.039 .0258072
996.640 .0258011
997.240 .0257942
997.840 .0257869
998.440 .0257796
999.040 .0257729
999.639 .0257665
1000.238 .0257603
1000.836 .0257545
1001.435 .0257489
1002.033 .0257426
1002.630 .0257350
1003.228 .0257267
1003.825 .0257173
1004.422 .0257080
1005.018 .0256991
1005.614 .0256908
1006.210 .0256839
1006.806 .0256780
1007.401 .0256726
1007.996 .0256666
1008.591 .0256599
1009.186 .0256522
1009.780 .0256430
1010.374 .0256325
1010.967 .0256207
1011.561 .0256077
1012.154 .0255946
1012.746 .0255814
1013.339 .0255681
1013.931 .0255542
1014.523 .0255406
1015.115 .0255266
1015.706 .0255129
1016.298 .0254990
1016.888 .0254860
1017.479 .0254736
1018.069 .0254624
1018.660 .0254517
1019.250 .0254418
1019.839 .0254325
1020.429 .0254239
1021.018 .0254159
1021.607 .0254081
1022.195 .0254003
1022.784 .0253934
1023.372 .0253866
1023.960 .0253807
1024.547 .0253750
1025.135 .0253700
1025.722 .0253649
1026.309 .0253601
1026.896 .0253548
1027.483 .0253492
1028.069 .0253437
1028.655 .0253385
1029.241 .0253332
1029.827 .0253293
1030.412 .0253265
1030.997 .0253246
1031.582 .0253243
1032.167 .0253252
1032.752 .0253262
1033.336 .0253277
1033.921 .0253288
1034.505 .0253297
1035.089 .0253302
1035.672 .0253295
1036.256 .0253278
1036.839 .0253255
1037.422 .0253224
1038.005 .0253177
1038.588 .0253126
1039.171 .0253072
1039.753 .0253003
1040.335 .0252915
1040.918 .0252809
1041.500 .0252684
1042.081 .0252541
1042.663 .0252377
1043.244 .0252192
1043.826 .0251998
1044.407 .0251795
1044.988 .0251584
1045.569 .0251381
1046.150 .0251190
1046.730 .0251000
1047.311 .0250815
1047.891 .0250628
1048.471 .0250444
1049.052 .0250255
1049.632 .0250067
1050.211 .0249883
1050.791 .0249701
1051.371 .0249522
1051.950 .0249348
1052.530 .0249185
1053.109 .0249041
1053.688 .0248912
1054.268 .0248800
1054.847 .0248700
1055.426 .0248609
1056.005 .0248527
1056.583 .0248446
1057.162 .0248364
1057.741 .0248282
1058.319 .0248183
1058.898 .0248078
1059.476 .0247967
1060.055 .0247852
1060.633 .0247757
1061.211 .0247688
1061.790 .0247641
1062.368 .0247624
1062.946 .0247629
1063.524 .0247647
1064.102 .0247664
1064.680 .0247682
1065.258 .0247684
1065.836 .0247655
1066.414 .0247615
1066.992 .0247560
1067.570 .0247503
1068.148 .0247476
1068.726 .0247476
1069.304 .0247515
1069.882 .0247592
1070.460 .0247691
1071.038 .0247798
1071.616 .0247910
1072.194 .0248010
1072.772 .0248086
1073.350 .0248146
1073.928 .0248203
1074.506 .0248247
1075.084 .0248291
1075.662 .0248353
1076.240 .0248440
1076.819 .0248545
1077.397 .0248671
1077.976 .0248805
1078.554 .0248944
1079.133 .0249087
1079.711 .0249234
1080.290 .0249367
1080.869 .0249494
1081.448 .0249617
1082.027 .0249729
1082.606 .0249825
1083.185 .0249915
1083.764 .0249987
1084.343 .0250063
1084.923 .0250148
1085.502 .0250228
1086.082 .0250290
1086.662 .0250355
1087.242 .0250415
1087.822 .0250458
1088.402 .0250494
1088.983 .0250524
1089.563 .0250547
1090.144 .0250593
1090.725 .0250669
1091.306 .0250767
1091.887 .0250913
1092.469 .0251135
1093.050 .0251401
1093.632 .0251725
1094.214 .0252083
1094.796 .0252462
1095.379 .0252866
1095.961 .0253283
1096.544 .0253697
1097.127 .0254089
1097.710 .0254486
1098.294 .0254858
1098.877 .0255216
1099.461 .0255574
1100.046 .0255914
1100.630 .0256249
1101.215 .0256594
1101.800 .0256925
1102.385 .0257229
1102.970 .0257524
1103.556 .0257815
1104.142 .0258100
1104.728 .0258402
1105.315 .0258686
1105.902 .0258993
1106.489 .0259320
1107.077 .0259677
1107.664 .0260031
1108.253 .0260416
1108.841 .0260819
1109.430 .0261226
1110.019 .0261641
1110.609 .0262055
1111.198 .0262460
1111.789 .0262885
1112.379 .0263333
1112.970 .0263782
1113.561 .0264231
1114.153 .0264697
1114.745 .0265178
1115.338 .0265697
1115.931 .0266251
1116.524 .0266840
1117.117 .0267498
1117.712 .0268207
1118.306 .0268952
1118.901 .0269729
1119.496 .0270522
1120.092 .0271331
1120.689 .0272113
1121.285 .0272837
1121.882 .0273504
1122.480 .0274103
1123.078 .0274671
1123.677 .0275189
1124.276 .0275711
1124.875 .0276251
1125.476 .0276818
1126.076 .0277442
1126.677 .0278124
1127.279 .0278855
1127.881 .0279627
1128.484 .0280403
1129.087 .0281148
1129.691 .0281873
1130.295 .0282557
1130.900 .0283237
1131.505 .0283983
1132.111 .0284837
1132.718 .0285833
1133.325 .0286941
1133.933 .0288187
1134.541 .0289508
1135.150 .0290807
1135.760 .0292083
1136.370 .0293252
1136.981 .0294325
1137.592 .0295276
1138.204 .0296174
1138.817 .0297057
1139.431 .0298020
1140.045 .0298988
1140.660 .0299990
1141.275 .0301002
1141.891 .0302223
1142.508 .0304694
1143.126 .0303386
1143.744 .0304461
1144.363 .0305423
1144.983 .0312045
