Measurement Sequence started on: 15-12-46-377
Integration time: 28
Scans to Average: 2 
>>>>>Begin Spectral Data<<<<<
432.689 .0000100
433.621 .0000100
434.552 .0000100
435.482 .0000100
436.410 .0000100
437.337 .0000100
438.262 .0272305
439.187 .0576615
440.110 .0955186
441.031 .1382365
441.952 .1797515
442.871 .2125005
443.789 .2305301
444.705 .2318178
445.621 .2188190
446.535 .1969408
447.447 .1721172
448.359 .1339722
449.269 .1150470
450.178 .1029952
451.086 .0944117
451.993 .0877857
452.898 .0825005
453.803 .0781848
454.706 .0746016
455.608 .0715678
456.508 .0689633
457.408 .0666855
458.306 .0646896
459.204 .0629031
460.100 .0612799
460.995 .0597946
461.888 .0584386
462.781 .0571860
463.673 .0560283
464.563 .0549694
465.452 .0539973
466.340 .0530940
467.228 .0522650
468.114 .0514947
468.999 .0507891
469.882 .0501327
470.765 .0495300
471.647 .0489820
472.528 .0484964
473.407 .0480673
474.286 .0476937
475.163 .0473681
476.040 .0470927
476.915 .0468531
477.790 .0466404
478.663 .0464510
479.535 .0462859
480.407 .0461405
481.277 .0460158
482.147 .0459125
483.015 .0458342
483.883 .0457722
484.749 .0457311
485.615 .0457043
486.479 .0456867
487.343 .0456790
488.206 .0456764
489.067 .0456799
489.928 .0456950
490.788 .0457218
491.647 .0457657
492.505 .0458304
493.362 .0459185
494.218 .0460193
495.073 .0461359
495.928 .0462729
496.781 .0464239
497.634 .0465970
498.486 .0467935
499.337 .0470220
500.187 .0472756
501.036 .0475556
501.884 .0478645
502.731 .0481925
503.578 .0485435
504.424 .0489083
505.268 .0492828
506.113 .0496769
506.956 .0500980
507.798 .0505579
508.640 .0510750
509.480 .0516614
510.320 .0523246
511.160 .0530696
511.998 .0539017
512.836 .0548349
513.672 .0558700
514.508 .0570379
515.344 .0583488
516.178 .0598171
517.012 .0614997
517.845 .0634143
518.677 .0656053
519.508 .0680978
520.339 .0709304
521.169 .0741424
521.998 .0777629
522.826 .0818148
523.654 .0863140
524.481 .0912727
525.307 .0967224
526.133 .1026159
526.958 .1088895
527.782 .1154646
528.605 .1221999
529.428 .1290030
530.250 .1354527
531.072 .1413572
531.892 .1463915
532.712 .1502696
533.532 .1528234
534.350 .1537920
535.168 .1530929
535.986 .1507766
536.802 .1469646
537.618 .1419073
538.434 .1358385
539.249 .1292291
540.063 .1222988
540.876 .1153985
541.689 .1087173
542.501 .1023760
543.313 .0965593
544.124 .0912695
544.934 .0864496
545.744 .0820631
546.553 .0780785
547.361 .0744889
548.169 .0712978
548.976 .0684544
549.783 .0659236
550.589 .0636820
551.395 .0616777
552.200 .0598612
553.004 .0582242
553.808 .0567500
554.611 .0553984
555.414 .0541713
556.216 .0530670
557.018 .0520617
557.819 .0511539
558.619 .0503230
559.419 .0495576
560.218 .0488461
561.017 .0481709
561.815 .0475140
562.613 .0468734
563.410 .0462459
564.207 .0456226
565.003 .0450057
565.799 .0444007
566.594 .0437954
567.388 .0432075
568.182 .0426282
568.976 .0420572
569.769 .0415047
570.562 .0409753
571.354 .0404588
572.145 .0399618
572.936 .0394789
573.727 .0390091
574.517 .0385564
575.307 .0381201
576.096 .0376987
576.885 .0373019
577.673 .0369303
578.461 .0365799
579.248 .0362568
580.035 .0359633
580.821 .0356872
581.607 .0354302
582.392 .0351899
583.177 .0349609
583.962 .0347424
584.746 .0345366
585.529 .0343412
586.313 .0341585
587.095 .0339918
587.878 .0338372
588.660 .0336972
589.441 .0335723
590.222 .0334573
591.003 .0333549
591.783 .0332625
592.563 .0331765
593.342 .0330959
594.121 .0330218
594.899 .0329539
595.678 .0328925
596.455 .0328376
597.233 .0327878
598.009 .0327434
598.786 .0327040
599.562 .0326683
600.338 .0326350
601.113 .0326035
601.888 .0325725
602.663 .0325405
603.437 .0325083
604.211 .0324748
604.984 .0324413
605.757 .0324078
606.530 .0323738
607.302 .0323392
608.074 .0323042
608.845 .0322685
609.616 .0322322
610.387 .0321957
611.158 .0321591
611.928 .0321222
612.697 .0320854
613.467 .0320487
614.236 .0320129
615.004 .0319769
615.773 .0319418
616.541 .0319070
617.308 .0318733
618.076 .0318399
618.843 .0318075
619.609 .0317772
620.375 .0317492
621.141 .0317235
621.907 .0316989
622.672 .0316758
623.437 .0316536
624.202 .0316312
624.966 .0316087
625.730 .0315855
626.493 .0315622
627.257 .0315390
628.020 .0315162
628.782 .0314936
629.545 .0314715
630.307 .0314495
631.068 .0314278
631.830 .0314058
632.591 .0313826
633.352 .0313586
634.112 .0313333
634.872 .0313083
635.632 .0312828
636.392 .0312575
637.151 .0312323
637.910 .0312068
638.668 .0311814
639.427 .0311556
640.185 .0311292
640.943 .0311035
641.700 .0310784
642.457 .0310546
643.214 .0310314
643.971 .0310089
644.727 .0309882
645.483 .0309686
646.239 .0309497
646.994 .0309315
647.750 .0309137
648.505 .0308970
649.259 .0308812
650.014 .0308664
650.768 .0308525
651.521 .0308400
652.275 .0308281
653.028 .0308158
653.781 .0308029
654.534 .0307892
655.286 .0307739
656.039 .0307573
656.791 .0307402
657.542 .0307218
658.294 .0307025
659.045 .0306833
659.796 .0306636
660.546 .0306441
661.297 .0306240
662.047 .0306035
662.796 .0305820
663.546 .0305601
664.295 .0305377
665.044 .0305145
665.793 .0304917
666.542 .0304689
667.290 .0304459
668.038 .0304233
668.786 .0304015
669.533 .0303799
670.281 .0303584
671.028 .0303371
671.774 .0303152
672.521 .0302935
673.267 .0302711
674.013 .0302486
674.759 .0302257
675.505 .0302027
676.250 .0301792
676.995 .0301560
677.740 .0301340
678.484 .0301122
679.229 .0300913
679.973 .0300712
680.717 .0300514
681.460 .0300318
682.204 .0300121
682.947 .0299924
683.690 .0299729
684.433 .0299536
685.175 .0299345
685.917 .0299162
686.659 .0298988
687.401 .0298823
688.142 .0298671
688.884 .0298528
689.625 .0298386
690.365 .0298242
691.106 .0298094
691.846 .0297935
692.586 .0297769
693.326 .0297592
694.066 .0297404
694.805 .0297212
695.545 .0297011
696.284 .0296804
697.022 .0296589
697.761 .0296373
698.499 .0296148
699.237 .0295915
699.975 .0295677
700.713 .0295435
701.450 .0295195
702.187 .0294964
702.924 .0294739
703.661 .0294526
704.397 .0294329
705.133 .0294145
705.869 .0293973
706.605 .0293812
707.341 .0293658
708.076 .0293515
708.811 .0293373
709.546 .0293234
710.281 .0293091
711.015 .0292953
711.749 .0292812
712.483 .0292670
713.217 .0292531
713.950 .0292397
714.684 .0292268
715.417 .0292149
716.150 .0292042
716.882 .0291944
717.615 .0291854
718.347 .0291772
719.079 .0291687
719.811 .0291602
720.542 .0291510
721.273 .0291419
722.005 .0291325
722.735 .0291233
723.466 .0291143
724.196 .0291058
724.927 .0290973
725.656 .0290885
726.386 .0290789
727.116 .0290687
727.845 .0290572
728.574 .0290442
729.303 .0290301
730.031 .0290155
730.760 .0290010
731.488 .0289867
732.216 .0289732
732.944 .0289611
733.671 .0289498
734.398 .0289398
735.125 .0289306
735.852 .0289221
736.579 .0289141
737.305 .0289068
738.031 .0289003
738.757 .0288943
739.483 .0288888
740.208 .0288834
740.933 .0288783
741.658 .0288729
742.383 .0288668
743.108 .0288597
743.832 .0288522
744.556 .0288438
745.280 .0288349
746.004 .0288251
746.727 .0288146
747.450 .0288038
748.173 .0287922
748.896 .0287799
749.618 .0287665
750.340 .0287520
751.062 .0287365
751.784 .0287197
752.506 .0287020
753.227 .0286831
753.948 .0286639
754.669 .0286445
755.389 .0286248
756.110 .0286052
756.830 .0285858
757.550 .0285669
758.269 .0285485
758.989 .0285301
759.708 .0285112
760.427 .0284917
761.146 .0284719
761.864 .0284519
762.582 .0284317
763.300 .0284114
764.018 .0283912
764.736 .0283713
765.453 .0283520
766.170 .0283330
766.887 .0283149
767.603 .0282974
768.320 .0282803
769.036 .0282635
769.751 .0282460
770.467 .0282282
771.182 .0282102
771.897 .0281920
772.612 .0281740
773.327 .0281559
774.041 .0281387
774.755 .0281225
775.469 .0281076
776.183 .0280942
776.896 .0280822
777.609 .0280714
778.322 .0280619
779.035 .0280528
779.747 .0280445
780.459 .0280369
781.171 .0280300
781.882 .0280237
782.594 .0280181
783.305 .0280136
784.016 .0280099
784.726 .0280074
785.436 .0280058
786.147 .0280044
786.856 .0280029
787.566 .0280013
788.275 .0279988
788.984 .0279958
789.693 .0279921
790.401 .0279879
791.110 .0279827
791.818 .0279774
792.525 .0279714
793.233 .0279651
793.940 .0279585
794.647 .0279521
795.353 .0279450
796.060 .0279384
796.766 .0279314
797.472 .0279244
798.177 .0279172
798.883 .0279104
799.588 .0279029
800.292 .0278955
800.997 .0278879
801.701 .0278801
802.405 .0278722
803.109 .0278647
803.812 .0278573
804.515 .0278503
805.218 .0278431
805.921 .0278359
806.623 .0278284
807.325 .0278205
808.027 .0278121
808.728 .0278028
809.429 .0277928
810.130 .0277820
810.831 .0277705
811.531 .0277583
812.231 .0277459
812.931 .0277334
813.630 .0277205
814.330 .0277071
815.029 .0276938
815.727 .0276800
816.426 .0276661
817.124 .0276524
817.821 .0276390
818.519 .0276261
819.216 .0276140
819.913 .0276025
820.609 .0275922
821.306 .0275830
822.002 .0275752
822.697 .0275685
823.393 .0275637
824.088 .0275599
824.783 .0275572
825.477 .0275553
826.171 .0275544
826.865 .0275537
827.559 .0275537
828.252 .0275537
828.945 .0275543
829.638 .0275549
830.330 .0275557
831.023 .0275569
831.714 .0275584
832.406 .0275597
833.097 .0275607
833.788 .0275608
834.479 .0275601
835.169 .0275583
835.859 .0275560
836.548 .0275529
837.238 .0275498
837.927 .0275467
838.615 .0275435
839.304 .0275405
839.992 .0275377
840.680 .0275346
841.367 .0275306
842.054 .0275260
842.741 .0275204
843.428 .0275142
844.114 .0275078
844.800 .0275017
845.485 .0274958
846.170 .0274901
846.855 .0274843
847.540 .0274775
848.224 .0274693
848.908 .0274594
849.592 .0274472
850.275 .0274328
850.958 .0274162
851.641 .0273981
852.323 .0273786
853.005 .0273586
853.687 .0273383
854.368 .0273177
855.049 .0272972
855.730 .0272764
856.410 .0272552
857.090 .0272340
857.769 .0272126
858.449 .0271912
859.128 .0271696
859.806 .0271481
860.485 .0271267
861.163 .0271058
861.840 .0270855
862.518 .0270662
863.195 .0270475
863.871 .0270295
864.548 .0270122
865.224 .0269954
865.899 .0269791
866.574 .0269629
867.249 .0269468
867.924 .0269306
868.598 .0269137
869.272 .0268967
869.946 .0268793
870.619 .0268619
871.292 .0268447
871.964 .0268275
872.636 .0268107
873.308 .0267941
873.979 .0267779
874.651 .0267619
875.321 .0267463
875.992 .0267311
876.662 .0267159
877.331 .0267013
878.001 .0266871
878.670 .0266732
879.338 .0266602
880.007 .0266483
880.675 .0266376
881.342 .0266284
882.009 .0266208
882.676 .0266146
883.343 .0266099
884.009 .0266062
884.675 .0266031
885.340 .0266001
886.005 .0265973
886.670 .0265945
887.334 .0265921
887.998 .0265904
888.662 .0265894
889.325 .0265891
889.988 .0265894
890.650 .0265897
891.312 .0265895
891.974 .0265885
892.636 .0265870
893.297 .0265848
893.957 .0265821
894.618 .0265794
895.278 .0265768
895.937 .0265747
896.596 .0265733
897.255 .0265720
897.914 .0265706
898.572 .0265687
899.230 .0265659
899.887 .0265618
900.544 .0265569
901.201 .0265513
901.857 .0265458
902.513 .0265401
903.168 .0265347
903.823 .0265291
904.478 .0265234
905.132 .0265173
905.786 .0265103
906.440 .0265020
907.093 .0264926
907.746 .0264819
908.399 .0264704
909.051 .0264580
909.703 .0264459
910.354 .0264335
911.005 .0264211
911.656 .0264085
912.306 .0263954
912.956 .0263813
913.605 .0263664
914.254 .0263505
914.903 .0263340
915.551 .0263174
916.199 .0263013
916.847 .0262861
917.494 .0262728
918.141 .0262613
918.788 .0262516
919.434 .0262435
920.079 .0262364
920.725 .0262293
921.370 .0262221
922.014 .0262142
922.658 .0262055
923.302 .0261964
923.946 .0261869
924.589 .0261769
925.231 .0261668
925.873 .0261563
926.515 .0261451
927.157 .0261328
927.798 .0261187
928.439 .0261028
929.079 .0260848
929.719 .0260645
930.359 .0260424
930.998 .0260194
931.637 .0259961
932.275 .0259731
932.913 .0259513
933.551 .0259307
934.188 .0259115
934.825 .0258943
935.462 .0258786
936.098 .0258647
936.733 .0258523
937.369 .0258419
938.004 .0258331
938.638 .0258266
939.273 .0258223
939.907 .0258200
940.540 .0258202
941.173 .0258225
941.806 .0258267
942.438 .0258321
943.070 .0258386
943.702 .0258453
944.333 .0258519
944.964 .0258582
945.594 .0258640
946.224 .0258690
946.854 .0258736
947.483 .0258777
948.112 .0258808
948.741 .0258833
949.369 .0258851
949.996 .0258860
950.624 .0258862
951.251 .0258851
951.878 .0258831
952.504 .0258797
953.130 .0258754
953.755 .0258697
954.380 .0258625
955.005 .0258544
955.629 .0258450
956.253 .0258344
956.877 .0258235
957.500 .0258122
958.123 .0258004
958.746 .0257886
959.368 .0257768
959.990 .0257646
960.611 .0257520
961.232 .0257390
961.853 .0257260
962.473 .0257132
963.093 .0257008
963.712 .0256888
964.331 .0256775
964.950 .0256669
965.569 .0256569
966.187 .0256484
966.804 .0256415
967.422 .0256362
968.039 .0256323
968.655 .0256298
969.272 .0256282
969.887 .0256270
970.503 .0256258
971.118 .0256243
971.733 .0256224
972.347 .0256198
972.961 .0256162
973.575 .0256118
974.188 .0256068
974.801 .0256010
975.414 .0255941
976.026 .0255856
976.638 .0255750
977.250 .0255621
977.861 .0255469
978.472 .0255297
979.083 .0255112
979.693 .0254920
980.303 .0254723
980.912 .0254525
981.521 .0254331
982.130 .0254137
982.738 .0253945
983.346 .0253752
983.954 .0253555
984.562 .0253357
985.169 .0253160
985.775 .0252967
986.382 .0252782
986.988 .0252607
987.594 .0252437
988.199 .0252273
988.804 .0252111
989.409 .0251943
990.013 .0251773
990.617 .0251599
991.221 .0251429
991.824 .0251263
992.427 .0251105
993.030 .0250962
993.632 .0250841
994.234 .0250736
994.836 .0250643
995.438 .0250560
996.039 .0250489
996.640 .0250423
997.240 .0250361
997.840 .0250307
998.440 .0250264
999.040 .0250235
999.639 .0250221
1000.238 .0250217
1000.836 .0250231
1001.435 .0250253
1002.033 .0250281
1002.630 .0250310
1003.228 .0250332
1003.825 .0250345
1004.422 .0250347
1005.018 .0250344
1005.614 .0250337
1006.210 .0250327
1006.806 .0250320
1007.401 .0250319
1007.996 .0250324
1008.591 .0250333
1009.186 .0250339
1009.780 .0250344
1010.374 .0250339
1010.967 .0250320
1011.561 .0250283
1012.154 .0250232
1012.746 .0250171
1013.339 .0250108
1013.931 .0250046
1014.523 .0250000
1015.115 .0249959
1015.706 .0249930
1016.298 .0249905
1016.888 .0249886
1017.479 .0249863
1018.069 .0249835
1018.660 .0249801
1019.250 .0249770
1019.839 .0249744
1020.429 .0249737
1021.018 .0249740
1021.607 .0249767
1022.195 .0249810
1022.784 .0249872
1023.372 .0249945
1023.960 .0250030
1024.547 .0250127
1025.135 .0250243
1025.722 .0250372
1026.309 .0250514
1026.896 .0250669
1027.483 .0250840
1028.069 .0251019
1028.655 .0251198
1029.241 .0251372
1029.827 .0251537
1030.412 .0251691
1030.997 .0251846
1031.582 .0251988
1032.167 .0252122
1032.752 .0252252
1033.336 .0252373
1033.921 .0252486
1034.505 .0252583
1035.089 .0252665
1035.672 .0252724
1036.256 .0252766
1036.839 .0252791
1037.422 .0252798
1038.005 .0252800
1038.588 .0252808
1039.171 .0252820
1039.753 .0252843
1040.335 .0252871
1040.918 .0252904
1041.500 .0252940
1042.081 .0252979
1042.663 .0253007
1043.244 .0253031
1043.826 .0253047
1044.407 .0253055
1044.988 .0253049
1045.569 .0253038
1046.150 .0253026
1046.730 .0253012
1047.311 .0252999
1047.891 .0252985
1048.471 .0252970
1049.052 .0252948
1049.632 .0252921
1050.211 .0252891
1050.791 .0252850
1051.371 .0252816
1051.950 .0252784
1052.530 .0252757
1053.109 .0252748
1053.688 .0252745
1054.268 .0252752
1054.847 .0252768
1055.426 .0252791
1056.005 .0252805
1056.583 .0252819
1057.162 .0252834
1057.741 .0252844
1058.319 .0252860
1058.898 .0252896
1059.476 .0252930
1060.055 .0252972
1060.633 .0253018
1061.211 .0253065
1061.790 .0253112
1062.368 .0253160
1062.946 .0253203
1063.524 .0253253
1064.102 .0253311
1064.680 .0253377
1065.258 .0253450
1065.836 .0253552
1066.414 .0253673
1066.992 .0253802
1067.570 .0253945
1068.148 .0254093
1068.726 .0254230
1069.304 .0254366
1069.882 .0254494
1070.460 .0254606
1071.038 .0254697
1071.616 .0254761
1072.194 .0254804
1072.772 .0254822
1073.350 .0254824
1073.928 .0254802
1074.506 .0254777
1075.084 .0254768
1075.662 .0254751
1076.240 .0254747
1076.819 .0254770
1077.397 .0254798
1077.976 .0254839
1078.554 .0254889
1079.133 .0254945
1079.711 .0255001
1080.290 .0255068
1080.869 .0255139
1081.448 .0255225
1082.027 .0255335
1082.606 .0255450
1083.185 .0255567
1083.764 .0255704
1084.343 .0255837
1084.923 .0255944
1085.502 .0256063
1086.082 .0256169
1086.662 .0256272
1087.242 .0256394
1087.822 .0256525
1088.402 .0256659
1088.983 .0256807
1089.563 .0256948
1090.144 .0257086
1090.725 .0257206
1091.306 .0257314
1091.887 .0257402
1092.469 .0257512
1093.050 .0257642
1093.632 .0257799
1094.214 .0257993
1094.796 .0258243
1095.379 .0258504
1095.961 .0258777
1096.544 .0259028
1097.127 .0259264
1097.710 .0259487
1098.294 .0259697
1098.877 .0259899
1099.461 .0260126
1100.046 .0260369
1100.630 .0260651
1101.215 .0260957
1101.800 .0261290
1102.385 .0261617
1102.970 .0261944
1103.556 .0262259
1104.142 .0262565
1104.728 .0262856
1105.315 .0263146
1105.902 .0263422
1106.489 .0263705
1107.077 .0263940
1107.664 .0264139
1108.253 .0264306
1108.841 .0264450
1109.430 .0264572
1110.019 .0264681
1110.609 .0264792
1111.198 .0264930
1111.789 .0265078
1112.379 .0265234
1112.970 .0265378
1113.561 .0265521
1114.153 .0265643
1114.745 .0265757
1115.338 .0265882
1115.931 .0266034
1116.524 .0266220
1117.117 .0266479
1117.712 .0266786
1118.306 .0267144
1118.901 .0267552
1119.496 .0267973
1120.092 .0268427
1120.689 .0268904
1121.285 .0269398
1121.882 .0269921
1122.480 .0270494
1123.078 .0271137
1123.677 .0271800
1124.276 .0272498
1124.875 .0273186
1125.476 .0273839
1126.076 .0274483
1126.677 .0275102
1127.279 .0275676
1127.881 .0276262
1128.484 .0276866
1129.087 .0277463
1129.691 .0278090
1130.295 .0278753
1130.900 .0279384
1131.505 .0280033
1132.111 .0280661
1132.718 .0281268
1133.325 .0281833
1133.933 .0282440
1134.541 .0283067
1135.150 .0283775
1135.760 .0284570
1136.370 .0285377
1136.981 .0286276
1137.592 .0287286
1138.204 .0288340
1138.817 .0289451
1139.431 .0290647
1140.045 .0291925
1140.660 .0293386
1141.275 .0294971
1141.891 .0296584
1142.508 .0298007
1143.126 .0299203
1143.744 .0304239
1144.363 .0305116
1144.983 .0304030
