Measurement Sequence started on: 15-12-46-377
Integration time: 28
Scans to Average: 2 
>>>>>Begin Spectral Data<<<<<
432.689 .0000100
433.621 .0000100
434.552 .0000100
435.482 .0000100
436.410 .0000100
437.337 .0000100
438.262 .0282258
439.187 .0598322
440.110 .0990985
441.031 .1433540
441.952 .1863314
442.871 .2201154
443.789 .2386212
444.705 .2397493
445.621 .2261083
446.535 .2033337
447.447 .1775846
448.359 .1381611
449.269 .1187325
450.178 .1065536
451.086 .0980073
451.993 .0914506
452.898 .0862768
453.803 .0820031
454.706 .0784275
455.608 .0753586
456.508 .0727056
457.408 .0703957
458.306 .0683390
459.204 .0665062
460.100 .0648613
460.995 .0633765
461.888 .0620366
462.781 .0608052
463.673 .0596684
464.563 .0586194
465.452 .0576403
466.340 .0567140
467.228 .0558526
468.114 .0550519
468.999 .0543103
469.882 .0536194
470.765 .0529812
471.647 .0523913
472.528 .0518482
473.407 .0513590
474.286 .0509203
475.163 .0505232
476.040 .0501720
476.915 .0498538
477.790 .0495684
478.663 .0493103
479.535 .0490744
480.407 .0488607
481.277 .0486690
482.147 .0484954
483.015 .0483388
483.883 .0482049
484.749 .0480919
485.615 .0480024
486.479 .0479335
487.343 .0478916
488.206 .0478681
489.067 .0478570
489.928 .0478520
490.788 .0478546
491.647 .0478604
492.505 .0478725
493.362 .0478965
494.218 .0479388
495.073 .0480001
495.928 .0480970
496.781 .0482257
497.634 .0483975
498.486 .0486082
499.337 .0488588
500.187 .0491360
501.036 .0494425
501.884 .0497683
502.731 .0501152
503.578 .0504904
504.424 .0509000
505.268 .0513357
506.113 .0518228
506.956 .0523575
507.798 .0529510
508.640 .0536095
509.480 .0543394
510.320 .0551416
511.160 .0560136
511.998 .0569588
512.836 .0579845
513.672 .0590894
514.508 .0603031
515.344 .0616408
516.178 .0631420
517.012 .0648554
517.845 .0668306
518.677 .0691226
519.508 .0717612
520.339 .0747769
521.169 .0782414
521.998 .0821411
522.826 .0865309
523.654 .0914304
524.481 .0968192
525.307 .1027906
526.133 .1092793
526.958 .1162925
527.782 .1237997
528.605 .1316564
529.428 .1397395
530.250 .1474513
531.072 .1545506
531.892 .1605588
532.712 .1651201
533.532 .1679846
534.350 .1689066
535.168 .1678196
535.986 .1648421
536.802 .1601508
537.618 .1540925
538.434 .1469528
539.249 .1392544
540.063 .1312203
540.876 .1231711
541.689 .1153739
542.501 .1080394
543.313 .1013069
544.124 .0953196
544.934 .0899672
545.744 .0852190
546.553 .0810002
547.361 .0772881
548.169 .0740445
548.976 .0711695
549.783 .0686308
550.589 .0663667
551.395 .0643239
552.200 .0624881
553.004 .0608091
553.808 .0592823
554.611 .0579139
555.414 .0566830
556.216 .0555539
557.018 .0545401
557.819 .0536037
558.619 .0527381
559.419 .0519123
560.218 .0511404
561.017 .0503897
561.815 .0496612
562.613 .0489541
563.410 .0482566
564.207 .0475790
565.003 .0469261
565.799 .0462869
566.594 .0456741
567.388 .0450822
568.182 .0445078
568.976 .0439382
569.769 .0433904
570.562 .0428480
571.354 .0423095
572.145 .0417736
572.936 .0412402
573.727 .0407095
574.517 .0401906
575.307 .0396857
576.096 .0391976
576.885 .0387299
577.673 .0382890
578.461 .0378714
579.248 .0374827
580.035 .0371198
580.821 .0367816
581.607 .0364625
582.392 .0361687
583.177 .0358955
583.962 .0356454
584.746 .0354193
585.529 .0352146
586.313 .0350327
587.095 .0348719
587.878 .0347307
588.660 .0346069
589.441 .0344971
590.222 .0344003
591.003 .0343111
591.783 .0342299
592.563 .0341528
593.342 .0340804
594.121 .0340111
594.899 .0339458
595.678 .0338825
596.455 .0338218
597.233 .0337634
598.009 .0337072
598.786 .0336544
599.562 .0336041
600.338 .0335557
601.113 .0335092
601.888 .0334647
602.663 .0334218
603.437 .0333808
604.211 .0333423
604.984 .0333055
605.757 .0332712
606.530 .0332381
607.302 .0332081
608.074 .0331804
608.845 .0331554
609.616 .0331334
610.387 .0331143
611.158 .0330982
611.928 .0330844
612.697 .0330729
613.467 .0330626
614.236 .0330530
615.004 .0330432
615.773 .0330328
616.541 .0330214
617.308 .0330092
618.076 .0329961
618.843 .0329818
619.609 .0329681
620.375 .0329538
621.141 .0329389
621.907 .0329235
622.672 .0329067
623.437 .0328882
624.202 .0328668
624.966 .0328427
625.730 .0328148
626.493 .0327837
627.257 .0327500
628.020 .0327136
628.782 .0326755
629.545 .0326370
630.307 .0325985
631.068 .0325601
631.830 .0325227
632.591 .0324846
633.352 .0324455
634.112 .0324052
634.872 .0323632
635.632 .0323189
636.392 .0322719
637.151 .0322237
637.910 .0321742
638.668 .0321243
639.427 .0320752
640.185 .0320258
640.943 .0319779
641.700 .0319311
642.457 .0318848
643.214 .0318391
643.971 .0317949
644.727 .0317524
645.483 .0317118
646.239 .0316739
646.994 .0316379
647.750 .0316030
648.505 .0315704
649.259 .0315399
650.014 .0315107
650.768 .0314831
651.521 .0314574
652.275 .0314337
653.028 .0314120
653.781 .0313914
654.534 .0313709
655.286 .0313497
656.039 .0313274
656.791 .0313030
657.542 .0312760
658.294 .0312476
659.045 .0312191
659.796 .0311914
660.546 .0311653
661.297 .0311408
662.047 .0311175
662.796 .0310948
663.546 .0310727
664.295 .0310497
665.044 .0310256
665.793 .0310015
666.542 .0309787
667.290 .0309577
668.038 .0309392
668.786 .0309236
669.533 .0309105
670.281 .0308994
671.028 .0308893
671.774 .0308788
672.521 .0308682
673.267 .0308578
674.013 .0308478
674.759 .0308380
675.505 .0308294
676.250 .0308218
676.995 .0308150
677.740 .0308080
678.484 .0307997
679.229 .0307893
679.973 .0307767
680.717 .0307621
681.460 .0307459
682.204 .0307293
682.947 .0307127
683.690 .0306968
684.433 .0306816
685.175 .0306664
685.917 .0306513
686.659 .0306354
687.401 .0306187
688.142 .0306009
688.884 .0305823
689.625 .0305630
690.365 .0305435
691.106 .0305241
691.846 .0305045
692.586 .0304846
693.326 .0304643
694.066 .0304427
694.805 .0304193
695.545 .0303943
696.284 .0303681
697.022 .0303406
697.761 .0303125
698.499 .0302841
699.237 .0302557
699.975 .0302278
700.713 .0302007
701.450 .0301744
702.187 .0301490
702.924 .0301252
703.661 .0301024
704.397 .0300807
705.133 .0300605
705.869 .0300411
706.605 .0300231
707.341 .0300062
708.076 .0299898
708.811 .0299738
709.546 .0299580
710.281 .0299423
711.015 .0299258
711.749 .0299082
712.483 .0298890
713.217 .0298675
713.950 .0298433
714.684 .0298165
715.417 .0297869
716.150 .0297554
716.882 .0297226
717.615 .0296890
718.347 .0296553
719.079 .0296219
719.811 .0295888
720.542 .0295558
721.273 .0295222
722.005 .0294877
722.735 .0294518
723.466 .0294155
724.196 .0293788
724.927 .0293424
725.656 .0293076
726.386 .0292752
727.116 .0292454
727.845 .0292187
728.574 .0291945
729.303 .0291727
730.031 .0291530
730.760 .0291346
731.488 .0291168
732.216 .0290998
732.944 .0290837
733.671 .0290686
734.398 .0290544
735.125 .0290413
735.852 .0290293
736.579 .0290184
737.305 .0290090
738.031 .0290005
738.757 .0289930
739.483 .0289860
740.208 .0289789
740.933 .0289719
741.658 .0289646
742.383 .0289566
743.108 .0289488
743.832 .0289409
744.556 .0289336
745.280 .0289270
746.004 .0289211
746.727 .0289165
747.450 .0289131
748.173 .0289101
748.896 .0289071
749.618 .0289034
750.340 .0288992
751.062 .0288939
751.784 .0288879
752.506 .0288812
753.227 .0288739
753.948 .0288665
754.669 .0288589
755.389 .0288509
756.110 .0288426
756.830 .0288335
757.550 .0288240
758.269 .0288142
758.989 .0288036
759.708 .0287928
760.427 .0287818
761.146 .0287711
761.864 .0287612
762.582 .0287512
763.300 .0287421
764.018 .0287338
764.736 .0287262
765.453 .0287197
766.170 .0287138
766.887 .0287088
767.603 .0287045
768.320 .0287005
769.036 .0286968
769.751 .0286928
770.467 .0286887
771.182 .0286845
771.897 .0286804
772.612 .0286765
773.327 .0286730
774.041 .0286700
774.755 .0286679
775.469 .0286662
776.183 .0286649
776.896 .0286640
777.609 .0286636
778.322 .0286634
779.035 .0286631
779.747 .0286627
780.459 .0286625
781.171 .0286618
781.882 .0286606
782.594 .0286588
783.305 .0286563
784.016 .0286532
784.726 .0286496
785.436 .0286450
786.147 .0286400
786.856 .0286344
787.566 .0286281
788.275 .0286208
788.984 .0286123
789.693 .0286021
790.401 .0285902
791.110 .0285769
791.818 .0285622
792.525 .0285461
793.233 .0285297
793.940 .0285134
794.647 .0284971
795.353 .0284807
796.060 .0284642
796.766 .0284473
797.472 .0284297
798.177 .0284109
798.883 .0283907
799.588 .0283693
800.292 .0283473
800.997 .0283248
801.701 .0283016
802.405 .0282787
803.109 .0282560
803.812 .0282335
804.515 .0282112
805.218 .0281884
805.921 .0281652
806.623 .0281413
807.325 .0281167
808.027 .0280913
808.728 .0280650
809.429 .0280382
810.130 .0280108
810.831 .0279831
811.531 .0279551
812.231 .0279266
812.931 .0278977
813.630 .0278688
814.330 .0278393
815.029 .0278094
815.727 .0277791
816.426 .0277491
817.124 .0277192
817.821 .0276895
818.519 .0276602
819.216 .0276316
819.913 .0276041
820.609 .0275775
821.306 .0275515
822.002 .0275275
822.697 .0275053
823.393 .0274852
824.088 .0274671
824.783 .0274509
825.477 .0274358
826.171 .0274216
826.865 .0274077
827.559 .0273940
828.252 .0273800
828.945 .0273664
829.638 .0273528
830.330 .0273397
831.023 .0273280
831.714 .0273172
832.406 .0273078
833.097 .0272994
833.788 .0272908
834.479 .0272813
835.169 .0272712
835.859 .0272602
836.548 .0272484
837.238 .0272365
837.927 .0272251
838.615 .0272144
839.304 .0272052
839.992 .0271972
840.680 .0271903
841.367 .0271842
842.054 .0271786
842.741 .0271725
843.428 .0271665
844.114 .0271600
844.800 .0271534
845.485 .0271470
846.170 .0271408
846.855 .0271347
847.540 .0271287
848.224 .0271226
848.908 .0271169
849.592 .0271108
850.275 .0271046
850.958 .0270980
851.641 .0270913
852.323 .0270846
853.005 .0270779
853.687 .0270713
854.368 .0270650
855.049 .0270588
855.730 .0270531
856.410 .0270474
857.090 .0270424
857.769 .0270375
858.449 .0270330
859.128 .0270288
859.806 .0270248
860.485 .0270213
861.163 .0270184
861.840 .0270159
862.518 .0270138
863.195 .0270115
863.871 .0270085
864.548 .0270051
865.224 .0270010
865.899 .0269962
866.574 .0269907
867.249 .0269848
867.924 .0269792
868.598 .0269738
869.272 .0269692
869.946 .0269653
870.619 .0269622
871.292 .0269603
871.964 .0269581
872.636 .0269563
873.308 .0269543
873.979 .0269524
874.651 .0269508
875.321 .0269493
875.992 .0269481
876.662 .0269475
877.331 .0269476
878.001 .0269486
878.670 .0269500
879.338 .0269524
880.007 .0269552
880.675 .0269591
881.342 .0269633
882.009 .0269682
882.676 .0269735
883.343 .0269797
884.009 .0269864
884.675 .0269935
885.340 .0270011
886.005 .0270091
886.670 .0270180
887.334 .0270278
887.998 .0270381
888.662 .0270490
889.325 .0270603
889.988 .0270721
890.650 .0270834
891.312 .0270944
891.974 .0271048
892.636 .0271149
893.297 .0271247
893.957 .0271338
894.618 .0271424
895.278 .0271499
895.937 .0271568
896.596 .0271626
897.255 .0271674
897.914 .0271713
898.572 .0271743
899.230 .0271769
899.887 .0271789
900.544 .0271801
901.201 .0271804
901.857 .0271795
902.513 .0271768
903.168 .0271713
903.823 .0271629
904.478 .0271517
905.132 .0271385
905.786 .0271232
906.440 .0271065
907.093 .0270889
907.746 .0270705
908.399 .0270514
909.051 .0270311
909.703 .0270098
910.354 .0269867
911.005 .0269620
911.656 .0269356
912.306 .0269080
912.956 .0268800
913.605 .0268518
914.254 .0268241
914.903 .0267973
915.551 .0267705
916.199 .0267442
916.847 .0267184
917.494 .0266926
918.141 .0266669
918.788 .0266413
919.434 .0266159
920.079 .0265909
920.725 .0265660
921.370 .0265412
922.014 .0265164
922.658 .0264912
923.302 .0264654
923.946 .0264386
924.589 .0264109
925.231 .0263819
925.873 .0263515
926.515 .0263204
927.157 .0262877
927.798 .0262541
928.439 .0262199
929.079 .0261853
929.719 .0261504
930.359 .0261149
930.998 .0260793
931.637 .0260436
932.275 .0260083
932.913 .0259729
933.551 .0259375
934.188 .0259028
934.825 .0258689
935.462 .0258357
936.098 .0258040
936.733 .0257738
937.369 .0257454
938.004 .0257187
938.638 .0256931
939.273 .0256682
939.907 .0256443
940.540 .0256212
941.173 .0255989
941.806 .0255772
942.438 .0255563
943.070 .0255359
943.702 .0255165
944.333 .0254980
944.964 .0254797
945.594 .0254622
946.224 .0254447
946.854 .0254273
947.483 .0254104
948.112 .0253934
948.741 .0253769
949.369 .0253610
949.996 .0253457
950.624 .0253303
951.251 .0253145
951.878 .0252984
952.504 .0252813
953.130 .0252635
953.755 .0252446
954.380 .0252247
955.005 .0252049
955.629 .0251852
956.253 .0251653
956.877 .0251466
957.500 .0251289
958.123 .0251116
958.746 .0250948
959.368 .0250780
959.990 .0250609
960.611 .0250435
961.232 .0250264
961.853 .0250093
962.473 .0249928
963.093 .0249776
963.712 .0249634
964.331 .0249501
964.950 .0249377
965.569 .0249253
966.187 .0249126
966.804 .0249000
967.422 .0248868
968.039 .0248731
968.655 .0248597
969.272 .0248462
969.887 .0248327
970.503 .0248194
971.118 .0248064
971.733 .0247930
972.347 .0247794
972.961 .0247652
973.575 .0247507
974.188 .0247360
974.801 .0247218
975.414 .0247084
976.026 .0246959
976.638 .0246848
977.250 .0246745
977.861 .0246653
978.472 .0246566
979.083 .0246483
979.693 .0246400
980.303 .0246312
980.912 .0246224
981.521 .0246133
982.130 .0246041
982.738 .0245957
983.346 .0245880
983.954 .0245812
984.562 .0245752
985.169 .0245697
985.775 .0245642
986.382 .0245588
986.988 .0245534
987.594 .0245477
988.199 .0245420
988.804 .0245367
989.409 .0245317
990.013 .0245285
990.617 .0245271
991.221 .0245275
991.824 .0245296
992.427 .0245340
993.030 .0245398
993.632 .0245468
994.234 .0245552
994.836 .0245647
995.438 .0245751
996.039 .0245863
996.640 .0245977
997.240 .0246099
997.840 .0246228
998.440 .0246364
999.040 .0246502
999.639 .0246655
1000.238 .0246808
1000.836 .0246965
1001.435 .0247125
1002.033 .0247286
1002.630 .0247443
1003.228 .0247598
1003.825 .0247750
1004.422 .0247898
1005.018 .0248041
1005.614 .0248186
1006.210 .0248330
1006.806 .0248484
1007.401 .0248635
1007.996 .0248789
1008.591 .0248940
1009.186 .0249092
1009.780 .0249237
1010.374 .0249376
1010.967 .0249513
1011.561 .0249646
1012.154 .0249771
1012.746 .0249890
1013.339 .0250003
1013.931 .0250119
1014.523 .0250230
1015.115 .0250343
1015.706 .0250457
1016.298 .0250584
1016.888 .0250724
1017.479 .0250883
1018.069 .0251056
1018.660 .0251253
1019.250 .0251471
1019.839 .0251700
1020.429 .0251941
1021.018 .0252198
1021.607 .0252463
1022.195 .0252747
1022.784 .0253041
1023.372 .0253344
1023.960 .0253650
1024.547 .0253968
1025.135 .0254286
1025.722 .0254599
1026.309 .0254903
1026.896 .0255192
1027.483 .0255468
1028.069 .0255737
1028.655 .0255988
1029.241 .0256225
1029.827 .0256459
1030.412 .0256683
1030.997 .0256887
1031.582 .0257081
1032.167 .0257265
1032.752 .0257438
1033.336 .0257608
1033.921 .0257772
1034.505 .0257931
1035.089 .0258093
1035.672 .0258259
1036.256 .0258416
1036.839 .0258565
1037.422 .0258703
1038.005 .0258821
1038.588 .0258921
1039.171 .0259006
1039.753 .0259067
1040.335 .0259117
1040.918 .0259163
1041.500 .0259210
1042.081 .0259251
1042.663 .0259296
1043.244 .0259338
1043.826 .0259373
1044.407 .0259403
1044.988 .0259430
1045.569 .0259438
1046.150 .0259439
1046.730 .0259430
1047.311 .0259405
1047.891 .0259380
1048.471 .0259360
1049.052 .0259337
1049.632 .0259327
1050.211 .0259332
1050.791 .0259339
1051.371 .0259342
1051.950 .0259357
1052.530 .0259368
1053.109 .0259374
1053.688 .0259373
1054.268 .0259361
1054.847 .0259334
1055.426 .0259323
1056.005 .0259308
1056.583 .0259305
1057.162 .0259318
1057.741 .0259348
1058.319 .0259385
1058.898 .0259428
1059.476 .0259462
1060.055 .0259493
1060.633 .0259506
1061.211 .0259511
1061.790 .0259476
1062.368 .0259435
1062.946 .0259390
1063.524 .0259354
1064.102 .0259330
1064.680 .0259323
1065.258 .0259314
1065.836 .0259311
1066.414 .0259290
1066.992 .0259250
1067.570 .0259175
1068.148 .0259075
1068.726 .0258942
1069.304 .0258803
1069.882 .0258656
1070.460 .0258527
1071.038 .0258405
1071.616 .0258321
1072.194 .0258244
1072.772 .0258171
1073.350 .0258098
1073.928 .0258021
1074.506 .0257943
1075.084 .0257871
1075.662 .0257802
1076.240 .0257750
1076.819 .0257707
1077.397 .0257683
1077.976 .0257650
1078.554 .0257614
1079.133 .0257562
1079.711 .0257476
1080.290 .0257363
1080.869 .0257226
1081.448 .0257077
1082.027 .0256935
1082.606 .0256819
1083.185 .0256729
1083.764 .0256665
1084.343 .0256617
1084.923 .0256570
1085.502 .0256527
1086.082 .0256481
1086.662 .0256426
1087.242 .0256375
1087.822 .0256345
1088.402 .0256350
1088.983 .0256391
1089.563 .0256476
1090.144 .0256577
1090.725 .0256698
1091.306 .0256803
1091.887 .0256872
1092.469 .0256917
1093.050 .0256934
1093.632 .0256923
1094.214 .0256897
1094.796 .0256875
1095.379 .0256847
1095.961 .0256829
1096.544 .0256830
1097.127 .0256825
1097.710 .0256820
1098.294 .0256799
1098.877 .0256757
1099.461 .0256698
1100.046 .0256630
1100.630 .0256566
1101.215 .0256504
1101.800 .0256478
1102.385 .0256465
1102.970 .0256467
1103.556 .0256483
1104.142 .0256501
1104.728 .0256528
1105.315 .0256563
1105.902 .0256591
1106.489 .0256645
1107.077 .0256712
1107.664 .0256831
1108.253 .0257007
1108.841 .0257234
1109.430 .0257506
1110.019 .0257819
1110.609 .0258123
1111.198 .0258403
1111.789 .0258643
1112.379 .0258840
1112.970 .0258979
1113.561 .0259096
1114.153 .0259201
1114.745 .0259317
1115.338 .0259491
1115.931 .0259744
1116.524 .0260043
1117.117 .0260419
1117.712 .0260806
1118.306 .0261175
1118.901 .0261523
1119.496 .0261810
1120.092 .0262039
1120.689 .0262237
1121.285 .0262442
1121.882 .0262662
1122.480 .0262904
1123.078 .0263205
1123.677 .0263550
1124.276 .0263911
1124.875 .0264257
1125.476 .0264545
1126.076 .0264803
1126.677 .0265043
1127.279 .0265262
1127.881 .0265516
1128.484 .0265867
1129.087 .0266343
1129.691 .0266962
1130.295 .0267699
1130.900 .0268551
1131.505 .0269464
1132.111 .0270401
1132.718 .0271327
1133.325 .0272208
1133.933 .0273056
1134.541 .0273911
1135.150 .0274795
1135.760 .0275708
1136.370 .0276645
1136.981 .0277586
1137.592 .0278498
1138.204 .0279326
1138.817 .0280002
1139.431 .0280567
1140.045 .0280997
1140.660 .0281417
1141.275 .0281771
1141.891 .0282121
1142.508 .0282818
1143.126 .0282332
1143.744 .0285013
1144.363 .0284210
1144.983 .0284059
