Measurement Sequence started on: 15-12-46-377
Integration time: 28
Scans to Average: 2 
>>>>>Begin Spectral Data<<<<<
432.689 .0000100
433.621 .0000100
434.552 .0000100
435.482 .0000100
436.410 .0000100
437.337 .0000100
438.262 .0275113
439.187 .0582567
440.110 .0964784
441.031 .1396002
441.952 .1814335
442.871 .2143150
443.789 .2322707
444.705 .2332635
445.621 .2198159
446.535 .1974465
447.447 .1721659
448.359 .1335371
449.269 .1144628
450.178 .1024582
451.086 .0940094
451.993 .0876004
452.898 .0825500
453.803 .0784100
454.706 .0749516
455.608 .0719943
456.508 .0694226
457.408 .0671862
458.306 .0652301
459.204 .0634845
460.100 .0619302
460.995 .0605420
461.888 .0592775
462.781 .0581034
463.673 .0569976
464.563 .0559443
465.452 .0549296
466.340 .0539530
467.228 .0530224
468.114 .0521441
468.999 .0513351
469.882 .0505920
470.765 .0499145
471.647 .0493098
472.528 .0487621
473.407 .0482722
474.286 .0478405
475.163 .0474556
476.040 .0471183
476.915 .0468283
477.790 .0465800
478.663 .0463757
479.535 .0462109
480.407 .0460806
481.277 .0459740
482.147 .0458977
483.015 .0458376
483.883 .0457926
484.749 .0457642
485.615 .0457585
486.479 .0457640
487.343 .0457894
488.206 .0458290
489.067 .0458824
489.928 .0459534
490.788 .0460364
491.647 .0461290
492.505 .0462365
493.362 .0463578
494.218 .0464920
495.073 .0466424
495.928 .0468242
496.781 .0470266
497.634 .0472630
498.486 .0475330
499.337 .0478317
500.187 .0481535
501.036 .0484975
501.884 .0488594
502.731 .0492330
503.578 .0496172
504.424 .0500106
505.268 .0504127
506.113 .0508380
506.956 .0512874
507.798 .0517692
508.640 .0523040
509.480 .0529030
510.320 .0535677
511.160 .0543166
511.998 .0551544
512.836 .0560852
513.672 .0571145
514.508 .0582386
515.344 .0594634
516.178 .0608219
517.012 .0623406
517.845 .0640741
518.677 .0660489
519.508 .0683152
520.339 .0709037
521.169 .0738813
521.998 .0772807
522.826 .0811418
523.654 .0854932
524.481 .0903499
525.307 .0957321
526.133 .1016269
526.958 .1079456
527.782 .1146776
528.605 .1217271
529.428 .1289798
530.250 .1359006
531.072 .1422921
531.892 .1477691
532.712 .1520934
533.532 .1549915
534.350 .1562782
535.168 .1558441
535.986 .1537904
536.802 .1502058
537.618 .1453248
538.434 .1393910
539.249 .1328954
540.063 .1259744
540.876 .1189658
541.689 .1120581
542.501 .1054993
543.313 .0994346
544.124 .0939688
544.934 .0890145
545.744 .0845016
546.553 .0803809
547.361 .0766483
548.169 .0732730
548.976 .0702107
549.783 .0674470
550.589 .0649768
551.395 .0627591
552.200 .0607618
553.004 .0589486
553.808 .0573096
554.611 .0558344
555.414 .0544808
556.216 .0532321
557.018 .0521015
557.819 .0510851
558.619 .0501658
559.419 .0493463
560.218 .0486092
561.017 .0479338
561.815 .0472971
562.613 .0466845
563.410 .0460778
564.207 .0454697
565.003 .0448640
565.799 .0442626
566.594 .0436673
567.388 .0430910
568.182 .0425292
568.976 .0419938
569.769 .0414742
570.562 .0409699
571.354 .0404714
572.145 .0399852
572.936 .0395075
573.727 .0390370
574.517 .0385764
575.307 .0381312
576.096 .0377022
576.885 .0372913
577.673 .0368994
578.461 .0365348
579.248 .0361917
580.035 .0358731
580.821 .0355745
581.607 .0352974
582.392 .0350402
583.177 .0348044
583.962 .0345867
584.746 .0343874
585.529 .0342039
586.313 .0340406
587.095 .0338934
587.878 .0337646
588.660 .0336520
589.441 .0335564
590.222 .0334713
591.003 .0333955
591.783 .0333246
592.563 .0332585
593.342 .0331963
594.121 .0331356
594.899 .0330748
595.678 .0330164
596.455 .0329610
597.233 .0329089
598.009 .0328578
598.786 .0328100
599.562 .0327625
600.338 .0327160
601.113 .0326694
601.888 .0326222
602.663 .0325743
603.437 .0325264
604.211 .0324790
604.984 .0324324
605.757 .0323862
606.530 .0323410
607.302 .0322969
608.074 .0322544
608.845 .0322128
609.616 .0321723
610.387 .0321335
611.158 .0320977
611.928 .0320633
612.697 .0320315
613.467 .0320027
614.236 .0319770
615.004 .0319544
615.773 .0319342
616.541 .0319172
617.308 .0319016
618.076 .0318881
618.843 .0318759
619.609 .0318645
620.375 .0318541
621.141 .0318436
621.907 .0318329
622.672 .0318208
623.437 .0318065
624.202 .0317894
624.966 .0317697
625.730 .0317471
626.493 .0317211
627.257 .0316925
628.020 .0316618
628.782 .0316292
629.545 .0315952
630.307 .0315607
631.068 .0315257
631.830 .0314906
632.591 .0314550
633.352 .0314183
634.112 .0313818
634.872 .0313447
635.632 .0313070
636.392 .0312698
637.151 .0312339
637.910 .0311995
638.668 .0311668
639.427 .0311369
640.185 .0311093
640.943 .0310837
641.700 .0310602
642.457 .0310368
643.214 .0310134
643.971 .0309890
644.727 .0309632
645.483 .0309360
646.239 .0309083
646.994 .0308804
647.750 .0308529
648.505 .0308270
649.259 .0308033
650.014 .0307812
650.768 .0307615
651.521 .0307432
652.275 .0307252
653.028 .0307068
653.781 .0306876
654.534 .0306667
655.286 .0306451
656.039 .0306227
656.791 .0305994
657.542 .0305756
658.294 .0305525
659.045 .0305298
659.796 .0305076
660.546 .0304858
661.297 .0304638
662.047 .0304412
662.796 .0304177
663.546 .0303926
664.295 .0303666
665.044 .0303400
665.793 .0303134
666.542 .0302865
667.290 .0302604
668.038 .0302353
668.786 .0302108
669.533 .0301872
670.281 .0301649
671.028 .0301429
671.774 .0301214
672.521 .0301002
673.267 .0300797
674.013 .0300599
674.759 .0300406
675.505 .0300216
676.250 .0300025
676.995 .0299833
677.740 .0299635
678.484 .0299429
679.229 .0299228
679.973 .0299026
680.717 .0298829
681.460 .0298642
682.204 .0298469
682.947 .0298308
683.690 .0298159
684.433 .0298020
685.175 .0297886
685.917 .0297751
686.659 .0297613
687.401 .0297471
688.142 .0297332
688.884 .0297198
689.625 .0297066
690.365 .0296939
691.106 .0296821
691.846 .0296703
692.586 .0296580
693.326 .0296448
694.066 .0296308
694.805 .0296148
695.545 .0295970
696.284 .0295773
697.022 .0295562
697.761 .0295345
698.499 .0295124
699.237 .0294905
699.975 .0294695
700.713 .0294499
701.450 .0294314
702.187 .0294142
702.924 .0293982
703.661 .0293824
704.397 .0293665
705.133 .0293507
705.869 .0293348
706.605 .0293191
707.341 .0293041
708.076 .0292907
708.811 .0292788
709.546 .0292683
710.281 .0292587
711.015 .0292502
711.749 .0292416
712.483 .0292322
713.217 .0292209
713.950 .0292077
714.684 .0291923
715.417 .0291746
716.150 .0291552
716.882 .0291353
717.615 .0291151
718.347 .0290954
719.079 .0290766
719.811 .0290591
720.542 .0290427
721.273 .0290274
722.005 .0290128
722.735 .0289983
723.466 .0289835
724.196 .0289678
724.927 .0289513
725.656 .0289340
726.386 .0289163
727.116 .0288978
727.845 .0288797
728.574 .0288619
729.303 .0288447
730.031 .0288283
730.760 .0288126
731.488 .0287967
732.216 .0287808
732.944 .0287640
733.671 .0287464
734.398 .0287281
735.125 .0287099
735.852 .0286921
736.579 .0286758
737.305 .0286615
738.031 .0286492
738.757 .0286390
739.483 .0286305
740.208 .0286231
740.933 .0286160
741.658 .0286084
742.383 .0285999
743.108 .0285900
743.832 .0285787
744.556 .0285659
745.280 .0285518
746.004 .0285368
746.727 .0285211
747.450 .0285046
748.173 .0284870
748.896 .0284690
749.618 .0284502
750.340 .0284306
751.062 .0284104
751.784 .0283897
752.506 .0283685
753.227 .0283470
753.948 .0283253
754.669 .0283037
755.389 .0282824
756.110 .0282619
756.830 .0282416
757.550 .0282225
758.269 .0282039
758.989 .0281853
759.708 .0281669
760.427 .0281486
761.146 .0281290
761.864 .0281083
762.582 .0280867
763.300 .0280644
764.018 .0280417
764.736 .0280193
765.453 .0279976
766.170 .0279768
766.887 .0279567
767.603 .0279368
768.320 .0279166
769.036 .0278963
769.751 .0278752
770.467 .0278535
771.182 .0278318
771.897 .0278100
772.612 .0277887
773.327 .0277684
774.041 .0277495
774.755 .0277315
775.469 .0277145
776.183 .0276983
776.896 .0276826
777.609 .0276667
778.322 .0276510
779.035 .0276357
779.747 .0276212
780.459 .0276079
781.171 .0275957
781.882 .0275850
782.594 .0275758
783.305 .0275676
784.016 .0275606
784.726 .0275544
785.436 .0275487
786.147 .0275431
786.856 .0275380
787.566 .0275333
788.275 .0275293
788.984 .0275260
789.693 .0275235
790.401 .0275213
791.110 .0275193
791.818 .0275169
792.525 .0275140
793.233 .0275107
793.940 .0275064
794.647 .0275010
795.353 .0274951
796.060 .0274885
796.766 .0274811
797.472 .0274732
798.177 .0274650
798.883 .0274561
799.588 .0274465
800.292 .0274363
800.997 .0274254
801.701 .0274140
802.405 .0274023
803.109 .0273905
803.812 .0273788
804.515 .0273672
805.218 .0273554
805.921 .0273437
806.623 .0273319
807.325 .0273197
808.027 .0273072
808.728 .0272952
809.429 .0272834
810.130 .0272723
810.831 .0272617
811.531 .0272515
812.231 .0272415
812.931 .0272312
813.630 .0272203
814.330 .0272088
815.029 .0271974
815.727 .0271859
816.426 .0271750
817.124 .0271651
817.821 .0271565
818.519 .0271496
819.216 .0271441
819.913 .0271397
820.609 .0271355
821.306 .0271319
822.002 .0271286
822.697 .0271259
823.393 .0271244
824.088 .0271236
824.783 .0271245
825.477 .0271266
826.171 .0271300
826.865 .0271340
827.559 .0271386
828.252 .0271431
828.945 .0271471
829.638 .0271504
830.330 .0271531
831.023 .0271552
831.714 .0271575
832.406 .0271598
833.097 .0271621
833.788 .0271639
834.479 .0271653
835.169 .0271661
835.859 .0271668
836.548 .0271670
837.238 .0271670
837.927 .0271668
838.615 .0271668
839.304 .0271669
839.992 .0271671
840.680 .0271676
841.367 .0271680
842.054 .0271681
842.741 .0271679
843.428 .0271674
844.114 .0271669
844.800 .0271664
845.485 .0271661
846.170 .0271656
846.855 .0271645
847.540 .0271627
848.224 .0271599
848.908 .0271560
849.592 .0271507
850.275 .0271437
850.958 .0271353
851.641 .0271258
852.323 .0271153
853.005 .0271040
853.687 .0270920
854.368 .0270789
855.049 .0270648
855.730 .0270493
856.410 .0270324
857.090 .0270144
857.769 .0269954
858.449 .0269758
859.128 .0269558
859.806 .0269359
860.485 .0269163
861.163 .0268970
861.840 .0268781
862.518 .0268592
863.195 .0268404
863.871 .0268213
864.548 .0268023
865.224 .0267835
865.899 .0267652
866.574 .0267472
867.249 .0267301
867.924 .0267134
868.598 .0266976
869.272 .0266823
869.946 .0266675
870.619 .0266531
871.292 .0266388
871.964 .0266246
872.636 .0266105
873.308 .0265962
873.979 .0265821
874.651 .0265676
875.321 .0265534
875.992 .0265385
876.662 .0265235
877.331 .0265084
878.001 .0264934
878.670 .0264784
879.338 .0264640
880.007 .0264499
880.675 .0264365
881.342 .0264232
882.009 .0264101
882.676 .0263974
883.343 .0263845
884.009 .0263716
884.675 .0263585
885.340 .0263457
886.005 .0263334
886.670 .0263217
887.334 .0263113
887.998 .0263021
888.662 .0262943
889.325 .0262874
889.988 .0262812
890.650 .0262753
891.312 .0262693
891.974 .0262633
892.636 .0262569
893.297 .0262503
893.957 .0262434
894.618 .0262366
895.278 .0262300
895.937 .0262233
896.596 .0262167
897.255 .0262096
897.914 .0262015
898.572 .0261924
899.230 .0261818
899.887 .0261697
900.544 .0261561
901.201 .0261411
901.857 .0261246
902.513 .0261067
903.168 .0260875
903.823 .0260666
904.478 .0260447
905.132 .0260213
905.786 .0259963
906.440 .0259704
907.093 .0259440
907.746 .0259170
908.399 .0258899
909.051 .0258634
909.703 .0258370
910.354 .0258105
911.005 .0257842
911.656 .0257575
912.306 .0257303
912.956 .0257025
913.605 .0256739
914.254 .0256448
914.903 .0256159
915.551 .0255870
916.199 .0255589
916.847 .0255321
917.494 .0255064
918.141 .0254817
918.788 .0254579
919.434 .0254347
920.079 .0254115
920.725 .0253882
921.370 .0253651
922.014 .0253422
922.658 .0253199
923.302 .0252984
923.946 .0252781
924.589 .0252587
925.231 .0252400
925.873 .0252216
926.515 .0252034
927.157 .0251844
927.798 .0251646
928.439 .0251437
929.079 .0251220
929.719 .0250997
930.359 .0250771
930.998 .0250541
931.637 .0250314
932.275 .0250089
932.913 .0249861
933.551 .0249635
934.188 .0249412
934.825 .0249192
935.462 .0248978
936.098 .0248773
936.733 .0248580
937.369 .0248402
938.004 .0248244
938.638 .0248099
939.273 .0247971
939.907 .0247855
940.540 .0247750
941.173 .0247652
941.806 .0247570
942.438 .0247501
943.070 .0247445
943.702 .0247408
944.333 .0247380
944.964 .0247362
945.594 .0247355
946.224 .0247351
946.854 .0247351
947.483 .0247354
948.112 .0247356
948.741 .0247350
949.369 .0247348
949.996 .0247342
950.624 .0247329
951.251 .0247315
951.878 .0247298
952.504 .0247275
953.130 .0247249
953.755 .0247220
954.380 .0247188
955.005 .0247157
955.629 .0247122
956.253 .0247080
956.877 .0247041
957.500 .0247004
958.123 .0246963
958.746 .0246924
959.368 .0246893
959.990 .0246863
960.611 .0246838
961.232 .0246826
961.853 .0246823
962.473 .0246833
963.093 .0246852
963.712 .0246874
964.331 .0246898
964.950 .0246927
965.569 .0246951
966.187 .0246975
966.804 .0247007
967.422 .0247044
968.039 .0247087
968.655 .0247142
969.272 .0247203
969.887 .0247268
970.503 .0247331
971.118 .0247388
971.733 .0247434
972.347 .0247468
972.961 .0247491
973.575 .0247504
974.188 .0247514
974.801 .0247518
975.414 .0247515
976.026 .0247505
976.638 .0247490
977.250 .0247467
977.861 .0247434
978.472 .0247390
979.083 .0247344
979.693 .0247291
980.303 .0247236
980.912 .0247186
981.521 .0247145
982.130 .0247113
982.738 .0247095
983.346 .0247083
983.954 .0247076
984.562 .0247076
985.169 .0247081
985.775 .0247083
986.382 .0247089
986.988 .0247097
987.594 .0247102
988.199 .0247106
988.804 .0247118
989.409 .0247130
990.013 .0247149
990.617 .0247173
991.221 .0247202
991.824 .0247242
992.427 .0247294
993.030 .0247358
993.632 .0247436
994.234 .0247531
994.836 .0247635
995.438 .0247740
996.039 .0247849
996.640 .0247957
997.240 .0248062
997.840 .0248164
998.440 .0248265
999.040 .0248370
999.639 .0248480
1000.238 .0248591
1000.836 .0248702
1001.435 .0248809
1002.033 .0248897
1002.630 .0248966
1003.228 .0249012
1003.825 .0249042
1004.422 .0249056
1005.018 .0249069
1005.614 .0249091
1006.210 .0249131
1006.806 .0249190
1007.401 .0249274
1007.996 .0249377
1008.591 .0249502
1009.186 .0249633
1009.780 .0249776
1010.374 .0249925
1010.967 .0250081
1011.561 .0250237
1012.154 .0250397
1012.746 .0250552
1013.339 .0250703
1013.931 .0250843
1014.523 .0250975
1015.115 .0251091
1015.706 .0251202
1016.298 .0251299
1016.888 .0251394
1017.479 .0251488
1018.069 .0251583
1018.660 .0251671
1019.250 .0251759
1019.839 .0251832
1020.429 .0251899
1021.018 .0251958
1021.607 .0252021
1022.195 .0252094
1022.784 .0252181
1023.372 .0252283
1023.960 .0252402
1024.547 .0252531
1025.135 .0252667
1025.722 .0252796
1026.309 .0252921
1026.896 .0253031
1027.483 .0253126
1028.069 .0253210
1028.655 .0253287
1029.241 .0253357
1029.827 .0253423
1030.412 .0253482
1030.997 .0253539
1031.582 .0253587
1032.167 .0253626
1032.752 .0253662
1033.336 .0253697
1033.921 .0253739
1034.505 .0253783
1035.089 .0253828
1035.672 .0253880
1036.256 .0253938
1036.839 .0253993
1037.422 .0254047
1038.005 .0254098
1038.588 .0254148
1039.171 .0254183
1039.753 .0254213
1040.335 .0254227
1040.918 .0254234
1041.500 .0254234
1042.081 .0254227
1042.663 .0254210
1043.244 .0254194
1043.826 .0254174
1044.407 .0254153
1044.988 .0254136
1045.569 .0254120
1046.150 .0254093
1046.730 .0254068
1047.311 .0254037
1047.891 .0254001
1048.471 .0253964
1049.052 .0253940
1049.632 .0253924
1050.211 .0253918
1050.791 .0253917
1051.371 .0253915
1051.950 .0253915
1052.530 .0253916
1053.109 .0253899
1053.688 .0253860
1054.268 .0253814
1054.847 .0253757
1055.426 .0253684
1056.005 .0253606
1056.583 .0253524
1057.162 .0253434
1057.741 .0253339
1058.319 .0253237
1058.898 .0253127
1059.476 .0253006
1060.055 .0252883
1060.633 .0252748
1061.211 .0252600
1061.790 .0252448
1062.368 .0252290
1062.946 .0252122
1063.524 .0251958
1064.102 .0251782
1064.680 .0251603
1065.258 .0251431
1065.836 .0251271
1066.414 .0251121
1066.992 .0250980
1067.570 .0250849
1068.148 .0250724
1068.726 .0250600
1069.304 .0250487
1069.882 .0250387
1070.460 .0250305
1071.038 .0250253
1071.616 .0250233
1072.194 .0250243
1072.772 .0250288
1073.350 .0250369
1073.928 .0250476
1074.506 .0250578
1075.084 .0250666
1075.662 .0250727
1076.240 .0250756
1076.819 .0250756
1077.397 .0250729
1077.976 .0250670
1078.554 .0250601
1079.133 .0250527
1079.711 .0250438
1080.290 .0250357
1080.869 .0250267
1081.448 .0250150
1082.027 .0250006
1082.606 .0249836
1083.185 .0249638
1083.764 .0249430
1084.343 .0249249
1084.923 .0249094
1085.502 .0248980
1086.082 .0248912
1086.662 .0248878
1087.242 .0248873
1087.822 .0248909
1088.402 .0248937
1088.983 .0248953
1089.563 .0248979
1090.144 .0248990
1090.725 .0249011
1091.306 .0249053
1091.887 .0249111
1092.469 .0249189
1093.050 .0249283
1093.632 .0249382
1094.214 .0249453
1094.796 .0249521
1095.379 .0249571
1095.961 .0249601
1096.544 .0249641
1097.127 .0249685
1097.710 .0249727
1098.294 .0249815
1098.877 .0249941
1099.461 .0250081
1100.046 .0250245
1100.630 .0250407
1101.215 .0250561
1101.800 .0250717
1102.385 .0250853
1102.970 .0250966
1103.556 .0251063
1104.142 .0251163
1104.728 .0251257
1105.315 .0251363
1105.902 .0251483
1106.489 .0251612
1107.077 .0251771
1107.664 .0251957
1108.253 .0252144
1108.841 .0252325
1109.430 .0252490
1110.019 .0252630
1110.609 .0252734
1111.198 .0252800
1111.789 .0252857
1112.379 .0252939
1112.970 .0253030
1113.561 .0253169
1114.153 .0253360
1114.745 .0253597
1115.338 .0253883
1115.931 .0254186
1116.524 .0254487
1117.117 .0254770
1117.712 .0255021
1118.306 .0255253
1118.901 .0255484
1119.496 .0255729
1120.092 .0255975
1120.689 .0256256
1121.285 .0256585
1121.882 .0256911
1122.480 .0257248
1123.078 .0257609
1123.677 .0257957
1124.276 .0258294
1124.875 .0258611
1125.476 .0258909
1126.076 .0259242
1126.677 .0259598
1127.279 .0259976
1127.881 .0260391
1128.484 .0260833
1129.087 .0261283
1129.691 .0261746
1130.295 .0262221
1130.900 .0262706
1131.505 .0263204
1132.111 .0263721
1132.718 .0264247
1133.325 .0264817
1133.933 .0265430
1134.541 .0266125
1135.150 .0266927
1135.760 .0267825
1136.370 .0268791
1136.981 .0269878
1137.592 .0271035
1138.204 .0272283
1138.817 .0273622
1139.431 .0275080
1140.045 .0276703
1140.660 .0278511
1141.275 .0280469
1141.891 .0282521
1142.508 .0284794
1143.126 .0288030
1143.744 .0290336
1144.363 .0292036
1144.983 .0292243
