Measurement Sequence started on: 15-12-46-377
Integration time: 28
Scans to Average: 2 
>>>>>Begin Spectral Data<<<<<
432.689 .0000100
433.621 .0000100
434.552 .0000100
435.482 .0000100
436.410 .0000100
437.337 .0000100
438.262 .0246910
439.187 .0523440
440.110 .0867428
441.031 .1256011
441.952 .1634988
442.871 .1934999
443.789 .2101992
444.705 .2117471
445.621 .2002953
446.535 .1807597
447.447 .1584732
448.359 .1240333
449.269 .1069401
450.178 .0960913
451.086 .0883843
451.993 .0824383
452.898 .0777846
453.803 .0740350
454.706 .0709335
455.608 .0683230
456.508 .0660419
457.408 .0640337
458.306 .0622509
459.204 .0606422
460.100 .0591751
460.995 .0578372
461.888 .0566062
462.781 .0554617
463.673 .0543945
464.563 .0534092
465.452 .0524834
466.340 .0516028
467.228 .0507926
468.114 .0500448
468.999 .0493637
469.882 .0487518
470.765 .0481983
471.647 .0476989
472.528 .0472417
473.407 .0468248
474.286 .0464352
475.163 .0460764
476.040 .0457561
476.915 .0454640
477.790 .0452148
478.663 .0450075
479.535 .0448360
480.407 .0447080
481.277 .0446184
482.147 .0445486
483.015 .0444900
483.883 .0444362
484.749 .0443886
485.615 .0443456
486.479 .0443159
487.343 .0443000
488.206 .0442978
489.067 .0443113
489.928 .0443373
490.788 .0443714
491.647 .0444162
492.505 .0444647
493.362 .0445233
494.218 .0445874
495.073 .0446523
495.928 .0447296
496.781 .0448224
497.634 .0449462
498.486 .0451060
499.337 .0452913
500.187 .0455127
501.036 .0457737
501.884 .0460721
502.731 .0464112
503.578 .0467968
504.424 .0472311
505.268 .0476999
506.113 .0482137
506.956 .0487637
507.798 .0493523
508.640 .0499944
509.480 .0507036
510.320 .0514772
511.160 .0523459
511.998 .0532874
512.836 .0543195
513.672 .0554579
514.508 .0566998
515.344 .0580326
516.178 .0594885
517.012 .0610822
517.845 .0628487
518.677 .0648187
519.508 .0670362
520.339 .0695349
521.169 .0723873
521.998 .0756216
522.826 .0792946
523.654 .0834139
524.481 .0880292
525.307 .0931115
526.133 .0986987
526.958 .1047417
527.782 .1111554
528.605 .1178269
529.428 .1246900
530.250 .1312607
531.072 .1373313
531.892 .1424942
532.712 .1465325
533.532 .1492034
534.350 .1502931
535.168 .1496351
535.986 .1472994
536.802 .1434351
537.618 .1382445
538.434 .1319360
539.249 .1250447
540.063 .1177792
540.876 .1105104
541.689 .1034671
542.501 .0968793
543.313 .0909323
544.124 .0856727
544.934 .0810179
545.744 .0768892
546.553 .0732087
547.361 .0699340
548.169 .0670332
548.976 .0644445
549.783 .0621568
550.589 .0601200
551.395 .0582935
552.200 .0566517
553.004 .0551771
553.808 .0538348
554.611 .0526185
555.414 .0515321
556.216 .0505469
557.018 .0496576
557.819 .0488709
558.619 .0481582
559.419 .0474991
560.218 .0468783
561.017 .0462858
561.815 .0456886
562.613 .0450967
563.410 .0444916
564.207 .0438786
565.003 .0432771
565.799 .0426957
566.594 .0421355
567.388 .0416158
568.182 .0411259
568.976 .0406518
569.769 .0401960
570.562 .0397446
571.354 .0392837
572.145 .0388214
572.936 .0383576
573.727 .0378935
574.517 .0374383
575.307 .0370079
576.096 .0366020
576.885 .0362353
577.673 .0359057
578.461 .0356031
579.248 .0353287
580.035 .0350726
580.821 .0348246
581.607 .0345819
582.392 .0343451
583.177 .0341092
583.962 .0338775
584.746 .0336594
585.529 .0334563
586.313 .0332754
587.095 .0331182
587.878 .0329810
588.660 .0328611
589.441 .0327578
590.222 .0326622
591.003 .0325733
591.783 .0324901
592.563 .0324089
593.342 .0323306
594.121 .0322555
594.899 .0321854
595.678 .0321190
596.455 .0320588
597.233 .0320028
598.009 .0319479
598.786 .0318951
599.562 .0318422
600.338 .0317893
601.113 .0317371
601.888 .0316838
602.663 .0316309
603.437 .0315795
604.211 .0315288
604.984 .0314795
605.757 .0314332
606.530 .0313897
607.302 .0313484
608.074 .0313097
608.845 .0312748
609.616 .0312417
610.387 .0312120
611.158 .0311862
611.928 .0311628
612.697 .0311419
613.467 .0311226
614.236 .0311032
615.004 .0310854
615.773 .0310684
616.541 .0310517
617.308 .0310364
618.076 .0310237
618.843 .0310130
619.609 .0310039
620.375 .0309978
621.141 .0309933
621.907 .0309888
622.672 .0309847
623.437 .0309798
624.202 .0309727
624.966 .0309642
625.730 .0309541
626.493 .0309425
627.257 .0309296
628.020 .0309163
628.782 .0309012
629.545 .0308846
630.307 .0308659
631.068 .0308440
631.830 .0308181
632.591 .0307895
633.352 .0307576
634.112 .0307236
634.872 .0306884
635.632 .0306533
636.392 .0306182
637.151 .0305846
637.910 .0305526
638.668 .0305221
639.427 .0304926
640.185 .0304650
640.943 .0304380
641.700 .0304121
642.457 .0303870
643.214 .0303634
643.971 .0303406
644.727 .0303192
645.483 .0302988
646.239 .0302788
646.994 .0302596
647.750 .0302412
648.505 .0302228
649.259 .0302045
650.014 .0301861
650.768 .0301664
651.521 .0301455
652.275 .0301237
653.028 .0301007
653.781 .0300761
654.534 .0300507
655.286 .0300246
656.039 .0299986
656.791 .0299727
657.542 .0299467
658.294 .0299211
659.045 .0298961
659.796 .0298710
660.546 .0298454
661.297 .0298196
662.047 .0297934
662.796 .0297665
663.546 .0297393
664.295 .0297121
665.044 .0296854
665.793 .0296597
666.542 .0296345
667.290 .0296098
668.038 .0295860
668.786 .0295625
669.533 .0295394
670.281 .0295168
671.028 .0294946
671.774 .0294729
672.521 .0294518
673.267 .0294318
674.013 .0294127
674.759 .0293954
675.505 .0293794
676.250 .0293644
676.995 .0293504
677.740 .0293373
678.484 .0293251
679.229 .0293138
679.973 .0293034
680.717 .0292933
681.460 .0292834
682.204 .0292736
682.947 .0292635
683.690 .0292533
684.433 .0292426
685.175 .0292314
685.917 .0292197
686.659 .0292075
687.401 .0291949
688.142 .0291823
688.884 .0291692
689.625 .0291556
690.365 .0291414
691.106 .0291264
691.846 .0291113
692.586 .0290961
693.326 .0290817
694.066 .0290682
694.805 .0290561
695.545 .0290452
696.284 .0290346
697.022 .0290243
697.761 .0290128
698.499 .0290002
699.237 .0289860
699.975 .0289700
700.713 .0289532
701.450 .0289369
702.187 .0289219
702.924 .0289087
703.661 .0288975
704.397 .0288879
705.133 .0288799
705.869 .0288719
706.605 .0288633
707.341 .0288541
708.076 .0288442
708.811 .0288338
709.546 .0288228
710.281 .0288124
711.015 .0288025
711.749 .0287932
712.483 .0287840
713.217 .0287742
713.950 .0287634
714.684 .0287511
715.417 .0287366
716.150 .0287205
716.882 .0287027
717.615 .0286834
718.347 .0286631
719.079 .0286420
719.811 .0286198
720.542 .0285970
721.273 .0285730
722.005 .0285482
722.735 .0285227
723.466 .0284968
724.196 .0284706
724.927 .0284441
725.656 .0284179
726.386 .0283919
727.116 .0283662
727.845 .0283407
728.574 .0283151
729.303 .0282898
730.031 .0282647
730.760 .0282401
731.488 .0282161
732.216 .0281930
732.944 .0281709
733.671 .0281497
734.398 .0281293
735.125 .0281095
735.852 .0280899
736.579 .0280710
737.305 .0280530
738.031 .0280355
738.757 .0280184
739.483 .0280018
740.208 .0279859
740.933 .0279704
741.658 .0279552
742.383 .0279405
743.108 .0279258
743.832 .0279120
744.556 .0278987
745.280 .0278859
746.004 .0278742
746.727 .0278631
747.450 .0278524
748.173 .0278419
748.896 .0278309
749.618 .0278190
750.340 .0278066
751.062 .0277942
751.784 .0277817
752.506 .0277695
753.227 .0277580
753.948 .0277471
754.669 .0277363
755.389 .0277257
756.110 .0277142
756.830 .0277019
757.550 .0276887
758.269 .0276748
758.989 .0276606
759.708 .0276470
760.427 .0276347
761.146 .0276239
761.864 .0276149
762.582 .0276067
763.300 .0275983
764.018 .0275894
764.736 .0275793
765.453 .0275675
766.170 .0275547
766.887 .0275411
767.603 .0275275
768.320 .0275147
769.036 .0275030
769.751 .0274924
770.467 .0274835
771.182 .0274755
771.897 .0274684
772.612 .0274616
773.327 .0274555
774.041 .0274497
774.755 .0274450
775.469 .0274417
776.183 .0274399
776.896 .0274396
777.609 .0274409
778.322 .0274431
779.035 .0274462
779.747 .0274498
780.459 .0274535
781.171 .0274570
781.882 .0274606
782.594 .0274641
783.305 .0274678
784.016 .0274718
784.726 .0274764
785.436 .0274812
786.147 .0274864
786.856 .0274915
787.566 .0274962
788.275 .0275006
788.984 .0275041
789.693 .0275065
790.401 .0275080
791.110 .0275084
791.818 .0275080
792.525 .0275067
793.233 .0275048
793.940 .0275024
794.647 .0274992
795.353 .0274955
796.060 .0274909
796.766 .0274852
797.472 .0274786
798.177 .0274711
798.883 .0274630
799.588 .0274542
800.292 .0274451
800.997 .0274360
801.701 .0274265
802.405 .0274171
803.109 .0274076
803.812 .0273981
804.515 .0273881
805.218 .0273777
805.921 .0273660
806.623 .0273533
807.325 .0273395
808.027 .0273243
808.728 .0273075
809.429 .0272895
810.130 .0272702
810.831 .0272501
811.531 .0272291
812.231 .0272081
812.931 .0271867
813.630 .0271653
814.330 .0271433
815.029 .0271210
815.727 .0270981
816.426 .0270753
817.124 .0270526
817.821 .0270301
818.519 .0270079
819.216 .0269865
819.913 .0269659
820.609 .0269463
821.306 .0269283
822.002 .0269113
822.697 .0268952
823.393 .0268808
824.088 .0268673
824.783 .0268546
825.477 .0268429
826.171 .0268319
826.865 .0268211
827.559 .0268103
828.252 .0267994
828.945 .0267880
829.638 .0267764
830.330 .0267648
831.023 .0267529
831.714 .0267411
832.406 .0267298
833.097 .0267181
833.788 .0267061
834.479 .0266938
835.169 .0266805
835.859 .0266667
836.548 .0266529
837.238 .0266390
837.927 .0266252
838.615 .0266122
839.304 .0266000
839.992 .0265884
840.680 .0265778
841.367 .0265674
842.054 .0265572
842.741 .0265472
843.428 .0265369
844.114 .0265261
844.800 .0265150
845.485 .0265034
846.170 .0264910
846.855 .0264782
847.540 .0264642
848.224 .0264490
848.908 .0264337
849.592 .0264180
850.275 .0264017
850.958 .0263851
851.641 .0263685
852.323 .0263515
853.005 .0263345
853.687 .0263174
854.368 .0263001
855.049 .0262834
855.730 .0262672
856.410 .0262510
857.090 .0262355
857.769 .0262208
858.449 .0262066
859.128 .0261928
859.806 .0261794
860.485 .0261660
861.163 .0261529
861.840 .0261402
862.518 .0261279
863.195 .0261158
863.871 .0261044
864.548 .0260935
865.224 .0260831
865.899 .0260732
866.574 .0260637
867.249 .0260543
867.924 .0260455
868.598 .0260368
869.272 .0260283
869.946 .0260204
870.619 .0260133
871.292 .0260070
871.964 .0260012
872.636 .0259960
873.308 .0259910
873.979 .0259864
874.651 .0259819
875.321 .0259773
875.992 .0259730
876.662 .0259694
877.331 .0259660
878.001 .0259635
878.670 .0259618
879.338 .0259611
880.007 .0259613
880.675 .0259627
881.342 .0259649
882.009 .0259683
882.676 .0259727
883.343 .0259783
884.009 .0259847
884.675 .0259923
885.340 .0260005
886.005 .0260092
886.670 .0260183
887.334 .0260277
887.998 .0260369
888.662 .0260462
889.325 .0260551
889.988 .0260640
890.650 .0260731
891.312 .0260823
891.974 .0260911
892.636 .0261002
893.297 .0261094
893.957 .0261181
894.618 .0261265
895.278 .0261349
895.937 .0261428
896.596 .0261507
897.255 .0261585
897.914 .0261660
898.572 .0261732
899.230 .0261800
899.887 .0261858
900.544 .0261908
901.201 .0261947
901.857 .0261966
902.513 .0261973
903.168 .0261968
903.823 .0261947
904.478 .0261911
905.132 .0261866
905.786 .0261805
906.440 .0261728
907.093 .0261635
907.746 .0261530
908.399 .0261412
909.051 .0261289
909.703 .0261157
910.354 .0261024
911.005 .0260891
911.656 .0260757
912.306 .0260620
912.956 .0260483
913.605 .0260344
914.254 .0260197
914.903 .0260047
915.551 .0259895
916.199 .0259743
916.847 .0259595
917.494 .0259451
918.141 .0259314
918.788 .0259182
919.434 .0259052
920.079 .0258923
920.725 .0258792
921.370 .0258657
922.014 .0258517
922.658 .0258369
923.302 .0258213
923.946 .0258049
924.589 .0257878
925.231 .0257701
925.873 .0257518
926.515 .0257328
927.157 .0257126
927.798 .0256912
928.439 .0256688
929.079 .0256451
929.719 .0256198
930.359 .0255934
930.998 .0255659
931.637 .0255378
932.275 .0255095
932.913 .0254815
933.551 .0254543
934.188 .0254285
934.825 .0254043
935.462 .0253817
936.098 .0253609
936.733 .0253419
937.369 .0253240
938.004 .0253076
938.638 .0252918
939.273 .0252770
939.907 .0252631
940.540 .0252506
941.173 .0252394
941.806 .0252296
942.438 .0252214
943.070 .0252146
943.702 .0252088
944.333 .0252037
944.964 .0251984
945.594 .0251925
946.224 .0251851
946.854 .0251764
947.483 .0251656
948.112 .0251533
948.741 .0251395
949.369 .0251253
949.996 .0251106
950.624 .0250964
951.251 .0250824
951.878 .0250690
952.504 .0250559
953.130 .0250426
953.755 .0250283
954.380 .0250133
955.005 .0249970
955.629 .0249798
956.253 .0249618
956.877 .0249439
957.500 .0249259
958.123 .0249082
958.746 .0248908
959.368 .0248736
959.990 .0248558
960.611 .0248376
961.232 .0248181
961.853 .0247977
962.473 .0247762
963.093 .0247537
963.712 .0247305
964.331 .0247074
964.950 .0246845
965.569 .0246622
966.187 .0246410
966.804 .0246220
967.422 .0246045
968.039 .0245895
968.655 .0245766
969.272 .0245656
969.887 .0245563
970.503 .0245481
971.118 .0245404
971.733 .0245328
972.347 .0245248
972.961 .0245159
973.575 .0245062
974.188 .0244954
974.801 .0244834
975.414 .0244700
976.026 .0244555
976.638 .0244394
977.250 .0244214
977.861 .0244022
978.472 .0243816
979.083 .0243603
979.693 .0243386
980.303 .0243169
980.912 .0242963
981.521 .0242767
982.130 .0242589
982.738 .0242433
983.346 .0242295
983.954 .0242173
984.562 .0242067
985.169 .0241968
985.775 .0241876
986.382 .0241785
986.988 .0241698
987.594 .0241615
988.199 .0241541
988.804 .0241474
989.409 .0241413
990.013 .0241360
990.617 .0241313
991.221 .0241262
991.824 .0241214
992.427 .0241161
993.030 .0241106
993.632 .0241051
994.234 .0241003
994.836 .0240963
995.438 .0240938
996.039 .0240933
996.640 .0240947
997.240 .0240976
997.840 .0241020
998.440 .0241074
999.040 .0241131
999.639 .0241185
1000.238 .0241232
1000.836 .0241271
1001.435 .0241301
1002.033 .0241325
1002.630 .0241342
1003.228 .0241362
1003.825 .0241386
1004.422 .0241420
1005.018 .0241465
1005.614 .0241527
1006.210 .0241600
1006.806 .0241684
1007.401 .0241774
1007.996 .0241867
1008.591 .0241961
1009.186 .0242057
1009.780 .0242156
1010.374 .0242259
1010.967 .0242356
1011.561 .0242451
1012.154 .0242539
1012.746 .0242622
1013.339 .0242690
1013.931 .0242746
1014.523 .0242792
1015.115 .0242829
1015.706 .0242860
1016.298 .0242886
1016.888 .0242909
1017.479 .0242937
1018.069 .0242965
1018.660 .0242993
1019.250 .0243028
1019.839 .0243071
1020.429 .0243128
1021.018 .0243205
1021.607 .0243304
1022.195 .0243423
1022.784 .0243563
1023.372 .0243720
1023.960 .0243898
1024.547 .0244087
1025.135 .0244295
1025.722 .0244510
1026.309 .0244735
1026.896 .0244970
1027.483 .0245213
1028.069 .0245458
1028.655 .0245704
1029.241 .0245946
1029.827 .0246188
1030.412 .0246420
1030.997 .0246649
1031.582 .0246869
1032.167 .0247088
1032.752 .0247311
1033.336 .0247532
1033.921 .0247749
1034.505 .0247967
1035.089 .0248175
1035.672 .0248371
1036.256 .0248551
1036.839 .0248717
1037.422 .0248859
1038.005 .0248992
1038.588 .0249114
1039.171 .0249226
1039.753 .0249330
1040.335 .0249430
1040.918 .0249522
1041.500 .0249612
1042.081 .0249692
1042.663 .0249758
1043.244 .0249823
1043.826 .0249890
1044.407 .0249951
1044.988 .0250012
1045.569 .0250074
1046.150 .0250143
1046.730 .0250209
1047.311 .0250275
1047.891 .0250334
1048.471 .0250387
1049.052 .0250435
1049.632 .0250473
1050.211 .0250506
1050.791 .0250546
1051.371 .0250589
1051.950 .0250653
1052.530 .0250740
1053.109 .0250840
1053.688 .0250948
1054.268 .0251054
1054.847 .0251154
1055.426 .0251235
1056.005 .0251298
1056.583 .0251352
1057.162 .0251394
1057.741 .0251443
1058.319 .0251502
1058.898 .0251583
1059.476 .0251687
1060.055 .0251804
1060.633 .0251923
1061.211 .0252038
1061.790 .0252138
1062.368 .0252216
1062.946 .0252275
1063.524 .0252331
1064.102 .0252383
1064.680 .0252432
1065.258 .0252487
1065.836 .0252549
1066.414 .0252609
1066.992 .0252664
1067.570 .0252699
1068.148 .0252716
1068.726 .0252704
1069.304 .0252673
1069.882 .0252624
1070.460 .0252575
1071.038 .0252532
1071.616 .0252509
1072.194 .0252498
1072.772 .0252503
1073.350 .0252507
1073.928 .0252519
1074.506 .0252532
1075.084 .0252543
1075.662 .0252540
1076.240 .0252542
1076.819 .0252556
1077.397 .0252588
1077.976 .0252638
1078.554 .0252715
1079.133 .0252814
1079.711 .0252937
1080.290 .0253059
1080.869 .0253184
1081.448 .0253288
1082.027 .0253387
1082.606 .0253453
1083.185 .0253496
1083.764 .0253518
1084.343 .0253519
1084.923 .0253504
1085.502 .0253477
1086.082 .0253436
1086.662 .0253390
1087.242 .0253339
1087.822 .0253289
1088.402 .0253230
1088.983 .0253172
1089.563 .0253124
1090.144 .0253086
1090.725 .0253048
1091.306 .0253025
1091.887 .0253011
1092.469 .0253022
1093.050 .0253066
1093.632 .0253143
1094.214 .0253272
1094.796 .0253455
1095.379 .0253676
1095.961 .0253918
1096.544 .0254184
1097.127 .0254446
1097.710 .0254682
1098.294 .0254891
1098.877 .0255071
1099.461 .0255218
1100.046 .0255348
1100.630 .0255463
1101.215 .0255563
1101.800 .0255652
1102.385 .0255732
1102.970 .0255783
1103.556 .0255829
1104.142 .0255860
1104.728 .0255883
1105.315 .0255917
1105.902 .0255987
1106.489 .0256098
1107.077 .0256244
1107.664 .0256442
1108.253 .0256703
1108.841 .0256997
1109.430 .0257297
1110.019 .0257601
1110.609 .0257908
1111.198 .0258214
1111.789 .0258509
1112.379 .0258779
1112.970 .0259039
1113.561 .0259299
1114.153 .0259546
1114.745 .0259786
1115.338 .0260032
1115.931 .0260296
1116.524 .0260538
1117.117 .0260793
1117.712 .0261031
1118.306 .0261261
1118.901 .0261481
1119.496 .0261709
1120.092 .0261941
1120.689 .0262196
1121.285 .0262453
1121.882 .0262737
1122.480 .0263075
1123.078 .0263458
1123.677 .0263854
1124.276 .0264286
1124.875 .0264742
1125.476 .0265220
1126.076 .0265697
1126.677 .0266221
1127.279 .0266765
1127.881 .0267358
1128.484 .0267960
1129.087 .0268560
1129.691 .0269182
1130.295 .0269824
1130.900 .0270481
1131.505 .0271168
1132.111 .0271929
1132.718 .0272758
1133.325 .0273664
1133.933 .0274654
1134.541 .0275732
1135.150 .0276858
1135.760 .0278027
1136.370 .0279184
1136.981 .0280280
1137.592 .0281349
1138.204 .0282401
1138.817 .0283437
1139.431 .0284489
1140.045 .0285547
1140.660 .0286556
1141.275 .0287468
1141.891 .0288189
1142.508 .0290441
1143.126 .0290960
1143.744 .0289506
1144.363 .0289376
1144.983 .0287427
