Measurement Sequence started on: 15-12-46-377
Integration time: 28
Scans to Average: 2 
>>>>>Begin Spectral Data<<<<<
432.689 .0000100
433.621 .0000100
434.552 .0000100
435.482 .0000100
436.410 .0000100
437.337 .0000100
438.262 .0269918
439.187 .0571997
440.110 .0947367
441.031 .1370905
441.952 .1782832
442.871 .2107151
443.789 .2285178
444.705 .2296704
445.621 .2166172
446.535 .1947317
447.447 .1698824
448.359 .1318300
449.269 .1128390
450.178 .1007446
451.086 .0921241
451.993 .0854902
452.898 .0803093
453.803 .0761355
454.706 .0727359
455.608 .0699042
456.508 .0675113
457.408 .0654687
458.306 .0636889
459.204 .0620986
460.100 .0606699
460.995 .0593692
461.888 .0581747
462.781 .0570820
463.673 .0560768
464.563 .0551523
465.452 .0542973
466.340 .0534894
467.228 .0527277
468.114 .0519984
468.999 .0513050
469.882 .0506400
470.765 .0500084
471.647 .0494083
472.528 .0488431
473.407 .0483166
474.286 .0478411
475.163 .0474116
476.040 .0470403
476.915 .0467278
477.790 .0464690
478.663 .0462575
479.535 .0460879
480.407 .0459550
481.277 .0458526
482.147 .0457711
483.015 .0457160
483.883 .0456798
484.749 .0456641
485.615 .0456729
486.479 .0457024
487.343 .0457579
488.206 .0458335
489.067 .0459158
489.928 .0460040
490.788 .0460839
491.647 .0461588
492.505 .0462237
493.362 .0462886
494.218 .0463630
495.073 .0464497
495.928 .0465692
496.781 .0467213
497.634 .0469091
498.486 .0471348
499.337 .0473914
500.187 .0476767
501.036 .0479895
501.884 .0483208
502.731 .0486733
503.578 .0490558
504.424 .0494698
505.268 .0499149
506.113 .0503917
506.956 .0509125
507.798 .0514741
508.640 .0520838
509.480 .0527493
510.320 .0534642
511.160 .0542556
511.998 .0551276
512.836 .0560819
513.672 .0571353
514.508 .0583028
515.344 .0595999
516.178 .0610329
517.012 .0626620
517.845 .0645158
518.677 .0666186
519.508 .0690127
520.339 .0717349
521.169 .0748251
521.998 .0782845
522.826 .0821625
523.654 .0864750
524.481 .0912520
525.307 .0965530
526.133 .1023448
526.958 .1086543
527.782 .1154585
528.605 .1225700
529.428 .1298713
530.250 .1369105
531.072 .1433957
531.892 .1488764
532.712 .1530882
533.532 .1558438
534.350 .1568821
535.168 .1561409
535.986 .1537029
536.802 .1496980
537.618 .1444541
538.434 .1381338
539.249 .1311757
540.063 .1238511
540.876 .1164589
541.689 .1091789
542.501 .1022209
543.313 .0957848
544.124 .0899381
544.934 .0846317
545.744 .0798804
546.553 .0756138
547.361 .0718634
548.169 .0686133
548.976 .0657808
549.783 .0633352
550.589 .0612156
551.395 .0593180
552.200 .0576372
553.004 .0561091
553.808 .0546960
554.611 .0533903
555.414 .0522112
556.216 .0511416
557.018 .0501821
557.819 .0493215
558.619 .0485479
559.419 .0478468
560.218 .0472101
561.017 .0466021
561.815 .0460163
562.613 .0454481
563.410 .0448891
564.207 .0443425
565.003 .0438198
565.799 .0433148
566.594 .0428368
567.388 .0423824
568.182 .0419423
568.976 .0415079
569.769 .0410806
570.562 .0406579
571.354 .0402404
572.145 .0398281
572.936 .0394185
573.727 .0390141
574.517 .0386123
575.307 .0382133
576.096 .0378203
576.885 .0374385
577.673 .0370684
578.461 .0367170
579.248 .0363859
580.035 .0360737
580.821 .0357820
581.607 .0355080
582.392 .0352488
583.177 .0350036
583.962 .0347700
584.746 .0345519
585.529 .0343503
586.313 .0341685
587.095 .0340029
587.878 .0338571
588.660 .0337279
589.441 .0336120
590.222 .0335041
591.003 .0334046
591.783 .0333098
592.563 .0332192
593.342 .0331323
594.121 .0330486
594.899 .0329699
595.678 .0328955
596.455 .0328252
597.233 .0327589
598.009 .0326945
598.786 .0326318
599.562 .0325685
600.338 .0325060
601.113 .0324431
601.888 .0323802
602.663 .0323188
603.437 .0322605
604.211 .0322049
604.984 .0321510
605.757 .0320999
606.530 .0320507
607.302 .0320036
608.074 .0319583
608.845 .0319149
609.616 .0318735
610.387 .0318348
611.158 .0317994
611.928 .0317666
612.697 .0317377
613.467 .0317118
614.236 .0316883
615.004 .0316661
615.773 .0316443
616.541 .0316225
617.308 .0316012
618.076 .0315818
618.843 .0315631
619.609 .0315466
620.375 .0315319
621.141 .0315190
621.907 .0315075
622.672 .0314973
623.437 .0314871
624.202 .0314762
624.966 .0314649
625.730 .0314532
626.493 .0314406
627.257 .0314277
628.020 .0314143
628.782 .0314003
629.545 .0313846
630.307 .0313671
631.068 .0313474
631.830 .0313264
632.591 .0313029
633.352 .0312772
634.112 .0312496
634.872 .0312211
635.632 .0311912
636.392 .0311599
637.151 .0311286
637.910 .0310963
638.668 .0310624
639.427 .0310277
640.185 .0309925
640.943 .0309575
641.700 .0309229
642.457 .0308902
643.214 .0308593
643.971 .0308303
644.727 .0308038
645.483 .0307795
646.239 .0307568
646.994 .0307352
647.750 .0307135
648.505 .0306920
649.259 .0306716
650.014 .0306507
650.768 .0306298
651.521 .0306094
652.275 .0305899
653.028 .0305704
653.781 .0305508
654.534 .0305318
655.286 .0305121
656.039 .0304910
656.791 .0304686
657.542 .0304436
658.294 .0304174
659.045 .0303898
659.796 .0303615
660.546 .0303327
661.297 .0303041
662.047 .0302760
662.796 .0302487
663.546 .0302225
664.295 .0301972
665.044 .0301720
665.793 .0301477
666.542 .0301237
667.290 .0301007
668.038 .0300796
668.786 .0300602
669.533 .0300422
670.281 .0300259
671.028 .0300104
671.774 .0299955
672.521 .0299807
673.267 .0299664
674.013 .0299524
674.759 .0299386
675.505 .0299255
676.250 .0299129
676.995 .0299011
677.740 .0298897
678.484 .0298778
679.229 .0298654
679.973 .0298518
680.717 .0298366
681.460 .0298200
682.204 .0298027
682.947 .0297852
683.690 .0297681
684.433 .0297522
685.175 .0297377
685.917 .0297238
686.659 .0297108
687.401 .0296978
688.142 .0296845
688.884 .0296707
689.625 .0296562
690.365 .0296413
691.106 .0296265
691.846 .0296123
692.586 .0295985
693.326 .0295854
694.066 .0295732
694.805 .0295612
695.545 .0295489
696.284 .0295365
697.022 .0295232
697.761 .0295093
698.499 .0294948
699.237 .0294793
699.975 .0294629
700.713 .0294461
701.450 .0294290
702.187 .0294117
702.924 .0293944
703.661 .0293776
704.397 .0293608
705.133 .0293449
705.869 .0293293
706.605 .0293138
707.341 .0292987
708.076 .0292844
708.811 .0292702
709.546 .0292564
710.281 .0292425
711.015 .0292287
711.749 .0292145
712.483 .0291995
713.217 .0291833
713.950 .0291661
714.684 .0291480
715.417 .0291291
716.150 .0291095
716.882 .0290900
717.615 .0290701
718.347 .0290496
719.079 .0290279
719.811 .0290049
720.542 .0289802
721.273 .0289535
722.005 .0289248
722.735 .0288952
723.466 .0288650
724.196 .0288348
724.927 .0288054
725.656 .0287769
726.386 .0287495
727.116 .0287228
727.845 .0286966
728.574 .0286703
729.303 .0286441
730.031 .0286183
730.760 .0285932
731.488 .0285693
732.216 .0285468
732.944 .0285257
733.671 .0285065
734.398 .0284892
735.125 .0284728
735.852 .0284572
736.579 .0284423
737.305 .0284279
738.031 .0284143
738.757 .0284005
739.483 .0283864
740.208 .0283721
740.933 .0283572
741.658 .0283412
742.383 .0283239
743.108 .0283060
743.832 .0282879
744.556 .0282703
745.280 .0282528
746.004 .0282355
746.727 .0282187
747.450 .0282023
748.173 .0281858
748.896 .0281695
749.618 .0281533
750.340 .0281375
751.062 .0281226
751.784 .0281089
752.506 .0280969
753.227 .0280866
753.948 .0280780
754.669 .0280712
755.389 .0280651
756.110 .0280597
756.830 .0280540
757.550 .0280490
758.269 .0280442
758.989 .0280390
759.708 .0280340
760.427 .0280294
761.146 .0280254
761.864 .0280213
762.582 .0280172
763.300 .0280132
764.018 .0280089
764.736 .0280045
765.453 .0279997
766.170 .0279948
766.887 .0279900
767.603 .0279852
768.320 .0279806
769.036 .0279763
769.751 .0279723
770.467 .0279685
771.182 .0279651
771.897 .0279620
772.612 .0279588
773.327 .0279558
774.041 .0279533
774.755 .0279509
775.469 .0279482
776.183 .0279460
776.896 .0279439
777.609 .0279421
778.322 .0279406
779.035 .0279392
779.747 .0279382
780.459 .0279373
781.171 .0279367
781.882 .0279360
782.594 .0279359
783.305 .0279361
784.016 .0279364
784.726 .0279370
785.436 .0279370
786.147 .0279363
786.856 .0279347
787.566 .0279319
788.275 .0279279
788.984 .0279227
789.693 .0279168
790.401 .0279102
791.110 .0279030
791.818 .0278950
792.525 .0278862
793.233 .0278762
793.940 .0278645
794.647 .0278506
795.353 .0278348
796.060 .0278171
796.766 .0277980
797.472 .0277779
798.177 .0277576
798.883 .0277372
799.588 .0277173
800.292 .0276979
800.997 .0276789
801.701 .0276597
802.405 .0276405
803.109 .0276208
803.812 .0276008
804.515 .0275801
805.218 .0275589
805.921 .0275373
806.623 .0275153
807.325 .0274930
808.027 .0274706
808.728 .0274478
809.429 .0274245
810.130 .0274000
810.831 .0273747
811.531 .0273479
812.231 .0273196
812.931 .0272898
813.630 .0272590
814.330 .0272272
815.029 .0271948
815.727 .0271622
816.426 .0271302
817.124 .0270988
817.821 .0270683
818.519 .0270383
819.216 .0270095
819.913 .0269819
820.609 .0269553
821.306 .0269301
822.002 .0269070
822.697 .0268851
823.393 .0268650
824.088 .0268463
824.783 .0268286
825.477 .0268115
826.171 .0267947
826.865 .0267783
827.559 .0267622
828.252 .0267467
828.945 .0267318
829.638 .0267181
830.330 .0267059
831.023 .0266945
831.714 .0266838
832.406 .0266735
833.097 .0266629
833.788 .0266516
834.479 .0266400
835.169 .0266281
835.859 .0266168
836.548 .0266066
837.238 .0265979
837.927 .0265915
838.615 .0265869
839.304 .0265840
839.992 .0265819
840.680 .0265803
841.367 .0265782
842.054 .0265752
842.741 .0265719
843.428 .0265685
844.114 .0265653
844.800 .0265634
845.485 .0265626
846.170 .0265630
846.855 .0265644
847.540 .0265662
848.224 .0265676
848.908 .0265682
849.592 .0265674
850.275 .0265650
850.958 .0265611
851.641 .0265564
852.323 .0265511
853.005 .0265460
853.687 .0265418
854.368 .0265382
855.049 .0265355
855.730 .0265335
856.410 .0265317
857.090 .0265298
857.769 .0265277
858.449 .0265248
859.128 .0265211
859.806 .0265165
860.485 .0265118
861.163 .0265075
861.840 .0265042
862.518 .0265022
863.195 .0265019
863.871 .0265034
864.548 .0265068
865.224 .0265116
865.899 .0265175
866.574 .0265238
867.249 .0265303
867.924 .0265365
868.598 .0265425
869.272 .0265484
869.946 .0265551
870.619 .0265627
871.292 .0265721
871.964 .0265826
872.636 .0265938
873.308 .0266056
873.979 .0266169
874.651 .0266268
875.321 .0266343
875.992 .0266395
876.662 .0266423
877.331 .0266431
878.001 .0266424
878.670 .0266404
879.338 .0266384
880.007 .0266369
880.675 .0266354
881.342 .0266342
882.009 .0266332
882.676 .0266318
883.343 .0266300
884.009 .0266275
884.675 .0266242
885.340 .0266205
886.005 .0266168
886.670 .0266133
887.334 .0266106
887.998 .0266091
888.662 .0266084
889.325 .0266086
889.988 .0266095
890.650 .0266103
891.312 .0266107
891.974 .0266103
892.636 .0266088
893.297 .0266057
893.957 .0266014
894.618 .0265951
895.278 .0265879
895.937 .0265799
896.596 .0265713
897.255 .0265625
897.914 .0265537
898.572 .0265449
899.230 .0265357
899.887 .0265264
900.544 .0265162
901.201 .0265049
901.857 .0264926
902.513 .0264783
903.168 .0264626
903.823 .0264453
904.478 .0264264
905.132 .0264053
905.786 .0263827
906.440 .0263583
907.093 .0263322
907.746 .0263046
908.399 .0262753
909.051 .0262446
909.703 .0262126
910.354 .0261788
911.005 .0261433
911.656 .0261066
912.306 .0260694
912.956 .0260314
913.605 .0259938
914.254 .0259564
914.903 .0259200
915.551 .0258847
916.199 .0258512
916.847 .0258190
917.494 .0257879
918.141 .0257576
918.788 .0257277
919.434 .0256980
920.079 .0256682
920.725 .0256380
921.370 .0256075
922.014 .0255769
922.658 .0255459
923.302 .0255140
923.946 .0254817
924.589 .0254482
925.231 .0254137
925.873 .0253778
926.515 .0253407
927.157 .0253028
927.798 .0252646
928.439 .0252264
929.079 .0251884
929.719 .0251510
930.359 .0251137
930.998 .0250770
931.637 .0250406
932.275 .0250045
932.913 .0249690
933.551 .0249341
934.188 .0249010
934.825 .0248694
935.462 .0248403
936.098 .0248134
936.733 .0247894
937.369 .0247685
938.004 .0247501
938.638 .0247340
939.273 .0247199
939.907 .0247073
940.540 .0246962
941.173 .0246860
941.806 .0246772
942.438 .0246693
943.070 .0246627
943.702 .0246571
944.333 .0246521
944.964 .0246472
945.594 .0246425
946.224 .0246372
946.854 .0246318
947.483 .0246256
948.112 .0246185
948.741 .0246111
949.369 .0246027
949.996 .0245935
950.624 .0245835
951.251 .0245727
951.878 .0245617
952.504 .0245500
953.130 .0245384
953.755 .0245264
954.380 .0245151
955.005 .0245041
955.629 .0244935
956.253 .0244836
956.877 .0244743
957.500 .0244657
958.123 .0244583
958.746 .0244518
959.368 .0244459
959.990 .0244417
960.611 .0244385
961.232 .0244363
961.853 .0244352
962.473 .0244352
963.093 .0244366
963.712 .0244391
964.331 .0244427
964.950 .0244471
965.569 .0244528
966.187 .0244603
966.804 .0244685
967.422 .0244788
968.039 .0244903
968.655 .0245030
969.272 .0245161
969.887 .0245299
970.503 .0245438
971.118 .0245579
971.733 .0245721
972.347 .0245862
972.961 .0246000
973.575 .0246129
974.188 .0246244
974.801 .0246342
975.414 .0246420
976.026 .0246478
976.638 .0246512
977.250 .0246534
977.861 .0246544
978.472 .0246554
979.083 .0246566
979.693 .0246587
980.303 .0246615
980.912 .0246651
981.521 .0246696
982.130 .0246753
982.738 .0246818
983.346 .0246901
983.954 .0246997
984.562 .0247102
985.169 .0247216
985.775 .0247331
986.382 .0247442
986.988 .0247551
987.594 .0247649
988.199 .0247739
988.804 .0247822
989.409 .0247904
990.013 .0247984
990.617 .0248070
991.221 .0248159
991.824 .0248245
992.427 .0248327
993.030 .0248407
993.632 .0248478
994.234 .0248548
994.836 .0248630
995.438 .0248721
996.039 .0248830
996.640 .0248962
997.240 .0249112
997.840 .0249282
998.440 .0249466
999.040 .0249650
999.639 .0249823
1000.238 .0249988
1000.836 .0250134
1001.435 .0250260
1002.033 .0250378
1002.630 .0250483
1003.228 .0250580
1003.825 .0250680
1004.422 .0250783
1005.018 .0250887
1005.614 .0251008
1006.210 .0251136
1006.806 .0251268
1007.401 .0251404
1007.996 .0251534
1008.591 .0251653
1009.186 .0251762
1009.780 .0251853
1010.374 .0251926
1010.967 .0251977
1011.561 .0252020
1012.154 .0252044
1012.746 .0252065
1013.339 .0252085
1013.931 .0252100
1014.523 .0252117
1015.115 .0252134
1015.706 .0252147
1016.298 .0252157
1016.888 .0252166
1017.479 .0252178
1018.069 .0252186
1018.660 .0252206
1019.250 .0252234
1019.839 .0252274
1020.429 .0252333
1021.018 .0252404
1021.607 .0252490
1022.195 .0252585
1022.784 .0252683
1023.372 .0252774
1023.960 .0252860
1024.547 .0252932
1025.135 .0252991
1025.722 .0253036
1026.309 .0253075
1026.896 .0253107
1027.483 .0253138
1028.069 .0253172
1028.655 .0253201
1029.241 .0253227
1029.827 .0253252
1030.412 .0253265
1030.997 .0253275
1031.582 .0253268
1032.167 .0253257
1032.752 .0253248
1033.336 .0253243
1033.921 .0253238
1034.505 .0253236
1035.089 .0253233
1035.672 .0253220
1036.256 .0253189
1036.839 .0253136
1037.422 .0253062
1038.005 .0252971
1038.588 .0252867
1039.171 .0252761
1039.753 .0252662
1040.335 .0252572
1040.918 .0252488
1041.500 .0252412
1042.081 .0252331
1042.663 .0252236
1043.244 .0252125
1043.826 .0251992
1044.407 .0251838
1044.988 .0251667
1045.569 .0251479
1046.150 .0251285
1046.730 .0251081
1047.311 .0250870
1047.891 .0250653
1048.471 .0250428
1049.052 .0250191
1049.632 .0249943
1050.211 .0249687
1050.791 .0249430
1051.371 .0249174
1051.950 .0248928
1052.530 .0248685
1053.109 .0248456
1053.688 .0248236
1054.268 .0248028
1054.847 .0247835
1055.426 .0247653
1056.005 .0247480
1056.583 .0247335
1057.162 .0247201
1057.741 .0247084
1058.319 .0246974
1058.898 .0246874
1059.476 .0246764
1060.055 .0246632
1060.633 .0246464
1061.211 .0246272
1061.790 .0246059
1062.368 .0245839
1062.946 .0245613
1063.524 .0245407
1064.102 .0245217
1064.680 .0245043
1065.258 .0244879
1065.836 .0244709
1066.414 .0244519
1066.992 .0244299
1067.570 .0244043
1068.148 .0243762
1068.726 .0243453
1069.304 .0243144
1069.882 .0242861
1070.460 .0242610
1071.038 .0242389
1071.616 .0242187
1072.194 .0242004
1072.772 .0241822
1073.350 .0241626
1073.928 .0241417
1074.506 .0241198
1075.084 .0240986
1075.662 .0240788
1076.240 .0240608
1076.819 .0240466
1077.397 .0240368
1077.976 .0240303
1078.554 .0240256
1079.133 .0240231
1079.711 .0240219
1080.290 .0240216
1080.869 .0240221
1081.448 .0240241
1082.027 .0240272
1082.606 .0240302
1083.185 .0240340
1083.764 .0240372
1084.343 .0240405
1084.923 .0240435
1085.502 .0240457
1086.082 .0240478
1086.662 .0240497
1087.242 .0240505
1087.822 .0240493
1088.402 .0240470
1088.983 .0240428
1089.563 .0240343
1090.144 .0240239
1090.725 .0240135
1091.306 .0240022
1091.887 .0239910
1092.469 .0239842
1093.050 .0239800
1093.632 .0239796
1094.214 .0239827
1094.796 .0239871
1095.379 .0239935
1095.961 .0240015
1096.544 .0240105
1097.127 .0240202
1097.710 .0240350
1098.294 .0240547
1098.877 .0240784
1099.461 .0241095
1100.046 .0241449
1100.630 .0241808
1101.215 .0242175
1101.800 .0242531
1102.385 .0242841
1102.970 .0243119
1103.556 .0243370
1104.142 .0243597
1104.728 .0243842
1105.315 .0244097
1105.902 .0244377
1106.489 .0244691
1107.077 .0245044
1107.664 .0245402
1108.253 .0245766
1108.841 .0246141
1109.430 .0246502
1110.019 .0246861
1110.609 .0247236
1111.198 .0247598
1111.789 .0247980
1112.379 .0248385
1112.970 .0248794
1113.561 .0249209
1114.153 .0249631
1114.745 .0250028
1115.338 .0250412
1115.931 .0250777
1116.524 .0251114
1117.117 .0251442
1117.712 .0251793
1118.306 .0252148
1118.901 .0252527
1119.496 .0252940
1120.092 .0253373
1120.689 .0253824
1121.285 .0254316
1121.882 .0254804
1122.480 .0255327
1123.078 .0255910
1123.677 .0256526
1124.276 .0257180
1124.875 .0257877
1125.476 .0258595
1126.076 .0259313
1126.677 .0260058
1127.279 .0260803
1127.881 .0261549
1128.484 .0262361
1129.087 .0263188
1129.691 .0264036
1130.295 .0264932
1130.900 .0265877
1131.505 .0266854
1132.111 .0267898
1132.718 .0268980
1133.325 .0270062
1133.933 .0271202
1134.541 .0272347
1135.150 .0273510
1135.760 .0274673
1136.370 .0275867
1136.981 .0277055
1137.592 .0278210
1138.204 .0279342
1138.817 .0280480
1139.431 .0281595
1140.045 .0282609
1140.660 .0283515
1141.275 .0284503
1141.891 .0285593
1142.508 .0286571
1143.126 .0285387
1143.744 .0286248
1144.363 .0291901
1144.983 .0295880
