Measurement Sequence started on: 15-12-46-377
Integration time: 28
Scans to Average: 2 
>>>>>Begin Spectral Data<<<<<
432.689 .0000100
433.621 .0000100
434.552 .0000100
435.482 .0000100
436.410 .0000100
437.337 .0000100
438.262 .0263769
439.187 .0558181
440.110 .0924945
441.031 .1338071
441.952 .1739272
442.871 .2054422
443.789 .2226339
444.705 .2235506
445.621 .2106173
446.535 .1890842
447.447 .1647414
448.359 .1275745
449.269 .1091624
450.178 .0974714
451.086 .0892676
451.993 .0829880
452.898 .0780570
453.803 .0740244
454.706 .0706491
455.608 .0677426
456.508 .0652207
457.408 .0629837
458.306 .0610001
459.204 .0592060
460.100 .0575894
460.995 .0561455
461.888 .0548602
462.781 .0537141
463.673 .0526878
464.563 .0517711
465.452 .0509405
466.340 .0501669
467.228 .0494549
468.114 .0487805
468.999 .0481494
469.882 .0475598
470.765 .0470180
471.647 .0465287
472.528 .0460924
473.407 .0457089
474.286 .0453825
475.163 .0450981
476.040 .0448546
476.915 .0446357
477.790 .0444363
478.663 .0442521
479.535 .0440807
480.407 .0439241
481.277 .0437787
482.147 .0436528
483.015 .0435505
483.883 .0434646
484.749 .0433954
485.615 .0433410
486.479 .0432961
487.343 .0432658
488.206 .0432455
489.067 .0432284
489.928 .0432194
490.788 .0432159
491.647 .0432215
492.505 .0432399
493.362 .0432826
494.218 .0433460
495.073 .0434326
495.928 .0435599
496.781 .0437110
497.634 .0438952
498.486 .0441156
499.337 .0443703
500.187 .0446527
501.036 .0449578
501.884 .0452817
502.731 .0456199
503.578 .0459824
504.424 .0463567
505.268 .0467323
506.113 .0471272
506.956 .0475288
507.798 .0479438
508.640 .0483788
509.480 .0488499
510.320 .0493535
511.160 .0499156
511.998 .0505362
512.836 .0512240
513.672 .0519869
514.508 .0528319
515.344 .0537698
516.178 .0548384
517.012 .0560646
517.845 .0575015
518.677 .0592101
519.508 .0612463
520.339 .0636265
521.169 .0664332
521.998 .0696719
522.826 .0734016
523.654 .0776278
524.481 .0823500
525.307 .0875946
526.133 .0933499
526.958 .0996144
527.782 .1063082
528.605 .1133647
529.428 .1206527
530.250 .1276616
531.072 .1341662
531.892 .1397304
532.712 .1440956
533.532 .1470209
534.350 .1483009
535.168 .1478201
535.986 .1456081
536.802 .1418555
537.618 .1368021
538.434 .1307064
539.249 .1240526
540.063 .1170296
540.876 .1099911
541.689 .1031579
542.501 .0967610
543.313 .0909453
544.124 .0857935
544.934 .0812401
545.744 .0771621
546.553 .0734813
547.361 .0701932
548.169 .0672541
548.976 .0646258
549.783 .0622834
550.589 .0602039
551.395 .0583465
552.200 .0567126
553.004 .0552621
553.808 .0539610
554.611 .0528072
555.414 .0517545
556.216 .0507736
557.018 .0498532
557.819 .0489898
558.619 .0481755
559.419 .0474128
560.218 .0467095
561.017 .0460370
561.815 .0453948
562.613 .0447688
563.410 .0441473
564.207 .0435274
565.003 .0429134
565.799 .0423081
566.594 .0417070
567.388 .0411266
568.182 .0405639
568.976 .0400197
569.769 .0394999
570.562 .0390032
571.354 .0385224
572.145 .0380570
572.936 .0376080
573.727 .0371708
574.517 .0367478
575.307 .0363437
576.096 .0359562
576.885 .0355898
577.673 .0352519
578.461 .0349379
579.248 .0346429
580.035 .0343708
580.821 .0341203
581.607 .0338882
582.392 .0336746
583.177 .0334771
583.962 .0332930
584.746 .0331251
585.529 .0329688
586.313 .0328223
587.095 .0326868
587.878 .0325617
588.660 .0324444
589.441 .0323354
590.222 .0322334
591.003 .0321387
591.783 .0320508
592.563 .0319677
593.342 .0318894
594.121 .0318139
594.899 .0317411
595.678 .0316691
596.455 .0315988
597.233 .0315306
598.009 .0314639
598.786 .0314004
599.562 .0313401
600.338 .0312825
601.113 .0312282
601.888 .0311769
602.663 .0311280
603.437 .0310814
604.211 .0310342
604.984 .0309869
605.757 .0309398
606.530 .0308923
607.302 .0308443
608.074 .0307966
608.845 .0307511
609.616 .0307081
610.387 .0306679
611.158 .0306312
611.928 .0305981
612.697 .0305687
613.467 .0305422
614.236 .0305184
615.004 .0304964
615.773 .0304766
616.541 .0304585
617.308 .0304431
618.076 .0304298
618.843 .0304189
619.609 .0304105
620.375 .0304044
621.141 .0304005
621.907 .0303972
622.672 .0303942
623.437 .0303911
624.202 .0303862
624.966 .0303794
625.730 .0303701
626.493 .0303593
627.257 .0303462
628.020 .0303325
628.782 .0303187
629.545 .0303046
630.307 .0302901
631.068 .0302761
631.830 .0302624
632.591 .0302482
633.352 .0302334
634.112 .0302166
634.872 .0301991
635.632 .0301802
636.392 .0301592
637.151 .0301381
637.910 .0301168
638.668 .0300964
639.427 .0300754
640.185 .0300547
640.943 .0300341
641.700 .0300127
642.457 .0299916
643.214 .0299699
643.971 .0299474
644.727 .0299242
645.483 .0299002
646.239 .0298760
646.994 .0298516
647.750 .0298274
648.505 .0298035
649.259 .0297807
650.014 .0297582
650.768 .0297361
651.521 .0297139
652.275 .0296921
653.028 .0296701
653.781 .0296470
654.534 .0296229
655.286 .0295975
656.039 .0295714
656.791 .0295453
657.542 .0295184
658.294 .0294917
659.045 .0294651
659.796 .0294387
660.546 .0294125
661.297 .0293857
662.047 .0293584
662.796 .0293310
663.546 .0293032
664.295 .0292744
665.044 .0292451
665.793 .0292162
666.542 .0291877
667.290 .0291592
668.038 .0291313
668.786 .0291038
669.533 .0290766
670.281 .0290500
671.028 .0290237
671.774 .0289983
672.521 .0289749
673.267 .0289530
674.013 .0289336
674.759 .0289171
675.505 .0289030
676.250 .0288906
676.995 .0288799
677.740 .0288706
678.484 .0288616
679.229 .0288527
679.973 .0288447
680.717 .0288371
681.460 .0288308
682.204 .0288254
682.947 .0288213
683.690 .0288186
684.433 .0288167
685.175 .0288145
685.917 .0288120
686.659 .0288089
687.401 .0288048
688.142 .0287995
688.884 .0287942
689.625 .0287886
690.365 .0287831
691.106 .0287780
691.846 .0287735
692.586 .0287690
693.326 .0287646
694.066 .0287596
694.805 .0287539
695.545 .0287477
696.284 .0287408
697.022 .0287334
697.761 .0287259
698.499 .0287185
699.237 .0287107
699.975 .0287028
700.713 .0286951
701.450 .0286865
702.187 .0286779
702.924 .0286689
703.661 .0286597
704.397 .0286500
705.133 .0286402
705.869 .0286303
706.605 .0286200
707.341 .0286090
708.076 .0285968
708.811 .0285832
709.546 .0285681
710.281 .0285512
711.015 .0285324
711.749 .0285120
712.483 .0284904
713.217 .0284672
713.950 .0284436
714.684 .0284195
715.417 .0283953
716.150 .0283708
716.882 .0283462
717.615 .0283209
718.347 .0282950
719.079 .0282693
719.811 .0282430
720.542 .0282170
721.273 .0281913
722.005 .0281654
722.735 .0281396
723.466 .0281142
724.196 .0280891
724.927 .0280636
725.656 .0280378
726.386 .0280111
727.116 .0279833
727.845 .0279547
728.574 .0279256
729.303 .0278963
730.031 .0278678
730.760 .0278403
731.488 .0278139
732.216 .0277893
732.944 .0277663
733.671 .0277447
734.398 .0277246
735.125 .0277057
735.852 .0276877
736.579 .0276702
737.305 .0276544
738.031 .0276399
738.757 .0276268
739.483 .0276149
740.208 .0276039
740.933 .0275937
741.658 .0275836
742.383 .0275729
743.108 .0275614
743.832 .0275487
744.556 .0275353
745.280 .0275209
746.004 .0275062
746.727 .0274917
747.450 .0274778
748.173 .0274650
748.896 .0274538
749.618 .0274437
750.340 .0274347
751.062 .0274268
751.784 .0274198
752.506 .0274127
753.227 .0274054
753.948 .0273988
754.669 .0273926
755.389 .0273875
756.110 .0273836
756.830 .0273807
757.550 .0273795
758.269 .0273791
758.989 .0273790
759.708 .0273782
760.427 .0273768
761.146 .0273736
761.864 .0273687
762.582 .0273628
763.300 .0273562
764.018 .0273498
764.736 .0273442
765.453 .0273403
766.170 .0273377
766.887 .0273367
767.603 .0273367
768.320 .0273374
769.036 .0273386
769.751 .0273397
770.467 .0273406
771.182 .0273417
771.897 .0273430
772.612 .0273446
773.327 .0273468
774.041 .0273501
774.755 .0273538
775.469 .0273579
776.183 .0273625
776.896 .0273674
777.609 .0273719
778.322 .0273761
779.035 .0273794
779.747 .0273822
780.459 .0273842
781.171 .0273855
781.882 .0273858
782.594 .0273859
783.305 .0273861
784.016 .0273859
784.726 .0273859
785.436 .0273861
786.147 .0273859
786.856 .0273855
787.566 .0273844
788.275 .0273822
788.984 .0273788
789.693 .0273744
790.401 .0273682
791.110 .0273604
791.818 .0273510
792.525 .0273400
793.233 .0273281
793.940 .0273155
794.647 .0273019
795.353 .0272878
796.060 .0272738
796.766 .0272591
797.472 .0272438
798.177 .0272275
798.883 .0272096
799.588 .0271904
800.292 .0271695
800.997 .0271469
801.701 .0271231
802.405 .0270991
803.109 .0270751
803.812 .0270513
804.515 .0270278
805.218 .0270034
805.921 .0269787
806.623 .0269527
807.325 .0269249
808.027 .0268957
808.728 .0268651
809.429 .0268329
810.130 .0268002
810.831 .0267673
811.531 .0267342
812.231 .0267016
812.931 .0266694
813.630 .0266370
814.330 .0266046
815.029 .0265721
815.727 .0265395
816.426 .0265071
817.124 .0264755
817.821 .0264438
818.519 .0264130
819.216 .0263833
819.913 .0263548
820.609 .0263275
821.306 .0263017
822.002 .0262775
822.697 .0262551
823.393 .0262345
824.088 .0262158
824.783 .0261989
825.477 .0261837
826.171 .0261695
826.865 .0261562
827.559 .0261432
828.252 .0261304
828.945 .0261175
829.638 .0261048
830.330 .0260920
831.023 .0260795
831.714 .0260673
832.406 .0260554
833.097 .0260439
833.788 .0260320
834.479 .0260200
835.169 .0260080
835.859 .0259960
836.548 .0259843
837.238 .0259737
837.927 .0259649
838.615 .0259579
839.304 .0259530
839.992 .0259501
840.680 .0259489
841.367 .0259491
842.054 .0259501
842.741 .0259513
843.428 .0259526
844.114 .0259539
844.800 .0259553
845.485 .0259569
846.170 .0259592
846.855 .0259619
847.540 .0259648
848.224 .0259680
848.908 .0259707
849.592 .0259721
850.275 .0259724
850.958 .0259717
851.641 .0259698
852.323 .0259671
853.005 .0259646
853.687 .0259623
854.368 .0259611
855.049 .0259612
855.730 .0259620
856.410 .0259635
857.090 .0259657
857.769 .0259676
858.449 .0259693
859.128 .0259709
859.806 .0259722
860.485 .0259737
861.163 .0259763
861.840 .0259795
862.518 .0259831
863.195 .0259877
863.871 .0259927
864.548 .0259974
865.224 .0260021
865.899 .0260062
866.574 .0260095
867.249 .0260131
867.924 .0260167
868.598 .0260206
869.272 .0260253
869.946 .0260312
870.619 .0260373
871.292 .0260439
871.964 .0260506
872.636 .0260568
873.308 .0260627
873.979 .0260689
874.651 .0260747
875.321 .0260808
875.992 .0260875
876.662 .0260950
877.331 .0261031
878.001 .0261121
878.670 .0261211
879.338 .0261299
880.007 .0261385
880.675 .0261467
881.342 .0261539
882.009 .0261609
882.676 .0261677
883.343 .0261741
884.009 .0261801
884.675 .0261856
885.340 .0261904
886.005 .0261944
886.670 .0261975
887.334 .0261996
887.998 .0262006
888.662 .0262003
889.325 .0261988
889.988 .0261965
890.650 .0261932
891.312 .0261890
891.974 .0261836
892.636 .0261770
893.297 .0261694
893.957 .0261604
894.618 .0261499
895.278 .0261383
895.937 .0261258
896.596 .0261125
897.255 .0260981
897.914 .0260831
898.572 .0260674
899.230 .0260512
899.887 .0260346
900.544 .0260172
901.201 .0259990
901.857 .0259802
902.513 .0259603
903.168 .0259394
903.823 .0259174
904.478 .0258943
905.132 .0258702
905.786 .0258451
906.440 .0258187
907.093 .0257916
907.746 .0257632
908.399 .0257339
909.051 .0257032
909.703 .0256713
910.354 .0256377
911.005 .0256026
911.656 .0255665
912.306 .0255295
912.956 .0254920
913.605 .0254545
914.254 .0254171
914.903 .0253807
915.551 .0253450
916.199 .0253099
916.847 .0252756
917.494 .0252425
918.141 .0252097
918.788 .0251776
919.434 .0251463
920.079 .0251156
920.725 .0250850
921.370 .0250555
922.014 .0250263
922.658 .0249972
923.302 .0249684
923.946 .0249389
924.589 .0249087
925.231 .0248779
925.873 .0248458
926.515 .0248127
927.157 .0247790
927.798 .0247443
928.439 .0247086
929.079 .0246727
929.719 .0246360
930.359 .0245992
930.998 .0245627
931.637 .0245269
932.275 .0244919
932.913 .0244581
933.551 .0244257
934.188 .0243947
934.825 .0243653
935.462 .0243368
936.098 .0243095
936.733 .0242833
937.369 .0242578
938.004 .0242332
938.638 .0242095
939.273 .0241870
939.907 .0241658
940.540 .0241463
941.173 .0241286
941.806 .0241132
942.438 .0240999
943.070 .0240882
943.702 .0240783
944.333 .0240690
944.964 .0240598
945.594 .0240508
946.224 .0240415
946.854 .0240321
947.483 .0240231
948.112 .0240152
948.741 .0240085
949.369 .0240034
949.996 .0239996
950.624 .0239965
951.251 .0239936
951.878 .0239902
952.504 .0239854
953.130 .0239792
953.755 .0239719
954.380 .0239640
955.005 .0239560
955.629 .0239489
956.253 .0239432
956.877 .0239398
957.500 .0239390
958.123 .0239404
958.746 .0239435
959.368 .0239480
959.990 .0239535
960.611 .0239595
961.232 .0239661
961.853 .0239737
962.473 .0239820
963.093 .0239910
963.712 .0240007
964.331 .0240108
964.950 .0240212
965.569 .0240321
966.187 .0240434
966.804 .0240552
967.422 .0240675
968.039 .0240802
968.655 .0240932
969.272 .0241061
969.887 .0241189
970.503 .0241308
971.118 .0241420
971.733 .0241523
972.347 .0241621
972.961 .0241723
973.575 .0241829
974.188 .0241942
974.801 .0242060
975.414 .0242180
976.026 .0242295
976.638 .0242395
977.250 .0242474
977.861 .0242537
978.472 .0242583
979.083 .0242614
979.693 .0242635
980.303 .0242653
980.912 .0242669
981.521 .0242690
982.130 .0242717
982.738 .0242747
983.346 .0242782
983.954 .0242828
984.562 .0242880
985.169 .0242941
985.775 .0243007
986.382 .0243088
986.988 .0243184
987.594 .0243293
988.199 .0243407
988.804 .0243530
989.409 .0243659
990.013 .0243796
990.617 .0243932
991.221 .0244070
991.824 .0244211
992.427 .0244357
993.030 .0244505
993.632 .0244661
994.234 .0244821
994.836 .0244991
995.438 .0245168
996.039 .0245358
996.640 .0245548
997.240 .0245741
997.840 .0245936
998.440 .0246132
999.040 .0246321
999.639 .0246507
1000.238 .0246684
1000.836 .0246856
1001.435 .0247020
1002.033 .0247182
1002.630 .0247331
1003.228 .0247477
1003.825 .0247612
1004.422 .0247732
1005.018 .0247835
1005.614 .0247925
1006.210 .0247996
1006.806 .0248059
1007.401 .0248117
1007.996 .0248174
1008.591 .0248232
1009.186 .0248308
1009.780 .0248387
1010.374 .0248479
1010.967 .0248576
1011.561 .0248678
1012.154 .0248768
1012.746 .0248851
1013.339 .0248911
1013.931 .0248957
1014.523 .0248980
1015.115 .0248989
1015.706 .0248987
1016.298 .0248986
1016.888 .0248986
1017.479 .0248990
1018.069 .0248999
1018.660 .0249015
1019.250 .0249025
1019.839 .0249037
1020.429 .0249038
1021.018 .0249042
1021.607 .0249046
1022.195 .0249062
1022.784 .0249094
1023.372 .0249148
1023.960 .0249225
1024.547 .0249324
1025.135 .0249434
1025.722 .0249546
1026.309 .0249654
1026.896 .0249755
1027.483 .0249840
1028.069 .0249916
1028.655 .0249987
1029.241 .0250056
1029.827 .0250126
1030.412 .0250199
1030.997 .0250268
1031.582 .0250331
1032.167 .0250377
1032.752 .0250405
1033.336 .0250413
1033.921 .0250398
1034.505 .0250368
1035.089 .0250320
1035.672 .0250267
1036.256 .0250202
1036.839 .0250121
1037.422 .0250033
1038.005 .0249935
1038.588 .0249812
1039.171 .0249660
1039.753 .0249490
1040.335 .0249304
1040.918 .0249093
1041.500 .0248864
1042.081 .0248622
1042.663 .0248364
1043.244 .0248108
1043.826 .0247843
1044.407 .0247579
1044.988 .0247327
1045.569 .0247082
1046.150 .0246839
1046.730 .0246605
1047.311 .0246380
1047.891 .0246152
1048.471 .0245927
1049.052 .0245712
1049.632 .0245487
1050.211 .0245271
1050.791 .0245063
1051.371 .0244868
1051.950 .0244688
1052.530 .0244516
1053.109 .0244337
1053.688 .0244155
1054.268 .0243972
1054.847 .0243779
1055.426 .0243579
1056.005 .0243376
1056.583 .0243166
1057.162 .0242946
1057.741 .0242713
1058.319 .0242468
1058.898 .0242208
1059.476 .0241933
1060.055 .0241641
1060.633 .0241347
1061.211 .0241057
1061.790 .0240790
1062.368 .0240552
1062.946 .0240338
1063.524 .0240146
1064.102 .0239967
1064.680 .0239792
1065.258 .0239613
1065.836 .0239433
1066.414 .0239241
1066.992 .0239056
1067.570 .0238886
1068.148 .0238727
1068.726 .0238592
1069.304 .0238484
1069.882 .0238395
1070.460 .0238307
1071.038 .0238207
1071.616 .0238082
1072.194 .0237927
1072.772 .0237759
1073.350 .0237567
1073.928 .0237371
1074.506 .0237190
1075.084 .0237033
1075.662 .0236903
1076.240 .0236819
1076.819 .0236766
1077.397 .0236743
1077.976 .0236727
1078.554 .0236708
1079.133 .0236672
1079.711 .0236618
1080.290 .0236550
1080.869 .0236474
1081.448 .0236392
1082.027 .0236332
1082.606 .0236281
1083.185 .0236266
1083.764 .0236279
1084.343 .0236316
1084.923 .0236347
1085.502 .0236377
1086.082 .0236394
1086.662 .0236384
1087.242 .0236356
1087.822 .0236323
1088.402 .0236291
1088.983 .0236282
1089.563 .0236273
1090.144 .0236269
1090.725 .0236290
1091.306 .0236318
1091.887 .0236336
1092.469 .0236359
1093.050 .0236400
1093.632 .0236435
1094.214 .0236470
1094.796 .0236506
1095.379 .0236534
1095.961 .0236552
1096.544 .0236561
1097.127 .0236537
1097.710 .0236532
1098.294 .0236528
1098.877 .0236551
1099.461 .0236624
1100.046 .0236767
1100.630 .0236958
1101.215 .0237205
1101.800 .0237492
1102.385 .0237800
1102.970 .0238091
1103.556 .0238368
1104.142 .0238600
1104.728 .0238841
1105.315 .0239074
1105.902 .0239324
1106.489 .0239627
1107.077 .0239998
1107.664 .0240407
1108.253 .0240870
1108.841 .0241350
1109.430 .0241845
1110.019 .0242325
1110.609 .0242781
1111.198 .0243200
1111.789 .0243591
1112.379 .0243963
1112.970 .0244329
1113.561 .0244726
1114.153 .0245173
1114.745 .0245633
1115.338 .0246138
1115.931 .0246680
1116.524 .0247206
1117.117 .0247740
1117.712 .0248272
1118.306 .0248787
1118.901 .0249303
1119.496 .0249797
1120.092 .0250276
1120.689 .0250762
1121.285 .0251291
1121.882 .0251838
1122.480 .0252416
1123.078 .0253050
1123.677 .0253705
1124.276 .0254394
1124.875 .0255141
1125.476 .0255916
1126.076 .0256745
1126.677 .0257631
1127.279 .0258532
1127.881 .0259430
1128.484 .0260347
1129.087 .0261239
1129.691 .0262131
1130.295 .0263017
1130.900 .0263904
1131.505 .0264781
1132.111 .0265683
1132.718 .0266611
1133.325 .0267561
1133.933 .0268508
1134.541 .0269455
1135.150 .0270362
1135.760 .0271245
1136.370 .0272063
1136.981 .0272867
1137.592 .0273654
1138.204 .0274531
1138.817 .0275479
1139.431 .0276515
1140.045 .0277633
1140.660 .0278809
1141.275 .0280048
1141.891 .0281432
1142.508 .0283212
1143.126 .0284064
1143.744 .0283905
1144.363 .0286352
1144.983 .0291169
