Measurement Sequence started on: 15-12-46-377
Integration time: 28
Scans to Average: 2 
>>>>>Begin Spectral Data<<<<<
432.689 .0000100
433.621 .0000100
434.552 .0000100
435.482 .0000100
436.410 .0000100
437.337 .0000100
438.262 .0261665
439.187 .0552424
440.110 .0914183
441.031 .1322003
441.952 .1717834
442.871 .2029199
443.789 .2199908
444.705 .2210522
445.621 .2085374
446.535 .1876326
447.447 .1639873
448.359 .1276366
449.269 .1098967
450.178 .0986968
451.086 .0908077
451.993 .0847672
452.898 .0799843
453.803 .0760609
454.706 .0728278
455.608 .0700485
456.508 .0676409
457.408 .0655474
458.306 .0636810
459.204 .0619926
460.100 .0604551
460.995 .0590393
461.888 .0577288
462.781 .0565116
463.673 .0553745
464.563 .0543244
465.452 .0533754
466.340 .0525076
467.228 .0517241
468.114 .0510076
468.999 .0503629
469.882 .0497550
470.765 .0491987
471.647 .0486882
472.528 .0482102
473.407 .0477795
474.286 .0474010
475.163 .0470702
476.040 .0467930
476.915 .0465564
477.790 .0463688
478.663 .0462170
479.535 .0461020
480.407 .0460094
481.277 .0459378
482.147 .0458840
483.015 .0458372
483.883 .0457916
484.749 .0457540
485.615 .0457213
486.479 .0457007
487.343 .0456977
488.206 .0457107
489.067 .0457394
489.928 .0457801
490.788 .0458318
491.647 .0458982
492.505 .0459706
493.362 .0460427
494.218 .0461162
495.073 .0461992
495.928 .0462946
496.781 .0464010
497.634 .0465363
498.486 .0466998
499.337 .0469047
500.187 .0471423
501.036 .0474066
501.884 .0477118
502.731 .0480535
503.578 .0484262
504.424 .0488338
505.268 .0492717
506.113 .0497412
506.956 .0502425
507.798 .0507913
508.640 .0513888
509.480 .0520382
510.320 .0527655
511.160 .0535794
511.998 .0544923
512.836 .0555158
513.672 .0566258
514.508 .0578416
515.344 .0591663
516.178 .0605949
517.012 .0621540
517.845 .0638686
518.677 .0658023
519.508 .0679533
520.339 .0704093
521.169 .0732326
521.998 .0764753
522.826 .0801800
523.654 .0843923
524.481 .0890795
525.307 .0943077
526.133 .1000461
526.958 .1061844
527.782 .1127080
528.605 .1195031
529.428 .1264426
530.250 .1330764
531.072 .1392221
531.892 .1445326
532.712 .1486932
533.532 .1515437
534.350 .1527418
535.168 .1522226
535.986 .1500216
536.802 .1462261
537.618 .1410932
538.434 .1348977
539.249 .1281506
540.063 .1210298
540.876 .1139462
541.689 .1071100
542.501 .1006832
543.313 .0948356
544.124 .0895511
544.934 .0847882
545.744 .0804407
546.553 .0764744
547.361 .0728771
548.169 .0696568
548.976 .0667876
549.783 .0642354
550.589 .0619930
551.395 .0599999
552.200 .0582255
553.004 .0566167
553.808 .0551505
554.611 .0537933
555.414 .0525543
556.216 .0514030
557.018 .0503623
557.819 .0494407
558.619 .0486108
559.419 .0478855
560.218 .0472591
561.017 .0466950
561.815 .0461649
562.613 .0456433
563.410 .0451175
564.207 .0445662
565.003 .0440051
565.799 .0434267
566.594 .0428418
567.388 .0422721
568.182 .0417253
568.976 .0411964
569.769 .0407055
570.562 .0402375
571.354 .0397857
572.145 .0393484
572.936 .0389165
573.727 .0384836
574.517 .0380566
575.307 .0376469
576.096 .0372567
576.885 .0368871
577.673 .0365521
578.461 .0362397
579.248 .0359586
580.035 .0357006
580.821 .0354565
581.607 .0352259
582.392 .0350039
583.177 .0347887
583.962 .0345793
584.746 .0343797
585.529 .0341898
586.313 .0340119
587.095 .0338506
587.878 .0337035
588.660 .0335719
589.441 .0334537
590.222 .0333467
591.003 .0332489
591.783 .0331583
592.563 .0330716
593.342 .0329892
594.121 .0329121
594.899 .0328396
595.678 .0327723
596.455 .0327105
597.233 .0326544
598.009 .0326022
598.786 .0325540
599.562 .0325079
600.338 .0324620
601.113 .0324163
601.888 .0323692
602.663 .0323214
603.437 .0322733
604.211 .0322249
604.984 .0321775
605.757 .0321324
606.530 .0320894
607.302 .0320473
608.074 .0320064
608.845 .0319661
609.616 .0319260
610.387 .0318859
611.158 .0318461
611.928 .0318073
612.697 .0317701
613.467 .0317351
614.236 .0317021
615.004 .0316717
615.773 .0316438
616.541 .0316185
617.308 .0315951
618.076 .0315734
618.843 .0315528
619.609 .0315330
620.375 .0315143
621.141 .0314962
621.907 .0314787
622.672 .0314612
623.437 .0314436
624.202 .0314248
624.966 .0314049
625.730 .0313837
626.493 .0313609
627.257 .0313373
628.020 .0313130
628.782 .0312881
629.545 .0312625
630.307 .0312365
631.068 .0312104
631.830 .0311839
632.591 .0311573
633.352 .0311304
634.112 .0311037
634.872 .0310775
635.632 .0310520
636.392 .0310268
637.151 .0310030
637.910 .0309793
638.668 .0309560
639.427 .0309321
640.185 .0309063
640.943 .0308793
641.700 .0308506
642.457 .0308212
643.214 .0307910
643.971 .0307605
644.727 .0307305
645.483 .0307014
646.239 .0306738
646.994 .0306472
647.750 .0306220
648.505 .0305986
649.259 .0305768
650.014 .0305565
650.768 .0305377
651.521 .0305200
652.275 .0305037
653.028 .0304884
653.781 .0304733
654.534 .0304588
655.286 .0304438
656.039 .0304291
656.791 .0304142
657.542 .0303984
658.294 .0303822
659.045 .0303655
659.796 .0303474
660.546 .0303278
661.297 .0303065
662.047 .0302835
662.796 .0302590
663.546 .0302335
664.295 .0302077
665.044 .0301820
665.793 .0301571
666.542 .0301330
667.290 .0301091
668.038 .0300859
668.786 .0300622
669.533 .0300378
670.281 .0300133
671.028 .0299885
671.774 .0299637
672.521 .0299394
673.267 .0299165
674.013 .0298952
674.759 .0298760
675.505 .0298588
676.250 .0298437
676.995 .0298304
677.740 .0298182
678.484 .0298065
679.229 .0297950
679.973 .0297836
680.717 .0297722
681.460 .0297605
682.204 .0297490
682.947 .0297373
683.690 .0297263
684.433 .0297159
685.175 .0297064
685.917 .0296971
686.659 .0296876
687.401 .0296773
688.142 .0296655
688.884 .0296512
689.625 .0296349
690.365 .0296168
691.106 .0295974
691.846 .0295772
692.586 .0295570
693.326 .0295371
694.066 .0295182
694.805 .0294998
695.545 .0294811
696.284 .0294614
697.022 .0294401
697.761 .0294173
698.499 .0293936
699.237 .0293695
699.975 .0293459
700.713 .0293238
701.450 .0293038
702.187 .0292857
702.924 .0292691
703.661 .0292537
704.397 .0292392
705.133 .0292250
705.869 .0292106
706.605 .0291962
707.341 .0291818
708.076 .0291680
708.811 .0291542
709.546 .0291407
710.281 .0291273
711.015 .0291137
711.749 .0290996
712.483 .0290849
713.217 .0290692
713.950 .0290526
714.684 .0290350
715.417 .0290171
716.150 .0289989
716.882 .0289805
717.615 .0289623
718.347 .0289443
719.079 .0289264
719.811 .0289084
720.542 .0288903
721.273 .0288725
722.005 .0288546
722.735 .0288366
723.466 .0288184
724.196 .0288002
724.927 .0287815
725.656 .0287624
726.386 .0287425
727.116 .0287219
727.845 .0287008
728.574 .0286789
729.303 .0286563
730.031 .0286337
730.760 .0286112
731.488 .0285891
732.216 .0285675
732.944 .0285470
733.671 .0285273
734.398 .0285091
735.125 .0284920
735.852 .0284763
736.579 .0284618
737.305 .0284485
738.031 .0284364
738.757 .0284254
739.483 .0284154
740.208 .0284057
740.933 .0283966
741.658 .0283882
742.383 .0283789
743.108 .0283694
743.832 .0283592
744.556 .0283486
745.280 .0283376
746.004 .0283263
746.727 .0283145
747.450 .0283031
748.173 .0282919
748.896 .0282806
749.618 .0282693
750.340 .0282587
751.062 .0282481
751.784 .0282377
752.506 .0282274
753.227 .0282174
753.948 .0282075
754.669 .0281982
755.389 .0281887
756.110 .0281791
756.830 .0281688
757.550 .0281578
758.269 .0281459
758.989 .0281331
759.708 .0281188
760.427 .0281035
761.146 .0280870
761.864 .0280695
762.582 .0280508
763.300 .0280319
764.018 .0280129
764.736 .0279940
765.453 .0279748
766.170 .0279558
766.887 .0279371
767.603 .0279189
768.320 .0279012
769.036 .0278845
769.751 .0278693
770.467 .0278558
771.182 .0278441
771.897 .0278345
772.612 .0278266
773.327 .0278206
774.041 .0278159
774.755 .0278118
775.469 .0278079
776.183 .0278041
776.896 .0278003
777.609 .0277965
778.322 .0277931
779.035 .0277899
779.747 .0277873
780.459 .0277856
781.171 .0277847
781.882 .0277836
782.594 .0277827
783.305 .0277816
784.016 .0277795
784.726 .0277764
785.436 .0277723
786.147 .0277673
786.856 .0277620
787.566 .0277565
788.275 .0277514
788.984 .0277469
789.693 .0277431
790.401 .0277393
791.110 .0277357
791.818 .0277316
792.525 .0277266
793.233 .0277200
793.940 .0277122
794.647 .0277029
795.353 .0276922
796.060 .0276807
796.766 .0276686
797.472 .0276564
798.177 .0276443
798.883 .0276322
799.588 .0276200
800.292 .0276079
800.997 .0275953
801.701 .0275822
802.405 .0275691
803.109 .0275559
803.812 .0275433
804.515 .0275313
805.218 .0275201
805.921 .0275093
806.623 .0274988
807.325 .0274880
808.027 .0274770
808.728 .0274656
809.429 .0274527
810.130 .0274387
810.831 .0274238
811.531 .0274082
812.231 .0273917
812.931 .0273745
813.630 .0273565
814.330 .0273380
815.029 .0273190
815.727 .0272992
816.426 .0272794
817.124 .0272601
817.821 .0272409
818.519 .0272221
819.216 .0272043
819.913 .0271871
820.609 .0271708
821.306 .0271557
822.002 .0271417
822.697 .0271288
823.393 .0271170
824.088 .0271063
824.783 .0270966
825.477 .0270880
826.171 .0270798
826.865 .0270718
827.559 .0270642
828.252 .0270564
828.945 .0270481
829.638 .0270403
830.330 .0270328
831.023 .0270261
831.714 .0270198
832.406 .0270142
833.097 .0270085
833.788 .0270025
834.479 .0269958
835.169 .0269886
835.859 .0269805
836.548 .0269719
837.238 .0269630
837.927 .0269544
838.615 .0269465
839.304 .0269391
839.992 .0269320
840.680 .0269254
841.367 .0269184
842.054 .0269110
842.741 .0269026
843.428 .0268942
844.114 .0268854
844.800 .0268769
845.485 .0268684
846.170 .0268602
846.855 .0268520
847.540 .0268434
848.224 .0268341
848.908 .0268240
849.592 .0268124
850.275 .0267993
850.958 .0267846
851.641 .0267689
852.323 .0267521
853.005 .0267349
853.687 .0267170
854.368 .0266986
855.049 .0266795
855.730 .0266598
856.410 .0266389
857.090 .0266176
857.769 .0265958
858.449 .0265736
859.128 .0265510
859.806 .0265285
860.485 .0265063
861.163 .0264848
861.840 .0264639
862.518 .0264436
863.195 .0264236
863.871 .0264044
864.548 .0263858
865.224 .0263683
865.899 .0263515
866.574 .0263356
867.249 .0263201
867.924 .0263050
868.598 .0262899
869.272 .0262750
869.946 .0262601
870.619 .0262455
871.292 .0262312
871.964 .0262170
872.636 .0262030
873.308 .0261893
873.979 .0261759
874.651 .0261629
875.321 .0261500
875.992 .0261373
876.662 .0261251
877.331 .0261139
878.001 .0261036
878.670 .0260944
879.338 .0260868
880.007 .0260810
880.675 .0260768
881.342 .0260740
882.009 .0260729
882.676 .0260731
883.343 .0260743
884.009 .0260764
884.675 .0260787
885.340 .0260811
886.005 .0260832
886.670 .0260851
887.334 .0260874
887.998 .0260897
888.662 .0260920
889.325 .0260943
889.988 .0260972
890.650 .0261003
891.312 .0261031
891.974 .0261056
892.636 .0261081
893.297 .0261101
893.957 .0261116
894.618 .0261128
895.278 .0261145
895.937 .0261168
896.596 .0261195
897.255 .0261229
897.914 .0261265
898.572 .0261298
899.230 .0261328
899.887 .0261348
900.544 .0261358
901.201 .0261355
901.857 .0261339
902.513 .0261313
903.168 .0261282
903.823 .0261243
904.478 .0261196
905.132 .0261140
905.786 .0261071
906.440 .0260986
907.093 .0260888
907.746 .0260775
908.399 .0260651
909.051 .0260519
909.703 .0260378
910.354 .0260232
911.005 .0260083
911.656 .0259935
912.306 .0259788
912.956 .0259644
913.605 .0259499
914.254 .0259353
914.903 .0259208
915.551 .0259067
916.199 .0258930
916.847 .0258801
917.494 .0258682
918.141 .0258575
918.788 .0258481
919.434 .0258403
920.079 .0258337
920.725 .0258281
921.370 .0258229
922.014 .0258179
922.658 .0258122
923.302 .0258053
923.946 .0257974
924.589 .0257884
925.231 .0257779
925.873 .0257667
926.515 .0257548
927.157 .0257425
927.798 .0257298
928.439 .0257166
929.079 .0257025
929.719 .0256879
930.359 .0256722
930.998 .0256551
931.637 .0256371
932.275 .0256185
932.913 .0255995
933.551 .0255809
934.188 .0255632
934.825 .0255465
935.462 .0255314
936.098 .0255175
936.733 .0255042
937.369 .0254922
938.004 .0254807
938.638 .0254701
939.273 .0254599
939.907 .0254501
940.540 .0254411
941.173 .0254332
941.806 .0254269
942.438 .0254214
943.070 .0254168
943.702 .0254130
944.333 .0254091
944.964 .0254051
945.594 .0254004
946.224 .0253955
946.854 .0253909
947.483 .0253863
948.112 .0253819
948.741 .0253780
949.369 .0253747
949.996 .0253719
950.624 .0253689
951.251 .0253653
951.878 .0253613
952.504 .0253563
953.130 .0253507
953.755 .0253444
954.380 .0253380
955.005 .0253314
955.629 .0253248
956.253 .0253180
956.877 .0253110
957.500 .0253034
958.123 .0252961
958.746 .0252880
959.368 .0252799
959.990 .0252715
960.611 .0252627
961.232 .0252542
961.853 .0252459
962.473 .0252373
963.093 .0252283
963.712 .0252190
964.331 .0252094
964.950 .0251991
965.569 .0251888
966.187 .0251788
966.804 .0251691
967.422 .0251600
968.039 .0251511
968.655 .0251424
969.272 .0251340
969.887 .0251255
970.503 .0251164
971.118 .0251072
971.733 .0250977
972.347 .0250879
972.961 .0250779
973.575 .0250681
974.188 .0250577
974.801 .0250464
975.414 .0250342
976.026 .0250212
976.638 .0250073
977.250 .0249931
977.861 .0249786
978.472 .0249642
979.083 .0249499
979.693 .0249349
980.303 .0249188
980.912 .0249019
981.521 .0248836
982.130 .0248639
982.738 .0248428
983.346 .0248216
983.954 .0247999
984.562 .0247787
985.169 .0247580
985.775 .0247377
986.382 .0247175
986.988 .0246973
987.594 .0246766
988.199 .0246553
988.804 .0246340
989.409 .0246130
990.013 .0245927
990.617 .0245743
991.221 .0245570
991.824 .0245418
992.427 .0245292
993.030 .0245187
993.632 .0245098
994.234 .0245029
994.836 .0244975
995.438 .0244930
996.039 .0244894
996.640 .0244863
997.240 .0244835
997.840 .0244815
998.440 .0244798
999.040 .0244780
999.639 .0244761
1000.238 .0244739
1000.836 .0244707
1001.435 .0244666
1002.033 .0244609
1002.630 .0244531
1003.228 .0244440
1003.825 .0244343
1004.422 .0244240
1005.018 .0244138
1005.614 .0244049
1006.210 .0243974
1006.806 .0243912
1007.401 .0243859
1007.996 .0243806
1008.591 .0243757
1009.186 .0243704
1009.780 .0243644
1010.374 .0243575
1010.967 .0243507
1011.561 .0243443
1012.154 .0243379
1012.746 .0243326
1013.339 .0243277
1013.931 .0243229
1014.523 .0243184
1015.115 .0243138
1015.706 .0243093
1016.298 .0243045
1016.888 .0243000
1017.479 .0242958
1018.069 .0242926
1018.660 .0242901
1019.250 .0242884
1019.839 .0242875
1020.429 .0242879
1021.018 .0242887
1021.607 .0242903
1022.195 .0242926
1022.784 .0242954
1023.372 .0242986
1023.960 .0243018
1024.547 .0243048
1025.135 .0243079
1025.722 .0243106
1026.309 .0243138
1026.896 .0243172
1027.483 .0243217
1028.069 .0243260
1028.655 .0243303
1029.241 .0243345
1029.827 .0243384
1030.412 .0243419
1030.997 .0243451
1031.582 .0243479
1032.167 .0243516
1032.752 .0243558
1033.336 .0243616
1033.921 .0243685
1034.505 .0243769
1035.089 .0243858
1035.672 .0243946
1036.256 .0244024
1036.839 .0244087
1037.422 .0244136
1038.005 .0244183
1038.588 .0244225
1039.171 .0244277
1039.753 .0244339
1040.335 .0244415
1040.918 .0244501
1041.500 .0244597
1042.081 .0244694
1042.663 .0244787
1043.244 .0244872
1043.826 .0244945
1044.407 .0245003
1044.988 .0245049
1045.569 .0245086
1046.150 .0245102
1046.730 .0245113
1047.311 .0245110
1047.891 .0245093
1048.471 .0245065
1049.052 .0245036
1049.632 .0245009
1050.211 .0244991
1050.791 .0244980
1051.371 .0244975
1051.950 .0244971
1052.530 .0244974
1053.109 .0244962
1053.688 .0244948
1054.268 .0244937
1054.847 .0244932
1055.426 .0244933
1056.005 .0244962
1056.583 .0245012
1057.162 .0245093
1057.741 .0245196
1058.319 .0245319
1058.898 .0245459
1059.476 .0245594
1060.055 .0245714
1060.633 .0245811
1061.211 .0245897
1061.790 .0245968
1062.368 .0246018
1062.946 .0246065
1063.524 .0246108
1064.102 .0246151
1064.680 .0246192
1065.258 .0246231
1065.836 .0246267
1066.414 .0246299
1066.992 .0246319
1067.570 .0246334
1068.148 .0246343
1068.726 .0246343
1069.304 .0246357
1069.882 .0246378
1070.460 .0246412
1071.038 .0246453
1071.616 .0246516
1072.194 .0246604
1072.772 .0246702
1073.350 .0246819
1073.928 .0246944
1074.506 .0247080
1075.084 .0247220
1075.662 .0247358
1076.240 .0247506
1076.819 .0247650
1077.397 .0247791
1077.976 .0247924
1078.554 .0248043
1079.133 .0248141
1079.711 .0248202
1080.290 .0248239
1080.869 .0248249
1081.448 .0248237
1082.027 .0248209
1082.606 .0248199
1083.185 .0248224
1083.764 .0248287
1084.343 .0248388
1084.923 .0248527
1085.502 .0248689
1086.082 .0248856
1086.662 .0249014
1087.242 .0249169
1087.822 .0249329
1088.402 .0249494
1088.983 .0249671
1089.563 .0249883
1090.144 .0250122
1090.725 .0250385
1091.306 .0250641
1091.887 .0250875
1092.469 .0251073
1093.050 .0251200
1093.632 .0251273
1094.214 .0251286
1094.796 .0251265
1095.379 .0251237
1095.961 .0251199
1096.544 .0251195
1097.127 .0251234
1097.710 .0251326
1098.294 .0251484
1098.877 .0251693
1099.461 .0251959
1100.046 .0252267
1100.630 .0252628
1101.215 .0253028
1101.800 .0253447
1102.385 .0253889
1102.970 .0254339
1103.556 .0254786
1104.142 .0255251
1104.728 .0255714
1105.315 .0256184
1105.902 .0256656
1106.489 .0257104
1107.077 .0257496
1107.664 .0257839
1108.253 .0258113
1108.841 .0258315
1109.430 .0258472
1110.019 .0258593
1110.609 .0258686
1111.198 .0258804
1111.789 .0258979
1112.379 .0259215
1112.970 .0259506
1113.561 .0259841
1114.153 .0260175
1114.745 .0260528
1115.338 .0260878
1115.931 .0261225
1116.524 .0261606
1117.117 .0262053
1117.712 .0262544
1118.306 .0263099
1118.901 .0263730
1119.496 .0264411
1120.092 .0265114
1120.689 .0265836
1121.285 .0266520
1121.882 .0267154
1122.480 .0267738
1123.078 .0268313
1123.677 .0268874
1124.276 .0269463
1124.875 .0270072
1125.476 .0270712
1126.076 .0271421
1126.677 .0272195
1127.279 .0272987
1127.881 .0273796
1128.484 .0274617
1129.087 .0275386
1129.691 .0276127
1130.295 .0276855
1130.900 .0277554
1131.505 .0278295
1132.111 .0279090
1132.718 .0279903
1133.325 .0280751
1133.933 .0281667
1134.541 .0282641
1135.150 .0283677
1135.760 .0284807
1136.370 .0285960
1136.981 .0287161
1137.592 .0288414
1138.204 .0289692
1138.817 .0290982
1139.431 .0292338
1140.045 .0293655
1140.660 .0295073
1141.275 .0296644
1141.891 .0298049
1142.508 .0300241
1143.126 .0299736
1143.744 .0304295
1144.363 .0308059
1144.983 .0301186
