Measurement Sequence started on: 15-12-46-377
Integration time: 28
Scans to Average: 2 
>>>>>Begin Spectral Data<<<<<
432.689 .0000100
433.621 .0000100
434.552 .0000100
435.482 .0000100
436.410 .0000100
437.337 .0000100
438.262 .0269062
439.187 .0571064
440.110 .0946511
441.031 .1370665
441.952 .1783314
442.871 .2109105
443.789 .2289202
444.705 .2303065
445.621 .2175158
446.535 .1959157
447.447 .1713725
448.359 .1336803
449.269 .1149541
450.178 .1031581
451.086 .0948181
451.993 .0884477
452.898 .0834187
453.803 .0792984
454.706 .0758646
455.608 .0729031
456.508 .0703048
457.408 .0680189
458.306 .0659721
459.204 .0641077
460.100 .0623992
460.995 .0608443
461.888 .0594148
462.781 .0581028
463.673 .0568993
464.563 .0557993
465.452 .0547901
466.340 .0538530
467.228 .0529888
468.114 .0522006
468.999 .0514765
469.882 .0507917
470.765 .0501556
471.647 .0495745
472.528 .0490354
473.407 .0485458
474.286 .0481120
475.163 .0477342
476.040 .0474153
476.915 .0471512
477.790 .0469350
478.663 .0467554
479.535 .0466070
480.407 .0464701
481.277 .0463477
482.147 .0462367
483.015 .0461299
483.883 .0460383
484.749 .0459740
485.615 .0459441
486.479 .0459403
487.343 .0459721
488.206 .0460358
489.067 .0461265
489.928 .0462300
490.788 .0463387
491.647 .0464466
492.505 .0465571
493.362 .0466697
494.218 .0467830
495.073 .0469085
495.928 .0470630
496.781 .0472371
497.634 .0474506
498.486 .0476968
499.337 .0479838
500.187 .0482968
501.036 .0486448
501.884 .0490134
502.731 .0493997
503.578 .0498003
504.424 .0502174
505.268 .0506355
506.113 .0510739
506.956 .0515304
507.798 .0520214
508.640 .0525684
509.480 .0531832
510.320 .0538744
511.160 .0546704
511.998 .0555624
512.836 .0565520
513.672 .0576382
514.508 .0588149
515.344 .0600744
516.178 .0614490
517.012 .0629775
517.845 .0646928
518.677 .0666530
519.508 .0689126
520.339 .0715223
521.169 .0745514
521.998 .0779749
522.826 .0818541
523.654 .0862322
524.481 .0910914
525.307 .0964814
526.133 .1023909
526.958 .1088095
527.782 .1156515
528.605 .1227796
529.428 .1300337
530.250 .1368323
531.072 .1429181
531.892 .1478427
532.712 .1513375
533.532 .1532113
534.350 .1533350
535.168 .1517012
535.986 .1485254
536.802 .1440028
537.618 .1384052
538.434 .1319723
539.249 .1251466
540.063 .1180464
540.876 .1109518
541.689 .1040451
542.501 .0975703
543.313 .0916411
544.124 .0863988
544.934 .0817398
545.744 .0776864
546.553 .0741473
547.361 .0710966
548.169 .0684671
548.976 .0661581
549.783 .0641113
550.589 .0622946
551.395 .0606349
552.200 .0591236
553.004 .0577239
553.808 .0564365
554.611 .0552314
555.414 .0541288
556.216 .0531020
557.018 .0521793
557.819 .0513420
558.619 .0505738
559.419 .0498667
560.218 .0492184
561.017 .0486087
561.815 .0480149
562.613 .0474337
563.410 .0468563
564.207 .0462712
565.003 .0456845
565.799 .0450944
566.594 .0445015
567.388 .0439118
568.182 .0433364
568.976 .0427675
569.769 .0422140
570.562 .0416713
571.354 .0411401
572.145 .0406226
572.936 .0401185
573.727 .0396294
574.517 .0391541
575.307 .0386963
576.096 .0382547
576.885 .0378313
577.673 .0374313
578.461 .0370548
579.248 .0367012
580.035 .0363721
580.821 .0360671
581.607 .0357795
582.392 .0355101
583.177 .0352577
583.962 .0350223
584.746 .0348045
585.529 .0346023
586.313 .0344169
587.095 .0342462
587.878 .0340950
588.660 .0339613
589.441 .0338424
590.222 .0337361
591.003 .0336414
591.783 .0335537
592.563 .0334729
593.342 .0333984
594.121 .0333285
594.899 .0332655
595.678 .0332072
596.455 .0331528
597.233 .0331036
598.009 .0330573
598.786 .0330136
599.562 .0329695
600.338 .0329259
601.113 .0328791
601.888 .0328296
602.663 .0327781
603.437 .0327252
604.211 .0326710
604.984 .0326178
605.757 .0325661
606.530 .0325161
607.302 .0324680
608.074 .0324220
608.845 .0323779
609.616 .0323354
610.387 .0322934
611.158 .0322525
611.928 .0322113
612.697 .0321719
613.467 .0321336
614.236 .0320980
615.004 .0320656
615.773 .0320366
616.541 .0320106
617.308 .0319875
618.076 .0319667
618.843 .0319467
619.609 .0319280
620.375 .0319100
621.141 .0318920
621.907 .0318741
622.672 .0318574
623.437 .0318422
624.202 .0318281
624.966 .0318165
625.730 .0318056
626.493 .0317957
627.257 .0317853
628.020 .0317737
628.782 .0317602
629.545 .0317450
630.307 .0317270
631.068 .0317063
631.830 .0316832
632.591 .0316580
633.352 .0316307
634.112 .0316023
634.872 .0315725
635.632 .0315413
636.392 .0315083
637.151 .0314750
637.910 .0314401
638.668 .0314052
639.427 .0313704
640.185 .0313372
640.943 .0313057
641.700 .0312767
642.457 .0312507
643.214 .0312283
643.971 .0312087
644.727 .0311918
645.483 .0311758
646.239 .0311609
646.994 .0311464
647.750 .0311321
648.505 .0311176
649.259 .0311038
650.014 .0310903
650.768 .0310779
651.521 .0310665
652.275 .0310554
653.028 .0310437
653.781 .0310310
654.534 .0310166
655.286 .0309993
656.039 .0309796
656.791 .0309569
657.542 .0309322
658.294 .0309058
659.045 .0308782
659.796 .0308491
660.546 .0308194
661.297 .0307886
662.047 .0307569
662.796 .0307234
663.546 .0306887
664.295 .0306527
665.044 .0306163
665.793 .0305798
666.542 .0305444
667.290 .0305099
668.038 .0304770
668.786 .0304449
669.533 .0304141
670.281 .0303832
671.028 .0303533
671.774 .0303242
672.521 .0302966
673.267 .0302713
674.013 .0302486
674.759 .0302282
675.505 .0302107
676.250 .0301949
676.995 .0301797
677.740 .0301641
678.484 .0301474
679.229 .0301292
679.973 .0301099
680.717 .0300903
681.460 .0300712
682.204 .0300534
682.947 .0300375
683.690 .0300230
684.433 .0300098
685.175 .0299968
685.917 .0299829
686.659 .0299683
687.401 .0299522
688.142 .0299351
688.884 .0299173
689.625 .0298999
690.365 .0298837
691.106 .0298689
691.846 .0298556
692.586 .0298435
693.326 .0298323
694.066 .0298215
694.805 .0298110
695.545 .0298005
696.284 .0297900
697.022 .0297796
697.761 .0297690
698.499 .0297582
699.237 .0297470
699.975 .0297360
700.713 .0297248
701.450 .0297139
702.187 .0297030
702.924 .0296926
703.661 .0296825
704.397 .0296727
705.133 .0296631
705.869 .0296531
706.605 .0296427
707.341 .0296313
708.076 .0296188
708.811 .0296055
709.546 .0295908
710.281 .0295755
711.015 .0295594
711.749 .0295427
712.483 .0295249
713.217 .0295061
713.950 .0294867
714.684 .0294659
715.417 .0294443
716.150 .0294221
716.882 .0293999
717.615 .0293776
718.347 .0293555
719.079 .0293334
719.811 .0293114
720.542 .0292897
721.273 .0292677
722.005 .0292455
722.735 .0292233
723.466 .0292010
724.196 .0291787
724.927 .0291562
725.656 .0291339
726.386 .0291109
727.116 .0290881
727.845 .0290645
728.574 .0290400
729.303 .0290144
730.031 .0289880
730.760 .0289609
731.488 .0289331
732.216 .0289050
732.944 .0288768
733.671 .0288487
734.398 .0288214
735.125 .0287944
735.852 .0287683
736.579 .0287424
737.305 .0287173
738.031 .0286926
738.757 .0286688
739.483 .0286456
740.208 .0286236
740.933 .0286030
741.658 .0285842
742.383 .0285667
743.108 .0285506
743.832 .0285358
744.556 .0285216
745.280 .0285073
746.004 .0284928
746.727 .0284775
747.450 .0284622
748.173 .0284463
748.896 .0284308
749.618 .0284155
750.340 .0284008
751.062 .0283863
751.784 .0283718
752.506 .0283569
753.227 .0283412
753.948 .0283238
754.669 .0283055
755.389 .0282862
756.110 .0282665
756.830 .0282474
757.550 .0282295
758.269 .0282128
758.989 .0281977
759.708 .0281834
760.427 .0281698
761.146 .0281562
761.864 .0281430
762.582 .0281296
763.300 .0281162
764.018 .0281032
764.736 .0280903
765.453 .0280781
766.170 .0280666
766.887 .0280549
767.603 .0280435
768.320 .0280324
769.036 .0280218
769.751 .0280114
770.467 .0280019
771.182 .0279936
771.897 .0279864
772.612 .0279803
773.327 .0279753
774.041 .0279710
774.755 .0279670
775.469 .0279634
776.183 .0279602
776.896 .0279574
777.609 .0279552
778.322 .0279539
779.035 .0279540
779.747 .0279549
780.459 .0279562
781.171 .0279577
781.882 .0279592
782.594 .0279607
783.305 .0279617
784.016 .0279625
784.726 .0279635
785.436 .0279645
786.147 .0279658
786.856 .0279678
787.566 .0279701
788.275 .0279725
788.984 .0279750
789.693 .0279765
790.401 .0279769
791.110 .0279762
791.818 .0279743
792.525 .0279719
793.233 .0279687
793.940 .0279649
794.647 .0279601
795.353 .0279546
796.060 .0279480
796.766 .0279400
797.472 .0279306
798.177 .0279194
798.883 .0279064
799.588 .0278921
800.292 .0278767
800.997 .0278603
801.701 .0278432
802.405 .0278254
803.109 .0278070
803.812 .0277876
804.515 .0277669
805.218 .0277446
805.921 .0277210
806.623 .0276962
807.325 .0276704
808.027 .0276440
808.728 .0276175
809.429 .0275908
810.130 .0275642
810.831 .0275378
811.531 .0275112
812.231 .0274846
812.931 .0274582
813.630 .0274316
814.330 .0274048
815.029 .0273778
815.727 .0273510
816.426 .0273245
817.124 .0272984
817.821 .0272725
818.519 .0272468
819.216 .0272215
819.913 .0271964
820.609 .0271711
821.306 .0271462
822.002 .0271215
822.697 .0270969
823.393 .0270725
824.088 .0270485
824.783 .0270245
825.477 .0270017
826.171 .0269798
826.865 .0269593
827.559 .0269401
828.252 .0269224
828.945 .0269061
829.638 .0268911
830.330 .0268772
831.023 .0268641
831.714 .0268519
832.406 .0268408
833.097 .0268298
833.788 .0268193
834.479 .0268095
835.169 .0267999
835.859 .0267905
836.548 .0267810
837.238 .0267707
837.927 .0267601
838.615 .0267486
839.304 .0267363
839.992 .0267233
840.680 .0267102
841.367 .0266971
842.054 .0266839
842.741 .0266711
843.428 .0266582
844.114 .0266459
844.800 .0266337
845.485 .0266212
846.170 .0266081
846.855 .0265949
847.540 .0265815
848.224 .0265682
848.908 .0265556
849.592 .0265437
850.275 .0265325
850.958 .0265226
851.641 .0265133
852.323 .0265046
853.005 .0264962
853.687 .0264875
854.368 .0264785
855.049 .0264690
855.730 .0264588
856.410 .0264481
857.090 .0264373
857.769 .0264263
858.449 .0264155
859.128 .0264046
859.806 .0263940
860.485 .0263840
861.163 .0263742
861.840 .0263648
862.518 .0263555
863.195 .0263462
863.871 .0263368
864.548 .0263270
865.224 .0263172
865.899 .0263073
866.574 .0262985
867.249 .0262902
867.924 .0262831
868.598 .0262776
869.272 .0262733
869.946 .0262703
870.619 .0262686
871.292 .0262676
871.964 .0262670
872.636 .0262668
873.308 .0262672
873.979 .0262683
874.651 .0262709
875.321 .0262746
875.992 .0262797
876.662 .0262865
877.331 .0262942
878.001 .0263019
878.670 .0263100
879.338 .0263181
880.007 .0263263
880.675 .0263347
881.342 .0263434
882.009 .0263525
882.676 .0263621
883.343 .0263717
884.009 .0263811
884.675 .0263899
885.340 .0263974
886.005 .0264028
886.670 .0264069
887.334 .0264100
887.998 .0264121
888.662 .0264142
889.325 .0264170
889.988 .0264205
890.650 .0264248
891.312 .0264294
891.974 .0264345
892.636 .0264394
893.297 .0264438
893.957 .0264475
894.618 .0264506
895.278 .0264536
895.937 .0264567
896.596 .0264605
897.255 .0264648
897.914 .0264692
898.572 .0264731
899.230 .0264761
899.887 .0264776
900.544 .0264771
901.201 .0264741
901.857 .0264686
902.513 .0264609
903.168 .0264510
903.823 .0264393
904.478 .0264262
905.132 .0264114
905.786 .0263950
906.440 .0263769
907.093 .0263569
907.746 .0263352
908.399 .0263125
909.051 .0262891
909.703 .0262653
910.354 .0262415
911.005 .0262178
911.656 .0261942
912.306 .0261708
912.956 .0261469
913.605 .0261219
914.254 .0260958
914.903 .0260681
915.551 .0260389
916.199 .0260091
916.847 .0259789
917.494 .0259485
918.141 .0259181
918.788 .0258877
919.434 .0258572
920.079 .0258258
920.725 .0257937
921.370 .0257605
922.014 .0257265
922.658 .0256913
923.302 .0256552
923.946 .0256186
924.589 .0255821
925.231 .0255457
925.873 .0255101
926.515 .0254751
927.157 .0254409
927.798 .0254070
928.439 .0253737
929.079 .0253411
929.719 .0253090
930.359 .0252773
930.998 .0252463
931.637 .0252160
932.275 .0251867
932.913 .0251576
933.551 .0251295
934.188 .0251025
934.825 .0250768
935.462 .0250520
936.098 .0250280
936.733 .0250052
937.369 .0249831
938.004 .0249616
938.638 .0249404
939.273 .0249193
939.907 .0248977
940.540 .0248755
941.173 .0248525
941.806 .0248294
942.438 .0248061
943.070 .0247829
943.702 .0247601
944.333 .0247377
944.964 .0247155
945.594 .0246936
946.224 .0246724
946.854 .0246524
947.483 .0246333
948.112 .0246153
948.741 .0245983
949.369 .0245827
949.996 .0245685
950.624 .0245555
951.251 .0245434
951.878 .0245322
952.504 .0245210
953.130 .0245097
953.755 .0244984
954.380 .0244870
955.005 .0244761
955.629 .0244655
956.253 .0244559
956.877 .0244469
957.500 .0244384
958.123 .0244301
958.746 .0244218
959.368 .0244132
959.990 .0244037
960.611 .0243933
961.232 .0243825
961.853 .0243718
962.473 .0243617
963.093 .0243526
963.712 .0243448
964.331 .0243380
964.950 .0243324
965.569 .0243270
966.187 .0243223
966.804 .0243174
967.422 .0243123
968.039 .0243075
968.655 .0243028
969.272 .0242985
969.887 .0242941
970.503 .0242906
971.118 .0242880
971.733 .0242859
972.347 .0242842
972.961 .0242830
973.575 .0242823
974.188 .0242818
974.801 .0242810
975.414 .0242803
976.026 .0242799
976.638 .0242797
977.250 .0242794
977.861 .0242795
978.472 .0242796
979.083 .0242805
979.693 .0242817
980.303 .0242835
980.912 .0242856
981.521 .0242881
982.130 .0242909
982.738 .0242940
983.346 .0242974
983.954 .0243007
984.562 .0243041
985.169 .0243078
985.775 .0243111
986.382 .0243141
986.988 .0243169
987.594 .0243199
988.199 .0243229
988.804 .0243262
989.409 .0243291
990.013 .0243321
990.617 .0243352
991.221 .0243382
991.824 .0243412
992.427 .0243447
993.030 .0243490
993.632 .0243546
994.234 .0243617
994.836 .0243701
995.438 .0243801
996.039 .0243912
996.640 .0244030
997.240 .0244147
997.840 .0244261
998.440 .0244374
999.040 .0244489
999.639 .0244607
1000.238 .0244729
1000.836 .0244858
1001.435 .0244998
1002.033 .0245142
1002.630 .0245290
1003.228 .0245434
1003.825 .0245573
1004.422 .0245709
1005.018 .0245843
1005.614 .0245979
1006.210 .0246126
1006.806 .0246282
1007.401 .0246449
1007.996 .0246621
1008.591 .0246797
1009.186 .0246973
1009.780 .0247149
1010.374 .0247324
1010.967 .0247498
1011.561 .0247666
1012.154 .0247830
1012.746 .0247983
1013.339 .0248133
1013.931 .0248271
1014.523 .0248394
1015.115 .0248502
1015.706 .0248599
1016.298 .0248685
1016.888 .0248762
1017.479 .0248836
1018.069 .0248915
1018.660 .0248989
1019.250 .0249065
1019.839 .0249132
1020.429 .0249197
1021.018 .0249264
1021.607 .0249336
1022.195 .0249415
1022.784 .0249505
1023.372 .0249607
1023.960 .0249720
1024.547 .0249841
1025.135 .0249971
1025.722 .0250098
1026.309 .0250215
1026.896 .0250324
1027.483 .0250424
1028.069 .0250517
1028.655 .0250611
1029.241 .0250700
1029.827 .0250794
1030.412 .0250886
1030.997 .0250974
1031.582 .0251056
1032.167 .0251127
1032.752 .0251193
1033.336 .0251246
1033.921 .0251284
1034.505 .0251313
1035.089 .0251332
1035.672 .0251343
1036.256 .0251347
1036.839 .0251345
1037.422 .0251332
1038.005 .0251313
1038.588 .0251300
1039.171 .0251287
1039.753 .0251277
1040.335 .0251273
1040.918 .0251263
1041.500 .0251249
1042.081 .0251230
1042.663 .0251194
1043.244 .0251147
1043.826 .0251097
1044.407 .0251031
1044.988 .0250952
1045.569 .0250871
1046.150 .0250781
1046.730 .0250684
1047.311 .0250580
1047.891 .0250457
1048.471 .0250309
1049.052 .0250143
1049.632 .0249950
1050.211 .0249741
1050.791 .0249530
1051.371 .0249313
1051.950 .0249094
1052.530 .0248889
1053.109 .0248696
1053.688 .0248503
1054.268 .0248318
1054.847 .0248143
1055.426 .0247965
1056.005 .0247791
1056.583 .0247617
1057.162 .0247449
1057.741 .0247294
1058.319 .0247157
1058.898 .0247036
1059.476 .0246930
1060.055 .0246839
1060.633 .0246743
1061.211 .0246635
1061.790 .0246521
1062.368 .0246388
1062.946 .0246233
1063.524 .0246069
1064.102 .0245902
1064.680 .0245735
1065.258 .0245575
1065.836 .0245435
1066.414 .0245324
1066.992 .0245237
1067.570 .0245172
1068.148 .0245115
1068.726 .0245063
1069.304 .0245027
1069.882 .0244977
1070.460 .0244918
1071.038 .0244857
1071.616 .0244782
1072.194 .0244700
1072.772 .0244610
1073.350 .0244524
1073.928 .0244442
1074.506 .0244357
1075.084 .0244266
1075.662 .0244159
1076.240 .0244043
1076.819 .0243908
1077.397 .0243757
1077.976 .0243597
1078.554 .0243433
1079.133 .0243267
1079.711 .0243110
1080.290 .0242963
1080.869 .0242828
1081.448 .0242696
1082.027 .0242552
1082.606 .0242407
1083.185 .0242247
1083.764 .0242078
1084.343 .0241913
1084.923 .0241758
1085.502 .0241623
1086.082 .0241497
1086.662 .0241389
1087.242 .0241285
1087.822 .0241173
1088.402 .0241045
1088.983 .0240901
1089.563 .0240751
1090.144 .0240592
1090.725 .0240458
1091.306 .0240353
1091.887 .0240301
1092.469 .0240296
1093.050 .0240330
1093.632 .0240386
1094.214 .0240457
1094.796 .0240536
1095.379 .0240612
1095.961 .0240696
1096.544 .0240795
1097.127 .0240907
1097.710 .0241047
1098.294 .0241209
1098.877 .0241378
1099.461 .0241546
1100.046 .0241729
1100.630 .0241888
1101.215 .0242044
1101.800 .0242196
1102.385 .0242346
1102.970 .0242506
1103.556 .0242677
1104.142 .0242851
1104.728 .0243023
1105.315 .0243177
1105.902 .0243302
1106.489 .0243396
1107.077 .0243478
1107.664 .0243563
1108.253 .0243677
1108.841 .0243830
1109.430 .0244026
1110.019 .0244253
1110.609 .0244505
1111.198 .0244778
1111.789 .0245069
1112.379 .0245367
1112.970 .0245681
1113.561 .0246037
1114.153 .0246435
1114.745 .0246891
1115.338 .0247442
1115.931 .0248041
1116.524 .0248661
1117.117 .0249307
1117.712 .0249941
1118.306 .0250556
1118.901 .0251163
1119.496 .0251769
1120.092 .0252382
1120.689 .0252989
1121.285 .0253587
1121.882 .0254147
1122.480 .0254697
1123.078 .0255228
1123.677 .0255693
1124.276 .0256137
1124.875 .0256565
1125.476 .0256956
1126.076 .0257372
1126.677 .0257849
1127.279 .0258359
1127.881 .0258912
1128.484 .0259491
1129.087 .0260064
1129.691 .0260632
1130.295 .0261225
1130.900 .0261855
1131.505 .0262554
1132.111 .0263337
1132.718 .0264173
1133.325 .0265077
1133.933 .0266069
1134.541 .0267072
1135.150 .0268064
1135.760 .0269038
1136.370 .0270018
1136.981 .0271027
1137.592 .0272088
1138.204 .0273232
1138.817 .0274533
1139.431 .0275907
1140.045 .0277301
1140.660 .0278682
1141.275 .0280228
1141.891 .0282284
1142.508 .0282632
1143.126 .0283464
1143.744 .0284390
1144.363 .0291238
1144.983 .0304999
