Measurement Sequence started on: 15-12-46-377
Integration time: 28
Scans to Average: 2 
>>>>>Begin Spectral Data<<<<<
432.689 .0000100
433.621 .0000100
434.552 .0000100
435.482 .0000100
436.410 .0000100
437.337 .0000100
438.262 .0280315
439.187 .0595133
440.110 .0986160
441.031 .1427867
441.952 .1857440
442.871 .2196500
443.789 .2384178
444.705 .2398802
445.621 .2266044
446.535 .2041672
447.447 .1786576
448.359 .1394257
449.269 .1198830
450.178 .1075211
451.086 .0986937
451.993 .0918824
452.898 .0864568
453.803 .0819657
454.706 .0782433
455.608 .0750753
456.508 .0723500
457.408 .0700106
458.306 .0679812
459.204 .0661978
460.100 .0646226
460.995 .0632272
461.888 .0619784
462.781 .0608499
463.673 .0598176
464.563 .0588543
465.452 .0579245
466.340 .0570336
467.228 .0561932
468.114 .0554041
468.999 .0546862
469.882 .0540148
470.765 .0534032
471.647 .0528452
472.528 .0523288
473.407 .0518542
474.286 .0514150
475.163 .0510044
476.040 .0506297
476.915 .0502888
477.790 .0499859
478.663 .0497173
479.535 .0494914
480.407 .0493032
481.277 .0491477
482.147 .0490176
483.015 .0489035
483.883 .0488099
484.749 .0487385
485.615 .0486843
486.479 .0486507
487.343 .0486484
488.206 .0486714
489.067 .0487197
489.928 .0487879
490.788 .0488743
491.647 .0489714
492.505 .0490860
493.362 .0492177
494.218 .0493637
495.073 .0495274
495.928 .0497160
496.781 .0499166
497.634 .0501473
498.486 .0503954
499.337 .0506685
500.187 .0509597
501.036 .0512710
501.884 .0515943
502.731 .0519340
503.578 .0522922
504.424 .0526791
505.268 .0530819
506.113 .0535244
506.956 .0539966
507.798 .0545138
508.640 .0550875
509.480 .0557196
510.320 .0564201
511.160 .0572079
511.998 .0580828
512.836 .0590536
513.672 .0601282
514.508 .0613145
515.344 .0626198
516.178 .0640727
517.012 .0657116
517.845 .0675824
518.677 .0697184
519.508 .0721679
520.339 .0749601
521.169 .0781733
521.998 .0818209
522.826 .0859493
523.654 .0906183
524.481 .0958336
525.307 .1016266
526.133 .1079704
526.958 .1148354
527.782 .1222001
528.605 .1299041
529.428 .1378202
530.250 .1453401
531.072 .1521619
531.892 .1577675
532.712 .1618212
533.532 .1640183
534.350 .1642326
535.168 .1624246
535.986 .1588007
536.802 .1536486
537.618 .1474035
538.434 .1403755
539.249 .1331239
540.063 .1257722
540.876 .1186081
541.689 .1116801
542.501 .1052148
543.313 .0992135
544.124 .0937821
544.934 .0888538
545.744 .0844100
546.553 .0803997
547.361 .0768604
548.169 .0737558
548.976 .0710353
549.783 .0686191
550.589 .0664917
551.395 .0645245
552.200 .0627420
553.004 .0610928
553.808 .0595640
554.611 .0581533
555.414 .0568850
556.216 .0557258
557.018 .0546927
557.819 .0537730
558.619 .0529320
559.419 .0521515
560.218 .0514247
561.017 .0507313
561.815 .0500622
562.613 .0494188
563.410 .0487977
564.207 .0481860
565.003 .0475969
565.799 .0470016
566.594 .0464023
567.388 .0458127
568.182 .0452214
568.976 .0446210
569.769 .0440206
570.562 .0434283
571.354 .0428433
572.145 .0422783
572.936 .0417366
573.727 .0412201
574.517 .0407314
575.307 .0402706
576.096 .0398351
576.885 .0394274
577.673 .0390511
578.461 .0386989
579.248 .0383692
580.035 .0380604
580.821 .0377668
581.607 .0374883
582.392 .0372248
583.177 .0369744
583.962 .0367360
584.746 .0365148
585.529 .0363086
586.313 .0361193
587.095 .0359438
587.878 .0357824
588.660 .0356321
589.441 .0354911
590.222 .0353581
591.003 .0352322
591.783 .0351144
592.563 .0350036
593.342 .0348999
594.121 .0348038
594.899 .0347150
595.678 .0346338
596.455 .0345593
597.233 .0344909
598.009 .0344268
598.786 .0343659
599.562 .0343069
600.338 .0342491
601.113 .0341912
601.888 .0341326
602.663 .0340733
603.437 .0340131
604.211 .0339528
604.984 .0338923
605.757 .0338338
606.530 .0337762
607.302 .0337199
608.074 .0336653
608.845 .0336124
609.616 .0335610
610.387 .0335111
611.158 .0334630
611.928 .0334166
612.697 .0333717
613.467 .0333286
614.236 .0332878
615.004 .0332505
615.773 .0332164
616.541 .0331855
617.308 .0331577
618.076 .0331333
618.843 .0331106
619.609 .0330908
620.375 .0330731
621.141 .0330565
621.907 .0330411
622.672 .0330262
623.437 .0330114
624.202 .0329968
624.966 .0329828
625.730 .0329687
626.493 .0329555
627.257 .0329422
628.020 .0329281
628.782 .0329130
629.545 .0328980
630.307 .0328809
631.068 .0328624
631.830 .0328425
632.591 .0328204
633.352 .0327962
634.112 .0327709
634.872 .0327435
635.632 .0327157
636.392 .0326864
637.151 .0326567
637.910 .0326253
638.668 .0325935
639.427 .0325600
640.185 .0325264
640.943 .0324929
641.700 .0324599
642.457 .0324269
643.214 .0323953
643.971 .0323642
644.727 .0323345
645.483 .0323060
646.239 .0322787
646.994 .0322522
647.750 .0322267
648.505 .0322014
649.259 .0321767
650.014 .0321516
650.768 .0321261
651.521 .0320999
652.275 .0320731
653.028 .0320449
653.781 .0320156
654.534 .0319857
655.286 .0319543
656.039 .0319215
656.791 .0318874
657.542 .0318508
658.294 .0318124
659.045 .0317727
659.796 .0317318
660.546 .0316910
661.297 .0316505
662.047 .0316112
662.796 .0315729
663.546 .0315366
664.295 .0315016
665.044 .0314673
665.793 .0314341
666.542 .0314012
667.290 .0313683
668.038 .0313362
668.786 .0313047
669.533 .0312743
670.281 .0312457
671.028 .0312186
671.774 .0311927
672.521 .0311677
673.267 .0311435
674.013 .0311194
674.759 .0310951
675.505 .0310705
676.250 .0310453
676.995 .0310204
677.740 .0309969
678.484 .0309744
679.229 .0309538
679.973 .0309356
680.717 .0309189
681.460 .0309036
682.204 .0308894
682.947 .0308755
683.690 .0308619
684.433 .0308478
685.175 .0308335
685.917 .0308189
686.659 .0308051
687.401 .0307921
688.142 .0307800
688.884 .0307697
689.625 .0307603
690.365 .0307509
691.106 .0307414
691.846 .0307315
692.586 .0307206
693.326 .0307086
694.066 .0306958
694.805 .0306822
695.545 .0306684
696.284 .0306545
697.022 .0306411
697.761 .0306281
698.499 .0306153
699.237 .0306020
699.975 .0305881
700.713 .0305744
701.450 .0305597
702.187 .0305445
702.924 .0305293
703.661 .0305143
704.397 .0304991
705.133 .0304845
705.869 .0304706
706.605 .0304576
707.341 .0304452
708.076 .0304331
708.811 .0304210
709.546 .0304088
710.281 .0303955
711.015 .0303815
711.749 .0303665
712.483 .0303502
713.217 .0303320
713.950 .0303126
714.684 .0302922
715.417 .0302709
716.150 .0302489
716.882 .0302266
717.615 .0302038
718.347 .0301812
719.079 .0301575
719.811 .0301334
720.542 .0301089
721.273 .0300834
722.005 .0300576
722.735 .0300312
723.466 .0300044
724.196 .0299779
724.927 .0299518
725.656 .0299262
726.386 .0299009
727.116 .0298761
727.845 .0298517
728.574 .0298275
729.303 .0298035
730.031 .0297794
730.760 .0297553
731.488 .0297314
732.216 .0297076
732.944 .0296842
733.671 .0296623
734.398 .0296409
735.125 .0296212
735.852 .0296026
736.579 .0295846
737.305 .0295678
738.031 .0295516
738.757 .0295358
739.483 .0295200
740.208 .0295041
740.933 .0294882
741.658 .0294722
742.383 .0294563
743.108 .0294398
743.832 .0294235
744.556 .0294070
745.280 .0293894
746.004 .0293711
746.727 .0293523
747.450 .0293327
748.173 .0293126
748.896 .0292925
749.618 .0292719
750.340 .0292519
751.062 .0292323
751.784 .0292128
752.506 .0291939
753.227 .0291748
753.948 .0291550
754.669 .0291346
755.389 .0291136
756.110 .0290917
756.830 .0290695
757.550 .0290479
758.269 .0290263
758.989 .0290053
759.708 .0289850
760.427 .0289652
761.146 .0289458
761.864 .0289267
762.582 .0289079
763.300 .0288898
764.018 .0288723
764.736 .0288556
765.453 .0288401
766.170 .0288263
766.887 .0288132
767.603 .0288016
768.320 .0287904
769.036 .0287800
769.751 .0287699
770.467 .0287603
771.182 .0287511
771.897 .0287429
772.612 .0287354
773.327 .0287289
774.041 .0287235
774.755 .0287190
775.469 .0287146
776.183 .0287113
776.896 .0287083
777.609 .0287059
778.322 .0287038
779.035 .0287027
779.747 .0287024
780.459 .0287035
781.171 .0287052
781.882 .0287076
782.594 .0287108
783.305 .0287148
784.016 .0287187
784.726 .0287232
785.436 .0287276
786.147 .0287320
786.856 .0287360
787.566 .0287395
788.275 .0287425
788.984 .0287452
789.693 .0287472
790.401 .0287490
791.110 .0287503
791.818 .0287515
792.525 .0287524
793.233 .0287535
793.940 .0287544
794.647 .0287549
795.353 .0287547
796.060 .0287539
796.766 .0287522
797.472 .0287502
798.177 .0287475
798.883 .0287443
799.588 .0287411
800.292 .0287377
800.997 .0287339
801.701 .0287297
802.405 .0287252
803.109 .0287205
803.812 .0287149
804.515 .0287085
805.218 .0287008
805.921 .0286922
806.623 .0286821
807.325 .0286712
808.027 .0286591
808.728 .0286462
809.429 .0286327
810.130 .0286183
810.831 .0286035
811.531 .0285882
812.231 .0285722
812.931 .0285552
813.630 .0285374
814.330 .0285184
815.029 .0284977
815.727 .0284761
816.426 .0284535
817.124 .0284303
817.821 .0284070
818.519 .0283843
819.216 .0283623
819.913 .0283412
820.609 .0283212
821.306 .0283018
822.002 .0282836
822.697 .0282658
823.393 .0282487
824.088 .0282322
824.783 .0282162
825.477 .0282004
826.171 .0281849
826.865 .0281706
827.559 .0281574
828.252 .0281451
828.945 .0281339
829.638 .0281236
830.330 .0281139
831.023 .0281042
831.714 .0280943
832.406 .0280835
833.097 .0280717
833.788 .0280583
834.479 .0280436
835.169 .0280278
835.859 .0280110
836.548 .0279938
837.238 .0279768
837.927 .0279597
838.615 .0279426
839.304 .0279254
839.992 .0279082
840.680 .0278907
841.367 .0278726
842.054 .0278537
842.741 .0278344
843.428 .0278149
844.114 .0277951
844.800 .0277755
845.485 .0277561
846.170 .0277370
846.855 .0277180
847.540 .0276990
848.224 .0276798
848.908 .0276602
849.592 .0276402
850.275 .0276196
850.958 .0275982
851.641 .0275761
852.323 .0275536
853.005 .0275309
853.687 .0275079
854.368 .0274852
855.049 .0274626
855.730 .0274406
856.410 .0274189
857.090 .0273974
857.769 .0273758
858.449 .0273542
859.128 .0273322
859.806 .0273095
860.485 .0272867
861.163 .0272641
861.840 .0272416
862.518 .0272197
863.195 .0271982
863.871 .0271773
864.548 .0271570
865.224 .0271376
865.899 .0271188
866.574 .0271010
867.249 .0270840
867.924 .0270678
868.598 .0270525
869.272 .0270384
869.946 .0270253
870.619 .0270131
871.292 .0270022
871.964 .0269918
872.636 .0269821
873.308 .0269730
873.979 .0269642
874.651 .0269558
875.321 .0269482
875.992 .0269413
876.662 .0269349
877.331 .0269294
878.001 .0269251
878.670 .0269216
879.338 .0269192
880.007 .0269180
880.675 .0269179
881.342 .0269187
882.009 .0269207
882.676 .0269236
883.343 .0269277
884.009 .0269326
884.675 .0269381
885.340 .0269441
886.005 .0269506
886.670 .0269576
887.334 .0269647
887.998 .0269726
888.662 .0269812
889.325 .0269900
889.988 .0269995
890.650 .0270097
891.312 .0270206
891.974 .0270321
892.636 .0270442
893.297 .0270570
893.957 .0270700
894.618 .0270833
895.278 .0270968
895.937 .0271105
896.596 .0271250
897.255 .0271402
897.914 .0271557
898.572 .0271716
899.230 .0271875
899.887 .0272023
900.544 .0272161
901.201 .0272282
901.857 .0272381
902.513 .0272454
903.168 .0272506
903.823 .0272538
904.478 .0272552
905.132 .0272554
905.786 .0272544
906.440 .0272517
907.093 .0272475
907.746 .0272409
908.399 .0272329
909.051 .0272229
909.703 .0272115
910.354 .0271988
911.005 .0271852
911.656 .0271713
912.306 .0271572
912.956 .0271432
913.605 .0271295
914.254 .0271161
914.903 .0271032
915.551 .0270907
916.199 .0270795
916.847 .0270695
917.494 .0270611
918.141 .0270540
918.788 .0270482
919.434 .0270428
920.079 .0270379
920.725 .0270331
921.370 .0270279
922.014 .0270226
922.658 .0270168
923.302 .0270105
923.946 .0270036
924.589 .0269956
925.231 .0269867
925.873 .0269761
926.515 .0269634
927.157 .0269486
927.798 .0269313
928.439 .0269119
929.079 .0268911
929.719 .0268690
930.359 .0268460
930.998 .0268225
931.637 .0267991
932.275 .0267754
932.913 .0267517
933.551 .0267279
934.188 .0267038
934.825 .0266798
935.462 .0266559
936.098 .0266317
936.733 .0266084
937.369 .0265864
938.004 .0265650
938.638 .0265448
939.273 .0265262
939.907 .0265088
940.540 .0264931
941.173 .0264787
941.806 .0264651
942.438 .0264522
943.070 .0264400
943.702 .0264277
944.333 .0264151
944.964 .0264028
945.594 .0263907
946.224 .0263789
946.854 .0263682
947.483 .0263578
948.112 .0263481
948.741 .0263393
949.369 .0263301
949.996 .0263199
950.624 .0263089
951.251 .0262970
951.878 .0262839
952.504 .0262700
953.130 .0262549
953.755 .0262388
954.380 .0262219
955.005 .0262042
955.629 .0261849
956.253 .0261643
956.877 .0261427
957.500 .0261197
958.123 .0260960
958.746 .0260713
959.368 .0260458
959.990 .0260204
960.611 .0259949
961.232 .0259690
961.853 .0259425
962.473 .0259160
963.093 .0258895
963.712 .0258626
964.331 .0258358
964.950 .0258091
965.569 .0257831
966.187 .0257584
966.804 .0257352
967.422 .0257134
968.039 .0256932
968.655 .0256741
969.272 .0256556
969.887 .0256370
970.503 .0256184
971.118 .0255991
971.733 .0255794
972.347 .0255593
972.961 .0255386
973.575 .0255175
974.188 .0254966
974.801 .0254750
975.414 .0254529
976.026 .0254298
976.638 .0254057
977.250 .0253796
977.861 .0253523
978.472 .0253239
979.083 .0252949
979.693 .0252657
980.303 .0252372
980.912 .0252091
981.521 .0251820
982.130 .0251554
982.738 .0251290
983.346 .0251031
983.954 .0250780
984.562 .0250529
985.169 .0250283
985.775 .0250043
986.382 .0249814
986.988 .0249590
987.594 .0249381
988.199 .0249176
988.804 .0248973
989.409 .0248770
990.013 .0248566
990.617 .0248361
991.221 .0248159
991.824 .0247970
992.427 .0247797
993.030 .0247644
993.632 .0247514
994.234 .0247400
994.836 .0247311
995.438 .0247240
996.039 .0247175
996.640 .0247104
997.240 .0247038
997.840 .0246975
998.440 .0246914
999.040 .0246864
999.639 .0246826
1000.238 .0246803
1000.836 .0246792
1001.435 .0246789
1002.033 .0246782
1002.630 .0246773
1003.228 .0246763
1003.825 .0246743
1004.422 .0246724
1005.018 .0246710
1005.614 .0246709
1006.210 .0246729
1006.806 .0246776
1007.401 .0246841
1007.996 .0246924
1008.591 .0247029
1009.186 .0247147
1009.780 .0247268
1010.374 .0247390
1010.967 .0247510
1011.561 .0247628
1012.154 .0247745
1012.746 .0247859
1013.339 .0247968
1013.931 .0248081
1014.523 .0248189
1015.115 .0248290
1015.706 .0248388
1016.298 .0248480
1016.888 .0248574
1017.479 .0248670
1018.069 .0248760
1018.660 .0248846
1019.250 .0248927
1019.839 .0249013
1020.429 .0249103
1021.018 .0249194
1021.607 .0249294
1022.195 .0249405
1022.784 .0249532
1023.372 .0249669
1023.960 .0249823
1024.547 .0249996
1025.135 .0250179
1025.722 .0250364
1026.309 .0250554
1026.896 .0250742
1027.483 .0250928
1028.069 .0251116
1028.655 .0251303
1029.241 .0251485
1029.827 .0251660
1030.412 .0251829
1030.997 .0251998
1031.582 .0252172
1032.167 .0252353
1032.752 .0252538
1033.336 .0252739
1033.921 .0252954
1034.505 .0253169
1035.089 .0253383
1035.672 .0253598
1036.256 .0253810
1036.839 .0254012
1037.422 .0254212
1038.005 .0254408
1038.588 .0254614
1039.171 .0254841
1039.753 .0255091
1040.335 .0255362
1040.918 .0255651
1041.500 .0255942
1042.081 .0256224
1042.663 .0256486
1043.244 .0256719
1043.826 .0256915
1044.407 .0257085
1044.988 .0257235
1045.569 .0257364
1046.150 .0257476
1046.730 .0257585
1047.311 .0257689
1047.891 .0257801
1048.471 .0257913
1049.052 .0258027
1049.632 .0258147
1050.211 .0258274
1050.791 .0258403
1051.371 .0258544
1051.950 .0258699
1052.530 .0258862
1053.109 .0259025
1053.688 .0259191
1054.268 .0259350
1054.847 .0259511
1055.426 .0259682
1056.005 .0259866
1056.583 .0260068
1057.162 .0260287
1057.741 .0260507
1058.319 .0260730
1058.898 .0260949
1059.476 .0261137
1060.055 .0261290
1060.633 .0261410
1061.211 .0261492
1061.790 .0261537
1062.368 .0261577
1062.946 .0261627
1063.524 .0261698
1064.102 .0261800
1064.680 .0261926
1065.258 .0262071
1065.836 .0262228
1066.414 .0262381
1066.992 .0262516
1067.570 .0262636
1068.148 .0262736
1068.726 .0262803
1069.304 .0262858
1069.882 .0262907
1070.460 .0262949
1071.038 .0262985
1071.616 .0263030
1072.194 .0263074
1072.772 .0263117
1073.350 .0263155
1073.928 .0263203
1074.506 .0263257
1075.084 .0263316
1075.662 .0263379
1076.240 .0263450
1076.819 .0263527
1077.397 .0263615
1077.976 .0263698
1078.554 .0263793
1079.133 .0263893
1079.711 .0263999
1080.290 .0264095
1080.869 .0264192
1081.448 .0264272
1082.027 .0264331
1082.606 .0264373
1083.185 .0264397
1083.764 .0264401
1084.343 .0264403
1084.923 .0264399
1085.502 .0264392
1086.082 .0264387
1086.662 .0264395
1087.242 .0264391
1087.822 .0264392
1088.402 .0264377
1088.983 .0264358
1089.563 .0264348
1090.144 .0264355
1090.725 .0264376
1091.306 .0264427
1091.887 .0264505
1092.469 .0264599
1093.050 .0264704
1093.632 .0264812
1094.214 .0264901
1094.796 .0264979
1095.379 .0265048
1095.961 .0265113
1096.544 .0265182
1097.127 .0265285
1097.710 .0265406
1098.294 .0265560
1098.877 .0265735
1099.461 .0265914
1100.046 .0266112
1100.630 .0266321
1101.215 .0266540
1101.800 .0266767
1102.385 .0267009
1102.970 .0267264
1103.556 .0267499
1104.142 .0267722
1104.728 .0267918
1105.315 .0268073
1105.902 .0268194
1106.489 .0268298
1107.077 .0268392
1107.664 .0268510
1108.253 .0268665
1108.841 .0268863
1109.430 .0269086
1110.019 .0269327
1110.609 .0269554
1111.198 .0269721
1111.789 .0269858
1112.379 .0269961
1112.970 .0270045
1113.561 .0270180
1114.153 .0270380
1114.745 .0270664
1115.338 .0271028
1115.931 .0271450
1116.524 .0271856
1117.117 .0272229
1117.712 .0272546
1118.306 .0272753
1118.901 .0272873
1119.496 .0272937
1120.092 .0272970
1120.689 .0273041
1121.285 .0273198
1121.882 .0273448
1122.480 .0273789
1123.078 .0274227
1123.677 .0274684
1124.276 .0275150
1124.875 .0275630
1125.476 .0276103
1126.076 .0276582
1126.677 .0277110
1127.279 .0277657
1127.881 .0278269
1128.484 .0278980
1129.087 .0279771
1129.691 .0280657
1130.295 .0281647
1130.900 .0282660
1131.505 .0283674
1132.111 .0284663
1132.718 .0285610
1133.325 .0286473
1133.933 .0287312
1134.541 .0288124
1135.150 .0288908
1135.760 .0289756
1136.370 .0290644
1136.981 .0291584
1137.592 .0292650
1138.204 .0293764
1138.817 .0294893
1139.431 .0296015
1140.045 .0297239
1140.660 .0298548
1141.275 .0299846
1141.891 .0301007
1142.508 .0301474
1143.126 .0305549
1143.744 .0307654
1144.363 .0306108
1144.983 .0301524
