Measurement Sequence started on: 15-12-46-377
Integration time: 28
Scans to Average: 2 
>>>>>Begin Spectral Data<<<<<
432.689 .0000100
433.621 .0000100
434.552 .0000100
435.482 .0000100
436.410 .0000100
437.337 .0000100
438.262 .0283987
439.187 .0602789
440.110 .1000398
441.031 .1450363
441.952 .1888804
442.871 .2236189
443.789 .2430040
444.705 .2447824
445.621 .2314635
446.535 .2086477
447.447 .1825175
448.359 .1423478
449.269 .1220897
450.178 .1090270
451.086 .0996611
451.993 .0925076
452.898 .0868823
453.803 .0823112
454.706 .0785720
455.608 .0753843
456.508 .0726212
457.408 .0701925
458.306 .0680110
459.204 .0660263
460.100 .0642321
460.995 .0626190
461.888 .0611642
462.781 .0598702
463.673 .0587161
464.563 .0576779
465.452 .0567425
466.340 .0558636
467.228 .0550320
468.114 .0542516
468.999 .0535203
469.882 .0528276
470.765 .0521936
471.647 .0516119
472.528 .0510842
473.407 .0506196
474.286 .0502016
475.163 .0498267
476.040 .0494897
476.915 .0491865
477.790 .0489076
478.663 .0486661
479.535 .0484597
480.407 .0482878
481.277 .0481640
482.147 .0480745
483.015 .0480047
483.883 .0479541
484.749 .0479108
485.615 .0478665
486.479 .0478226
487.343 .0477818
488.206 .0477496
489.067 .0477373
489.928 .0477497
490.788 .0477935
491.647 .0478711
492.505 .0479790
493.362 .0481109
494.218 .0482624
495.073 .0484270
495.928 .0486011
496.781 .0487823
497.634 .0489857
498.486 .0492106
499.337 .0494646
500.187 .0497541
501.036 .0500813
501.884 .0504542
502.731 .0508599
503.578 .0513047
504.424 .0517804
505.268 .0522678
506.113 .0527723
506.956 .0532911
507.798 .0538433
508.640 .0544428
509.480 .0551083
510.320 .0558643
511.160 .0567321
511.998 .0577144
512.836 .0588145
513.672 .0600378
514.508 .0613853
515.344 .0628543
516.178 .0644641
517.012 .0662529
517.845 .0682506
518.677 .0704943
519.508 .0730284
520.339 .0758893
521.169 .0791559
521.998 .0828143
522.826 .0869029
523.654 .0914741
524.481 .0964951
525.307 .1020365
526.133 .1080712
526.958 .1145730
527.782 .1214922
528.605 .1286456
529.428 .1359149
530.250 .1427522
531.072 .1488423
531.892 .1538258
532.712 .1573946
533.532 .1594190
534.350 .1596955
535.168 .1582096
535.986 .1550990
536.802 .1504818
537.618 .1446639
538.434 .1378534
539.249 .1305072
540.063 .1228515
540.876 .1151707
541.689 .1077504
542.501 .1008185
543.313 .0945626
544.124 .0890674
544.934 .0842653
545.744 .0800811
546.553 .0763973
547.361 .0731640
548.169 .0703587
548.976 .0678966
549.783 .0657167
550.589 .0637885
551.395 .0620635
552.200 .0605250
553.004 .0591446
553.808 .0579026
554.611 .0568100
555.414 .0558291
556.216 .0549329
557.018 .0541078
557.819 .0533379
558.619 .0525871
559.419 .0518533
560.218 .0511439
561.017 .0504429
561.815 .0497498
562.613 .0490681
563.410 .0484016
564.207 .0477512
565.003 .0471143
565.799 .0464880
566.594 .0458638
567.388 .0452547
568.182 .0446517
568.976 .0440543
569.769 .0434816
570.562 .0429278
571.354 .0423842
572.145 .0418663
572.936 .0413660
573.727 .0408778
574.517 .0403989
575.307 .0399316
576.096 .0394699
576.885 .0390150
577.673 .0385776
578.461 .0381561
579.248 .0377568
580.035 .0373885
580.821 .0370440
581.607 .0367278
582.392 .0364388
583.177 .0361708
583.962 .0359222
584.746 .0356979
585.529 .0354889
586.313 .0352953
587.095 .0351158
587.878 .0349511
588.660 .0348023
589.441 .0346695
590.222 .0345515
591.003 .0344459
591.783 .0343500
592.563 .0342616
593.342 .0341779
594.121 .0340986
594.899 .0340233
595.678 .0339512
596.455 .0338832
597.233 .0338181
598.009 .0337561
598.786 .0336981
599.562 .0336427
600.338 .0335909
601.113 .0335406
601.888 .0334893
602.663 .0334381
603.437 .0333866
604.211 .0333355
604.984 .0332855
605.757 .0332372
606.530 .0331911
607.302 .0331488
608.074 .0331106
608.845 .0330765
609.616 .0330466
610.387 .0330208
611.158 .0329975
611.928 .0329757
612.697 .0329554
613.467 .0329348
614.236 .0329153
615.004 .0328977
615.773 .0328811
616.541 .0328667
617.308 .0328543
618.076 .0328449
618.843 .0328367
619.609 .0328291
620.375 .0328208
621.141 .0328105
621.907 .0327978
622.672 .0327819
623.437 .0327631
624.202 .0327422
624.966 .0327202
625.730 .0326974
626.493 .0326742
627.257 .0326516
628.020 .0326289
628.782 .0326057
629.545 .0325813
630.307 .0325546
631.068 .0325245
631.830 .0324922
632.591 .0324566
633.352 .0324183
634.112 .0323776
634.872 .0323351
635.632 .0322914
636.392 .0322467
637.151 .0322017
637.910 .0321569
638.668 .0321131
639.427 .0320706
640.185 .0320283
640.943 .0319884
641.700 .0319496
642.457 .0319121
643.214 .0318760
643.971 .0318407
644.727 .0318061
645.483 .0317722
646.239 .0317387
646.994 .0317058
647.750 .0316747
648.505 .0316451
649.259 .0316174
650.014 .0315916
650.768 .0315667
651.521 .0315418
652.275 .0315163
653.028 .0314896
653.781 .0314600
654.534 .0314282
655.286 .0313941
656.039 .0313584
656.791 .0313220
657.542 .0312852
658.294 .0312498
659.045 .0312159
659.796 .0311829
660.546 .0311504
661.297 .0311181
662.047 .0310856
662.796 .0310523
663.546 .0310185
664.295 .0309841
665.044 .0309500
665.793 .0309165
666.542 .0308837
667.290 .0308526
668.038 .0308231
668.786 .0307951
669.533 .0307683
670.281 .0307430
671.028 .0307185
671.774 .0306952
672.521 .0306737
673.267 .0306539
674.013 .0306364
674.759 .0306210
675.505 .0306074
676.250 .0305950
676.995 .0305834
677.740 .0305723
678.484 .0305609
679.229 .0305497
679.973 .0305379
680.717 .0305262
681.460 .0305150
682.204 .0305044
682.947 .0304940
683.690 .0304839
684.433 .0304736
685.175 .0304625
685.917 .0304498
686.659 .0304363
687.401 .0304216
688.142 .0304066
688.884 .0303916
689.625 .0303773
690.365 .0303634
691.106 .0303505
691.846 .0303388
692.586 .0303280
693.326 .0303178
694.066 .0303081
694.805 .0302983
695.545 .0302882
696.284 .0302779
697.022 .0302668
697.761 .0302553
698.499 .0302439
699.237 .0302317
699.975 .0302188
700.713 .0302056
701.450 .0301921
702.187 .0301781
702.924 .0301640
703.661 .0301499
704.397 .0301352
705.133 .0301205
705.869 .0301057
706.605 .0300908
707.341 .0300766
708.076 .0300624
708.811 .0300487
709.546 .0300353
710.281 .0300220
711.015 .0300088
711.749 .0299952
712.483 .0299813
713.217 .0299664
713.950 .0299505
714.684 .0299338
715.417 .0299160
716.150 .0298976
716.882 .0298789
717.615 .0298604
718.347 .0298415
719.079 .0298221
719.811 .0298020
720.542 .0297812
721.273 .0297590
722.005 .0297359
722.735 .0297116
723.466 .0296868
724.196 .0296614
724.927 .0296353
725.656 .0296084
726.386 .0295812
727.116 .0295533
727.845 .0295253
728.574 .0294964
729.303 .0294677
730.031 .0294386
730.760 .0294101
731.488 .0293818
732.216 .0293543
732.944 .0293277
733.671 .0293019
734.398 .0292764
735.125 .0292516
735.852 .0292268
736.579 .0292025
737.305 .0291788
738.031 .0291559
738.757 .0291334
739.483 .0291116
740.208 .0290902
740.933 .0290695
741.658 .0290488
742.383 .0290282
743.108 .0290069
743.832 .0289857
744.556 .0289642
745.280 .0289425
746.004 .0289209
746.727 .0288999
747.450 .0288795
748.173 .0288594
748.896 .0288401
749.618 .0288211
750.340 .0288027
751.062 .0287849
751.784 .0287671
752.506 .0287491
753.227 .0287309
753.948 .0287120
754.669 .0286922
755.389 .0286718
756.110 .0286509
756.830 .0286295
757.550 .0286086
758.269 .0285880
758.989 .0285681
759.708 .0285486
760.427 .0285300
761.146 .0285113
761.864 .0284930
762.582 .0284749
763.300 .0284571
764.018 .0284402
764.736 .0284244
765.453 .0284102
766.170 .0283979
766.887 .0283874
767.603 .0283784
768.320 .0283695
769.036 .0283607
769.751 .0283510
770.467 .0283405
771.182 .0283290
771.897 .0283169
772.612 .0283047
773.327 .0282933
774.041 .0282829
774.755 .0282741
775.469 .0282670
776.183 .0282616
776.896 .0282571
777.609 .0282535
778.322 .0282500
779.035 .0282473
779.747 .0282450
780.459 .0282439
781.171 .0282440
781.882 .0282460
782.594 .0282498
783.305 .0282555
784.016 .0282630
784.726 .0282720
785.436 .0282815
786.147 .0282915
786.856 .0283012
787.566 .0283103
788.275 .0283184
788.984 .0283257
789.693 .0283321
790.401 .0283380
791.110 .0283430
791.818 .0283476
792.525 .0283516
793.233 .0283554
793.940 .0283588
794.647 .0283616
795.353 .0283638
796.060 .0283654
796.766 .0283660
797.472 .0283653
798.177 .0283632
798.883 .0283598
799.588 .0283551
800.292 .0283496
800.997 .0283432
801.701 .0283367
802.405 .0283302
803.109 .0283244
803.812 .0283190
804.515 .0283143
805.218 .0283096
805.921 .0283039
806.623 .0282974
807.325 .0282898
808.027 .0282806
808.728 .0282701
809.429 .0282590
810.130 .0282474
810.831 .0282359
811.531 .0282244
812.231 .0282129
812.931 .0282016
813.630 .0281900
814.330 .0281772
815.029 .0281630
815.727 .0281477
816.426 .0281311
817.124 .0281138
817.821 .0280966
818.519 .0280796
819.216 .0280635
819.913 .0280486
820.609 .0280347
821.306 .0280220
822.002 .0280104
822.697 .0279996
823.393 .0279901
824.088 .0279816
824.783 .0279734
825.477 .0279656
826.171 .0279584
826.865 .0279517
827.559 .0279447
828.252 .0279377
828.945 .0279302
829.638 .0279227
830.330 .0279153
831.023 .0279076
831.714 .0279004
832.406 .0278937
833.097 .0278866
833.788 .0278786
834.479 .0278695
835.169 .0278589
835.859 .0278467
836.548 .0278337
837.238 .0278194
837.927 .0278038
838.615 .0277873
839.304 .0277703
839.992 .0277526
840.680 .0277344
841.367 .0277153
842.054 .0276954
842.741 .0276748
843.428 .0276534
844.114 .0276316
844.800 .0276098
845.485 .0275884
846.170 .0275670
846.855 .0275454
847.540 .0275240
848.224 .0275019
848.908 .0274797
849.592 .0274574
850.275 .0274351
850.958 .0274125
851.641 .0273896
852.323 .0273660
853.005 .0273419
853.687 .0273171
854.368 .0272915
855.049 .0272650
855.730 .0272380
856.410 .0272103
857.090 .0271822
857.769 .0271540
858.449 .0271259
859.128 .0270976
859.806 .0270695
860.485 .0270410
861.163 .0270123
861.840 .0269838
862.518 .0269556
863.195 .0269280
863.871 .0269010
864.548 .0268744
865.224 .0268484
865.899 .0268231
866.574 .0267980
867.249 .0267732
867.924 .0267487
868.598 .0267243
869.272 .0267003
869.946 .0266765
870.619 .0266529
871.292 .0266301
871.964 .0266081
872.636 .0265868
873.308 .0265657
873.979 .0265452
874.651 .0265254
875.321 .0265064
875.992 .0264884
876.662 .0264710
877.331 .0264545
878.001 .0264388
878.670 .0264236
879.338 .0264091
880.007 .0263955
880.675 .0263832
881.342 .0263720
882.009 .0263622
882.676 .0263538
883.343 .0263469
884.009 .0263416
884.675 .0263373
885.340 .0263340
886.005 .0263313
886.670 .0263296
887.334 .0263289
887.998 .0263297
888.662 .0263319
889.325 .0263357
889.988 .0263412
890.650 .0263480
891.312 .0263553
891.974 .0263624
892.636 .0263694
893.297 .0263761
893.957 .0263819
894.618 .0263871
895.278 .0263918
895.937 .0263968
896.596 .0264018
897.255 .0264074
897.914 .0264138
898.572 .0264207
899.230 .0264278
899.887 .0264342
900.544 .0264398
901.201 .0264444
901.857 .0264475
902.513 .0264495
903.168 .0264504
903.823 .0264500
904.478 .0264486
905.132 .0264464
905.786 .0264437
906.440 .0264402
907.093 .0264359
907.746 .0264305
908.399 .0264237
909.051 .0264152
909.703 .0264049
910.354 .0263930
911.005 .0263803
911.656 .0263664
912.306 .0263517
912.956 .0263375
913.605 .0263241
914.254 .0263123
914.903 .0263022
915.551 .0262937
916.199 .0262871
916.847 .0262816
917.494 .0262774
918.141 .0262737
918.788 .0262711
919.434 .0262696
920.079 .0262686
920.725 .0262688
921.370 .0262698
922.014 .0262718
922.658 .0262748
923.302 .0262780
923.946 .0262810
924.589 .0262829
925.231 .0262830
925.873 .0262814
926.515 .0262780
927.157 .0262730
927.798 .0262665
928.439 .0262591
929.079 .0262513
929.719 .0262427
930.359 .0262340
930.998 .0262252
931.637 .0262162
932.275 .0262068
932.913 .0261967
933.551 .0261867
934.188 .0261773
934.825 .0261683
935.462 .0261605
936.098 .0261541
936.733 .0261497
937.369 .0261468
938.004 .0261457
938.638 .0261466
939.273 .0261492
939.907 .0261530
940.540 .0261583
941.173 .0261644
941.806 .0261719
942.438 .0261802
943.070 .0261896
943.702 .0261998
944.333 .0262101
944.964 .0262200
945.594 .0262294
946.224 .0262381
946.854 .0262462
947.483 .0262527
948.112 .0262585
948.741 .0262629
949.369 .0262662
949.996 .0262679
950.624 .0262687
951.251 .0262689
951.878 .0262686
952.504 .0262677
953.130 .0262660
953.755 .0262641
954.380 .0262624
955.005 .0262604
955.629 .0262587
956.253 .0262569
956.877 .0262549
957.500 .0262529
958.123 .0262514
958.746 .0262494
959.368 .0262473
959.990 .0262443
960.611 .0262403
961.232 .0262349
961.853 .0262281
962.473 .0262196
963.093 .0262096
963.712 .0261987
964.331 .0261864
964.950 .0261725
965.569 .0261581
966.187 .0261427
966.804 .0261272
967.422 .0261115
968.039 .0260958
968.655 .0260801
969.272 .0260648
969.887 .0260499
970.503 .0260352
971.118 .0260207
971.733 .0260069
972.347 .0259931
972.961 .0259791
973.575 .0259652
974.188 .0259506
974.801 .0259351
975.414 .0259187
976.026 .0259010
976.638 .0258821
977.250 .0258623
977.861 .0258421
978.472 .0258215
979.083 .0258009
979.693 .0257805
980.303 .0257597
980.912 .0257395
981.521 .0257191
982.130 .0256985
982.738 .0256780
983.346 .0256574
983.954 .0256364
984.562 .0256155
985.169 .0255947
985.775 .0255737
986.382 .0255524
986.988 .0255304
987.594 .0255076
988.199 .0254842
988.804 .0254599
989.409 .0254348
990.013 .0254089
990.617 .0253827
991.221 .0253560
991.824 .0253293
992.427 .0253027
993.030 .0252765
993.632 .0252511
994.234 .0252267
994.836 .0252033
995.438 .0251812
996.039 .0251604
996.640 .0251408
997.240 .0251228
997.840 .0251059
998.440 .0250905
999.040 .0250770
999.639 .0250647
1000.238 .0250540
1000.836 .0250441
1001.435 .0250343
1002.033 .0250246
1002.630 .0250144
1003.228 .0250033
1003.825 .0249916
1004.422 .0249797
1005.018 .0249676
1005.614 .0249553
1006.210 .0249435
1006.806 .0249316
1007.401 .0249192
1007.996 .0249066
1008.591 .0248924
1009.186 .0248770
1009.780 .0248603
1010.374 .0248426
1010.967 .0248243
1011.561 .0248060
1012.154 .0247882
1012.746 .0247712
1013.339 .0247552
1013.931 .0247406
1014.523 .0247265
1015.115 .0247128
1015.706 .0246991
1016.298 .0246854
1016.888 .0246720
1017.479 .0246593
1018.069 .0246472
1018.660 .0246361
1019.250 .0246263
1019.839 .0246180
1020.429 .0246104
1021.018 .0246034
1021.607 .0245971
1022.195 .0245910
1022.784 .0245846
1023.372 .0245783
1023.960 .0245720
1024.547 .0245661
1025.135 .0245605
1025.722 .0245549
1026.309 .0245502
1026.896 .0245466
1027.483 .0245434
1028.069 .0245411
1028.655 .0245399
1029.241 .0245389
1029.827 .0245377
1030.412 .0245370
1030.997 .0245367
1031.582 .0245367
1032.167 .0245376
1032.752 .0245389
1033.336 .0245408
1033.921 .0245437
1034.505 .0245470
1035.089 .0245507
1035.672 .0245552
1036.256 .0245593
1036.839 .0245624
1037.422 .0245650
1038.005 .0245674
1038.588 .0245694
1039.171 .0245716
1039.753 .0245743
1040.335 .0245769
1040.918 .0245797
1041.500 .0245824
1042.081 .0245847
1042.663 .0245868
1043.244 .0245882
1043.826 .0245877
1044.407 .0245860
1044.988 .0245835
1045.569 .0245812
1046.150 .0245794
1046.730 .0245784
1047.311 .0245782
1047.891 .0245776
1048.471 .0245767
1049.052 .0245751
1049.632 .0245723
1050.211 .0245694
1050.791 .0245652
1051.371 .0245615
1051.950 .0245580
1052.530 .0245553
1053.109 .0245537
1053.688 .0245534
1054.268 .0245547
1054.847 .0245565
1055.426 .0245574
1056.005 .0245574
1056.583 .0245571
1057.162 .0245561
1057.741 .0245552
1058.319 .0245549
1058.898 .0245559
1059.476 .0245575
1060.055 .0245604
1060.633 .0245645
1061.211 .0245689
1061.790 .0245742
1062.368 .0245800
1062.946 .0245856
1063.524 .0245918
1064.102 .0245984
1064.680 .0246053
1065.258 .0246126
1065.836 .0246198
1066.414 .0246252
1066.992 .0246297
1067.570 .0246328
1068.148 .0246345
1068.726 .0246352
1069.304 .0246371
1069.882 .0246404
1070.460 .0246451
1071.038 .0246525
1071.616 .0246614
1072.194 .0246720
1072.772 .0246826
1073.350 .0246930
1073.928 .0247029
1074.506 .0247124
1075.084 .0247221
1075.662 .0247319
1076.240 .0247434
1076.819 .0247556
1077.397 .0247697
1077.976 .0247848
1078.554 .0248006
1079.133 .0248173
1079.711 .0248338
1080.290 .0248501
1080.869 .0248652
1081.448 .0248806
1082.027 .0248950
1082.606 .0249100
1083.185 .0249255
1083.764 .0249414
1084.343 .0249603
1084.923 .0249805
1085.502 .0250023
1086.082 .0250268
1086.662 .0250546
1087.242 .0250830
1087.822 .0251119
1088.402 .0251416
1088.983 .0251700
1089.563 .0251975
1090.144 .0252235
1090.725 .0252482
1091.306 .0252727
1091.887 .0252989
1092.469 .0253255
1093.050 .0253542
1093.632 .0253864
1094.214 .0254195
1094.796 .0254560
1095.379 .0254946
1095.961 .0255346
1096.544 .0255759
1097.127 .0256189
1097.710 .0256633
1098.294 .0257065
1098.877 .0257483
1099.461 .0257872
1100.046 .0258229
1100.630 .0258554
1101.215 .0258846
1101.800 .0259123
1102.385 .0259399
1102.970 .0259678
1103.556 .0259946
1104.142 .0260210
1104.728 .0260469
1105.315 .0260716
1105.902 .0260926
1106.489 .0261106
1107.077 .0261260
1107.664 .0261418
1108.253 .0261600
1108.841 .0261833
1109.430 .0262119
1110.019 .0262470
1110.609 .0262875
1111.198 .0263299
1111.789 .0263736
1112.379 .0264184
1112.970 .0264598
1113.561 .0264999
1114.153 .0265371
1114.745 .0265742
1115.338 .0266110
1115.931 .0266523
1116.524 .0266965
1117.117 .0267444
1117.712 .0267963
1118.306 .0268526
1118.901 .0269141
1119.496 .0269817
1120.092 .0270546
1120.689 .0271312
1121.285 .0272096
1121.882 .0272874
1122.480 .0273626
1123.078 .0274392
1123.677 .0275149
1124.276 .0275910
1124.875 .0276674
1125.476 .0277510
1126.076 .0278393
1126.677 .0279340
1127.279 .0280352
1127.881 .0281388
1128.484 .0282415
1129.087 .0283367
1129.691 .0284234
1130.295 .0285035
1130.900 .0285793
1131.505 .0286550
1132.111 .0287277
1132.718 .0288054
1133.325 .0288867
1133.933 .0289739
1134.541 .0290662
1135.150 .0291618
1135.760 .0292553
1136.370 .0293464
1136.981 .0294331
1137.592 .0295142
1138.204 .0295878
1138.817 .0296578
1139.431 .0297286
1140.045 .0298060
1140.660 .0298893
1141.275 .0299813
1141.891 .0300814
1142.508 .0301493
1143.126 .0304508
1143.744 .0305288
1144.363 .0305696
1144.983 .0305989
