Measurement Sequence started on: 15-12-46-377
Integration time: 28
Scans to Average: 2 
>>>>>Begin Spectral Data<<<<<
432.689 .0000100
433.621 .0000100
434.552 .0000100
435.482 .0000100
436.410 .0000100
437.337 .0000100
438.262 .0268154
439.187 .0568190
440.110 .0941484
441.031 .1362477
441.952 .1771647
442.871 .2093883
443.789 .2271010
444.705 .2283073
445.621 .2154788
446.535 .1939517
447.447 .1695608
448.359 .1321166
449.269 .1136484
450.178 .1019903
451.086 .0937696
451.993 .0874275
452.898 .0823971
453.803 .0782456
454.706 .0747636
455.608 .0717569
456.508 .0691686
457.408 .0669208
458.306 .0649463
459.204 .0631719
460.100 .0615815
460.995 .0601416
461.888 .0588481
462.781 .0576624
463.673 .0565773
464.563 .0555865
465.452 .0546845
466.340 .0538361
467.228 .0530661
468.114 .0523551
468.999 .0517159
469.882 .0511308
470.765 .0506071
471.647 .0501280
472.528 .0496935
473.407 .0493059
474.286 .0489685
475.163 .0486657
476.040 .0484055
476.915 .0481826
477.790 .0480011
478.663 .0478544
479.535 .0477410
480.407 .0476541
481.277 .0475981
482.147 .0475634
483.015 .0475481
483.883 .0475418
484.749 .0475530
485.615 .0475731
486.479 .0476027
487.343 .0476426
488.206 .0476924
489.067 .0477487
489.928 .0478115
490.788 .0478845
491.647 .0479636
492.505 .0480503
493.362 .0481499
494.218 .0482620
495.073 .0483907
495.928 .0485420
496.781 .0487093
497.634 .0488963
498.486 .0491019
499.337 .0493265
500.187 .0495651
501.036 .0498224
501.884 .0501041
502.731 .0504062
503.578 .0507283
504.424 .0510785
505.268 .0514425
506.113 .0518324
506.956 .0522509
507.798 .0527095
508.640 .0532109
509.480 .0537756
510.320 .0544156
511.160 .0551462
511.998 .0559778
512.836 .0569311
513.672 .0580053
514.508 .0592282
515.344 .0605992
516.178 .0621376
517.012 .0638773
517.845 .0658807
518.677 .0681734
519.508 .0707964
520.339 .0737907
521.169 .0772041
521.998 .0810469
522.826 .0853691
523.654 .0901870
524.481 .0954848
525.307 .1013249
526.133 .1076982
526.958 .1145519
527.782 .1217879
528.605 .1291735
529.428 .1365859
530.250 .1434966
531.072 .1496317
531.892 .1546123
532.712 .1582162
533.532 .1603255
534.350 .1607362
535.168 .1594266
535.986 .1564939
536.802 .1521256
537.618 .1465330
538.434 .1398973
539.249 .1327023
540.063 .1251674
540.876 .1176283
541.689 .1103233
542.501 .1034971
543.313 .0973137
544.124 .0918113
544.934 .0869328
545.744 .0825731
546.553 .0786931
547.361 .0752083
548.169 .0720938
548.976 .0693094
549.783 .0668292
550.589 .0646140
551.395 .0626115
552.200 .0608218
553.004 .0592080
553.808 .0577356
554.611 .0563860
555.414 .0551401
556.216 .0539812
557.018 .0529116
557.819 .0519340
558.619 .0510496
559.419 .0502672
560.218 .0495701
561.017 .0489454
561.815 .0483708
562.613 .0478108
563.410 .0472570
564.207 .0466911
565.003 .0461213
565.799 .0455494
566.594 .0449724
567.388 .0444097
568.182 .0438597
568.976 .0433283
569.769 .0428128
570.562 .0423112
571.354 .0418184
572.145 .0413313
572.936 .0408474
573.727 .0403641
574.517 .0398839
575.307 .0394162
576.096 .0389627
576.885 .0385269
577.673 .0381157
578.461 .0377275
579.248 .0373630
580.035 .0370271
580.821 .0367100
581.607 .0364126
582.392 .0361374
583.177 .0358825
583.962 .0356439
584.746 .0354246
585.529 .0352213
586.313 .0350318
587.095 .0348560
587.878 .0346912
588.660 .0345348
589.441 .0343891
590.222 .0342537
591.003 .0341294
591.783 .0340181
592.563 .0339184
593.342 .0338267
594.121 .0337412
594.899 .0336618
595.678 .0335851
596.455 .0335121
597.233 .0334423
598.009 .0333755
598.786 .0333121
599.562 .0332530
600.338 .0331973
601.113 .0331458
601.888 .0330974
602.663 .0330513
603.437 .0330053
604.211 .0329597
604.984 .0329137
605.757 .0328678
606.530 .0328224
607.302 .0327792
608.074 .0327376
608.845 .0326981
609.616 .0326593
610.387 .0326225
611.158 .0325864
611.928 .0325509
612.697 .0325159
613.467 .0324817
614.236 .0324484
615.004 .0324176
615.773 .0323894
616.541 .0323649
617.308 .0323446
618.076 .0323284
618.843 .0323149
619.609 .0323048
620.375 .0322961
621.141 .0322886
621.907 .0322821
622.672 .0322769
623.437 .0322707
624.202 .0322648
624.966 .0322594
625.730 .0322535
626.493 .0322469
627.257 .0322405
628.020 .0322328
628.782 .0322235
629.545 .0322116
630.307 .0321963
631.068 .0321777
631.830 .0321570
632.591 .0321326
633.352 .0321055
634.112 .0320768
634.872 .0320468
635.632 .0320156
636.392 .0319848
637.151 .0319541
637.910 .0319232
638.668 .0318927
639.427 .0318628
640.185 .0318322
640.943 .0318024
641.700 .0317736
642.457 .0317450
643.214 .0317174
643.971 .0316896
644.727 .0316619
645.483 .0316342
646.239 .0316070
646.994 .0315789
647.750 .0315508
648.505 .0315230
649.259 .0314956
650.014 .0314688
650.768 .0314435
651.521 .0314184
652.275 .0313936
653.028 .0313685
653.781 .0313415
654.534 .0313119
655.286 .0312810
656.039 .0312475
656.791 .0312123
657.542 .0311751
658.294 .0311370
659.045 .0310983
659.796 .0310597
660.546 .0310206
661.297 .0309813
662.047 .0309414
662.796 .0309004
663.546 .0308580
664.295 .0308152
665.044 .0307723
665.793 .0307301
666.542 .0306890
667.290 .0306502
668.038 .0306135
668.786 .0305797
669.533 .0305482
670.281 .0305190
671.028 .0304914
671.774 .0304649
672.521 .0304394
673.267 .0304150
674.013 .0303916
674.759 .0303691
675.505 .0303475
676.250 .0303269
676.995 .0303073
677.740 .0302883
678.484 .0302698
679.229 .0302522
679.973 .0302347
680.717 .0302175
681.460 .0302005
682.204 .0301833
682.947 .0301661
683.690 .0301492
684.433 .0301323
685.175 .0301156
685.917 .0300994
686.659 .0300831
687.401 .0300674
688.142 .0300531
688.884 .0300395
689.625 .0300268
690.365 .0300151
691.106 .0300038
691.846 .0299925
692.586 .0299814
693.326 .0299698
694.066 .0299576
694.805 .0299456
695.545 .0299328
696.284 .0299192
697.022 .0299058
697.761 .0298921
698.499 .0298779
699.237 .0298641
699.975 .0298503
700.713 .0298365
701.450 .0298233
702.187 .0298109
702.924 .0297988
703.661 .0297877
704.397 .0297776
705.133 .0297682
705.869 .0297599
706.605 .0297526
707.341 .0297453
708.076 .0297391
708.811 .0297334
709.546 .0297275
710.281 .0297211
711.015 .0297142
711.749 .0297064
712.483 .0296973
713.217 .0296868
713.950 .0296752
714.684 .0296627
715.417 .0296493
716.150 .0296349
716.882 .0296196
717.615 .0296042
718.347 .0295880
719.079 .0295715
719.811 .0295550
720.542 .0295383
721.273 .0295216
722.005 .0295046
722.735 .0294877
723.466 .0294711
724.196 .0294545
724.927 .0294376
725.656 .0294201
726.386 .0294020
727.116 .0293831
727.845 .0293633
728.574 .0293431
729.303 .0293228
730.031 .0293022
730.760 .0292820
731.488 .0292620
732.216 .0292423
732.944 .0292234
733.671 .0292049
734.398 .0291866
735.125 .0291686
735.852 .0291507
736.579 .0291330
737.305 .0291160
738.031 .0291002
738.757 .0290849
739.483 .0290699
740.208 .0290552
740.933 .0290400
741.658 .0290238
742.383 .0290063
743.108 .0289871
743.832 .0289663
744.556 .0289443
745.280 .0289209
746.004 .0288969
746.727 .0288730
747.450 .0288494
748.173 .0288259
748.896 .0288023
749.618 .0287782
750.340 .0287534
751.062 .0287278
751.784 .0287015
752.506 .0286746
753.227 .0286473
753.948 .0286202
754.669 .0285936
755.389 .0285675
756.110 .0285420
756.830 .0285171
757.550 .0284928
758.269 .0284685
758.989 .0284439
759.708 .0284185
760.427 .0283930
761.146 .0283672
761.864 .0283413
762.582 .0283153
763.300 .0282896
764.018 .0282646
764.736 .0282406
765.453 .0282174
766.170 .0281949
766.887 .0281733
767.603 .0281523
768.320 .0281316
769.036 .0281110
769.751 .0280905
770.467 .0280701
771.182 .0280500
771.897 .0280299
772.612 .0280099
773.327 .0279907
774.041 .0279726
774.755 .0279553
775.469 .0279396
776.183 .0279254
776.896 .0279125
777.609 .0279010
778.322 .0278901
779.035 .0278801
779.747 .0278706
780.459 .0278620
781.171 .0278544
781.882 .0278480
782.594 .0278435
783.305 .0278412
784.016 .0278419
784.726 .0278455
785.436 .0278513
786.147 .0278590
786.856 .0278674
787.566 .0278758
788.275 .0278833
788.984 .0278896
789.693 .0278946
790.401 .0278987
791.110 .0279012
791.818 .0279029
792.525 .0279042
793.233 .0279053
793.940 .0279058
794.647 .0279056
795.353 .0279046
796.060 .0279028
796.766 .0278999
797.472 .0278962
798.177 .0278919
798.883 .0278881
799.588 .0278843
800.292 .0278812
800.997 .0278785
801.701 .0278765
802.405 .0278750
803.109 .0278740
803.812 .0278732
804.515 .0278723
805.218 .0278706
805.921 .0278681
806.623 .0278647
807.325 .0278602
808.027 .0278546
808.728 .0278479
809.429 .0278401
810.130 .0278312
810.831 .0278213
811.531 .0278103
812.231 .0277987
812.931 .0277870
813.630 .0277747
814.330 .0277624
815.029 .0277504
815.727 .0277388
816.426 .0277280
817.124 .0277183
817.821 .0277096
818.519 .0277022
819.216 .0276965
819.913 .0276919
820.609 .0276888
821.306 .0276869
822.002 .0276860
822.697 .0276856
823.393 .0276864
824.088 .0276875
824.783 .0276890
825.477 .0276909
826.171 .0276932
826.865 .0276957
827.559 .0276985
828.252 .0277012
828.945 .0277038
829.638 .0277061
830.330 .0277079
831.023 .0277086
831.714 .0277086
832.406 .0277074
833.097 .0277050
833.788 .0277013
834.479 .0276968
835.169 .0276913
835.859 .0276856
836.548 .0276797
837.238 .0276739
837.927 .0276679
838.615 .0276618
839.304 .0276554
839.992 .0276486
840.680 .0276409
841.367 .0276319
842.054 .0276218
842.741 .0276109
843.428 .0275986
844.114 .0275857
844.800 .0275716
845.485 .0275568
846.170 .0275408
846.855 .0275232
847.540 .0275040
848.224 .0274831
848.908 .0274605
849.592 .0274364
850.275 .0274108
850.958 .0273838
851.641 .0273560
852.323 .0273279
853.005 .0272994
853.687 .0272699
854.368 .0272400
855.049 .0272096
855.730 .0271786
856.410 .0271474
857.090 .0271159
857.769 .0270846
858.449 .0270540
859.128 .0270236
859.806 .0269933
860.485 .0269630
861.163 .0269327
861.840 .0269021
862.518 .0268715
863.195 .0268403
863.871 .0268090
864.548 .0267783
865.224 .0267485
865.899 .0267191
866.574 .0266906
867.249 .0266627
867.924 .0266353
868.598 .0266084
869.272 .0265814
869.946 .0265544
870.619 .0265277
871.292 .0265008
871.964 .0264742
872.636 .0264479
873.308 .0264221
873.979 .0263968
874.651 .0263721
875.321 .0263477
875.992 .0263236
876.662 .0263000
877.331 .0262770
878.001 .0262548
878.670 .0262333
879.338 .0262126
880.007 .0261929
880.675 .0261749
881.342 .0261580
882.009 .0261421
882.676 .0261275
883.343 .0261140
884.009 .0261012
884.675 .0260891
885.340 .0260777
886.005 .0260668
886.670 .0260565
887.334 .0260469
887.998 .0260374
888.662 .0260289
889.325 .0260211
889.988 .0260140
890.650 .0260080
891.312 .0260027
891.974 .0259980
892.636 .0259939
893.297 .0259909
893.957 .0259888
894.618 .0259871
895.278 .0259863
895.937 .0259862
896.596 .0259866
897.255 .0259874
897.914 .0259881
898.572 .0259884
899.230 .0259885
899.887 .0259876
900.544 .0259858
901.201 .0259830
901.857 .0259795
902.513 .0259749
903.168 .0259688
903.823 .0259612
904.478 .0259517
905.132 .0259405
905.786 .0259275
906.440 .0259130
907.093 .0258974
907.746 .0258810
908.399 .0258642
909.051 .0258473
909.703 .0258304
910.354 .0258137
911.005 .0257976
911.656 .0257819
912.306 .0257664
912.956 .0257514
913.605 .0257372
914.254 .0257240
914.903 .0257119
915.551 .0257014
916.199 .0256922
916.847 .0256848
917.494 .0256786
918.141 .0256734
918.788 .0256695
919.434 .0256668
920.079 .0256649
920.725 .0256636
921.370 .0256630
922.014 .0256629
922.658 .0256624
923.302 .0256618
923.946 .0256603
924.589 .0256577
925.231 .0256538
925.873 .0256487
926.515 .0256422
927.157 .0256352
927.798 .0256277
928.439 .0256194
929.079 .0256107
929.719 .0256011
930.359 .0255902
930.998 .0255783
931.637 .0255662
932.275 .0255534
932.913 .0255408
933.551 .0255291
934.188 .0255187
934.825 .0255102
935.462 .0255040
936.098 .0254996
936.733 .0254975
937.369 .0254971
938.004 .0254979
938.638 .0254998
939.273 .0255035
939.907 .0255089
940.540 .0255162
941.173 .0255257
941.806 .0255374
942.438 .0255506
943.070 .0255654
943.702 .0255808
944.333 .0255958
944.964 .0256099
945.594 .0256226
946.224 .0256339
946.854 .0256445
947.483 .0256545
948.112 .0256641
948.741 .0256734
949.369 .0256826
949.996 .0256910
950.624 .0256981
951.251 .0257042
951.878 .0257091
952.504 .0257130
953.130 .0257158
953.755 .0257175
954.380 .0257186
955.005 .0257196
955.629 .0257207
956.253 .0257219
956.877 .0257233
957.500 .0257252
958.123 .0257277
958.746 .0257307
959.368 .0257341
959.990 .0257379
960.611 .0257418
961.232 .0257459
961.853 .0257500
962.473 .0257539
963.093 .0257576
963.712 .0257611
964.331 .0257647
964.950 .0257677
965.569 .0257706
966.187 .0257730
966.804 .0257748
967.422 .0257761
968.039 .0257762
968.655 .0257749
969.272 .0257725
969.887 .0257689
970.503 .0257644
971.118 .0257594
971.733 .0257541
972.347 .0257486
972.961 .0257435
973.575 .0257385
974.188 .0257336
974.801 .0257285
975.414 .0257229
976.026 .0257166
976.638 .0257092
977.250 .0257006
977.861 .0256907
978.472 .0256798
979.083 .0256685
979.693 .0256562
980.303 .0256436
980.912 .0256302
981.521 .0256163
982.130 .0256018
982.738 .0255868
983.346 .0255709
983.954 .0255542
984.562 .0255366
985.169 .0255181
985.775 .0254988
986.382 .0254789
986.988 .0254588
987.594 .0254390
988.199 .0254196
988.804 .0254008
989.409 .0253822
990.013 .0253649
990.617 .0253484
991.221 .0253323
991.824 .0253167
992.427 .0253012
993.030 .0252856
993.632 .0252702
994.234 .0252547
994.836 .0252395
995.438 .0252249
996.039 .0252111
996.640 .0251975
997.240 .0251848
997.840 .0251728
998.440 .0251610
999.040 .0251491
999.639 .0251369
1000.238 .0251236
1000.836 .0251091
1001.435 .0250931
1002.033 .0250760
1002.630 .0250582
1003.228 .0250399
1003.825 .0250214
1004.422 .0250035
1005.018 .0249865
1005.614 .0249701
1006.210 .0249545
1006.806 .0249398
1007.401 .0249252
1007.996 .0249101
1008.591 .0248949
1009.186 .0248794
1009.780 .0248644
1010.374 .0248494
1010.967 .0248348
1011.561 .0248212
1012.154 .0248084
1012.746 .0247960
1013.339 .0247839
1013.931 .0247716
1014.523 .0247590
1015.115 .0247451
1015.706 .0247310
1016.298 .0247160
1016.888 .0247013
1017.479 .0246873
1018.069 .0246746
1018.660 .0246631
1019.250 .0246535
1019.839 .0246445
1020.429 .0246368
1021.018 .0246297
1021.607 .0246227
1022.195 .0246142
1022.784 .0246052
1023.372 .0245950
1023.960 .0245837
1024.547 .0245717
1025.135 .0245598
1025.722 .0245473
1026.309 .0245362
1026.896 .0245250
1027.483 .0245142
1028.069 .0245037
1028.655 .0244938
1029.241 .0244836
1029.827 .0244737
1030.412 .0244637
1030.997 .0244538
1031.582 .0244449
1032.167 .0244378
1032.752 .0244316
1033.336 .0244270
1033.921 .0244249
1034.505 .0244250
1035.089 .0244265
1035.672 .0244289
1036.256 .0244310
1036.839 .0244330
1037.422 .0244334
1038.005 .0244318
1038.588 .0244288
1039.171 .0244237
1039.753 .0244170
1040.335 .0244084
1040.918 .0243988
1041.500 .0243879
1042.081 .0243764
1042.663 .0243644
1043.244 .0243518
1043.826 .0243389
1044.407 .0243248
1044.988 .0243107
1045.569 .0242964
1046.150 .0242805
1046.730 .0242637
1047.311 .0242469
1047.891 .0242310
1048.471 .0242155
1049.052 .0242019
1049.632 .0241907
1050.211 .0241828
1050.791 .0241778
1051.371 .0241747
1051.950 .0241741
1052.530 .0241751
1053.109 .0241753
1053.688 .0241737
1054.268 .0241714
1054.847 .0241673
1055.426 .0241621
1056.005 .0241577
1056.583 .0241539
1057.162 .0241508
1057.741 .0241487
1058.319 .0241475
1058.898 .0241468
1059.476 .0241451
1060.055 .0241420
1060.633 .0241372
1061.211 .0241313
1061.790 .0241236
1062.368 .0241147
1062.946 .0241070
1063.524 .0241000
1064.102 .0240929
1064.680 .0240860
1065.258 .0240800
1065.836 .0240745
1066.414 .0240693
1066.992 .0240652
1067.570 .0240628
1068.148 .0240616
1068.726 .0240614
1069.304 .0240625
1069.882 .0240649
1070.460 .0240671
1071.038 .0240698
1071.616 .0240719
1072.194 .0240745
1072.772 .0240770
1073.350 .0240798
1073.928 .0240845
1074.506 .0240908
1075.084 .0240975
1075.662 .0241034
1076.240 .0241091
1076.819 .0241139
1077.397 .0241163
1077.976 .0241172
1078.554 .0241185
1079.133 .0241208
1079.711 .0241247
1080.290 .0241306
1080.869 .0241384
1081.448 .0241476
1082.027 .0241569
1082.606 .0241661
1083.185 .0241758
1083.764 .0241857
1084.343 .0241970
1084.923 .0242095
1085.502 .0242259
1086.082 .0242453
1086.662 .0242677
1087.242 .0242926
1087.822 .0243171
1088.402 .0243394
1088.983 .0243579
1089.563 .0243717
1090.144 .0243815
1090.725 .0243886
1091.306 .0243936
1091.887 .0243991
1092.469 .0244057
1093.050 .0244133
1093.632 .0244225
1094.214 .0244344
1094.796 .0244473
1095.379 .0244620
1095.961 .0244787
1096.544 .0244974
1097.127 .0245178
1097.710 .0245425
1098.294 .0245700
1098.877 .0246021
1099.461 .0246385
1100.046 .0246777
1100.630 .0247199
1101.215 .0247663
1101.800 .0248139
1102.385 .0248634
1102.970 .0249136
1103.556 .0249619
1104.142 .0250047
1104.728 .0250447
1105.315 .0250787
1105.902 .0251075
1106.489 .0251323
1107.077 .0251541
1107.664 .0251760
1108.253 .0251985
1108.841 .0252208
1109.430 .0252440
1110.019 .0252699
1110.609 .0252971
1111.198 .0253226
1111.789 .0253509
1112.379 .0253828
1112.970 .0254204
1113.561 .0254663
1114.153 .0255201
1114.745 .0255822
1115.338 .0256534
1115.931 .0257293
1116.524 .0258064
1117.117 .0258834
1117.712 .0259593
1118.306 .0260343
1118.901 .0261096
1119.496 .0261863
1120.092 .0262655
1120.689 .0263481
1121.285 .0264367
1121.882 .0265245
1122.480 .0266103
1123.078 .0266918
1123.677 .0267674
1124.276 .0268369
1124.875 .0268993
1125.476 .0269544
1126.076 .0270083
1126.677 .0270645
1127.279 .0271241
1127.881 .0271850
1128.484 .0272518
1129.087 .0273205
1129.691 .0273895
1130.295 .0274574
1130.900 .0275219
1131.505 .0275837
1132.111 .0276466
1132.718 .0277077
1133.325 .0277733
1133.933 .0278436
1134.541 .0279256
1135.150 .0280181
1135.760 .0281248
1136.370 .0282416
1136.981 .0283685
1137.592 .0285024
1138.204 .0286394
1138.817 .0287809
1139.431 .0289270
1140.045 .0290789
1140.660 .0292435
1141.275 .0294174
1141.891 .0296110
1142.508 .0297484
1143.126 .0300427
1143.744 .0302875
1144.363 .0304625
1144.983 .0308403
