Measurement Sequence started on: 15-12-46-377
Integration time: 28
Scans to Average: 2 
>>>>>Begin Spectral Data<<<<<
432.689 .0000100
433.621 .0000100
434.552 .0000100
435.482 .0000100
436.410 .0000100
437.337 .0000100
438.262 .0282557
439.187 .0598022
440.110 .0990071
441.031 .1431549
441.952 .1859419
442.871 .2194915
443.789 .2376966
444.705 .2384644
445.621 .2244206
446.535 .2012297
447.447 .1750726
448.359 .1352460
449.269 .1155327
450.178 .1030890
451.086 .0943548
451.993 .0876995
452.898 .0824621
453.803 .0781789
454.706 .0746368
455.608 .0716084
456.508 .0689722
457.408 .0666516
458.306 .0645813
459.204 .0627188
460.100 .0610410
460.995 .0595392
461.888 .0581980
462.781 .0569831
463.673 .0558799
464.563 .0548767
465.452 .0539563
466.340 .0531001
467.228 .0523113
468.114 .0515664
468.999 .0508780
469.882 .0502382
470.765 .0496538
471.647 .0491309
472.528 .0486649
473.407 .0482501
474.286 .0478875
475.163 .0475690
476.040 .0472900
476.915 .0470332
477.790 .0468049
478.663 .0465953
479.535 .0464010
480.407 .0462222
481.277 .0460677
482.147 .0459389
483.015 .0458450
483.883 .0457715
484.749 .0457218
485.615 .0456869
486.479 .0456625
487.343 .0456451
488.206 .0456385
489.067 .0456364
489.928 .0456515
490.788 .0456826
491.647 .0457459
492.505 .0458364
493.362 .0459655
494.218 .0461252
495.073 .0463198
495.928 .0465414
496.781 .0467839
497.634 .0470570
498.486 .0473655
499.337 .0477005
500.187 .0480747
501.036 .0484834
501.884 .0489249
502.731 .0493887
503.578 .0498743
504.424 .0503689
505.268 .0508742
506.113 .0513971
506.956 .0519348
507.798 .0525074
508.640 .0531404
509.480 .0538310
510.320 .0545972
511.160 .0554527
511.998 .0563790
512.836 .0573869
513.672 .0584828
514.508 .0596744
515.344 .0609712
516.178 .0624097
517.012 .0640354
517.845 .0658849
518.677 .0680127
519.508 .0704445
520.339 .0732270
521.169 .0764375
521.998 .0800638
522.826 .0841118
523.654 .0885979
524.481 .0935476
525.307 .0989608
526.133 .1047803
526.958 .1110314
527.782 .1176908
528.605 .1245974
529.428 .1316836
530.250 .1384793
531.072 .1447311
531.892 .1500847
532.712 .1542081
533.532 .1568726
534.350 .1577956
535.168 .1568937
535.986 .1542712
536.802 .1500680
537.618 .1445994
538.434 .1380632
539.249 .1310040
540.063 .1236965
540.876 .1164110
541.689 .1093830
542.501 .1027976
543.313 .0968382
544.124 .0915113
544.934 .0866828
545.744 .0823399
546.553 .0784219
547.361 .0748989
548.169 .0717170
548.976 .0688323
549.783 .0662370
550.589 .0639113
551.395 .0618142
552.200 .0599481
553.004 .0582761
553.808 .0567682
554.611 .0554201
555.414 .0542147
556.216 .0531199
557.018 .0521138
557.819 .0511929
558.619 .0503539
559.419 .0495808
560.218 .0488702
561.017 .0482082
561.815 .0475822
562.613 .0469864
563.410 .0463974
564.207 .0458096
565.003 .0452261
565.799 .0446489
566.594 .0440646
567.388 .0434938
568.182 .0429225
568.976 .0423512
569.769 .0417935
570.562 .0412567
571.354 .0407322
572.145 .0402350
572.936 .0397584
573.727 .0392994
574.517 .0388550
575.307 .0384270
576.096 .0380036
576.885 .0375902
577.673 .0371936
578.461 .0368147
579.248 .0364504
580.035 .0361127
580.821 .0358000
581.607 .0355146
582.392 .0352545
583.177 .0350139
583.962 .0347910
584.746 .0345884
585.529 .0343998
586.313 .0342255
587.095 .0340659
587.878 .0339224
588.660 .0337916
589.441 .0336738
590.222 .0335703
591.003 .0334796
591.783 .0333968
592.563 .0333217
593.342 .0332511
594.121 .0331814
594.899 .0331128
595.678 .0330456
596.455 .0329827
597.233 .0329248
598.009 .0328701
598.786 .0328209
599.562 .0327761
600.338 .0327349
601.113 .0326940
601.888 .0326529
602.663 .0326118
603.437 .0325690
604.211 .0325251
604.984 .0324828
605.757 .0324425
606.530 .0324046
607.302 .0323690
608.074 .0323352
608.845 .0323027
609.616 .0322689
610.387 .0322331
611.158 .0321966
611.928 .0321583
612.697 .0321197
613.467 .0320813
614.236 .0320451
615.004 .0320116
615.773 .0319801
616.541 .0319499
617.308 .0319203
618.076 .0318904
618.843 .0318590
619.609 .0318264
620.375 .0317940
621.141 .0317619
621.907 .0317314
622.672 .0317029
623.437 .0316761
624.202 .0316505
624.966 .0316257
625.730 .0315997
626.493 .0315726
627.257 .0315442
628.020 .0315143
628.782 .0314844
629.545 .0314556
630.307 .0314279
631.068 .0314025
631.830 .0313788
632.591 .0313566
633.352 .0313345
634.112 .0313124
634.872 .0312882
635.632 .0312628
636.392 .0312362
637.151 .0312082
637.910 .0311796
638.668 .0311512
639.427 .0311231
640.185 .0310951
640.943 .0310670
641.700 .0310388
642.457 .0310103
643.214 .0309813
643.971 .0309512
644.727 .0309216
645.483 .0308934
646.239 .0308668
646.994 .0308424
647.750 .0308211
648.505 .0308028
649.259 .0307878
650.014 .0307755
650.768 .0307652
651.521 .0307571
652.275 .0307495
653.028 .0307417
653.781 .0307335
654.534 .0307235
655.286 .0307120
656.039 .0306985
656.791 .0306838
657.542 .0306671
658.294 .0306489
659.045 .0306299
659.796 .0306091
660.546 .0305873
661.297 .0305639
662.047 .0305393
662.796 .0305137
663.546 .0304878
664.295 .0304616
665.044 .0304359
665.793 .0304114
666.542 .0303877
667.290 .0303651
668.038 .0303437
668.786 .0303230
669.533 .0303027
670.281 .0302831
671.028 .0302641
671.774 .0302458
672.521 .0302292
673.267 .0302141
674.013 .0302007
674.759 .0301881
675.505 .0301762
676.250 .0301634
676.995 .0301496
677.740 .0301346
678.484 .0301180
679.229 .0301009
679.973 .0300834
680.717 .0300664
681.460 .0300501
682.204 .0300346
682.947 .0300192
683.690 .0300032
684.433 .0299856
685.175 .0299653
685.917 .0299416
686.659 .0299154
687.401 .0298870
688.142 .0298575
688.884 .0298286
689.625 .0298007
690.365 .0297741
691.106 .0297489
691.846 .0297242
692.586 .0296999
693.326 .0296747
694.066 .0296489
694.805 .0296218
695.545 .0295944
696.284 .0295668
697.022 .0295395
697.761 .0295134
698.499 .0294888
699.237 .0294652
699.975 .0294425
700.713 .0294200
701.450 .0293975
702.187 .0293745
702.924 .0293515
703.661 .0293289
704.397 .0293069
705.133 .0292857
705.869 .0292655
706.605 .0292462
707.341 .0292276
708.076 .0292095
708.811 .0291915
709.546 .0291733
710.281 .0291549
711.015 .0291360
711.749 .0291164
712.483 .0290969
713.217 .0290770
713.950 .0290565
714.684 .0290355
715.417 .0290143
716.150 .0289927
716.882 .0289710
717.615 .0289498
718.347 .0289293
719.079 .0289098
719.811 .0288916
720.542 .0288742
721.273 .0288576
722.005 .0288415
722.735 .0288254
723.466 .0288091
724.196 .0287926
724.927 .0287753
725.656 .0287570
726.386 .0287380
727.116 .0287187
727.845 .0286988
728.574 .0286785
729.303 .0286584
730.031 .0286382
730.760 .0286178
731.488 .0285973
732.216 .0285767
732.944 .0285567
733.671 .0285369
734.398 .0285178
735.125 .0284997
735.852 .0284832
736.579 .0284685
737.305 .0284560
738.031 .0284462
738.757 .0284390
739.483 .0284336
740.208 .0284295
740.933 .0284260
741.658 .0284223
742.383 .0284180
743.108 .0284125
743.832 .0284064
744.556 .0283997
745.280 .0283923
746.004 .0283847
746.727 .0283774
747.450 .0283708
748.173 .0283644
748.896 .0283585
749.618 .0283530
750.340 .0283472
751.062 .0283416
751.784 .0283358
752.506 .0283301
753.227 .0283243
753.948 .0283186
754.669 .0283130
755.389 .0283080
756.110 .0283033
756.830 .0282989
757.550 .0282948
758.269 .0282903
758.989 .0282849
759.708 .0282775
760.427 .0282683
761.146 .0282570
761.864 .0282435
762.582 .0282284
763.300 .0282119
764.018 .0281948
764.736 .0281777
765.453 .0281610
766.170 .0281451
766.887 .0281296
767.603 .0281149
768.320 .0281005
769.036 .0280869
769.751 .0280738
770.467 .0280618
771.182 .0280508
771.897 .0280419
772.612 .0280344
773.327 .0280286
774.041 .0280244
774.755 .0280212
775.469 .0280183
776.183 .0280154
776.896 .0280119
777.609 .0280081
778.322 .0280034
779.035 .0279986
779.747 .0279933
780.459 .0279875
781.171 .0279813
781.882 .0279755
782.594 .0279696
783.305 .0279643
784.016 .0279593
784.726 .0279550
785.436 .0279512
786.147 .0279478
786.856 .0279449
787.566 .0279424
788.275 .0279405
788.984 .0279385
789.693 .0279360
790.401 .0279332
791.110 .0279291
791.818 .0279238
792.525 .0279168
793.233 .0279079
793.940 .0278964
794.647 .0278828
795.353 .0278671
796.060 .0278495
796.766 .0278304
797.472 .0278102
798.177 .0277893
798.883 .0277677
799.588 .0277453
800.292 .0277226
800.997 .0277002
801.701 .0276781
802.405 .0276563
803.109 .0276353
803.812 .0276154
804.515 .0275966
805.218 .0275785
805.921 .0275611
806.623 .0275442
807.325 .0275272
808.027 .0275098
808.728 .0274912
809.429 .0274716
810.130 .0274505
810.831 .0274285
811.531 .0274055
812.231 .0273815
812.931 .0273563
813.630 .0273305
814.330 .0273043
815.029 .0272778
815.727 .0272506
816.426 .0272237
817.124 .0271972
817.821 .0271710
818.519 .0271453
819.216 .0271202
819.913 .0270963
820.609 .0270737
821.306 .0270521
822.002 .0270315
822.697 .0270119
823.393 .0269938
824.088 .0269766
824.783 .0269602
825.477 .0269446
826.171 .0269295
826.865 .0269148
827.559 .0269009
828.252 .0268871
828.945 .0268738
829.638 .0268610
830.330 .0268488
831.023 .0268371
831.714 .0268258
832.406 .0268153
833.097 .0268048
833.788 .0267942
834.479 .0267833
835.169 .0267715
835.859 .0267596
836.548 .0267474
837.238 .0267352
837.927 .0267230
838.615 .0267113
839.304 .0267003
839.992 .0266896
840.680 .0266798
841.367 .0266705
842.054 .0266615
842.741 .0266524
843.428 .0266429
844.114 .0266327
844.800 .0266226
845.485 .0266126
846.170 .0266028
846.855 .0265933
847.540 .0265846
848.224 .0265766
848.908 .0265690
849.592 .0265617
850.275 .0265541
850.958 .0265459
851.641 .0265370
852.323 .0265265
853.005 .0265149
853.687 .0265024
854.368 .0264893
855.049 .0264762
855.730 .0264629
856.410 .0264493
857.090 .0264354
857.769 .0264208
858.449 .0264056
859.128 .0263892
859.806 .0263721
860.485 .0263544
861.163 .0263365
861.840 .0263192
862.518 .0263031
863.195 .0262890
863.871 .0262777
864.548 .0262684
865.224 .0262610
865.899 .0262548
866.574 .0262498
867.249 .0262455
867.924 .0262418
868.598 .0262389
869.272 .0262373
869.946 .0262372
870.619 .0262388
871.292 .0262418
871.964 .0262462
872.636 .0262511
873.308 .0262561
873.979 .0262598
874.651 .0262620
875.321 .0262628
875.992 .0262630
876.662 .0262629
877.331 .0262631
878.001 .0262638
878.670 .0262654
879.338 .0262680
880.007 .0262713
880.675 .0262751
881.342 .0262794
882.009 .0262839
882.676 .0262884
883.343 .0262930
884.009 .0262981
884.675 .0263034
885.340 .0263098
886.005 .0263166
886.670 .0263234
887.334 .0263304
887.998 .0263379
888.662 .0263453
889.325 .0263530
889.988 .0263614
890.650 .0263698
891.312 .0263783
891.974 .0263870
892.636 .0263951
893.297 .0264029
893.957 .0264105
894.618 .0264178
895.278 .0264248
895.937 .0264321
896.596 .0264396
897.255 .0264473
897.914 .0264553
898.572 .0264627
899.230 .0264690
899.887 .0264742
900.544 .0264775
901.201 .0264785
901.857 .0264779
902.513 .0264757
903.168 .0264724
903.823 .0264685
904.478 .0264634
905.132 .0264575
905.786 .0264503
906.440 .0264417
907.093 .0264310
907.746 .0264183
908.399 .0264038
909.051 .0263878
909.703 .0263712
910.354 .0263541
911.005 .0263370
911.656 .0263210
912.306 .0263058
912.956 .0262913
913.605 .0262773
914.254 .0262639
914.903 .0262509
915.551 .0262386
916.199 .0262271
916.847 .0262168
917.494 .0262075
918.141 .0261993
918.788 .0261917
919.434 .0261847
920.079 .0261772
920.725 .0261690
921.370 .0261596
922.014 .0261493
922.658 .0261377
923.302 .0261250
923.946 .0261112
924.589 .0260965
925.231 .0260801
925.873 .0260620
926.515 .0260421
927.157 .0260202
927.798 .0259962
928.439 .0259706
929.079 .0259436
929.719 .0259157
930.359 .0258872
930.998 .0258589
931.637 .0258305
932.275 .0258025
932.913 .0257749
933.551 .0257472
934.188 .0257200
934.825 .0256931
935.462 .0256669
936.098 .0256418
936.733 .0256175
937.369 .0255943
938.004 .0255719
938.638 .0255502
939.273 .0255287
939.907 .0255075
940.540 .0254874
941.173 .0254683
941.806 .0254503
942.438 .0254338
943.070 .0254193
943.702 .0254060
944.333 .0253936
944.964 .0253815
945.594 .0253694
946.224 .0253566
946.854 .0253432
947.483 .0253293
948.112 .0253158
948.741 .0253032
949.369 .0252919
949.996 .0252821
950.624 .0252734
951.251 .0252650
951.878 .0252558
952.504 .0252454
953.130 .0252332
953.755 .0252189
954.380 .0252025
955.005 .0251845
955.629 .0251655
956.253 .0251460
956.877 .0251263
957.500 .0251066
958.123 .0250869
958.746 .0250665
959.368 .0250452
959.990 .0250228
960.611 .0249993
961.232 .0249751
961.853 .0249511
962.473 .0249278
963.093 .0249053
963.712 .0248839
964.331 .0248638
964.950 .0248442
965.569 .0248257
966.187 .0248077
966.804 .0247904
967.422 .0247741
968.039 .0247587
968.655 .0247441
969.272 .0247303
969.887 .0247174
970.503 .0247050
971.118 .0246924
971.733 .0246799
972.347 .0246663
972.961 .0246522
973.575 .0246374
974.188 .0246211
974.801 .0246033
975.414 .0245845
976.026 .0245644
976.638 .0245428
977.250 .0245198
977.861 .0244959
978.472 .0244708
979.083 .0244455
979.693 .0244194
980.303 .0243925
980.912 .0243653
981.521 .0243378
982.130 .0243092
982.738 .0242809
983.346 .0242527
983.954 .0242246
984.562 .0241980
985.169 .0241725
985.775 .0241482
986.382 .0241250
986.988 .0241032
987.594 .0240823
988.199 .0240615
988.804 .0240414
989.409 .0240212
990.013 .0240017
990.617 .0239829
991.221 .0239648
991.824 .0239486
992.427 .0239342
993.030 .0239224
993.632 .0239133
994.234 .0239074
994.836 .0239042
995.438 .0239031
996.039 .0239042
996.640 .0239063
997.240 .0239089
997.840 .0239118
998.440 .0239149
999.040 .0239182
999.639 .0239212
1000.238 .0239238
1000.836 .0239267
1001.435 .0239292
1002.033 .0239314
1002.630 .0239329
1003.228 .0239330
1003.825 .0239314
1004.422 .0239287
1005.018 .0239252
1005.614 .0239215
1006.210 .0239181
1006.806 .0239160
1007.401 .0239148
1007.996 .0239158
1008.591 .0239181
1009.186 .0239221
1009.780 .0239277
1010.374 .0239341
1010.967 .0239399
1011.561 .0239458
1012.154 .0239510
1012.746 .0239560
1013.339 .0239610
1013.931 .0239664
1014.523 .0239717
1015.115 .0239771
1015.706 .0239830
1016.298 .0239890
1016.888 .0239949
1017.479 .0240010
1018.069 .0240068
1018.660 .0240128
1019.250 .0240187
1019.839 .0240245
1020.429 .0240313
1021.018 .0240392
1021.607 .0240488
1022.195 .0240599
1022.784 .0240731
1023.372 .0240880
1023.960 .0241036
1024.547 .0241194
1025.135 .0241353
1025.722 .0241500
1026.309 .0241637
1026.896 .0241766
1027.483 .0241893
1028.069 .0242015
1028.655 .0242142
1029.241 .0242268
1029.827 .0242410
1030.412 .0242562
1030.997 .0242720
1031.582 .0242874
1032.167 .0243030
1032.752 .0243179
1033.336 .0243327
1033.921 .0243476
1034.505 .0243622
1035.089 .0243766
1035.672 .0243918
1036.256 .0244075
1036.839 .0244238
1037.422 .0244416
1038.005 .0244617
1038.588 .0244831
1039.171 .0245057
1039.753 .0245279
1040.335 .0245490
1040.918 .0245686
1041.500 .0245860
1042.081 .0246005
1042.663 .0246115
1043.244 .0246199
1043.826 .0246262
1044.407 .0246320
1044.988 .0246383
1045.569 .0246446
1046.150 .0246517
1046.730 .0246593
1047.311 .0246666
1047.891 .0246725
1048.471 .0246782
1049.052 .0246845
1049.632 .0246915
1050.211 .0247003
1050.791 .0247116
1051.371 .0247259
1051.950 .0247439
1052.530 .0247648
1053.109 .0247871
1053.688 .0248096
1054.268 .0248315
1054.847 .0248507
1055.426 .0248690
1056.005 .0248852
1056.583 .0248998
1057.162 .0249135
1057.741 .0249269
1058.319 .0249398
1058.898 .0249520
1059.476 .0249627
1060.055 .0249717
1060.633 .0249792
1061.211 .0249862
1061.790 .0249914
1062.368 .0249968
1062.946 .0250034
1063.524 .0250127
1064.102 .0250244
1064.680 .0250393
1065.258 .0250551
1065.836 .0250728
1066.414 .0250903
1066.992 .0251055
1067.570 .0251190
1068.148 .0251299
1068.726 .0251392
1069.304 .0251471
1069.882 .0251535
1070.460 .0251603
1071.038 .0251666
1071.616 .0251735
1072.194 .0251806
1072.772 .0251882
1073.350 .0251959
1073.928 .0252037
1074.506 .0252123
1075.084 .0252217
1075.662 .0252322
1076.240 .0252450
1076.819 .0252593
1077.397 .0252747
1077.976 .0252915
1078.554 .0253082
1079.133 .0253258
1079.711 .0253447
1080.290 .0253633
1080.869 .0253835
1081.448 .0254048
1082.027 .0254268
1082.606 .0254487
1083.185 .0254710
1083.764 .0254928
1084.343 .0255139
1084.923 .0255319
1085.502 .0255465
1086.082 .0255570
1086.662 .0255657
1087.242 .0255723
1087.822 .0255775
1088.402 .0255822
1088.983 .0255870
1089.563 .0255931
1090.144 .0255996
1090.725 .0256057
1091.306 .0256128
1091.887 .0256209
1092.469 .0256308
1093.050 .0256420
1093.632 .0256547
1094.214 .0256701
1094.796 .0256892
1095.379 .0257108
1095.961 .0257340
1096.544 .0257588
1097.127 .0257842
1097.710 .0258113
1098.294 .0258395
1098.877 .0258713
1099.461 .0259047
1100.046 .0259414
1100.630 .0259813
1101.215 .0260225
1101.800 .0260634
1102.385 .0260998
1102.970 .0261323
1103.556 .0261600
1104.142 .0261812
1104.728 .0261985
1105.315 .0262128
1105.902 .0262283
1106.489 .0262446
1107.077 .0262616
1107.664 .0262795
1108.253 .0262998
1108.841 .0263192
1109.430 .0263360
1110.019 .0263501
1110.609 .0263617
1111.198 .0263722
1111.789 .0263820
1112.379 .0263946
1112.970 .0264079
1113.561 .0264249
1114.153 .0264456
1114.745 .0264688
1115.338 .0264965
1115.931 .0265256
1116.524 .0265581
1117.117 .0265941
1117.712 .0266310
1118.306 .0266680
1118.901 .0267048
1119.496 .0267430
1120.092 .0267803
1120.689 .0268124
1121.285 .0268410
1121.882 .0268661
1122.480 .0268886
1123.078 .0269097
1123.677 .0269291
1124.276 .0269491
1124.875 .0269736
1125.476 .0269995
1126.076 .0270293
1126.677 .0270630
1127.279 .0271053
1127.881 .0271512
1128.484 .0272038
1129.087 .0272617
1129.691 .0273229
1130.295 .0273920
1130.900 .0274690
1131.505 .0275509
1132.111 .0276447
1132.718 .0277497
1133.325 .0278642
1133.933 .0279874
1134.541 .0281200
1135.150 .0282533
1135.760 .0283873
1136.370 .0285194
1136.981 .0286435
1137.592 .0287567
1138.204 .0288665
1138.817 .0289732
1139.431 .0290811
1140.045 .0291827
1140.660 .0292716
1141.275 .0293586
1141.891 .0294500
1142.508 .0297508
1143.126 .0295451
1143.744 .0293498
1144.363 .0297119
1144.983 .0301040
