Measurement Sequence started on: 15-12-46-377
Integration time: 28
Scans to Average: 2 
>>>>>Begin Spectral Data<<<<<
432.689 .0000100
433.621 .0000100
434.552 .0000100
435.482 .0000100
436.410 .0000100
437.337 .0000100
438.262 .0254127
439.187 .0537410
440.110 .0889603
441.031 .1287208
441.952 .1673212
442.871 .1977234
443.789 .2144186
444.705 .2155593
445.621 .2034447
446.535 .1831387
447.447 .1601172
448.359 .1247064
449.269 .1072932
450.178 .0962761
451.086 .0884426
451.993 .0824446
452.898 .0776981
453.803 .0738400
454.706 .0706559
455.608 .0679902
456.508 .0657107
457.408 .0637615
458.306 .0620453
459.204 .0605097
460.100 .0591085
460.995 .0578424
461.888 .0566917
462.781 .0556386
463.673 .0546778
464.563 .0538082
465.452 .0530200
466.340 .0522988
467.228 .0516340
468.114 .0510093
468.999 .0504161
469.882 .0498534
470.765 .0493081
471.647 .0487938
472.528 .0483068
473.407 .0478603
474.286 .0474526
475.163 .0470987
476.040 .0467915
476.915 .0465331
477.790 .0463145
478.663 .0461278
479.535 .0459665
480.407 .0458275
481.277 .0457006
482.147 .0455931
483.015 .0454987
483.883 .0454250
484.749 .0453635
485.615 .0453278
486.479 .0453099
487.343 .0453145
488.206 .0453384
489.067 .0453776
489.928 .0454293
490.788 .0454985
491.647 .0455683
492.505 .0456501
493.362 .0457434
494.218 .0458443
495.073 .0459576
495.928 .0460933
496.781 .0462442
497.634 .0464201
498.486 .0466186
499.337 .0468374
500.187 .0470770
501.036 .0473390
501.884 .0476118
502.731 .0478946
503.578 .0481946
504.424 .0485032
505.268 .0488181
506.113 .0491607
506.956 .0495287
507.798 .0499317
508.640 .0503924
509.480 .0509092
510.320 .0515034
511.160 .0521853
511.998 .0529655
512.836 .0538559
513.672 .0548726
514.508 .0560072
515.344 .0572648
516.178 .0586820
517.012 .0602899
517.845 .0621079
518.677 .0641674
519.508 .0664980
520.339 .0691555
521.169 .0721912
521.998 .0756720
522.826 .0796342
523.654 .0841192
524.481 .0891650
525.307 .0947900
526.133 .1009170
526.958 .1075017
527.782 .1144662
528.605 .1216455
529.428 .1288910
530.250 .1356950
531.072 .1417663
531.892 .1468389
532.712 .1506311
533.532 .1529878
534.350 .1537150
535.168 .1527965
535.986 .1502503
536.802 .1462219
537.618 .1409593
538.434 .1346674
539.249 .1277841
540.063 .1205541
540.876 .1132361
541.689 .1061253
542.501 .0994428
543.313 .0933825
544.124 .0880197
544.934 .0833053
545.744 .0791084
546.553 .0753435
547.361 .0719730
548.169 .0689849
548.976 .0662626
549.783 .0638057
550.589 .0615957
551.395 .0595810
552.200 .0577751
553.004 .0561546
553.808 .0547112
554.611 .0534526
555.414 .0523468
556.216 .0513636
557.018 .0504777
557.819 .0496756
558.619 .0489238
559.419 .0482114
560.218 .0475410
561.017 .0469048
561.815 .0462788
562.613 .0456751
563.410 .0450898
564.207 .0445202
565.003 .0439725
565.799 .0434355
566.594 .0429114
567.388 .0423969
568.182 .0418846
568.976 .0413800
569.769 .0408948
570.562 .0404258
571.354 .0399645
572.145 .0395181
572.936 .0390807
573.727 .0386468
574.517 .0382155
575.307 .0377890
576.096 .0373742
576.885 .0369755
577.673 .0365930
578.461 .0362275
579.248 .0358823
580.035 .0355564
580.821 .0352468
581.607 .0349499
582.392 .0346639
583.177 .0343880
583.962 .0341270
584.746 .0338862
585.529 .0336666
586.313 .0334733
587.095 .0333071
587.878 .0331656
588.660 .0330457
589.441 .0329424
590.222 .0328510
591.003 .0327695
591.783 .0326948
592.563 .0326245
593.342 .0325613
594.121 .0325043
594.899 .0324558
595.678 .0324142
596.455 .0323793
597.233 .0323485
598.009 .0323200
598.786 .0322933
599.562 .0322667
600.338 .0322413
601.113 .0322172
601.888 .0321933
602.663 .0321712
603.437 .0321501
604.211 .0321295
604.984 .0321086
605.757 .0320880
606.530 .0320656
607.302 .0320428
608.074 .0320190
608.845 .0319948
609.616 .0319707
610.387 .0319478
611.158 .0319254
611.928 .0319035
612.697 .0318807
613.467 .0318563
614.236 .0318295
615.004 .0318022
615.773 .0317732
616.541 .0317445
617.308 .0317166
618.076 .0316900
618.843 .0316645
619.609 .0316407
620.375 .0316173
621.141 .0315941
621.907 .0315701
622.672 .0315443
623.437 .0315153
624.202 .0314844
624.966 .0314515
625.730 .0314178
626.493 .0313830
627.257 .0313478
628.020 .0313113
628.782 .0312734
629.545 .0312338
630.307 .0311924
631.068 .0311498
631.830 .0311066
632.591 .0310622
633.352 .0310178
634.112 .0309740
634.872 .0309319
635.632 .0308917
636.392 .0308543
637.151 .0308194
637.910 .0307858
638.668 .0307539
639.427 .0307238
640.185 .0306953
640.943 .0306684
641.700 .0306431
642.457 .0306195
643.214 .0305972
643.971 .0305763
644.727 .0305564
645.483 .0305382
646.239 .0305213
646.994 .0305056
647.750 .0304911
648.505 .0304785
649.259 .0304679
650.014 .0304592
650.768 .0304522
651.521 .0304475
652.275 .0304445
653.028 .0304425
653.781 .0304410
654.534 .0304406
655.286 .0304397
656.039 .0304386
656.791 .0304365
657.542 .0304328
658.294 .0304273
659.045 .0304203
659.796 .0304116
660.546 .0304009
661.297 .0303891
662.047 .0303756
662.796 .0303602
663.546 .0303439
664.295 .0303258
665.044 .0303056
665.793 .0302847
666.542 .0302627
667.290 .0302395
668.038 .0302155
668.786 .0301914
669.533 .0301678
670.281 .0301448
671.028 .0301227
671.774 .0301011
672.521 .0300804
673.267 .0300609
674.013 .0300415
674.759 .0300223
675.505 .0300033
676.250 .0299844
676.995 .0299654
677.740 .0299466
678.484 .0299276
679.229 .0299090
679.973 .0298910
680.717 .0298734
681.460 .0298553
682.204 .0298368
682.947 .0298177
683.690 .0297977
684.433 .0297766
685.175 .0297540
685.917 .0297298
686.659 .0297051
687.401 .0296801
688.142 .0296545
688.884 .0296285
689.625 .0296022
690.365 .0295753
691.106 .0295472
691.846 .0295175
692.586 .0294862
693.326 .0294536
694.066 .0294207
694.805 .0293872
695.545 .0293533
696.284 .0293201
697.022 .0292877
697.761 .0292560
698.499 .0292253
699.237 .0291949
699.975 .0291653
700.713 .0291370
701.450 .0291105
702.187 .0290855
702.924 .0290630
703.661 .0290434
704.397 .0290259
705.133 .0290107
705.869 .0289973
706.605 .0289846
707.341 .0289728
708.076 .0289614
708.811 .0289495
709.546 .0289372
710.281 .0289251
711.015 .0289131
711.749 .0289012
712.483 .0288898
713.217 .0288782
713.950 .0288663
714.684 .0288544
715.417 .0288418
716.150 .0288285
716.882 .0288154
717.615 .0288029
718.347 .0287907
719.079 .0287798
719.811 .0287706
720.542 .0287635
721.273 .0287581
722.005 .0287544
722.735 .0287515
723.466 .0287489
724.196 .0287465
724.927 .0287425
725.656 .0287370
726.386 .0287305
727.116 .0287224
727.845 .0287134
728.574 .0287037
729.303 .0286940
730.031 .0286846
730.760 .0286760
731.488 .0286678
732.216 .0286595
732.944 .0286519
733.671 .0286444
734.398 .0286368
735.125 .0286294
735.852 .0286222
736.579 .0286154
737.305 .0286097
738.031 .0286051
738.757 .0286015
739.483 .0285990
740.208 .0285971
740.933 .0285956
741.658 .0285942
742.383 .0285920
743.108 .0285891
743.832 .0285848
744.556 .0285794
745.280 .0285719
746.004 .0285621
746.727 .0285507
747.450 .0285379
748.173 .0285234
748.896 .0285078
749.618 .0284914
750.340 .0284746
751.062 .0284567
751.784 .0284383
752.506 .0284185
753.227 .0283975
753.948 .0283745
754.669 .0283499
755.389 .0283238
756.110 .0282968
756.830 .0282687
757.550 .0282408
758.269 .0282131
758.989 .0281856
759.708 .0281571
760.427 .0281285
761.146 .0280985
761.864 .0280673
762.582 .0280342
763.300 .0280000
764.018 .0279653
764.736 .0279313
765.453 .0278975
766.170 .0278654
766.887 .0278347
767.603 .0278060
768.320 .0277782
769.036 .0277515
769.751 .0277255
770.467 .0276997
771.182 .0276741
771.897 .0276490
772.612 .0276243
773.327 .0276007
774.041 .0275779
774.755 .0275566
775.469 .0275364
776.183 .0275173
776.896 .0274993
777.609 .0274825
778.322 .0274663
779.035 .0274509
779.747 .0274356
780.459 .0274212
781.171 .0274074
781.882 .0273943
782.594 .0273824
783.305 .0273723
784.016 .0273641
784.726 .0273577
785.436 .0273530
786.147 .0273504
786.856 .0273492
787.566 .0273492
788.275 .0273500
788.984 .0273509
789.693 .0273520
790.401 .0273528
791.110 .0273530
791.818 .0273530
792.525 .0273526
793.233 .0273519
793.940 .0273516
794.647 .0273516
795.353 .0273523
796.060 .0273536
796.766 .0273556
797.472 .0273574
798.177 .0273585
798.883 .0273591
799.588 .0273589
800.292 .0273580
800.997 .0273572
801.701 .0273567
802.405 .0273572
803.109 .0273595
803.812 .0273631
804.515 .0273681
805.218 .0273735
805.921 .0273784
806.623 .0273818
807.325 .0273834
808.027 .0273829
808.728 .0273804
809.429 .0273770
810.130 .0273732
810.831 .0273691
811.531 .0273655
812.231 .0273622
812.931 .0273584
813.630 .0273533
814.330 .0273463
815.029 .0273370
815.727 .0273259
816.426 .0273132
817.124 .0273002
817.821 .0272876
818.519 .0272767
819.216 .0272676
819.913 .0272607
820.609 .0272564
821.306 .0272541
822.002 .0272537
822.697 .0272547
823.393 .0272568
824.088 .0272598
824.783 .0272633
825.477 .0272675
826.171 .0272722
826.865 .0272768
827.559 .0272811
828.252 .0272848
828.945 .0272878
829.638 .0272899
830.330 .0272913
831.023 .0272915
831.714 .0272904
832.406 .0272872
833.097 .0272819
833.788 .0272740
834.479 .0272636
835.169 .0272507
835.859 .0272355
836.548 .0272190
837.238 .0272019
837.927 .0271846
838.615 .0271677
839.304 .0271515
839.992 .0271355
840.680 .0271188
841.367 .0271007
842.054 .0270810
842.741 .0270594
843.428 .0270365
844.114 .0270126
844.800 .0269884
845.485 .0269641
846.170 .0269400
846.855 .0269157
847.540 .0268911
848.224 .0268653
848.908 .0268380
849.592 .0268092
850.275 .0267787
850.958 .0267460
851.641 .0267119
852.323 .0266772
853.005 .0266421
853.687 .0266068
854.368 .0265716
855.049 .0265367
855.730 .0265018
856.410 .0264668
857.090 .0264315
857.769 .0263961
858.449 .0263607
859.128 .0263252
859.806 .0262899
860.485 .0262552
861.163 .0262214
861.840 .0261888
862.518 .0261577
863.195 .0261280
863.871 .0260991
864.548 .0260710
865.224 .0260430
865.899 .0260152
866.574 .0259876
867.249 .0259605
867.924 .0259339
868.598 .0259084
869.272 .0258843
869.946 .0258620
870.619 .0258416
871.292 .0258229
871.964 .0258054
872.636 .0257881
873.308 .0257707
873.979 .0257529
874.651 .0257344
875.321 .0257159
875.992 .0256980
876.662 .0256813
877.331 .0256662
878.001 .0256530
878.670 .0256419
879.338 .0256325
880.007 .0256245
880.675 .0256172
881.342 .0256105
882.009 .0256042
882.676 .0255989
883.343 .0255946
884.009 .0255921
884.675 .0255917
885.340 .0255935
886.005 .0255980
886.670 .0256049
887.334 .0256138
887.998 .0256243
888.662 .0256361
889.325 .0256487
889.988 .0256613
890.650 .0256741
891.312 .0256871
891.974 .0257003
892.636 .0257140
893.297 .0257285
893.957 .0257437
894.618 .0257596
895.278 .0257761
895.937 .0257928
896.596 .0258098
897.255 .0258265
897.914 .0258429
898.572 .0258584
899.230 .0258731
899.887 .0258869
900.544 .0259001
901.201 .0259125
901.857 .0259245
902.513 .0259362
903.168 .0259478
903.823 .0259589
904.478 .0259693
905.132 .0259782
905.786 .0259858
906.440 .0259915
907.093 .0259950
907.746 .0259966
908.399 .0259966
909.051 .0259956
909.703 .0259943
910.354 .0259929
911.005 .0259918
911.656 .0259910
912.306 .0259901
912.956 .0259889
913.605 .0259872
914.254 .0259850
914.903 .0259825
915.551 .0259800
916.199 .0259782
916.847 .0259772
917.494 .0259777
918.141 .0259795
918.788 .0259828
919.434 .0259873
920.079 .0259917
920.725 .0259961
921.370 .0260003
922.014 .0260036
922.658 .0260060
923.302 .0260076
923.946 .0260084
924.589 .0260079
925.231 .0260055
925.873 .0260014
926.515 .0259951
927.157 .0259868
927.798 .0259763
928.439 .0259637
929.079 .0259500
929.719 .0259349
930.359 .0259186
930.998 .0259020
931.637 .0258849
932.275 .0258677
932.913 .0258501
933.551 .0258326
934.188 .0258152
934.825 .0257982
935.462 .0257817
936.098 .0257662
936.733 .0257517
937.369 .0257381
938.004 .0257251
938.638 .0257124
939.273 .0256998
939.907 .0256868
940.540 .0256734
941.173 .0256596
941.806 .0256452
942.438 .0256305
943.070 .0256146
943.702 .0255980
944.333 .0255799
944.964 .0255603
945.594 .0255391
946.224 .0255162
946.854 .0254923
947.483 .0254678
948.112 .0254427
948.741 .0254182
949.369 .0253939
949.996 .0253703
950.624 .0253469
951.251 .0253242
951.878 .0253019
952.504 .0252799
953.130 .0252584
953.755 .0252369
954.380 .0252157
955.005 .0251949
955.629 .0251745
956.253 .0251547
956.877 .0251356
957.500 .0251164
958.123 .0250971
958.746 .0250773
959.368 .0250564
959.990 .0250343
960.611 .0250112
961.232 .0249868
961.853 .0249616
962.473 .0249355
963.093 .0249092
963.712 .0248827
964.331 .0248565
964.950 .0248297
965.569 .0248026
966.187 .0247754
966.804 .0247478
967.422 .0247201
968.039 .0246931
968.655 .0246663
969.272 .0246398
969.887 .0246134
970.503 .0245873
971.118 .0245605
971.733 .0245334
972.347 .0245053
972.961 .0244768
973.575 .0244476
974.188 .0244170
974.801 .0243854
975.414 .0243537
976.026 .0243217
976.638 .0242895
977.250 .0242572
977.861 .0242255
978.472 .0241938
979.083 .0241623
979.693 .0241312
980.303 .0241006
980.912 .0240706
981.521 .0240413
982.130 .0240128
982.738 .0239855
983.346 .0239592
983.954 .0239344
984.562 .0239113
985.169 .0238895
985.775 .0238690
986.382 .0238490
986.988 .0238297
987.594 .0238114
988.199 .0237926
988.804 .0237739
989.409 .0237559
990.013 .0237386
990.617 .0237221
991.221 .0237068
991.824 .0236931
992.427 .0236810
993.030 .0236702
993.632 .0236603
994.234 .0236510
994.836 .0236430
995.438 .0236358
996.039 .0236289
996.640 .0236230
997.240 .0236177
997.840 .0236135
998.440 .0236106
999.040 .0236090
999.639 .0236082
1000.238 .0236084
1000.836 .0236091
1001.435 .0236097
1002.033 .0236105
1002.630 .0236113
1003.228 .0236127
1003.825 .0236152
1004.422 .0236186
1005.018 .0236237
1005.614 .0236313
1006.210 .0236414
1006.806 .0236538
1007.401 .0236684
1007.996 .0236838
1008.591 .0236997
1009.186 .0237158
1009.780 .0237318
1010.374 .0237475
1010.967 .0237635
1011.561 .0237799
1012.154 .0237966
1012.746 .0238139
1013.339 .0238314
1013.931 .0238486
1014.523 .0238660
1015.115 .0238822
1015.706 .0238971
1016.298 .0239105
1016.888 .0239231
1017.479 .0239347
1018.069 .0239464
1018.660 .0239587
1019.250 .0239726
1019.839 .0239883
1020.429 .0240057
1021.018 .0240254
1021.607 .0240473
1022.195 .0240706
1022.784 .0240950
1023.372 .0241200
1023.960 .0241457
1024.547 .0241721
1025.135 .0241995
1025.722 .0242280
1026.309 .0242583
1026.896 .0242904
1027.483 .0243235
1028.069 .0243571
1028.655 .0243912
1029.241 .0244242
1029.827 .0244564
1030.412 .0244875
1030.997 .0245178
1031.582 .0245480
1032.167 .0245790
1032.752 .0246108
1033.336 .0246439
1033.921 .0246780
1034.505 .0247123
1035.089 .0247455
1035.672 .0247773
1036.256 .0248068
1036.839 .0248334
1037.422 .0248578
1038.005 .0248816
1038.588 .0249048
1039.171 .0249289
1039.753 .0249534
1040.335 .0249787
1040.918 .0250039
1041.500 .0250273
1042.081 .0250487
1042.663 .0250675
1043.244 .0250836
1043.826 .0250972
1044.407 .0251090
1044.988 .0251199
1045.569 .0251313
1046.150 .0251438
1046.730 .0251575
1047.311 .0251721
1047.891 .0251870
1048.471 .0252017
1049.052 .0252149
1049.632 .0252276
1050.211 .0252393
1050.791 .0252498
1051.371 .0252613
1051.950 .0252733
1052.530 .0252861
1053.109 .0252999
1053.688 .0253142
1054.268 .0253284
1054.847 .0253421
1055.426 .0253553
1056.005 .0253670
1056.583 .0253785
1057.162 .0253901
1057.741 .0254015
1058.319 .0254133
1058.898 .0254259
1059.476 .0254384
1060.055 .0254510
1060.633 .0254633
1061.211 .0254732
1061.790 .0254823
1062.368 .0254912
1062.946 .0254989
1063.524 .0255059
1064.102 .0255111
1064.680 .0255147
1065.258 .0255157
1065.836 .0255149
1066.414 .0255127
1066.992 .0255099
1067.570 .0255078
1068.148 .0255057
1068.726 .0255044
1069.304 .0255048
1069.882 .0255056
1070.460 .0255074
1071.038 .0255091
1071.616 .0255092
1072.194 .0255075
1072.772 .0255043
1073.350 .0255005
1073.928 .0254974
1074.506 .0254951
1075.084 .0254934
1075.662 .0254923
1076.240 .0254913
1076.819 .0254894
1077.397 .0254860
1077.976 .0254814
1078.554 .0254740
1079.133 .0254651
1079.711 .0254536
1080.290 .0254402
1080.869 .0254268
1081.448 .0254135
1082.027 .0254003
1082.606 .0253892
1083.185 .0253791
1083.764 .0253718
1084.343 .0253668
1084.923 .0253642
1085.502 .0253621
1086.082 .0253609
1086.662 .0253592
1087.242 .0253565
1087.822 .0253526
1088.402 .0253485
1088.983 .0253432
1089.563 .0253388
1090.144 .0253347
1090.725 .0253309
1091.306 .0253261
1091.887 .0253207
1092.469 .0253132
1093.050 .0253047
1093.632 .0252937
1094.214 .0252826
1094.796 .0252722
1095.379 .0252636
1095.961 .0252572
1096.544 .0252535
1097.127 .0252524
1097.710 .0252534
1098.294 .0252562
1098.877 .0252619
1099.461 .0252693
1100.046 .0252782
1100.630 .0252891
1101.215 .0253037
1101.800 .0253199
1102.385 .0253374
1102.970 .0253552
1103.556 .0253731
1104.142 .0253904
1104.728 .0254049
1105.315 .0254169
1105.902 .0254270
1106.489 .0254351
1107.077 .0254398
1107.664 .0254410
1108.253 .0254401
1108.841 .0254353
1109.430 .0254284
1110.019 .0254204
1110.609 .0254117
1111.198 .0254035
1111.789 .0253987
1112.379 .0253960
1112.970 .0253976
1113.561 .0254036
1114.153 .0254116
1114.745 .0254230
1115.338 .0254392
1115.931 .0254574
1116.524 .0254796
1117.117 .0255083
1117.712 .0255443
1118.306 .0255868
1118.901 .0256354
1119.496 .0256862
1120.092 .0257381
1120.689 .0257894
1121.285 .0258351
1121.882 .0258740
1122.480 .0259103
1123.078 .0259430
1123.677 .0259733
1124.276 .0260056
1124.875 .0260420
1125.476 .0260844
1126.076 .0261325
1126.677 .0261808
1127.279 .0262329
1127.881 .0262869
1128.484 .0263382
1129.087 .0263832
1129.691 .0264257
1130.295 .0264652
1130.900 .0265020
1131.505 .0265416
1132.111 .0265898
1132.718 .0266468
1133.325 .0267160
1133.933 .0267935
1134.541 .0268801
1135.150 .0269728
1135.760 .0270681
1136.370 .0271622
1136.981 .0272580
1137.592 .0273477
1138.204 .0274335
1138.817 .0275263
1139.431 .0276300
1140.045 .0277368
1140.660 .0278556
1141.275 .0279875
1141.891 .0281331
1142.508 .0284164
1143.126 .0283168
1143.744 .0285817
1144.363 .0288244
1144.983 .0290268
