Measurement Sequence started on: 15-12-46-377
Integration time: 28
Scans to Average: 2 
>>>>>Begin Spectral Data<<<<<
432.689 .0000100
433.621 .0000100
434.552 .0000100
435.482 .0000100
436.410 .0000100
437.337 .0000100
438.262 .0248092
439.187 .0524774
440.110 .0869558
441.031 .1259052
441.952 .1637506
442.871 .1936246
443.789 .2101085
444.705 .2113446
445.621 .1995540
446.535 .1796588
447.447 .1570539
448.359 .1223651
449.269 .1052625
450.178 .0944330
451.086 .0868235
451.993 .0811038
452.898 .0766407
453.803 .0730443
454.706 .0700844
455.608 .0675679
456.508 .0653666
457.408 .0634141
458.306 .0616328
459.204 .0600242
460.100 .0585583
460.995 .0572328
461.888 .0560295
462.781 .0549375
463.673 .0539388
464.563 .0530285
465.452 .0521878
466.340 .0513957
467.228 .0506368
468.114 .0499066
468.999 .0492127
469.882 .0485520
470.765 .0479371
471.647 .0473791
472.528 .0468825
473.407 .0464562
474.286 .0460843
475.163 .0457659
476.040 .0454959
476.915 .0452730
477.790 .0450823
478.663 .0449240
479.535 .0447904
480.407 .0446796
481.277 .0445872
482.147 .0445060
483.015 .0444365
483.883 .0443712
484.749 .0443128
485.615 .0442641
486.479 .0442253
487.343 .0442098
488.206 .0442140
489.067 .0442341
489.928 .0442717
490.788 .0443178
491.647 .0443624
492.505 .0444007
493.362 .0444299
494.218 .0444516
495.073 .0444744
495.928 .0445099
496.781 .0445677
497.634 .0446583
498.486 .0448005
499.337 .0449858
500.187 .0452095
501.036 .0454690
501.884 .0457478
502.731 .0460477
503.578 .0463770
504.424 .0467290
505.268 .0471147
506.113 .0475455
506.956 .0480312
507.798 .0485790
508.640 .0491932
509.480 .0498803
510.320 .0506493
511.160 .0515157
511.998 .0524909
512.836 .0535696
513.672 .0547937
514.508 .0561671
515.344 .0576982
516.178 .0594160
517.012 .0613360
517.845 .0634658
518.677 .0658329
519.508 .0684546
520.339 .0713665
521.169 .0746235
521.998 .0782972
522.826 .0824283
523.654 .0870774
524.481 .0922305
525.307 .0979386
526.133 .1041362
526.958 .1107931
527.782 .1177322
528.605 .1248021
529.428 .1318297
530.250 .1383523
531.072 .1441199
531.892 .1488517
532.712 .1522857
533.532 .1543349
534.350 .1547958
535.168 .1536110
535.986 .1508341
536.802 .1466313
537.618 .1411717
538.434 .1347122
539.249 .1276436
540.063 .1202320
540.876 .1127761
541.689 .1055791
542.501 .0988137
543.313 .0926613
544.124 .0871948
544.934 .0823241
545.744 .0779798
546.553 .0741008
547.361 .0706269
548.169 .0675761
548.976 .0648660
549.783 .0624864
550.589 .0603952
551.395 .0585342
552.200 .0568740
553.004 .0554005
553.808 .0540678
554.611 .0528560
555.414 .0517507
556.216 .0507459
557.018 .0498324
557.819 .0490002
558.619 .0482425
559.419 .0475508
560.218 .0469230
561.017 .0463282
561.815 .0457395
562.613 .0451555
563.410 .0445613
564.207 .0439626
565.003 .0433664
565.799 .0427760
566.594 .0421962
567.388 .0416421
568.182 .0411173
568.976 .0406157
569.769 .0401342
570.562 .0396655
571.354 .0392031
572.145 .0387522
572.936 .0383073
573.727 .0378715
574.517 .0374587
575.307 .0370705
576.096 .0367049
576.885 .0363584
577.673 .0360319
578.461 .0357224
579.248 .0354230
580.035 .0351378
580.821 .0348606
581.607 .0345928
582.392 .0343374
583.177 .0340952
583.962 .0338731
584.746 .0336716
585.529 .0334865
586.313 .0333192
587.095 .0331648
587.878 .0330210
588.660 .0328880
589.441 .0327649
590.222 .0326491
591.003 .0325425
591.783 .0324441
592.563 .0323528
593.342 .0322666
594.121 .0321866
594.899 .0321132
595.678 .0320450
596.455 .0319825
597.233 .0319234
598.009 .0318683
598.786 .0318179
599.562 .0317701
600.338 .0317251
601.113 .0316825
601.888 .0316409
602.663 .0315996
603.437 .0315588
604.211 .0315179
604.984 .0314780
605.757 .0314385
606.530 .0314007
607.302 .0313643
608.074 .0313294
608.845 .0312962
609.616 .0312646
610.387 .0312357
611.158 .0312091
611.928 .0311846
612.697 .0311617
613.467 .0311399
614.236 .0311199
615.004 .0311012
615.773 .0310840
616.541 .0310690
617.308 .0310567
618.076 .0310464
618.843 .0310392
619.609 .0310342
620.375 .0310306
621.141 .0310275
621.907 .0310241
622.672 .0310190
623.437 .0310115
624.202 .0310010
624.966 .0309877
625.730 .0309723
626.493 .0309552
627.257 .0309356
628.020 .0309145
628.782 .0308921
629.545 .0308682
630.307 .0308418
631.068 .0308147
631.830 .0307857
632.591 .0307557
633.352 .0307245
634.112 .0306926
634.872 .0306609
635.632 .0306298
636.392 .0305983
637.151 .0305674
637.910 .0305363
638.668 .0305057
639.427 .0304749
640.185 .0304451
640.943 .0304159
641.700 .0303878
642.457 .0303605
643.214 .0303342
643.971 .0303083
644.727 .0302843
645.483 .0302613
646.239 .0302402
646.994 .0302202
647.750 .0302011
648.505 .0301830
649.259 .0301667
650.014 .0301509
650.768 .0301364
651.521 .0301228
652.275 .0301101
653.028 .0300983
653.781 .0300871
654.534 .0300766
655.286 .0300662
656.039 .0300558
656.791 .0300436
657.542 .0300285
658.294 .0300118
659.045 .0299925
659.796 .0299716
660.546 .0299490
661.297 .0299249
662.047 .0298999
662.796 .0298744
663.546 .0298490
664.295 .0298235
665.044 .0297991
665.793 .0297753
666.542 .0297520
667.290 .0297298
668.038 .0297086
668.786 .0296890
669.533 .0296712
670.281 .0296555
671.028 .0296407
671.774 .0296273
672.521 .0296145
673.267 .0296020
674.013 .0295902
674.759 .0295779
675.505 .0295649
676.250 .0295510
676.995 .0295361
677.740 .0295201
678.484 .0295032
679.229 .0294859
679.973 .0294684
680.717 .0294508
681.460 .0294334
682.204 .0294160
682.947 .0293988
683.690 .0293815
684.433 .0293639
685.175 .0293456
685.917 .0293276
686.659 .0293100
687.401 .0292933
688.142 .0292778
688.884 .0292639
689.625 .0292512
690.365 .0292396
691.106 .0292283
691.846 .0292174
692.586 .0292057
693.326 .0291939
694.066 .0291813
694.805 .0291689
695.545 .0291563
696.284 .0291439
697.022 .0291316
697.761 .0291198
698.499 .0291070
699.237 .0290934
699.975 .0290791
700.713 .0290646
701.450 .0290493
702.187 .0290345
702.924 .0290199
703.661 .0290058
704.397 .0289920
705.133 .0289786
705.869 .0289649
706.605 .0289513
707.341 .0289373
708.076 .0289227
708.811 .0289078
709.546 .0288931
710.281 .0288782
711.015 .0288641
711.749 .0288505
712.483 .0288369
713.217 .0288229
713.950 .0288088
714.684 .0287939
715.417 .0287782
716.150 .0287623
716.882 .0287455
717.615 .0287280
718.347 .0287100
719.079 .0286914
719.811 .0286723
720.542 .0286532
721.273 .0286341
722.005 .0286147
722.735 .0285955
723.466 .0285765
724.196 .0285572
724.927 .0285384
725.656 .0285196
726.386 .0285006
727.116 .0284814
727.845 .0284622
728.574 .0284430
729.303 .0284246
730.031 .0284070
730.760 .0283905
731.488 .0283745
732.216 .0283595
732.944 .0283453
733.671 .0283319
734.398 .0283195
735.125 .0283079
735.852 .0282971
736.579 .0282871
737.305 .0282777
738.031 .0282691
738.757 .0282609
739.483 .0282532
740.208 .0282450
740.933 .0282359
741.658 .0282259
742.383 .0282158
743.108 .0282051
743.832 .0281942
744.556 .0281831
745.280 .0281722
746.004 .0281612
746.727 .0281504
747.450 .0281402
748.173 .0281303
748.896 .0281210
749.618 .0281121
750.340 .0281034
751.062 .0280955
751.784 .0280878
752.506 .0280808
753.227 .0280741
753.948 .0280675
754.669 .0280603
755.389 .0280524
756.110 .0280438
756.830 .0280339
757.550 .0280224
758.269 .0280097
758.989 .0279961
759.708 .0279813
760.427 .0279658
761.146 .0279497
761.864 .0279333
762.582 .0279164
763.300 .0278986
764.018 .0278807
764.736 .0278623
765.453 .0278441
766.170 .0278260
766.887 .0278086
767.603 .0277922
768.320 .0277768
769.036 .0277623
769.751 .0277490
770.467 .0277363
771.182 .0277238
771.897 .0277110
772.612 .0276985
773.327 .0276860
774.041 .0276737
774.755 .0276617
775.469 .0276504
776.183 .0276397
776.896 .0276299
777.609 .0276211
778.322 .0276133
779.035 .0276065
779.747 .0276006
780.459 .0275955
781.171 .0275918
781.882 .0275891
782.594 .0275873
783.305 .0275864
784.016 .0275866
784.726 .0275870
785.436 .0275871
786.147 .0275873
786.856 .0275871
787.566 .0275860
788.275 .0275839
788.984 .0275805
789.693 .0275758
790.401 .0275700
791.110 .0275625
791.818 .0275539
792.525 .0275448
793.233 .0275352
793.940 .0275252
794.647 .0275149
795.353 .0275047
796.060 .0274939
796.766 .0274827
797.472 .0274710
798.177 .0274581
798.883 .0274445
799.588 .0274305
800.292 .0274163
800.997 .0274026
801.701 .0273894
802.405 .0273765
803.109 .0273644
803.812 .0273525
804.515 .0273397
805.218 .0273258
805.921 .0273103
806.623 .0272930
807.325 .0272738
808.027 .0272536
808.728 .0272325
809.429 .0272116
810.130 .0271915
810.831 .0271725
811.531 .0271546
812.231 .0271379
812.931 .0271217
813.630 .0271058
814.330 .0270897
815.029 .0270730
815.727 .0270555
816.426 .0270377
817.124 .0270201
817.821 .0270030
818.519 .0269870
819.216 .0269726
819.913 .0269599
820.609 .0269489
821.306 .0269392
822.002 .0269303
822.697 .0269220
823.393 .0269141
824.088 .0269062
824.783 .0268982
825.477 .0268899
826.171 .0268816
826.865 .0268737
827.559 .0268668
828.252 .0268605
828.945 .0268548
829.638 .0268500
830.330 .0268460
831.023 .0268421
831.714 .0268382
832.406 .0268341
833.097 .0268304
833.788 .0268264
834.479 .0268224
835.169 .0268185
835.859 .0268153
836.548 .0268127
837.238 .0268105
837.927 .0268082
838.615 .0268062
839.304 .0268035
839.992 .0268005
840.680 .0267972
841.367 .0267938
842.054 .0267904
842.741 .0267875
843.428 .0267851
844.114 .0267828
844.800 .0267797
845.485 .0267756
846.170 .0267698
846.855 .0267622
847.540 .0267523
848.224 .0267406
848.908 .0267281
849.592 .0267155
850.275 .0267027
850.958 .0266908
851.641 .0266794
852.323 .0266680
853.005 .0266562
853.687 .0266432
854.368 .0266289
855.049 .0266134
855.730 .0265971
856.410 .0265803
857.090 .0265640
857.769 .0265484
858.449 .0265338
859.128 .0265201
859.806 .0265071
860.485 .0264944
861.163 .0264813
861.840 .0264678
862.518 .0264535
863.195 .0264387
863.871 .0264238
864.548 .0264085
865.224 .0263935
865.899 .0263789
866.574 .0263645
867.249 .0263507
867.924 .0263376
868.598 .0263251
869.272 .0263136
869.946 .0263027
870.619 .0262930
871.292 .0262841
871.964 .0262758
872.636 .0262675
873.308 .0262592
873.979 .0262511
874.651 .0262430
875.321 .0262349
875.992 .0262278
876.662 .0262213
877.331 .0262161
878.001 .0262118
878.670 .0262079
879.338 .0262042
880.007 .0262002
880.675 .0261949
881.342 .0261886
882.009 .0261810
882.676 .0261730
883.343 .0261650
884.009 .0261582
884.675 .0261521
885.340 .0261468
886.005 .0261427
886.670 .0261393
887.334 .0261359
887.998 .0261321
888.662 .0261273
889.325 .0261219
889.988 .0261164
890.650 .0261108
891.312 .0261058
891.974 .0261021
892.636 .0260998
893.297 .0260989
893.957 .0260988
894.618 .0260993
895.278 .0261000
895.937 .0261012
896.596 .0261021
897.255 .0261022
897.914 .0261019
898.572 .0261012
899.230 .0261003
899.887 .0260992
900.544 .0260977
901.201 .0260961
901.857 .0260941
902.513 .0260910
903.168 .0260865
903.823 .0260801
904.478 .0260716
905.132 .0260612
905.786 .0260490
906.440 .0260349
907.093 .0260194
907.746 .0260028
908.399 .0259862
909.051 .0259693
909.703 .0259522
910.354 .0259346
911.005 .0259171
911.656 .0258991
912.306 .0258802
912.956 .0258610
913.605 .0258419
914.254 .0258231
914.903 .0258048
915.551 .0257868
916.199 .0257698
916.847 .0257531
917.494 .0257370
918.141 .0257209
918.788 .0257048
919.434 .0256883
920.079 .0256710
920.725 .0256534
921.370 .0256359
922.014 .0256179
922.658 .0256003
923.302 .0255830
923.946 .0255663
924.589 .0255493
925.231 .0255323
925.873 .0255154
926.515 .0254985
927.157 .0254812
927.798 .0254635
928.439 .0254453
929.079 .0254271
929.719 .0254085
930.359 .0253896
930.998 .0253710
931.637 .0253525
932.275 .0253341
932.913 .0253161
933.551 .0252984
934.188 .0252810
934.825 .0252636
935.462 .0252464
936.098 .0252290
936.733 .0252111
937.369 .0251934
938.004 .0251757
938.638 .0251584
939.273 .0251422
939.907 .0251268
940.540 .0251130
941.173 .0251009
941.806 .0250904
942.438 .0250809
943.070 .0250722
943.702 .0250639
944.333 .0250552
944.964 .0250457
945.594 .0250360
946.224 .0250255
946.854 .0250151
947.483 .0250051
948.112 .0249955
948.741 .0249868
949.369 .0249791
949.996 .0249721
950.624 .0249660
951.251 .0249603
951.878 .0249551
952.504 .0249494
953.130 .0249435
953.755 .0249366
954.380 .0249288
955.005 .0249204
955.629 .0249114
956.253 .0249016
956.877 .0248923
957.500 .0248837
958.123 .0248757
958.746 .0248688
959.368 .0248627
959.990 .0248571
960.611 .0248518
961.232 .0248461
961.853 .0248400
962.473 .0248340
963.093 .0248281
963.712 .0248220
964.331 .0248162
964.950 .0248108
965.569 .0248054
966.187 .0248007
966.804 .0247966
967.422 .0247927
968.039 .0247892
968.655 .0247861
969.272 .0247832
969.887 .0247804
970.503 .0247778
971.118 .0247749
971.733 .0247719
972.347 .0247686
972.961 .0247645
973.575 .0247604
974.188 .0247564
974.801 .0247528
975.414 .0247491
976.026 .0247454
976.638 .0247414
977.250 .0247367
977.861 .0247314
978.472 .0247249
979.083 .0247172
979.693 .0247082
980.303 .0246978
980.912 .0246868
981.521 .0246749
982.130 .0246632
982.738 .0246514
983.346 .0246396
983.954 .0246276
984.562 .0246155
985.169 .0246029
985.775 .0245902
986.382 .0245772
986.988 .0245637
987.594 .0245499
988.199 .0245363
988.804 .0245230
989.409 .0245106
990.013 .0244989
990.617 .0244880
991.221 .0244774
991.824 .0244677
992.427 .0244580
993.030 .0244490
993.632 .0244408
994.234 .0244330
994.836 .0244262
995.438 .0244209
996.039 .0244172
996.640 .0244159
997.240 .0244171
997.840 .0244208
998.440 .0244266
999.040 .0244343
999.639 .0244432
1000.238 .0244528
1000.836 .0244632
1001.435 .0244731
1002.033 .0244822
1002.630 .0244906
1003.228 .0244981
1003.825 .0245050
1004.422 .0245113
1005.018 .0245167
1005.614 .0245218
1006.210 .0245264
1006.806 .0245304
1007.401 .0245340
1007.996 .0245379
1008.591 .0245418
1009.186 .0245454
1009.780 .0245493
1010.374 .0245522
1010.967 .0245540
1011.561 .0245554
1012.154 .0245555
1012.746 .0245549
1013.339 .0245537
1013.931 .0245524
1014.523 .0245523
1015.115 .0245535
1015.706 .0245560
1016.298 .0245599
1016.888 .0245653
1017.479 .0245706
1018.069 .0245754
1018.660 .0245794
1019.250 .0245829
1019.839 .0245857
1020.429 .0245892
1021.018 .0245932
1021.607 .0245987
1022.195 .0246058
1022.784 .0246141
1023.372 .0246237
1023.960 .0246346
1024.547 .0246454
1025.135 .0246569
1025.722 .0246684
1026.309 .0246798
1026.896 .0246910
1027.483 .0247033
1028.069 .0247157
1028.655 .0247284
1029.241 .0247410
1029.827 .0247539
1030.412 .0247666
1030.997 .0247794
1031.582 .0247921
1032.167 .0248050
1032.752 .0248179
1033.336 .0248302
1033.921 .0248404
1034.505 .0248493
1035.089 .0248559
1035.672 .0248601
1036.256 .0248623
1036.839 .0248632
1037.422 .0248633
1038.005 .0248641
1038.588 .0248657
1039.171 .0248683
1039.753 .0248711
1040.335 .0248747
1040.918 .0248780
1041.500 .0248806
1042.081 .0248833
1042.663 .0248850
1043.244 .0248864
1043.826 .0248880
1044.407 .0248896
1044.988 .0248912
1045.569 .0248926
1046.150 .0248929
1046.730 .0248917
1047.311 .0248890
1047.891 .0248836
1048.471 .0248768
1049.052 .0248694
1049.632 .0248628
1050.211 .0248571
1050.791 .0248527
1051.371 .0248506
1051.950 .0248504
1052.530 .0248528
1053.109 .0248574
1053.688 .0248634
1054.268 .0248714
1054.847 .0248794
1055.426 .0248885
1056.005 .0248982
1056.583 .0249078
1057.162 .0249176
1057.741 .0249278
1058.319 .0249378
1058.898 .0249468
1059.476 .0249541
1060.055 .0249608
1060.633 .0249665
1061.211 .0249705
1061.790 .0249716
1062.368 .0249703
1062.946 .0249674
1063.524 .0249630
1064.102 .0249572
1064.680 .0249520
1065.258 .0249474
1065.836 .0249432
1066.414 .0249396
1066.992 .0249357
1067.570 .0249317
1068.148 .0249267
1068.726 .0249208
1069.304 .0249144
1069.882 .0249069
1070.460 .0248985
1071.038 .0248886
1071.616 .0248785
1072.194 .0248685
1072.772 .0248565
1073.350 .0248441
1073.928 .0248312
1074.506 .0248191
1075.084 .0248073
1075.662 .0247973
1076.240 .0247905
1076.819 .0247871
1077.397 .0247871
1077.976 .0247905
1078.554 .0247960
1079.133 .0248042
1079.711 .0248137
1080.290 .0248247
1080.869 .0248368
1081.448 .0248497
1082.027 .0248626
1082.606 .0248747
1083.185 .0248867
1083.764 .0248967
1084.343 .0249043
1084.923 .0249116
1085.502 .0249174
1086.082 .0249235
1086.662 .0249302
1087.242 .0249370
1087.822 .0249438
1088.402 .0249498
1088.983 .0249533
1089.563 .0249518
1090.144 .0249456
1090.725 .0249358
1091.306 .0249237
1091.887 .0249129
1092.469 .0249056
1093.050 .0249046
1093.632 .0249122
1094.214 .0249270
1094.796 .0249471
1095.379 .0249714
1095.961 .0249947
1096.544 .0250162
1097.127 .0250322
1097.710 .0250444
1098.294 .0250546
1098.877 .0250640
1099.461 .0250756
1100.046 .0250902
1100.630 .0251093
1101.215 .0251306
1101.800 .0251524
1102.385 .0251767
1102.970 .0251984
1103.556 .0252190
1104.142 .0252360
1104.728 .0252517
1105.315 .0252656
1105.902 .0252785
1106.489 .0252919
1107.077 .0253078
1107.664 .0253259
1108.253 .0253456
1108.841 .0253670
1109.430 .0253927
1110.019 .0254196
1110.609 .0254484
1111.198 .0254769
1111.789 .0255056
1112.379 .0255323
1112.970 .0255580
1113.561 .0255828
1114.153 .0256098
1114.745 .0256396
1115.338 .0256714
1115.931 .0257059
1116.524 .0257434
1117.117 .0257836
1117.712 .0258274
1118.306 .0258745
1118.901 .0259273
1119.496 .0259815
1120.092 .0260402
1120.689 .0261009
1121.285 .0261620
1121.882 .0262216
1122.480 .0262797
1123.078 .0263360
1123.677 .0263879
1124.276 .0264350
1124.875 .0264763
1125.476 .0265131
1126.076 .0265488
1126.677 .0265829
1127.279 .0266177
1127.881 .0266547
1128.484 .0266958
1129.087 .0267402
1129.691 .0267904
1130.295 .0268468
1130.900 .0269126
1131.505 .0269905
1132.111 .0270813
1132.718 .0271835
1133.325 .0272911
1133.933 .0274076
1134.541 .0275307
1135.150 .0276570
1135.760 .0277863
1136.370 .0279143
1136.981 .0280428
1137.592 .0281672
1138.204 .0282895
1138.817 .0284100
1139.431 .0285292
1140.045 .0286430
1140.660 .0287607
1141.275 .0288732
1141.891 .0289729
1142.508 .0291262
1143.126 .0290826
1143.744 .0295338
1144.363 .0294637
1144.983 .0291703
