Measurement Sequence started on: 15-12-46-377
Integration time: 28
Scans to Average: 2 
>>>>>Begin Spectral Data<<<<<
432.689 .0000100
433.621 .0000100
434.552 .0000100
435.482 .0000100
436.410 .0000100
437.337 .0000100
438.262 .0244866
439.187 .0518131
440.110 .0858836
441.031 .1243595
441.952 .1618033
442.871 .1913588
443.789 .2077577
444.705 .2091115
445.621 .1976247
446.535 .1781480
447.447 .1559861
448.359 .1218313
449.269 .1049572
450.178 .0941770
451.086 .0865113
451.993 .0806197
452.898 .0759851
453.803 .0721902
454.706 .0690983
455.608 .0665126
456.508 .0643248
457.408 .0624554
458.306 .0608300
459.204 .0593756
460.100 .0580579
460.995 .0568391
461.888 .0556970
462.781 .0546261
463.673 .0536227
464.563 .0526958
465.452 .0518341
466.340 .0510252
467.228 .0502724
468.114 .0495613
468.999 .0489032
469.882 .0482821
470.765 .0477050
471.647 .0471708
472.528 .0466800
473.407 .0462372
474.286 .0458443
475.163 .0455044
476.040 .0452111
476.915 .0449604
477.790 .0447464
478.663 .0445624
479.535 .0443968
480.407 .0442550
481.277 .0441283
482.147 .0440136
483.015 .0439136
483.883 .0438271
484.749 .0437503
485.615 .0436858
486.479 .0436322
487.343 .0435922
488.206 .0435671
489.067 .0435530
489.928 .0435492
490.788 .0435697
491.647 .0436070
492.505 .0436646
493.362 .0437443
494.218 .0438467
495.073 .0439712
495.928 .0441321
496.781 .0443243
497.634 .0445437
498.486 .0447888
499.337 .0450621
500.187 .0453575
501.036 .0456804
501.884 .0460242
502.731 .0463846
503.578 .0467744
504.424 .0471865
505.268 .0476135
506.113 .0480732
506.956 .0485641
507.798 .0490956
508.640 .0496689
509.480 .0502896
510.320 .0509644
511.160 .0517058
511.998 .0525361
512.836 .0534605
513.672 .0544897
514.508 .0556360
515.344 .0569043
516.178 .0583219
517.012 .0599014
517.845 .0616648
518.677 .0636602
519.508 .0658958
520.339 .0684226
521.169 .0712902
521.998 .0745613
522.826 .0783018
523.654 .0825397
524.481 .0872648
525.307 .0925141
526.133 .0982179
526.958 .1042950
527.782 .1106307
528.605 .1170845
529.428 .1234788
530.250 .1294062
531.072 .1346334
531.892 .1388917
532.712 .1419582
533.532 .1437649
534.350 .1440819
535.168 .1428822
535.986 .1402149
536.802 .1361968
537.618 .1310509
538.434 .1249904
539.249 .1184088
540.063 .1115562
540.876 .1047323
541.689 .0981900
542.501 .0920684
543.313 .0865859
544.124 .0817586
544.934 .0775319
545.744 .0737930
546.553 .0704731
547.361 .0675402
548.169 .0649694
548.976 .0626846
549.783 .0606524
550.589 .0588557
551.395 .0572504
552.200 .0558024
553.004 .0544959
553.808 .0532986
554.611 .0522275
555.414 .0512552
556.216 .0503590
557.018 .0495260
557.819 .0487450
558.619 .0480109
559.419 .0473101
560.218 .0466441
561.017 .0459929
561.815 .0453593
562.613 .0447319
563.410 .0441105
564.207 .0434923
565.003 .0428873
565.799 .0422914
566.594 .0417079
567.388 .0411408
568.182 .0405880
568.976 .0400462
569.769 .0395348
570.562 .0390409
571.354 .0385760
572.145 .0381332
572.936 .0377160
573.727 .0373211
574.517 .0369475
575.307 .0365901
576.096 .0362470
576.885 .0359165
577.673 .0356028
578.461 .0352989
579.248 .0350112
580.035 .0347374
580.821 .0344829
581.607 .0342444
582.392 .0340239
583.177 .0338169
583.962 .0336218
584.746 .0334373
585.529 .0332608
586.313 .0330905
587.095 .0329256
587.878 .0327668
588.660 .0326174
589.441 .0324782
590.222 .0323508
591.003 .0322349
591.783 .0321318
592.563 .0320419
593.342 .0319620
594.121 .0318887
594.899 .0318207
595.678 .0317573
596.455 .0316965
597.233 .0316387
598.009 .0315840
598.786 .0315335
599.562 .0314880
600.338 .0314481
601.113 .0314125
601.888 .0313806
602.663 .0313526
603.437 .0313266
604.211 .0313015
604.984 .0312752
605.757 .0312470
606.530 .0312174
607.302 .0311870
608.074 .0311562
608.845 .0311254
609.616 .0310963
610.387 .0310690
611.158 .0310422
611.928 .0310166
612.697 .0309910
613.467 .0309655
614.236 .0309394
615.004 .0309126
615.773 .0308849
616.541 .0308568
617.308 .0308293
618.076 .0308039
618.843 .0307797
619.609 .0307569
620.375 .0307350
621.141 .0307140
621.907 .0306936
622.672 .0306734
623.437 .0306530
624.202 .0306339
624.966 .0306155
625.730 .0305986
626.493 .0305823
627.257 .0305671
628.020 .0305525
628.782 .0305369
629.545 .0305194
630.307 .0305000
631.068 .0304779
631.830 .0304540
632.591 .0304287
633.352 .0304036
634.112 .0303788
634.872 .0303548
635.632 .0303318
636.392 .0303095
637.151 .0302870
637.910 .0302639
638.668 .0302387
639.427 .0302118
640.185 .0301835
640.943 .0301536
641.700 .0301234
642.457 .0300943
643.214 .0300660
643.971 .0300389
644.727 .0300134
645.483 .0299892
646.239 .0299655
646.994 .0299425
647.750 .0299195
648.505 .0298963
649.259 .0298734
650.014 .0298508
650.768 .0298284
651.521 .0298077
652.275 .0297876
653.028 .0297681
653.781 .0297493
654.534 .0297312
655.286 .0297134
656.039 .0296958
656.791 .0296784
657.542 .0296610
658.294 .0296435
659.045 .0296260
659.796 .0296077
660.546 .0295898
661.297 .0295714
662.047 .0295524
662.796 .0295328
663.546 .0295137
664.295 .0294937
665.044 .0294745
665.793 .0294562
666.542 .0294392
667.290 .0294234
668.038 .0294091
668.786 .0293957
669.533 .0293827
670.281 .0293704
671.028 .0293580
671.774 .0293451
672.521 .0293327
673.267 .0293196
674.013 .0293063
674.759 .0292933
675.505 .0292810
676.250 .0292681
676.995 .0292553
677.740 .0292427
678.484 .0292295
679.229 .0292166
679.973 .0292042
680.717 .0291918
681.460 .0291802
682.204 .0291691
682.947 .0291579
683.690 .0291467
684.433 .0291351
685.175 .0291226
685.917 .0291096
686.659 .0290965
687.401 .0290832
688.142 .0290696
688.884 .0290566
689.625 .0290438
690.365 .0290308
691.106 .0290172
691.846 .0290023
692.586 .0289862
693.326 .0289686
694.066 .0289495
694.805 .0289295
695.545 .0289088
696.284 .0288885
697.022 .0288684
697.761 .0288489
698.499 .0288296
699.237 .0288106
699.975 .0287915
700.713 .0287727
701.450 .0287538
702.187 .0287353
702.924 .0287171
703.661 .0287000
704.397 .0286835
705.133 .0286675
705.869 .0286524
706.605 .0286375
707.341 .0286228
708.076 .0286084
708.811 .0285939
709.546 .0285802
710.281 .0285669
711.015 .0285539
711.749 .0285412
712.483 .0285289
713.217 .0285162
713.950 .0285026
714.684 .0284882
715.417 .0284731
716.150 .0284572
716.882 .0284412
717.615 .0284249
718.347 .0284092
719.079 .0283938
719.811 .0283785
720.542 .0283629
721.273 .0283470
722.005 .0283298
722.735 .0283121
723.466 .0282938
724.196 .0282751
724.927 .0282560
725.656 .0282376
726.386 .0282201
727.116 .0282033
727.845 .0281874
728.574 .0281720
729.303 .0281566
730.031 .0281417
730.760 .0281263
731.488 .0281109
732.216 .0280961
732.944 .0280819
733.671 .0280679
734.398 .0280547
735.125 .0280422
735.852 .0280303
736.579 .0280194
737.305 .0280096
738.031 .0280006
738.757 .0279924
739.483 .0279850
740.208 .0279780
740.933 .0279718
741.658 .0279659
742.383 .0279598
743.108 .0279537
743.832 .0279476
744.556 .0279409
745.280 .0279344
746.004 .0279282
746.727 .0279221
747.450 .0279158
748.173 .0279096
748.896 .0279022
749.618 .0278937
750.340 .0278840
751.062 .0278733
751.784 .0278617
752.506 .0278498
753.227 .0278371
753.948 .0278242
754.669 .0278118
755.389 .0277993
756.110 .0277867
756.830 .0277743
757.550 .0277621
758.269 .0277494
758.989 .0277369
759.708 .0277249
760.427 .0277130
761.146 .0277017
761.864 .0276905
762.582 .0276789
763.300 .0276675
764.018 .0276557
764.736 .0276434
765.453 .0276305
766.170 .0276176
766.887 .0276038
767.603 .0275894
768.320 .0275745
769.036 .0275589
769.751 .0275427
770.467 .0275256
771.182 .0275078
771.897 .0274893
772.612 .0274709
773.327 .0274527
774.041 .0274352
774.755 .0274187
775.469 .0274032
776.183 .0273897
776.896 .0273779
777.609 .0273678
778.322 .0273593
779.035 .0273517
779.747 .0273453
780.459 .0273398
781.171 .0273352
781.882 .0273312
782.594 .0273280
783.305 .0273254
784.016 .0273228
784.726 .0273201
785.436 .0273174
786.147 .0273140
786.856 .0273099
787.566 .0273048
788.275 .0272980
788.984 .0272898
789.693 .0272803
790.401 .0272693
791.110 .0272573
791.818 .0272442
792.525 .0272307
793.233 .0272167
793.940 .0272030
794.647 .0271901
795.353 .0271777
796.060 .0271660
796.766 .0271550
797.472 .0271441
798.177 .0271330
798.883 .0271214
799.588 .0271090
800.292 .0270957
800.997 .0270814
801.701 .0270665
802.405 .0270510
803.109 .0270356
803.812 .0270204
804.515 .0270052
805.218 .0269898
805.921 .0269735
806.623 .0269562
807.325 .0269380
808.027 .0269189
808.728 .0268989
809.429 .0268783
810.130 .0268578
810.831 .0268379
811.531 .0268187
812.231 .0268000
812.931 .0267821
813.630 .0267647
814.330 .0267477
815.029 .0267312
815.727 .0267151
816.426 .0266998
817.124 .0266854
817.821 .0266717
818.519 .0266583
819.216 .0266456
819.913 .0266336
820.609 .0266215
821.306 .0266095
822.002 .0265978
822.697 .0265864
823.393 .0265760
824.088 .0265667
824.783 .0265582
825.477 .0265504
826.171 .0265434
826.865 .0265366
827.559 .0265298
828.252 .0265235
828.945 .0265173
829.638 .0265114
830.330 .0265065
831.023 .0265025
831.714 .0264992
832.406 .0264974
833.097 .0264966
833.788 .0264961
834.479 .0264960
835.169 .0264956
835.859 .0264952
836.548 .0264947
837.238 .0264939
837.927 .0264928
838.615 .0264915
839.304 .0264901
839.992 .0264882
840.680 .0264857
841.367 .0264824
842.054 .0264784
842.741 .0264736
843.428 .0264683
844.114 .0264623
844.800 .0264556
845.485 .0264486
846.170 .0264409
846.855 .0264326
847.540 .0264236
848.224 .0264141
848.908 .0264044
849.592 .0263943
850.275 .0263841
850.958 .0263738
851.641 .0263636
852.323 .0263535
853.005 .0263429
853.687 .0263318
854.368 .0263201
855.049 .0263077
855.730 .0262948
856.410 .0262818
857.090 .0262687
857.769 .0262558
858.449 .0262429
859.128 .0262302
859.806 .0262172
860.485 .0262040
861.163 .0261906
861.840 .0261765
862.518 .0261620
863.195 .0261470
863.871 .0261317
864.548 .0261169
865.224 .0261024
865.899 .0260886
866.574 .0260751
867.249 .0260621
867.924 .0260495
868.598 .0260368
869.272 .0260244
869.946 .0260123
870.619 .0260004
871.292 .0259892
871.964 .0259788
872.636 .0259692
873.308 .0259609
873.979 .0259537
874.651 .0259471
875.321 .0259411
875.992 .0259353
876.662 .0259298
877.331 .0259242
878.001 .0259190
878.670 .0259137
879.338 .0259087
880.007 .0259042
880.675 .0259002
881.342 .0258968
882.009 .0258942
882.676 .0258917
883.343 .0258894
884.009 .0258869
884.675 .0258842
885.340 .0258808
886.005 .0258770
886.670 .0258727
887.334 .0258686
887.998 .0258647
888.662 .0258611
889.325 .0258580
889.988 .0258561
890.650 .0258548
891.312 .0258542
891.974 .0258541
892.636 .0258543
893.297 .0258538
893.957 .0258531
894.618 .0258511
895.278 .0258479
895.937 .0258434
896.596 .0258382
897.255 .0258322
897.914 .0258261
898.572 .0258194
899.230 .0258126
899.887 .0258056
900.544 .0257986
901.201 .0257903
901.857 .0257808
902.513 .0257704
903.168 .0257585
903.823 .0257448
904.478 .0257302
905.132 .0257145
905.786 .0256983
906.440 .0256817
907.093 .0256648
907.746 .0256471
908.399 .0256292
909.051 .0256112
909.703 .0255930
910.354 .0255748
911.005 .0255567
911.656 .0255378
912.306 .0255191
912.956 .0255005
913.605 .0254812
914.254 .0254617
914.903 .0254424
915.551 .0254230
916.199 .0254042
916.847 .0253860
917.494 .0253689
918.141 .0253528
918.788 .0253383
919.434 .0253242
920.079 .0253099
920.725 .0252954
921.370 .0252804
922.014 .0252641
922.658 .0252467
923.302 .0252278
923.946 .0252078
924.589 .0251868
925.231 .0251650
925.873 .0251424
926.515 .0251197
927.157 .0250971
927.798 .0250742
928.439 .0250510
929.079 .0250285
929.719 .0250061
930.359 .0249841
930.998 .0249629
931.637 .0249423
932.275 .0249225
932.913 .0249036
933.551 .0248858
934.188 .0248691
934.825 .0248535
935.462 .0248389
936.098 .0248251
936.733 .0248123
937.369 .0248003
938.004 .0247888
938.638 .0247782
939.273 .0247685
939.907 .0247593
940.540 .0247507
941.173 .0247430
941.806 .0247361
942.438 .0247295
943.070 .0247228
943.702 .0247161
944.333 .0247092
944.964 .0247020
945.594 .0246943
946.224 .0246865
946.854 .0246793
947.483 .0246726
948.112 .0246662
948.741 .0246604
949.369 .0246550
949.996 .0246495
950.624 .0246433
951.251 .0246361
951.878 .0246279
952.504 .0246187
953.130 .0246088
953.755 .0245990
954.380 .0245898
955.005 .0245816
955.629 .0245747
956.253 .0245693
956.877 .0245652
957.500 .0245618
958.123 .0245588
958.746 .0245559
959.368 .0245525
959.990 .0245483
960.611 .0245441
961.232 .0245396
961.853 .0245353
962.473 .0245317
963.093 .0245283
963.712 .0245259
964.331 .0245238
964.950 .0245215
965.569 .0245191
966.187 .0245164
966.804 .0245134
967.422 .0245100
968.039 .0245071
968.655 .0245045
969.272 .0245022
969.887 .0245006
970.503 .0244995
971.118 .0244988
971.733 .0244983
972.347 .0244979
972.961 .0244975
973.575 .0244975
974.188 .0244970
974.801 .0244965
975.414 .0244962
976.026 .0244955
976.638 .0244942
977.250 .0244921
977.861 .0244889
978.472 .0244843
979.083 .0244782
979.693 .0244701
980.303 .0244602
980.912 .0244491
981.521 .0244367
982.130 .0244234
982.738 .0244101
983.346 .0243972
983.954 .0243846
984.562 .0243730
985.169 .0243614
985.775 .0243496
986.382 .0243377
986.988 .0243255
987.594 .0243128
988.199 .0243005
988.804 .0242890
989.409 .0242783
990.013 .0242691
990.617 .0242617
991.221 .0242553
991.824 .0242504
992.427 .0242466
993.030 .0242431
993.632 .0242396
994.234 .0242368
994.836 .0242338
995.438 .0242317
996.039 .0242306
996.640 .0242305
997.240 .0242316
997.840 .0242349
998.440 .0242400
999.040 .0242467
999.639 .0242552
1000.238 .0242649
1000.836 .0242752
1001.435 .0242856
1002.033 .0242957
1002.630 .0243049
1003.228 .0243133
1003.825 .0243209
1004.422 .0243269
1005.018 .0243328
1005.614 .0243387
1006.210 .0243444
1006.806 .0243504
1007.401 .0243564
1007.996 .0243618
1008.591 .0243665
1009.186 .0243697
1009.780 .0243716
1010.374 .0243720
1010.967 .0243716
1011.561 .0243705
1012.154 .0243694
1012.746 .0243696
1013.339 .0243705
1013.931 .0243725
1014.523 .0243757
1015.115 .0243790
1015.706 .0243819
1016.298 .0243842
1016.888 .0243856
1017.479 .0243862
1018.069 .0243856
1018.660 .0243842
1019.250 .0243826
1019.839 .0243813
1020.429 .0243803
1021.018 .0243797
1021.607 .0243809
1022.195 .0243838
1022.784 .0243873
1023.372 .0243928
1023.960 .0243997
1024.547 .0244075
1025.135 .0244158
1025.722 .0244240
1026.309 .0244318
1026.896 .0244398
1027.483 .0244482
1028.069 .0244576
1028.655 .0244685
1029.241 .0244817
1029.827 .0244965
1030.412 .0245139
1030.997 .0245330
1031.582 .0245519
1032.167 .0245695
1032.752 .0245859
1033.336 .0245996
1033.921 .0246103
1034.505 .0246186
1035.089 .0246253
1035.672 .0246313
1036.256 .0246371
1036.839 .0246417
1037.422 .0246456
1038.005 .0246489
1038.588 .0246505
1039.171 .0246494
1039.753 .0246462
1040.335 .0246402
1040.918 .0246322
1041.500 .0246230
1042.081 .0246123
1042.663 .0246007
1043.244 .0245891
1043.826 .0245779
1044.407 .0245672
1044.988 .0245575
1045.569 .0245491
1046.150 .0245420
1046.730 .0245374
1047.311 .0245336
1047.891 .0245297
1048.471 .0245260
1049.052 .0245222
1049.632 .0245173
1050.211 .0245124
1050.791 .0245069
1051.371 .0245023
1051.950 .0245000
1052.530 .0244997
1053.109 .0245008
1053.688 .0245034
1054.268 .0245078
1054.847 .0245121
1055.426 .0245162
1056.005 .0245206
1056.583 .0245235
1057.162 .0245262
1057.741 .0245288
1058.319 .0245311
1058.898 .0245336
1059.476 .0245367
1060.055 .0245384
1060.633 .0245402
1061.211 .0245417
1061.790 .0245422
1062.368 .0245423
1062.946 .0245432
1063.524 .0245441
1064.102 .0245434
1064.680 .0245413
1065.258 .0245365
1065.836 .0245285
1066.414 .0245186
1066.992 .0245052
1067.570 .0244913
1068.148 .0244780
1068.726 .0244662
1069.304 .0244567
1069.882 .0244513
1070.460 .0244487
1071.038 .0244470
1071.616 .0244451
1072.194 .0244424
1072.772 .0244375
1073.350 .0244310
1073.928 .0244247
1074.506 .0244187
1075.084 .0244144
1075.662 .0244118
1076.240 .0244115
1076.819 .0244135
1077.397 .0244169
1077.976 .0244207
1078.554 .0244223
1079.133 .0244220
1079.711 .0244194
1080.290 .0244138
1080.869 .0244080
1081.448 .0244027
1082.027 .0243983
1082.606 .0243944
1083.185 .0243934
1083.764 .0243941
1084.343 .0243961
1084.923 .0243997
1085.502 .0244045
1086.082 .0244087
1086.662 .0244134
1087.242 .0244175
1087.822 .0244199
1088.402 .0244222
1088.983 .0244233
1089.563 .0244226
1090.144 .0244213
1090.725 .0244210
1091.306 .0244225
1091.887 .0244256
1092.469 .0244323
1093.050 .0244416
1093.632 .0244525
1094.214 .0244657
1094.796 .0244803
1095.379 .0244965
1095.961 .0245138
1096.544 .0245330
1097.127 .0245534
1097.710 .0245759
1098.294 .0245999
1098.877 .0246259
1099.461 .0246507
1100.046 .0246752
1100.630 .0246949
1101.215 .0247095
1101.800 .0247203
1102.385 .0247286
1102.970 .0247343
1103.556 .0247390
1104.142 .0247455
1104.728 .0247537
1105.315 .0247624
1105.902 .0247742
1106.489 .0247870
1107.077 .0248022
1107.664 .0248187
1108.253 .0248389
1108.841 .0248627
1109.430 .0248931
1110.019 .0249296
1110.609 .0249737
1111.198 .0250233
1111.789 .0250758
1112.379 .0251277
1112.970 .0251787
1113.561 .0252295
1114.153 .0252765
1114.745 .0253195
1115.338 .0253612
1115.931 .0253994
1116.524 .0254349
1117.117 .0254664
1117.712 .0254974
1118.306 .0255266
1118.901 .0255549
1119.496 .0255838
1120.092 .0256132
1120.689 .0256463
1121.285 .0256848
1121.882 .0257279
1122.480 .0257780
1123.078 .0258323
1123.677 .0258877
1124.276 .0259446
1124.875 .0260029
1125.476 .0260612
1126.076 .0261200
1126.677 .0261818
1127.279 .0262480
1127.881 .0263182
1128.484 .0263939
1129.087 .0264714
1129.691 .0265494
1130.295 .0266249
1130.900 .0266933
1131.505 .0267550
1132.111 .0268130
1132.718 .0268678
1133.325 .0269241
1133.933 .0269857
1134.541 .0270564
1135.150 .0271355
1135.760 .0272215
1136.370 .0273159
1136.981 .0274117
1137.592 .0275039
1138.204 .0275902
1138.817 .0276715
1139.431 .0277564
1140.045 .0278411
1140.660 .0279208
1141.275 .0279974
1141.891 .0280713
1142.508 .0283530
1143.126 .0283868
1143.744 .0282217
1144.363 .0282416
1144.983 .0282749
