Measurement Sequence started on: 15-12-46-377
Integration time: 28
Scans to Average: 2 
>>>>>Begin Spectral Data<<<<<
432.689 .0000100
433.621 .0000100
434.552 .0000100
435.482 .0000100
436.410 .0000100
437.337 .0000100
438.262 .0273741
439.187 .0577644
440.110 .0955030
441.031 .1380072
441.952 .1791023
442.871 .2113010
443.789 .2287447
444.705 .2294493
445.621 .2160418
446.535 .1939617
447.447 .1691504
448.359 .1311796
449.269 .1127593
450.178 .1012208
451.086 .0930952
451.993 .0869147
452.898 .0819560
453.803 .0778523
454.706 .0744638
455.608 .0715554
456.508 .0690874
457.408 .0669625
458.306 .0650796
459.204 .0634189
460.100 .0619093
460.995 .0605174
461.888 .0592254
462.781 .0580255
463.673 .0569060
464.563 .0558669
465.452 .0549163
466.340 .0540365
467.228 .0532325
468.114 .0524942
468.999 .0518157
469.882 .0511824
470.765 .0505950
471.647 .0500320
472.528 .0495050
473.407 .0490226
474.286 .0485811
475.163 .0481863
476.040 .0478409
476.915 .0475432
477.790 .0472900
478.663 .0470692
479.535 .0468850
480.407 .0467219
481.277 .0465828
482.147 .0464566
483.015 .0463444
483.883 .0462454
484.749 .0461594
485.615 .0460887
486.479 .0460395
487.343 .0460090
488.206 .0459963
489.067 .0459939
489.928 .0460102
490.788 .0460397
491.647 .0460798
492.505 .0461304
493.362 .0461945
494.218 .0462700
495.073 .0463588
495.928 .0464631
496.781 .0465885
497.634 .0467463
498.486 .0469387
499.337 .0471686
500.187 .0474359
501.036 .0477367
501.884 .0480742
502.731 .0484407
503.578 .0488397
504.424 .0492548
505.268 .0496869
506.113 .0501315
506.956 .0505809
507.798 .0510541
508.640 .0515483
509.480 .0520866
510.320 .0526802
511.160 .0533350
511.998 .0540574
512.836 .0548426
513.672 .0557128
514.508 .0566782
515.344 .0577568
516.178 .0589696
517.012 .0603377
517.845 .0619007
518.677 .0637021
519.508 .0657581
520.339 .0681260
521.169 .0708807
521.998 .0740293
522.826 .0776695
523.654 .0818086
524.481 .0865153
525.307 .0918646
526.133 .0978646
526.958 .1044664
527.782 .1115526
528.605 .1189856
529.428 .1266267
530.250 .1339357
531.072 .1406970
531.892 .1464680
532.712 .1510456
533.532 .1541975
534.350 .1556630
535.168 .1553186
535.986 .1532848
536.802 .1496608
537.618 .1446617
538.434 .1385175
539.249 .1317046
540.063 .1244622
540.876 .1171773
541.689 .1100776
542.501 .1033977
543.313 .0973187
544.124 .0918915
544.934 .0870141
545.744 .0826459
546.553 .0787186
547.361 .0751784
548.169 .0720416
548.976 .0692237
549.783 .0666768
550.589 .0643878
551.395 .0623191
552.200 .0604644
553.004 .0588091
553.808 .0573069
554.611 .0559546
555.414 .0547280
556.216 .0536138
557.018 .0525836
557.819 .0516319
558.619 .0507460
559.419 .0499209
560.218 .0491520
561.017 .0484472
561.815 .0477762
562.613 .0471453
563.410 .0465472
564.207 .0459622
565.003 .0453877
565.799 .0448127
566.594 .0442177
567.388 .0436209
568.182 .0430210
568.976 .0424234
569.769 .0418297
570.562 .0412605
571.354 .0407156
572.145 .0401955
572.936 .0396996
573.727 .0392204
574.517 .0387547
575.307 .0383062
576.096 .0378691
576.885 .0374441
577.673 .0370422
578.461 .0366667
579.248 .0363180
580.035 .0359986
580.821 .0357037
581.607 .0354283
582.392 .0351700
583.177 .0349267
583.962 .0346987
584.746 .0344883
585.529 .0342939
586.313 .0341183
587.095 .0339607
587.878 .0338214
588.660 .0336984
589.441 .0335905
590.222 .0334939
591.003 .0334070
591.783 .0333279
592.563 .0332545
593.342 .0331873
594.121 .0331249
594.899 .0330665
595.678 .0330123
596.455 .0329619
597.233 .0329132
598.009 .0328644
598.786 .0328169
599.562 .0327685
600.338 .0327194
601.113 .0326689
601.888 .0326164
602.663 .0325621
603.437 .0325069
604.211 .0324497
604.984 .0323911
605.757 .0323326
606.530 .0322753
607.302 .0322196
608.074 .0321672
608.845 .0321182
609.616 .0320723
610.387 .0320304
611.158 .0319920
611.928 .0319554
612.697 .0319212
613.467 .0318886
614.236 .0318577
615.004 .0318283
615.773 .0318012
616.541 .0317763
617.308 .0317544
618.076 .0317359
618.843 .0317195
619.609 .0317052
620.375 .0316922
621.141 .0316798
621.907 .0316667
622.672 .0316529
623.437 .0316372
624.202 .0316199
624.966 .0316009
625.730 .0315803
626.493 .0315584
627.257 .0315361
628.020 .0315140
628.782 .0314916
629.545 .0314689
630.307 .0314462
631.068 .0314223
631.830 .0313981
632.591 .0313719
633.352 .0313440
634.112 .0313140
634.872 .0312825
635.632 .0312499
636.392 .0312162
637.151 .0311825
637.910 .0311494
638.668 .0311168
639.427 .0310852
640.185 .0310534
640.943 .0310225
641.700 .0309925
642.457 .0309636
643.214 .0309358
643.971 .0309090
644.727 .0308835
645.483 .0308592
646.239 .0308360
646.994 .0308140
647.750 .0307934
648.505 .0307742
649.259 .0307570
650.014 .0307417
650.768 .0307283
651.521 .0307169
652.275 .0307065
653.028 .0306973
653.781 .0306870
654.534 .0306752
655.286 .0306622
656.039 .0306472
656.791 .0306310
657.542 .0306126
658.294 .0305941
659.045 .0305757
659.796 .0305570
660.546 .0305384
661.297 .0305191
662.047 .0304992
662.796 .0304788
663.546 .0304567
664.295 .0304335
665.044 .0304093
665.793 .0303848
666.542 .0303599
667.290 .0303355
668.038 .0303117
668.786 .0302891
669.533 .0302679
670.281 .0302481
671.028 .0302286
671.774 .0302099
672.521 .0301921
673.267 .0301749
674.013 .0301580
674.759 .0301412
675.505 .0301241
676.250 .0301077
676.995 .0300905
677.740 .0300729
678.484 .0300550
679.229 .0300371
679.973 .0300185
680.717 .0299988
681.460 .0299785
682.204 .0299570
682.947 .0299350
683.690 .0299130
684.433 .0298902
685.175 .0298674
685.917 .0298444
686.659 .0298214
687.401 .0297989
688.142 .0297772
688.884 .0297556
689.625 .0297349
690.365 .0297154
691.106 .0296962
691.846 .0296778
692.586 .0296599
693.326 .0296426
694.066 .0296251
694.805 .0296076
695.545 .0295897
696.284 .0295709
697.022 .0295522
697.761 .0295329
698.499 .0295132
699.237 .0294935
699.975 .0294736
700.713 .0294533
701.450 .0294329
702.187 .0294123
702.924 .0293918
703.661 .0293714
704.397 .0293516
705.133 .0293323
705.869 .0293139
706.605 .0292962
707.341 .0292792
708.076 .0292625
708.811 .0292463
709.546 .0292294
710.281 .0292117
711.015 .0291934
711.749 .0291735
712.483 .0291521
713.217 .0291296
713.950 .0291058
714.684 .0290808
715.417 .0290548
716.150 .0290283
716.882 .0290014
717.615 .0289743
718.347 .0289467
719.079 .0289188
719.811 .0288913
720.542 .0288643
721.273 .0288376
722.005 .0288119
722.735 .0287879
723.466 .0287656
724.196 .0287450
724.927 .0287259
725.656 .0287080
726.386 .0286910
727.116 .0286747
727.845 .0286585
728.574 .0286421
729.303 .0286255
730.031 .0286091
730.760 .0285932
731.488 .0285779
732.216 .0285633
732.944 .0285498
733.671 .0285375
734.398 .0285264
735.125 .0285161
735.852 .0285066
736.579 .0284979
737.305 .0284899
738.031 .0284826
738.757 .0284757
739.483 .0284693
740.208 .0284632
740.933 .0284575
741.658 .0284518
742.383 .0284462
743.108 .0284401
743.832 .0284334
744.556 .0284260
745.280 .0284174
746.004 .0284076
746.727 .0283962
747.450 .0283842
748.173 .0283709
748.896 .0283571
749.618 .0283431
750.340 .0283291
751.062 .0283167
751.784 .0283057
752.506 .0282957
753.227 .0282869
753.948 .0282790
754.669 .0282715
755.389 .0282641
756.110 .0282569
756.830 .0282492
757.550 .0282411
758.269 .0282329
758.989 .0282244
759.708 .0282151
760.427 .0282055
761.146 .0281952
761.864 .0281837
762.582 .0281713
763.300 .0281570
764.018 .0281415
764.736 .0281254
765.453 .0281091
766.170 .0280928
766.887 .0280767
767.603 .0280615
768.320 .0280472
769.036 .0280336
769.751 .0280212
770.467 .0280096
771.182 .0279992
771.897 .0279895
772.612 .0279806
773.327 .0279727
774.041 .0279663
774.755 .0279610
775.469 .0279569
776.183 .0279538
776.896 .0279517
777.609 .0279499
778.322 .0279483
779.035 .0279469
779.747 .0279455
780.459 .0279437
781.171 .0279415
781.882 .0279391
782.594 .0279369
783.305 .0279346
784.016 .0279323
784.726 .0279303
785.436 .0279280
786.147 .0279250
786.856 .0279212
787.566 .0279168
788.275 .0279119
788.984 .0279059
789.693 .0278993
790.401 .0278925
791.110 .0278851
791.818 .0278767
792.525 .0278673
793.233 .0278576
793.940 .0278466
794.647 .0278344
795.353 .0278208
796.060 .0278063
796.766 .0277912
797.472 .0277757
798.177 .0277595
798.883 .0277431
799.588 .0277262
800.292 .0277088
800.997 .0276911
801.701 .0276733
802.405 .0276555
803.109 .0276381
803.812 .0276215
804.515 .0276055
805.218 .0275891
805.921 .0275729
806.623 .0275560
807.325 .0275381
808.027 .0275191
808.728 .0274983
809.429 .0274765
810.130 .0274542
810.831 .0274317
811.531 .0274092
812.231 .0273865
812.931 .0273639
813.630 .0273403
814.330 .0273159
815.029 .0272904
815.727 .0272636
816.426 .0272367
817.124 .0272105
817.821 .0271848
818.519 .0271603
819.216 .0271376
819.913 .0271171
820.609 .0270982
821.306 .0270808
822.002 .0270647
822.697 .0270498
823.393 .0270361
824.088 .0270241
824.783 .0270136
825.477 .0270051
826.171 .0269976
826.865 .0269913
827.559 .0269857
828.252 .0269803
828.945 .0269744
829.638 .0269682
830.330 .0269618
831.023 .0269548
831.714 .0269470
832.406 .0269391
833.097 .0269305
833.788 .0269213
834.479 .0269110
835.169 .0268995
835.859 .0268869
836.548 .0268735
837.238 .0268591
837.927 .0268446
838.615 .0268306
839.304 .0268174
839.992 .0268049
840.680 .0267935
841.367 .0267828
842.054 .0267727
842.741 .0267628
843.428 .0267534
844.114 .0267443
844.800 .0267355
845.485 .0267265
846.170 .0267178
846.855 .0267091
847.540 .0267002
848.224 .0266908
848.908 .0266810
849.592 .0266701
850.275 .0266586
850.958 .0266459
851.641 .0266327
852.323 .0266189
853.005 .0266051
853.687 .0265905
854.368 .0265756
855.049 .0265604
855.730 .0265450
856.410 .0265292
857.090 .0265133
857.769 .0264972
858.449 .0264813
859.128 .0264653
859.806 .0264495
860.485 .0264340
861.163 .0264194
861.840 .0264049
862.518 .0263903
863.195 .0263759
863.871 .0263613
864.548 .0263467
865.224 .0263322
865.899 .0263181
866.574 .0263046
867.249 .0262921
867.924 .0262809
868.598 .0262712
869.272 .0262633
869.946 .0262574
870.619 .0262526
871.292 .0262488
871.964 .0262459
872.636 .0262432
873.308 .0262411
873.979 .0262394
874.651 .0262377
875.321 .0262362
875.992 .0262348
876.662 .0262341
877.331 .0262335
878.001 .0262333
878.670 .0262330
879.338 .0262323
880.007 .0262317
880.675 .0262307
881.342 .0262294
882.009 .0262282
882.676 .0262272
883.343 .0262264
884.009 .0262256
884.675 .0262254
885.340 .0262258
886.005 .0262272
886.670 .0262296
887.334 .0262335
887.998 .0262384
888.662 .0262447
889.325 .0262523
889.988 .0262608
890.650 .0262702
891.312 .0262795
891.974 .0262891
892.636 .0262988
893.297 .0263089
893.957 .0263192
894.618 .0263299
895.278 .0263415
895.937 .0263535
896.596 .0263658
897.255 .0263777
897.914 .0263889
898.572 .0263988
899.230 .0264070
899.887 .0264133
900.544 .0264176
901.201 .0264205
901.857 .0264220
902.513 .0264224
903.168 .0264216
903.823 .0264192
904.478 .0264154
905.132 .0264097
905.786 .0264020
906.440 .0263921
907.093 .0263801
907.746 .0263666
908.399 .0263517
909.051 .0263362
909.703 .0263202
910.354 .0263041
911.005 .0262883
911.656 .0262727
912.306 .0262567
912.956 .0262406
913.605 .0262243
914.254 .0262077
914.903 .0261911
915.551 .0261745
916.199 .0261583
916.847 .0261428
917.494 .0261285
918.141 .0261151
918.788 .0261030
919.434 .0260923
920.079 .0260820
920.725 .0260723
921.370 .0260631
922.014 .0260537
922.658 .0260439
923.302 .0260337
923.946 .0260232
924.589 .0260118
925.231 .0259993
925.873 .0259858
926.515 .0259713
927.157 .0259563
927.798 .0259401
928.439 .0259227
929.079 .0259050
929.719 .0258861
930.359 .0258660
930.998 .0258451
931.637 .0258230
932.275 .0257999
932.913 .0257759
933.551 .0257510
934.188 .0257255
934.825 .0257000
935.462 .0256750
936.098 .0256507
936.733 .0256281
937.369 .0256067
938.004 .0255867
938.638 .0255684
939.273 .0255514
939.907 .0255357
940.540 .0255216
941.173 .0255090
941.806 .0254980
942.438 .0254891
943.070 .0254819
943.702 .0254763
944.333 .0254720
944.964 .0254682
945.594 .0254647
946.224 .0254605
946.854 .0254559
947.483 .0254500
948.112 .0254435
948.741 .0254359
949.369 .0254274
949.996 .0254181
950.624 .0254076
951.251 .0253959
951.878 .0253830
952.504 .0253686
953.130 .0253528
953.755 .0253356
954.380 .0253181
955.005 .0253001
955.629 .0252825
956.253 .0252647
956.877 .0252473
957.500 .0252301
958.123 .0252129
958.746 .0251945
959.368 .0251758
959.990 .0251568
960.611 .0251374
961.232 .0251180
961.853 .0250990
962.473 .0250808
963.093 .0250639
963.712 .0250474
964.331 .0250316
964.950 .0250157
965.569 .0249999
966.187 .0249834
966.804 .0249672
967.422 .0249520
968.039 .0249375
968.655 .0249240
969.272 .0249117
969.887 .0249003
970.503 .0248896
971.118 .0248789
971.733 .0248677
972.347 .0248558
972.961 .0248428
973.575 .0248284
974.188 .0248128
974.801 .0247967
975.414 .0247799
976.026 .0247628
976.638 .0247451
977.250 .0247268
977.861 .0247077
978.472 .0246882
979.083 .0246680
979.693 .0246473
980.303 .0246260
980.912 .0246043
981.521 .0245826
982.130 .0245612
982.738 .0245403
983.346 .0245204
983.954 .0245010
984.562 .0244822
985.169 .0244633
985.775 .0244441
986.382 .0244242
986.988 .0244044
987.594 .0243843
988.199 .0243644
988.804 .0243447
989.409 .0243255
990.013 .0243071
990.617 .0242894
991.221 .0242724
991.824 .0242565
992.427 .0242415
993.030 .0242272
993.632 .0242137
994.234 .0242020
994.836 .0241916
995.438 .0241828
996.039 .0241755
996.640 .0241695
997.240 .0241648
997.840 .0241613
998.440 .0241585
999.040 .0241568
999.639 .0241561
1000.238 .0241558
1000.836 .0241551
1001.435 .0241539
1002.033 .0241520
1002.630 .0241488
1003.228 .0241449
1003.825 .0241398
1004.422 .0241339
1005.018 .0241282
1005.614 .0241227
1006.210 .0241179
1006.806 .0241138
1007.401 .0241106
1007.996 .0241082
1008.591 .0241064
1009.186 .0241049
1009.780 .0241037
1010.374 .0241034
1010.967 .0241039
1011.561 .0241052
1012.154 .0241068
1012.746 .0241083
1013.339 .0241093
1013.931 .0241101
1014.523 .0241100
1015.115 .0241083
1015.706 .0241063
1016.298 .0241035
1016.888 .0241006
1017.479 .0240979
1018.069 .0240953
1018.660 .0240931
1019.250 .0240914
1019.839 .0240905
1020.429 .0240895
1021.018 .0240890
1021.607 .0240894
1022.195 .0240899
1022.784 .0240921
1023.372 .0240957
1023.960 .0241005
1024.547 .0241072
1025.135 .0241159
1025.722 .0241260
1026.309 .0241373
1026.896 .0241496
1027.483 .0241629
1028.069 .0241767
1028.655 .0241914
1029.241 .0242058
1029.827 .0242206
1030.412 .0242368
1030.997 .0242540
1031.582 .0242725
1032.167 .0242922
1032.752 .0243128
1033.336 .0243337
1033.921 .0243544
1034.505 .0243743
1035.089 .0243927
1035.672 .0244098
1036.256 .0244258
1036.839 .0244401
1037.422 .0244529
1038.005 .0244650
1038.588 .0244766
1039.171 .0244883
1039.753 .0244993
1040.335 .0245089
1040.918 .0245173
1041.500 .0245245
1042.081 .0245316
1042.663 .0245381
1043.244 .0245457
1043.826 .0245547
1044.407 .0245651
1044.988 .0245771
1045.569 .0245895
1046.150 .0246023
1046.730 .0246146
1047.311 .0246262
1047.891 .0246365
1048.471 .0246454
1049.052 .0246533
1049.632 .0246611
1050.211 .0246703
1050.791 .0246806
1051.371 .0246921
1051.950 .0247043
1052.530 .0247158
1053.109 .0247255
1053.688 .0247327
1054.268 .0247374
1054.847 .0247399
1055.426 .0247422
1056.005 .0247450
1056.583 .0247495
1057.162 .0247561
1057.741 .0247656
1058.319 .0247777
1058.898 .0247926
1059.476 .0248078
1060.055 .0248217
1060.633 .0248342
1061.211 .0248445
1061.790 .0248520
1062.368 .0248579
1062.946 .0248627
1063.524 .0248675
1064.102 .0248726
1064.680 .0248784
1065.258 .0248842
1065.836 .0248910
1066.414 .0248981
1066.992 .0249049
1067.570 .0249119
1068.148 .0249186
1068.726 .0249245
1069.304 .0249311
1069.882 .0249395
1070.460 .0249491
1071.038 .0249606
1071.616 .0249743
1072.194 .0249902
1072.772 .0250085
1073.350 .0250286
1073.928 .0250505
1074.506 .0250740
1075.084 .0250982
1075.662 .0251210
1076.240 .0251421
1076.819 .0251612
1077.397 .0251772
1077.976 .0251902
1078.554 .0252008
1079.133 .0252099
1079.711 .0252175
1080.290 .0252245
1080.869 .0252315
1081.448 .0252396
1082.027 .0252469
1082.606 .0252538
1083.185 .0252601
1083.764 .0252657
1084.343 .0252712
1084.923 .0252769
1085.502 .0252842
1086.082 .0252938
1086.662 .0253065
1087.242 .0253217
1087.822 .0253388
1088.402 .0253584
1088.983 .0253768
1089.563 .0253946
1090.144 .0254111
1090.725 .0254267
1091.306 .0254422
1091.887 .0254597
1092.469 .0254792
1093.050 .0255000
1093.632 .0255232
1094.214 .0255463
1094.796 .0255702
1095.379 .0255951
1095.961 .0256198
1096.544 .0256446
1097.127 .0256700
1097.710 .0256975
1098.294 .0257262
1098.877 .0257585
1099.461 .0257925
1100.046 .0258262
1100.630 .0258594
1101.215 .0258905
1101.800 .0259189
1102.385 .0259446
1102.970 .0259691
1103.556 .0259914
1104.142 .0260141
1104.728 .0260367
1105.315 .0260587
1105.902 .0260816
1106.489 .0261051
1107.077 .0261290
1107.664 .0261518
1108.253 .0261744
1108.841 .0261979
1109.430 .0262239
1110.019 .0262529
1110.609 .0262844
1111.198 .0263199
1111.789 .0263583
1112.379 .0263975
1112.970 .0264368
1113.561 .0264775
1114.153 .0265187
1114.745 .0265609
1115.338 .0266040
1115.931 .0266471
1116.524 .0266920
1117.117 .0267384
1117.712 .0267853
1118.306 .0268318
1118.901 .0268761
1119.496 .0269141
1120.092 .0269480
1120.689 .0269804
1121.285 .0270085
1121.882 .0270353
1122.480 .0270625
1123.078 .0270931
1123.677 .0271257
1124.276 .0271624
1124.875 .0272028
1125.476 .0272467
1126.076 .0272980
1126.677 .0273521
1127.279 .0274123
1127.881 .0274807
1128.484 .0275524
1129.087 .0276271
1129.691 .0277059
1130.295 .0277871
1130.900 .0278674
1131.505 .0279487
1132.111 .0280341
1132.718 .0281215
1133.325 .0282125
1133.933 .0283057
1134.541 .0284028
1135.150 .0284991
1135.760 .0285947
1136.370 .0286814
1136.981 .0287660
1137.592 .0288422
1138.204 .0289182
1138.817 .0289919
1139.431 .0290651
1140.045 .0291384
1140.660 .0292166
1141.275 .0292938
1141.891 .0293884
1142.508 .0294698
1143.126 .0294705
1143.744 .0296562
1144.363 .0296591
1144.983 .0301582
