Measurement Sequence started on: 15-12-46-377
Integration time: 28
Scans to Average: 2 
>>>>>Begin Spectral Data<<<<<
432.689 .0000100
433.621 .0000100
434.552 .0000100
435.482 .0000100
436.410 .0000100
437.337 .0000100
438.262 .0280941
439.187 .0593893
440.110 .0981565
441.031 .1418562
441.952 .1841710
442.871 .2173105
443.789 .2352491
444.705 .2359939
445.621 .2222040
446.535 .1995210
447.447 .1740278
448.359 .1350054
449.269 .1160258
450.178 .1042369
451.086 .0959124
451.993 .0895339
452.898 .0844344
453.803 .0802040
454.706 .0766371
455.608 .0735609
456.508 .0708967
457.408 .0686182
458.306 .0666398
459.204 .0648789
460.100 .0632976
460.995 .0618567
461.888 .0605366
462.781 .0593063
463.673 .0581425
464.563 .0570509
465.452 .0560299
466.340 .0550716
467.228 .0541742
468.114 .0533379
468.999 .0525643
469.882 .0518423
470.765 .0511739
471.647 .0505496
472.528 .0499735
473.407 .0494501
474.286 .0489899
475.163 .0485869
476.040 .0482457
476.915 .0479563
477.790 .0477143
478.663 .0475116
479.535 .0473359
480.407 .0471859
481.277 .0470627
482.147 .0469615
483.015 .0468809
483.883 .0468171
484.749 .0467783
485.615 .0467593
486.479 .0467608
487.343 .0467854
488.206 .0468315
489.067 .0468974
489.928 .0469798
490.788 .0470754
491.647 .0471874
492.505 .0473140
493.362 .0474618
494.218 .0476267
495.073 .0478063
495.928 .0480053
496.781 .0482173
497.634 .0484541
498.486 .0487211
499.337 .0490155
500.187 .0493466
501.036 .0497108
501.884 .0500968
502.731 .0504926
503.578 .0508875
504.424 .0512802
505.268 .0516628
506.113 .0520381
506.956 .0524154
507.798 .0528179
508.640 .0532678
509.480 .0537852
510.320 .0543881
511.160 .0550854
511.998 .0558702
512.836 .0567396
513.672 .0576847
514.508 .0586922
515.344 .0597784
516.178 .0609766
517.012 .0623283
517.845 .0639145
518.677 .0657860
519.508 .0680073
520.339 .0706761
521.169 .0738274
521.998 .0774313
522.826 .0815086
523.654 .0860831
524.481 .0911204
525.307 .0966955
526.133 .1027783
526.958 .1093542
527.782 .1163466
528.605 .1236373
529.428 .1310826
530.250 .1381400
531.072 .1445589
531.892 .1498980
532.712 .1538637
533.532 .1562975
534.350 .1569056
535.168 .1557598
535.986 .1529803
536.802 .1487597
537.618 .1433273
538.434 .1369157
539.249 .1300338
540.063 .1228495
540.876 .1156645
541.689 .1086981
542.501 .1021549
543.313 .0962224
544.124 .0909172
544.934 .0862090
545.744 .0820617
546.553 .0784078
547.361 .0751740
548.169 .0723102
548.976 .0697228
549.783 .0673669
550.589 .0652112
551.395 .0632115
552.200 .0614005
553.004 .0597434
553.808 .0582197
554.611 .0568448
555.414 .0556012
556.216 .0544870
557.018 .0534808
557.819 .0525732
558.619 .0517427
559.419 .0509697
560.218 .0502588
561.017 .0495898
561.815 .0489368
562.613 .0483012
563.410 .0476651
564.207 .0470273
565.003 .0463969
565.799 .0457722
566.594 .0451568
567.388 .0445777
568.182 .0440250
568.976 .0434960
569.769 .0429826
570.562 .0424888
571.354 .0420003
572.145 .0415142
572.936 .0410275
573.727 .0405337
574.517 .0400400
575.307 .0395544
576.096 .0390760
576.885 .0386182
577.673 .0381855
578.461 .0377777
579.248 .0373933
580.035 .0370352
580.821 .0366949
581.607 .0363707
582.392 .0360639
583.177 .0357767
583.962 .0355092
584.746 .0352659
585.529 .0350483
586.313 .0348577
587.095 .0346946
587.878 .0345545
588.660 .0344338
589.441 .0343298
590.222 .0342382
591.003 .0341548
591.783 .0340786
592.563 .0340093
593.342 .0339454
594.121 .0338857
594.899 .0338304
595.678 .0337775
596.455 .0337272
597.233 .0336781
598.009 .0336281
598.786 .0335779
599.562 .0335268
600.338 .0334741
601.113 .0334200
601.888 .0333651
602.663 .0333086
603.437 .0332511
604.211 .0331920
604.984 .0331309
605.757 .0330687
606.530 .0330068
607.302 .0329451
608.074 .0328855
608.845 .0328297
609.616 .0327770
610.387 .0327286
611.158 .0326848
611.928 .0326436
612.697 .0326038
613.467 .0325652
614.236 .0325269
615.004 .0324882
615.773 .0324515
616.541 .0324169
617.308 .0323854
618.076 .0323588
618.843 .0323351
619.609 .0323139
620.375 .0322950
621.141 .0322766
621.907 .0322573
622.672 .0322373
623.437 .0322157
624.202 .0321924
624.966 .0321690
625.730 .0321464
626.493 .0321239
627.257 .0321028
628.020 .0320829
628.782 .0320623
629.545 .0320411
630.307 .0320187
631.068 .0319941
631.830 .0319688
632.591 .0319424
633.352 .0319143
634.112 .0318859
634.872 .0318569
635.632 .0318277
636.392 .0317978
637.151 .0317688
637.910 .0317397
638.668 .0317115
639.427 .0316849
640.185 .0316592
640.943 .0316345
641.700 .0316117
642.457 .0315887
643.214 .0315661
643.971 .0315418
644.727 .0315162
645.483 .0314892
646.239 .0314622
646.994 .0314351
647.750 .0314094
648.505 .0313852
649.259 .0313635
650.014 .0313429
650.768 .0313236
651.521 .0313040
652.275 .0312843
653.028 .0312633
653.781 .0312406
654.534 .0312162
655.286 .0311919
656.039 .0311673
656.791 .0311442
657.542 .0311215
658.294 .0310997
659.045 .0310786
659.796 .0310570
660.546 .0310339
661.297 .0310090
662.047 .0309818
662.796 .0309521
663.546 .0309199
664.295 .0308860
665.044 .0308501
665.793 .0308143
666.542 .0307791
667.290 .0307448
668.038 .0307114
668.786 .0306795
669.533 .0306484
670.281 .0306187
671.028 .0305900
671.774 .0305618
672.521 .0305344
673.267 .0305082
674.013 .0304825
674.759 .0304575
675.505 .0304334
676.250 .0304100
676.995 .0303874
677.740 .0303652
678.484 .0303425
679.229 .0303194
679.973 .0302965
680.717 .0302738
681.460 .0302513
682.204 .0302296
682.947 .0302091
683.690 .0301895
684.433 .0301711
685.175 .0301534
685.917 .0301367
686.659 .0301207
687.401 .0301049
688.142 .0300892
688.884 .0300743
689.625 .0300599
690.365 .0300461
691.106 .0300331
691.846 .0300211
692.586 .0300092
693.326 .0299972
694.066 .0299847
694.805 .0299718
695.545 .0299580
696.284 .0299430
697.022 .0299264
697.761 .0299090
698.499 .0298907
699.237 .0298720
699.975 .0298530
700.713 .0298348
701.450 .0298168
702.187 .0297993
702.924 .0297826
703.661 .0297669
704.397 .0297517
705.133 .0297377
705.869 .0297244
706.605 .0297120
707.341 .0297003
708.076 .0296893
708.811 .0296788
709.546 .0296691
710.281 .0296597
711.015 .0296500
711.749 .0296404
712.483 .0296312
713.217 .0296218
713.950 .0296126
714.684 .0296033
715.417 .0295940
716.150 .0295844
716.882 .0295741
717.615 .0295627
718.347 .0295498
719.079 .0295355
719.811 .0295196
720.542 .0295019
721.273 .0294839
722.005 .0294655
722.735 .0294474
723.466 .0294300
724.196 .0294128
724.927 .0293954
725.656 .0293770
726.386 .0293572
727.116 .0293357
727.845 .0293120
728.574 .0292867
729.303 .0292602
730.031 .0292337
730.760 .0292079
731.488 .0291836
732.216 .0291611
732.944 .0291410
733.671 .0291224
734.398 .0291054
735.125 .0290889
735.852 .0290734
736.579 .0290583
737.305 .0290435
738.031 .0290293
738.757 .0290156
739.483 .0290021
740.208 .0289893
740.933 .0289766
741.658 .0289643
742.383 .0289515
743.108 .0289389
743.832 .0289256
744.556 .0289121
745.280 .0288984
746.004 .0288842
746.727 .0288698
747.450 .0288549
748.173 .0288386
748.896 .0288211
749.618 .0288025
750.340 .0287828
751.062 .0287624
751.784 .0287421
752.506 .0287224
753.227 .0287036
753.948 .0286859
754.669 .0286693
755.389 .0286533
756.110 .0286376
756.830 .0286212
757.550 .0286033
758.269 .0285836
758.989 .0285618
759.708 .0285384
760.427 .0285138
761.146 .0284890
761.864 .0284642
762.582 .0284402
763.300 .0284171
764.018 .0283952
764.736 .0283742
765.453 .0283540
766.170 .0283341
766.887 .0283141
767.603 .0282939
768.320 .0282732
769.036 .0282528
769.751 .0282330
770.467 .0282137
771.182 .0281955
771.897 .0281786
772.612 .0281630
773.327 .0281487
774.041 .0281359
774.755 .0281243
775.469 .0281137
776.183 .0281038
776.896 .0280940
777.609 .0280845
778.322 .0280749
779.035 .0280653
779.747 .0280560
780.459 .0280470
781.171 .0280387
781.882 .0280314
782.594 .0280254
783.305 .0280208
784.016 .0280175
784.726 .0280155
785.436 .0280143
786.147 .0280131
786.856 .0280118
787.566 .0280105
788.275 .0280090
788.984 .0280078
789.693 .0280069
790.401 .0280062
791.110 .0280057
791.818 .0280053
792.525 .0280047
793.233 .0280033
793.940 .0280014
794.647 .0279987
795.353 .0279949
796.060 .0279909
796.766 .0279862
797.472 .0279815
798.177 .0279775
798.883 .0279739
799.588 .0279707
800.292 .0279680
800.997 .0279657
801.701 .0279633
802.405 .0279608
803.109 .0279584
803.812 .0279555
804.515 .0279521
805.218 .0279479
805.921 .0279426
806.623 .0279365
807.325 .0279296
808.027 .0279217
808.728 .0279135
809.429 .0279047
810.130 .0278956
810.831 .0278865
811.531 .0278773
812.231 .0278678
812.931 .0278577
813.630 .0278470
814.330 .0278357
815.029 .0278242
815.727 .0278129
816.426 .0278021
817.124 .0277924
817.821 .0277836
818.519 .0277761
819.216 .0277697
819.913 .0277645
820.609 .0277601
821.306 .0277564
822.002 .0277531
822.697 .0277505
823.393 .0277486
824.088 .0277473
824.783 .0277464
825.477 .0277454
826.171 .0277442
826.865 .0277428
827.559 .0277413
828.252 .0277396
828.945 .0277381
829.638 .0277370
830.330 .0277363
831.023 .0277360
831.714 .0277358
832.406 .0277354
833.097 .0277346
833.788 .0277324
834.479 .0277289
835.169 .0277240
835.859 .0277184
836.548 .0277121
837.238 .0277060
837.927 .0277001
838.615 .0276944
839.304 .0276897
839.992 .0276853
840.680 .0276810
841.367 .0276764
842.054 .0276711
842.741 .0276649
843.428 .0276578
844.114 .0276499
844.800 .0276408
845.485 .0276314
846.170 .0276212
846.855 .0276099
847.540 .0275974
848.224 .0275841
848.908 .0275696
849.592 .0275541
850.275 .0275374
850.958 .0275190
851.641 .0274996
852.323 .0274790
853.005 .0274573
853.687 .0274347
854.368 .0274112
855.049 .0273867
855.730 .0273610
856.410 .0273342
857.090 .0273061
857.769 .0272770
858.449 .0272470
859.128 .0272164
859.806 .0271855
860.485 .0271548
861.163 .0271247
861.840 .0270954
862.518 .0270666
863.195 .0270385
863.871 .0270108
864.548 .0269834
865.224 .0269559
865.899 .0269285
866.574 .0269011
867.249 .0268743
867.924 .0268480
868.598 .0268228
869.272 .0267988
869.946 .0267760
870.619 .0267541
871.292 .0267332
871.964 .0267128
872.636 .0266925
873.308 .0266720
873.979 .0266513
874.651 .0266300
875.321 .0266084
875.992 .0265867
876.662 .0265650
877.331 .0265437
878.001 .0265233
878.670 .0265035
879.338 .0264852
880.007 .0264680
880.675 .0264520
881.342 .0264369
882.009 .0264228
882.676 .0264092
883.343 .0263962
884.009 .0263837
884.675 .0263715
885.340 .0263598
886.005 .0263489
886.670 .0263388
887.334 .0263301
887.998 .0263230
888.662 .0263175
889.325 .0263132
889.988 .0263100
890.650 .0263072
891.312 .0263049
891.974 .0263029
892.636 .0263007
893.297 .0262985
893.957 .0262966
894.618 .0262945
895.278 .0262927
895.937 .0262915
896.596 .0262906
897.255 .0262898
897.914 .0262893
898.572 .0262879
899.230 .0262854
899.887 .0262819
900.544 .0262773
901.201 .0262712
901.857 .0262641
902.513 .0262557
903.168 .0262461
903.823 .0262355
904.478 .0262237
905.132 .0262100
905.786 .0261952
906.440 .0261788
907.093 .0261611
907.746 .0261423
908.399 .0261230
909.051 .0261029
909.703 .0260830
910.354 .0260631
911.005 .0260435
911.656 .0260243
912.306 .0260057
912.956 .0259879
913.605 .0259710
914.254 .0259546
914.903 .0259394
915.551 .0259258
916.199 .0259140
916.847 .0259035
917.494 .0258950
918.141 .0258879
918.788 .0258825
919.434 .0258784
920.079 .0258751
920.725 .0258732
921.370 .0258720
922.014 .0258713
922.658 .0258708
923.302 .0258705
923.946 .0258696
924.589 .0258678
925.231 .0258652
925.873 .0258612
926.515 .0258560
927.157 .0258497
927.798 .0258426
928.439 .0258351
929.079 .0258274
929.719 .0258194
930.359 .0258115
930.998 .0258037
931.637 .0257953
932.275 .0257865
932.913 .0257780
933.551 .0257696
934.188 .0257614
934.825 .0257541
935.462 .0257478
936.098 .0257430
936.733 .0257400
937.369 .0257390
938.004 .0257402
938.638 .0257434
939.273 .0257479
939.907 .0257533
940.540 .0257594
941.173 .0257654
941.806 .0257710
942.438 .0257767
943.070 .0257825
943.702 .0257882
944.333 .0257944
944.964 .0258009
945.594 .0258081
946.224 .0258156
946.854 .0258234
947.483 .0258310
948.112 .0258383
948.741 .0258451
949.369 .0258512
949.996 .0258564
950.624 .0258614
951.251 .0258659
951.878 .0258710
952.504 .0258764
953.130 .0258824
953.755 .0258885
954.380 .0258949
955.005 .0259009
955.629 .0259069
956.253 .0259122
956.877 .0259170
957.500 .0259216
958.123 .0259256
958.746 .0259289
959.368 .0259316
959.990 .0259334
960.611 .0259344
961.232 .0259340
961.853 .0259326
962.473 .0259297
963.093 .0259259
963.712 .0259213
964.331 .0259159
964.950 .0259099
965.569 .0259033
966.187 .0258962
966.804 .0258892
967.422 .0258818
968.039 .0258743
968.655 .0258672
969.272 .0258602
969.887 .0258531
970.503 .0258460
971.118 .0258389
971.733 .0258320
972.347 .0258249
972.961 .0258174
973.575 .0258096
974.188 .0258011
974.801 .0257920
975.414 .0257816
976.026 .0257705
976.638 .0257583
977.250 .0257456
977.861 .0257332
978.472 .0257211
979.083 .0257096
979.693 .0256986
980.303 .0256872
980.912 .0256758
981.521 .0256634
982.130 .0256502
982.738 .0256363
983.346 .0256228
983.954 .0256092
984.562 .0255956
985.169 .0255826
985.775 .0255702
986.382 .0255578
986.988 .0255451
987.594 .0255310
988.199 .0255148
988.804 .0254972
989.409 .0254779
990.013 .0254572
990.617 .0254363
991.221 .0254156
991.824 .0253959
992.427 .0253775
993.030 .0253611
993.632 .0253459
994.234 .0253323
994.836 .0253202
995.438 .0253086
996.039 .0252979
996.640 .0252876
997.240 .0252782
997.840 .0252701
998.440 .0252631
999.040 .0252565
999.639 .0252502
1000.238 .0252444
1000.836 .0252380
1001.435 .0252305
1002.033 .0252217
1002.630 .0252114
1003.228 .0252002
1003.825 .0251880
1004.422 .0251748
1005.018 .0251613
1005.614 .0251478
1006.210 .0251334
1006.806 .0251181
1007.401 .0251024
1007.996 .0250852
1008.591 .0250674
1009.186 .0250488
1009.780 .0250296
1010.374 .0250106
1010.967 .0249921
1011.561 .0249743
1012.154 .0249573
1012.746 .0249409
1013.339 .0249243
1013.931 .0249074
1014.523 .0248911
1015.115 .0248742
1015.706 .0248576
1016.298 .0248420
1016.888 .0248281
1017.479 .0248154
1018.069 .0248048
1018.660 .0247959
1019.250 .0247889
1019.839 .0247838
1020.429 .0247792
1021.018 .0247758
1021.607 .0247743
1022.195 .0247741
1022.784 .0247753
1023.372 .0247774
1023.960 .0247810
1024.547 .0247844
1025.135 .0247886
1025.722 .0247925
1026.309 .0247957
1026.896 .0247984
1027.483 .0248005
1028.069 .0248017
1028.655 .0248021
1029.241 .0248020
1029.827 .0248016
1030.412 .0248012
1030.997 .0248000
1031.582 .0247974
1032.167 .0247940
1032.752 .0247895
1033.336 .0247846
1033.921 .0247788
1034.505 .0247732
1035.089 .0247678
1035.672 .0247632
1036.256 .0247593
1036.839 .0247556
1037.422 .0247523
1038.005 .0247484
1038.588 .0247436
1039.171 .0247373
1039.753 .0247290
1040.335 .0247195
1040.918 .0247095
1041.500 .0246997
1042.081 .0246907
1042.663 .0246836
1043.244 .0246788
1043.826 .0246759
1044.407 .0246744
1044.988 .0246731
1045.569 .0246708
1046.150 .0246666
1046.730 .0246601
1047.311 .0246509
1047.891 .0246408
1048.471 .0246294
1049.052 .0246184
1049.632 .0246091
1050.211 .0246020
1050.791 .0245962
1051.371 .0245914
1051.950 .0245858
1052.530 .0245778
1053.109 .0245669
1053.688 .0245522
1054.268 .0245344
1054.847 .0245154
1055.426 .0244963
1056.005 .0244790
1056.583 .0244657
1057.162 .0244570
1057.741 .0244522
1058.319 .0244522
1058.898 .0244544
1059.476 .0244571
1060.055 .0244593
1060.633 .0244603
1061.211 .0244600
1061.790 .0244597
1062.368 .0244601
1062.946 .0244609
1063.524 .0244637
1064.102 .0244682
1064.680 .0244722
1065.258 .0244749
1065.836 .0244755
1066.414 .0244730
1066.992 .0244679
1067.570 .0244611
1068.148 .0244528
1068.726 .0244445
1069.304 .0244378
1069.882 .0244330
1070.460 .0244296
1071.038 .0244278
1071.616 .0244272
1072.194 .0244273
1072.772 .0244292
1073.350 .0244331
1073.928 .0244389
1074.506 .0244486
1075.084 .0244631
1075.662 .0244805
1076.240 .0245000
1076.819 .0245204
1077.397 .0245416
1077.976 .0245620
1078.554 .0245813
1079.133 .0245985
1079.711 .0246144
1080.290 .0246309
1080.869 .0246477
1081.448 .0246642
1082.027 .0246814
1082.606 .0246982
1083.185 .0247137
1083.764 .0247271
1084.343 .0247394
1084.923 .0247500
1085.502 .0247607
1086.082 .0247717
1086.662 .0247835
1087.242 .0247956
1087.822 .0248085
1088.402 .0248224
1088.983 .0248376
1089.563 .0248528
1090.144 .0248666
1090.725 .0248796
1091.306 .0248941
1091.887 .0249094
1092.469 .0249249
1093.050 .0249419
1093.632 .0249595
1094.214 .0249769
1094.796 .0249946
1095.379 .0250122
1095.961 .0250326
1096.544 .0250554
1097.127 .0250800
1097.710 .0251073
1098.294 .0251370
1098.877 .0251686
1099.461 .0252001
1100.046 .0252329
1100.630 .0252647
1101.215 .0252932
1101.800 .0253191
1102.385 .0253423
1102.970 .0253640
1103.556 .0253850
1104.142 .0254050
1104.728 .0254259
1105.315 .0254491
1105.902 .0254726
1106.489 .0254985
1107.077 .0255285
1107.664 .0255635
1108.253 .0256032
1108.841 .0256483
1109.430 .0256974
1110.019 .0257479
1110.609 .0258006
1111.198 .0258534
1111.789 .0259062
1112.379 .0259612
1112.970 .0260156
1113.561 .0260729
1114.153 .0261361
1114.745 .0262044
1115.338 .0262781
1115.931 .0263551
1116.524 .0264323
1117.117 .0265049
1117.712 .0265699
1118.306 .0266277
1118.901 .0266775
1119.496 .0267229
1120.092 .0267690
1120.689 .0268162
1121.285 .0268688
1121.882 .0269283
1122.480 .0269936
1123.078 .0270659
1123.677 .0271434
1124.276 .0272204
1124.875 .0272951
1125.476 .0273670
1126.076 .0274373
1126.677 .0275021
1127.279 .0275640
1127.881 .0276238
1128.484 .0276796
1129.087 .0277346
1129.691 .0277918
1130.295 .0278532
1130.900 .0279237
1131.505 .0280030
1132.111 .0280901
1132.718 .0281862
1133.325 .0282873
1133.933 .0283887
1134.541 .0284906
1135.150 .0285880
1135.760 .0286804
1136.370 .0287676
1136.981 .0288586
1137.592 .0289555
1138.204 .0290606
1138.817 .0291772
1139.431 .0292991
1140.045 .0294297
1140.660 .0295567
1141.275 .0296723
1141.891 .0297978
1142.508 .0299203
1143.126 .0300811
1143.744 .0299621
1144.363 .0300032
1144.983 .0306675
