Measurement Sequence started on: 15-12-46-377
Integration time: 28
Scans to Average: 2 
>>>>>Begin Spectral Data<<<<<
432.689 .0000100
433.621 .0000100
434.552 .0000100
435.482 .0000100
436.410 .0000100
437.337 .0000100
438.262 .0270252
439.187 .0573141
440.110 .0949558
441.031 .1373981
441.952 .1786108
442.871 .2109879
443.789 .2286696
444.705 .2296160
445.621 .2163068
446.535 .1941445
447.447 .1690535
448.359 .1308289
449.269 .1117505
450.178 .0996853
451.086 .0911958
451.993 .0847292
452.898 .0796971
453.803 .0756153
454.706 .0722580
455.608 .0694196
456.508 .0669814
457.408 .0648517
458.306 .0629490
459.204 .0612387
460.100 .0596945
460.995 .0582956
461.888 .0570446
462.781 .0558993
463.673 .0548483
464.563 .0538921
465.452 .0529968
466.340 .0521498
467.228 .0513619
468.114 .0506192
468.999 .0499272
469.882 .0492827
470.765 .0486975
471.647 .0481671
472.528 .0476945
473.407 .0472802
474.286 .0469182
475.163 .0466024
476.040 .0463301
476.915 .0460854
477.790 .0458722
478.663 .0456854
479.535 .0455223
480.407 .0453878
481.277 .0452822
482.147 .0452083
483.015 .0451659
483.883 .0451519
484.749 .0451649
485.615 .0451996
486.479 .0452484
487.343 .0453063
488.206 .0453729
489.067 .0454431
489.928 .0455154
490.788 .0455945
491.647 .0456825
492.505 .0457795
493.362 .0458900
494.218 .0460146
495.073 .0461475
495.928 .0462956
496.781 .0464453
497.634 .0466021
498.486 .0467693
499.337 .0469441
500.187 .0471276
501.036 .0473263
501.884 .0475492
502.731 .0477968
503.578 .0480716
504.424 .0483826
505.268 .0487258
506.113 .0491058
506.956 .0495174
507.798 .0499673
508.640 .0504737
509.480 .0510447
510.320 .0516950
511.160 .0524535
511.998 .0533134
512.836 .0542884
513.672 .0553770
514.508 .0565722
515.344 .0578866
516.178 .0593148
517.012 .0608643
517.845 .0625850
518.677 .0645109
519.508 .0666745
520.339 .0691526
521.169 .0720113
521.998 .0752607
522.826 .0789120
523.654 .0829701
524.481 .0874209
525.307 .0922519
526.133 .0974647
526.958 .1029823
527.782 .1088688
528.605 .1150243
529.428 .1213125
530.250 .1273585
531.072 .1330050
531.892 .1378769
532.712 .1417261
533.532 .1443087
534.350 .1454011
535.168 .1448936
535.986 .1428868
536.802 .1394302
537.618 .1348176
538.434 .1292678
539.249 .1231978
540.063 .1167662
540.876 .1103356
541.689 .1040630
542.501 .0981475
543.313 .0927368
544.124 .0878515
544.934 .0834139
545.744 .0793863
546.553 .0756970
547.361 .0723783
548.169 .0693988
548.976 .0667193
549.783 .0643075
550.589 .0621606
551.395 .0602358
552.200 .0585109
553.004 .0569578
553.808 .0555475
554.611 .0542791
555.414 .0531331
556.216 .0520792
557.018 .0511275
557.819 .0502761
558.619 .0495127
559.419 .0488238
560.218 .0482032
561.017 .0476125
561.815 .0470325
562.613 .0464617
563.410 .0458815
564.207 .0452953
565.003 .0447016
565.799 .0441118
566.594 .0435318
567.388 .0429786
568.182 .0424445
568.976 .0419181
569.769 .0414105
570.562 .0409072
571.354 .0403994
572.145 .0398882
572.936 .0393755
573.727 .0388645
574.517 .0383630
575.307 .0378792
576.096 .0374143
576.885 .0369764
577.673 .0365682
578.461 .0361894
579.248 .0358359
580.035 .0355045
580.821 .0351907
581.607 .0348915
582.392 .0346102
583.177 .0343449
583.962 .0340997
584.746 .0338753
585.529 .0336728
586.313 .0334918
587.095 .0333322
587.878 .0331944
588.660 .0330764
589.441 .0329732
590.222 .0328844
591.003 .0328069
591.783 .0327388
592.563 .0326782
593.342 .0326239
594.121 .0325737
594.899 .0325281
595.678 .0324860
596.455 .0324475
597.233 .0324117
598.009 .0323783
598.786 .0323459
599.562 .0323130
600.338 .0322795
601.113 .0322444
601.888 .0322067
602.663 .0321677
603.437 .0321279
604.211 .0320882
604.984 .0320485
605.757 .0320099
606.530 .0319730
607.302 .0319372
608.074 .0319030
608.845 .0318698
609.616 .0318374
610.387 .0318062
611.158 .0317761
611.928 .0317477
612.697 .0317216
613.467 .0316981
614.236 .0316772
615.004 .0316585
615.773 .0316417
616.541 .0316251
617.308 .0316079
618.076 .0315911
618.843 .0315738
619.609 .0315559
620.375 .0315382
621.141 .0315204
621.907 .0315029
622.672 .0314850
623.437 .0314656
624.202 .0314446
624.966 .0314215
625.730 .0313966
626.493 .0313688
627.257 .0313389
628.020 .0313077
628.782 .0312754
629.545 .0312429
630.307 .0312109
631.068 .0311785
631.830 .0311459
632.591 .0311125
633.352 .0310780
634.112 .0310418
634.872 .0310042
635.632 .0309658
636.392 .0309273
637.151 .0308896
637.910 .0308530
638.668 .0308181
639.427 .0307859
640.185 .0307566
640.943 .0307297
641.700 .0307052
642.457 .0306832
643.214 .0306635
643.971 .0306458
644.727 .0306305
645.483 .0306172
646.239 .0306059
646.994 .0305961
647.750 .0305878
648.505 .0305811
649.259 .0305756
650.014 .0305717
650.768 .0305687
651.521 .0305662
652.275 .0305639
653.028 .0305608
653.781 .0305567
654.534 .0305509
655.286 .0305431
656.039 .0305331
656.791 .0305213
657.542 .0305072
658.294 .0304919
659.045 .0304764
659.796 .0304607
660.546 .0304447
661.297 .0304288
662.047 .0304124
662.796 .0303955
663.546 .0303775
664.295 .0303584
665.044 .0303377
665.793 .0303163
666.542 .0302943
667.290 .0302722
668.038 .0302508
668.786 .0302295
669.533 .0302087
670.281 .0301889
671.028 .0301689
671.774 .0301494
672.521 .0301309
673.267 .0301139
674.013 .0300977
674.759 .0300823
675.505 .0300674
676.250 .0300532
676.995 .0300388
677.740 .0300236
678.484 .0300073
679.229 .0299902
679.973 .0299717
680.717 .0299520
681.460 .0299317
682.204 .0299110
682.947 .0298897
683.690 .0298683
684.433 .0298457
685.175 .0298223
685.917 .0297973
686.659 .0297704
687.401 .0297423
688.142 .0297127
688.884 .0296820
689.625 .0296514
690.365 .0296216
691.106 .0295924
691.846 .0295639
692.586 .0295364
693.326 .0295092
694.066 .0294818
694.805 .0294538
695.545 .0294252
696.284 .0293968
697.022 .0293688
697.761 .0293411
698.499 .0293146
699.237 .0292900
699.975 .0292667
700.713 .0292449
701.450 .0292242
702.187 .0292045
702.924 .0291855
703.661 .0291677
704.397 .0291505
705.133 .0291343
705.869 .0291191
706.605 .0291050
707.341 .0290917
708.076 .0290795
708.811 .0290674
709.546 .0290553
710.281 .0290432
711.015 .0290311
711.749 .0290183
712.483 .0290055
713.217 .0289922
713.950 .0289787
714.684 .0289645
715.417 .0289497
716.150 .0289342
716.882 .0289186
717.615 .0289030
718.347 .0288874
719.079 .0288724
719.811 .0288587
720.542 .0288456
721.273 .0288339
722.005 .0288224
722.735 .0288110
723.466 .0287993
724.196 .0287875
724.927 .0287756
725.656 .0287638
726.386 .0287523
727.116 .0287414
727.845 .0287308
728.574 .0287207
729.303 .0287107
730.031 .0287005
730.760 .0286903
731.488 .0286799
732.216 .0286690
732.944 .0286578
733.671 .0286463
734.398 .0286350
735.125 .0286241
735.852 .0286132
736.579 .0286022
737.305 .0285915
738.031 .0285811
738.757 .0285708
739.483 .0285606
740.208 .0285506
740.933 .0285409
741.658 .0285319
742.383 .0285235
743.108 .0285154
743.832 .0285075
744.556 .0284999
745.280 .0284919
746.004 .0284830
746.727 .0284729
747.450 .0284613
748.173 .0284478
748.896 .0284326
749.618 .0284156
750.340 .0283969
751.062 .0283773
751.784 .0283577
752.506 .0283377
753.227 .0283180
753.948 .0282983
754.669 .0282784
755.389 .0282581
756.110 .0282369
756.830 .0282141
757.550 .0281896
758.269 .0281637
758.989 .0281369
759.708 .0281088
760.427 .0280807
761.146 .0280525
761.864 .0280243
762.582 .0279957
763.300 .0279663
764.018 .0279354
764.736 .0279032
765.453 .0278694
766.170 .0278345
766.887 .0277992
767.603 .0277644
768.320 .0277308
769.036 .0276988
769.751 .0276689
770.467 .0276410
771.182 .0276144
771.897 .0275896
772.612 .0275660
773.327 .0275439
774.041 .0275233
774.755 .0275044
775.469 .0274877
776.183 .0274730
776.896 .0274598
777.609 .0274476
778.322 .0274356
779.035 .0274234
779.747 .0274104
780.459 .0273965
781.171 .0273823
781.882 .0273681
782.594 .0273544
783.305 .0273417
784.016 .0273301
784.726 .0273200
785.436 .0273109
786.147 .0273031
786.856 .0272960
787.566 .0272895
788.275 .0272836
788.984 .0272786
789.693 .0272744
790.401 .0272713
791.110 .0272688
791.818 .0272671
792.525 .0272658
793.233 .0272650
793.940 .0272641
794.647 .0272636
795.353 .0272632
796.060 .0272632
796.766 .0272632
797.472 .0272635
798.177 .0272634
798.883 .0272630
799.588 .0272618
800.292 .0272601
800.997 .0272572
801.701 .0272537
802.405 .0272496
803.109 .0272455
803.812 .0272413
804.515 .0272374
805.218 .0272330
805.921 .0272288
806.623 .0272239
807.325 .0272184
808.027 .0272121
808.728 .0272050
809.429 .0271971
810.130 .0271884
810.831 .0271794
811.531 .0271702
812.231 .0271606
812.931 .0271512
813.630 .0271417
814.330 .0271320
815.029 .0271220
815.727 .0271116
816.426 .0271007
817.124 .0270891
817.821 .0270769
818.519 .0270638
819.216 .0270503
819.913 .0270368
820.609 .0270234
821.306 .0270100
822.002 .0269976
822.697 .0269854
823.393 .0269742
824.088 .0269638
824.783 .0269538
825.477 .0269441
826.171 .0269348
826.865 .0269257
827.559 .0269169
828.252 .0269092
828.945 .0269027
829.638 .0268974
830.330 .0268940
831.023 .0268919
831.714 .0268907
832.406 .0268902
833.097 .0268894
833.788 .0268875
834.479 .0268840
835.169 .0268790
835.859 .0268722
836.548 .0268642
837.238 .0268553
837.927 .0268453
838.615 .0268343
839.304 .0268221
839.992 .0268080
840.680 .0267917
841.367 .0267730
842.054 .0267516
842.741 .0267276
843.428 .0267018
844.114 .0266744
844.800 .0266461
845.485 .0266171
846.170 .0265878
846.855 .0265579
847.540 .0265272
848.224 .0264961
848.908 .0264644
849.592 .0264325
850.275 .0264006
850.958 .0263692
851.641 .0263385
852.323 .0263088
853.005 .0262802
853.687 .0262523
854.368 .0262250
855.049 .0261979
855.730 .0261709
856.410 .0261440
857.090 .0261174
857.769 .0260909
858.449 .0260646
859.128 .0260388
859.806 .0260125
860.485 .0259861
861.163 .0259594
861.840 .0259325
862.518 .0259051
863.195 .0258775
863.871 .0258497
864.548 .0258221
865.224 .0257950
865.899 .0257683
866.574 .0257421
867.249 .0257166
867.924 .0256918
868.598 .0256679
869.272 .0256450
869.946 .0256238
870.619 .0256038
871.292 .0255854
871.964 .0255683
872.636 .0255524
873.308 .0255377
873.979 .0255242
874.651 .0255118
875.321 .0255003
875.992 .0254901
876.662 .0254812
877.331 .0254729
878.001 .0254653
878.670 .0254583
879.338 .0254515
880.007 .0254449
880.675 .0254387
881.342 .0254326
882.009 .0254276
882.676 .0254237
883.343 .0254209
884.009 .0254195
884.675 .0254195
885.340 .0254205
886.005 .0254221
886.670 .0254246
887.334 .0254273
887.998 .0254302
888.662 .0254341
889.325 .0254387
889.988 .0254447
890.650 .0254517
891.312 .0254595
891.974 .0254685
892.636 .0254783
893.297 .0254881
893.957 .0254978
894.618 .0255076
895.278 .0255167
895.937 .0255255
896.596 .0255344
897.255 .0255435
897.914 .0255530
898.572 .0255630
899.230 .0255730
899.887 .0255832
900.544 .0255935
901.201 .0256031
901.857 .0256121
902.513 .0256207
903.168 .0256284
903.823 .0256349
904.478 .0256402
905.132 .0256446
905.786 .0256474
906.440 .0256493
907.093 .0256500
907.746 .0256492
908.399 .0256473
909.051 .0256442
909.703 .0256402
910.354 .0256355
911.005 .0256305
911.656 .0256251
912.306 .0256196
912.956 .0256139
913.605 .0256073
914.254 .0256001
914.903 .0255926
915.551 .0255848
916.199 .0255771
916.847 .0255694
917.494 .0255616
918.141 .0255541
918.788 .0255468
919.434 .0255395
920.079 .0255318
920.725 .0255236
921.370 .0255147
922.014 .0255044
922.658 .0254927
923.302 .0254798
923.946 .0254663
924.589 .0254527
925.231 .0254385
925.873 .0254243
926.515 .0254102
927.157 .0253964
927.798 .0253831
928.439 .0253700
929.079 .0253566
929.719 .0253429
930.359 .0253286
930.998 .0253136
931.637 .0252977
932.275 .0252819
932.913 .0252665
933.551 .0252512
934.188 .0252361
934.825 .0252211
935.462 .0252064
936.098 .0251921
936.733 .0251776
937.369 .0251627
938.004 .0251476
938.638 .0251319
939.273 .0251154
939.907 .0250986
940.540 .0250818
941.173 .0250649
941.806 .0250483
942.438 .0250318
943.070 .0250151
943.702 .0249979
944.333 .0249807
944.964 .0249629
945.594 .0249453
946.224 .0249275
946.854 .0249098
947.483 .0248927
948.112 .0248763
948.741 .0248595
949.369 .0248429
949.996 .0248263
950.624 .0248094
951.251 .0247917
951.878 .0247733
952.504 .0247538
953.130 .0247339
953.755 .0247135
954.380 .0246926
955.005 .0246713
955.629 .0246504
956.253 .0246285
956.877 .0246063
957.500 .0245839
958.123 .0245610
958.746 .0245377
959.368 .0245142
959.990 .0244902
960.611 .0244662
961.232 .0244424
961.853 .0244189
962.473 .0243956
963.093 .0243731
963.712 .0243505
964.331 .0243279
964.950 .0243055
965.569 .0242827
966.187 .0242596
966.804 .0242367
967.422 .0242135
968.039 .0241900
968.655 .0241661
969.272 .0241413
969.887 .0241158
970.503 .0240894
971.118 .0240624
971.733 .0240348
972.347 .0240068
972.961 .0239791
973.575 .0239515
974.188 .0239244
974.801 .0238977
975.414 .0238712
976.026 .0238447
976.638 .0238177
977.250 .0237902
977.861 .0237628
978.472 .0237356
979.083 .0237092
979.693 .0236839
980.303 .0236601
980.912 .0236373
981.521 .0236156
982.130 .0235948
982.738 .0235745
983.346 .0235548
983.954 .0235351
984.562 .0235161
985.169 .0234980
985.775 .0234814
986.382 .0234659
986.988 .0234520
987.594 .0234395
988.199 .0234274
988.804 .0234159
989.409 .0234046
990.013 .0233932
990.617 .0233817
991.221 .0233705
991.824 .0233596
992.427 .0233493
993.030 .0233401
993.632 .0233324
994.234 .0233263
994.836 .0233217
995.438 .0233177
996.039 .0233142
996.640 .0233114
997.240 .0233085
997.840 .0233058
998.440 .0233039
999.040 .0233026
999.639 .0233019
1000.238 .0233017
1000.836 .0233025
1001.435 .0233035
1002.033 .0233054
1002.630 .0233078
1003.228 .0233105
1003.825 .0233142
1004.422 .0233187
1005.018 .0233247
1005.614 .0233323
1006.210 .0233415
1006.806 .0233518
1007.401 .0233633
1007.996 .0233759
1008.591 .0233892
1009.186 .0234038
1009.780 .0234193
1010.374 .0234361
1010.967 .0234535
1011.561 .0234717
1012.154 .0234902
1012.746 .0235087
1013.339 .0235271
1013.931 .0235442
1014.523 .0235608
1015.115 .0235757
1015.706 .0235901
1016.298 .0236040
1016.888 .0236178
1017.479 .0236314
1018.069 .0236449
1018.660 .0236585
1019.250 .0236715
1019.839 .0236847
1020.429 .0236980
1021.018 .0237120
1021.607 .0237274
1022.195 .0237436
1022.784 .0237616
1023.372 .0237810
1023.960 .0238026
1024.547 .0238250
1025.135 .0238488
1025.722 .0238734
1026.309 .0238982
1026.896 .0239236
1027.483 .0239497
1028.069 .0239764
1028.655 .0240034
1029.241 .0240306
1029.827 .0240578
1030.412 .0240843
1030.997 .0241107
1031.582 .0241358
1032.167 .0241607
1032.752 .0241849
1033.336 .0242081
1033.921 .0242300
1034.505 .0242511
1035.089 .0242710
1035.672 .0242892
1036.256 .0243066
1036.839 .0243226
1037.422 .0243373
1038.005 .0243511
1038.588 .0243642
1039.171 .0243771
1039.753 .0243900
1040.335 .0244034
1040.918 .0244163
1041.500 .0244300
1042.081 .0244441
1042.663 .0244580
1043.244 .0244725
1043.826 .0244879
1044.407 .0245035
1044.988 .0245192
1045.569 .0245355
1046.150 .0245512
1046.730 .0245666
1047.311 .0245824
1047.891 .0245974
1048.471 .0246117
1049.052 .0246250
1049.632 .0246372
1050.211 .0246483
1050.791 .0246590
1051.371 .0246692
1051.950 .0246801
1052.530 .0246922
1053.109 .0247052
1053.688 .0247179
1054.268 .0247303
1054.847 .0247421
1055.426 .0247514
1056.005 .0247581
1056.583 .0247620
1057.162 .0247634
1057.741 .0247640
1058.319 .0247657
1058.898 .0247690
1059.476 .0247739
1060.055 .0247805
1060.633 .0247870
1061.211 .0247925
1061.790 .0247953
1062.368 .0247950
1062.946 .0247913
1063.524 .0247860
1064.102 .0247804
1064.680 .0247751
1065.258 .0247728
1065.836 .0247742
1066.414 .0247790
1066.992 .0247868
1067.570 .0247955
1068.148 .0248035
1068.726 .0248092
1069.304 .0248136
1069.882 .0248156
1070.460 .0248168
1071.038 .0248174
1071.616 .0248176
1072.194 .0248173
1072.772 .0248173
1073.350 .0248168
1073.928 .0248153
1074.506 .0248128
1075.084 .0248075
1075.662 .0247995
1076.240 .0247890
1076.819 .0247763
1077.397 .0247630
1077.976 .0247497
1078.554 .0247369
1079.133 .0247232
1079.711 .0247101
1080.290 .0246980
1080.869 .0246861
1081.448 .0246750
1082.027 .0246633
1082.606 .0246519
1083.185 .0246404
1083.764 .0246304
1084.343 .0246212
1084.923 .0246151
1085.502 .0246121
1086.082 .0246117
1086.662 .0246138
1087.242 .0246176
1087.822 .0246214
1088.402 .0246266
1088.983 .0246324
1089.563 .0246380
1090.144 .0246428
1090.725 .0246496
1091.306 .0246551
1091.887 .0246613
1092.469 .0246677
1093.050 .0246724
1093.632 .0246752
1094.214 .0246769
1094.796 .0246756
1095.379 .0246732
1095.961 .0246704
1096.544 .0246657
1097.127 .0246592
1097.710 .0246533
1098.294 .0246445
1098.877 .0246331
1099.461 .0246214
1100.046 .0246084
1100.630 .0245931
1101.215 .0245781
1101.800 .0245636
1102.385 .0245489
1102.970 .0245367
1103.556 .0245245
1104.142 .0245138
1104.728 .0245077
1105.315 .0245049
1105.902 .0245049
1106.489 .0245106
1107.077 .0245218
1107.664 .0245379
1108.253 .0245596
1108.841 .0245877
1109.430 .0246180
1110.019 .0246493
1110.609 .0246798
1111.198 .0247094
1111.789 .0247383
1112.379 .0247670
1112.970 .0247936
1113.561 .0248184
1114.153 .0248407
1114.745 .0248577
1115.338 .0248695
1115.931 .0248784
1116.524 .0248841
1117.117 .0248862
1117.712 .0248863
1118.306 .0248874
1118.901 .0248933
1119.496 .0249044
1120.092 .0249244
1120.689 .0249533
1121.285 .0249901
1121.882 .0250317
1122.480 .0250775
1123.078 .0251281
1123.677 .0251830
1124.276 .0252381
1124.875 .0252949
1125.476 .0253487
1126.076 .0254030
1126.677 .0254530
1127.279 .0255009
1127.881 .0255471
1128.484 .0255901
1129.087 .0256265
1129.691 .0256600
1130.295 .0256922
1130.900 .0257279
1131.505 .0257672
1132.111 .0258143
1132.718 .0258653
1133.325 .0259219
1133.933 .0259820
1134.541 .0260486
1135.150 .0261210
1135.760 .0262036
1136.370 .0262918
1136.981 .0263926
1137.592 .0265023
1138.204 .0266216
1138.817 .0267474
1139.431 .0268719
1140.045 .0269902
1140.660 .0271078
1141.275 .0272198
1141.891 .0273273
1142.508 .0273421
1143.126 .0273964
1143.744 .0277167
1144.363 .0278412
1144.983 .0278477
