Measurement Sequence started on: 15-12-46-377
Integration time: 28
Scans to Average: 2 
>>>>>Begin Spectral Data<<<<<
432.689 .0000100
433.621 .0000100
434.552 .0000100
435.482 .0000100
436.410 .0000100
437.337 .0000100
438.262 .0274529
439.187 .0581553
440.110 .0962820
441.031 .1392706
441.952 .1810234
442.871 .2138633
443.789 .2318845
444.705 .2330192
445.621 .2198115
446.535 .1977263
447.447 .1727202
448.359 .1343525
449.269 .1154243
450.178 .1035264
451.086 .0951283
451.993 .0887001
452.898 .0836592
453.803 .0795423
454.706 .0761735
455.608 .0733223
456.508 .0708737
457.408 .0687511
458.306 .0668703
459.204 .0651586
460.100 .0636035
460.995 .0621989
461.888 .0609138
462.781 .0597265
463.673 .0586255
464.563 .0575936
465.452 .0566155
466.340 .0556842
467.228 .0548016
468.114 .0539602
468.999 .0531684
469.882 .0524197
470.765 .0517341
471.647 .0511174
472.528 .0505688
473.407 .0500982
474.286 .0496984
475.163 .0493540
476.040 .0490567
476.915 .0487940
477.790 .0485650
478.663 .0483648
479.535 .0481884
480.407 .0480412
481.277 .0479242
482.147 .0478414
483.015 .0477815
483.883 .0477509
484.749 .0477393
485.615 .0477391
486.479 .0477459
487.343 .0477644
488.206 .0477923
489.067 .0478288
489.928 .0478747
490.788 .0479406
491.647 .0480265
492.505 .0481307
493.362 .0482522
494.218 .0483926
495.073 .0485430
495.928 .0487116
496.781 .0488798
497.634 .0490700
498.486 .0492837
499.337 .0495187
500.187 .0497766
501.036 .0500662
501.884 .0503874
502.731 .0507331
503.578 .0511148
504.424 .0515265
505.268 .0519532
506.113 .0524254
506.956 .0529341
507.798 .0534834
508.640 .0540937
509.480 .0547608
510.320 .0554941
511.160 .0563141
511.998 .0572087
512.836 .0581777
513.672 .0592545
514.508 .0604462
515.344 .0617350
516.178 .0631618
517.012 .0647744
517.845 .0665896
518.677 .0686919
519.508 .0711074
520.339 .0738492
521.169 .0769799
521.998 .0805478
522.826 .0845736
523.654 .0890897
524.481 .0941136
525.307 .0996832
526.133 .1057941
526.958 .1123910
527.782 .1193968
528.605 .1266260
529.428 .1340275
530.250 .1409897
531.072 .1472589
531.892 .1524830
532.712 .1563471
533.532 .1586537
534.350 .1592126
535.168 .1579688
535.986 .1550178
536.802 .1505098
537.618 .1447876
538.434 .1380274
539.249 .1307915
540.063 .1232547
540.876 .1157770
541.689 .1085963
542.501 .1019008
543.313 .0958094
544.124 .0904076
544.934 .0856393
545.744 .0814190
546.553 .0776343
547.361 .0742857
548.169 .0713334
548.976 .0686933
549.783 .0663097
550.589 .0641905
551.395 .0622663
552.200 .0605352
553.004 .0589536
553.808 .0575143
554.611 .0562079
555.414 .0550311
556.216 .0539451
557.018 .0529523
557.819 .0520400
558.619 .0511922
559.419 .0503972
560.218 .0496667
561.017 .0489708
561.815 .0482991
562.613 .0476534
563.410 .0470193
564.207 .0463932
565.003 .0457854
565.799 .0451990
566.594 .0446349
567.388 .0441101
568.182 .0436064
568.976 .0431195
569.769 .0426539
570.562 .0422016
571.354 .0417458
572.145 .0412884
572.936 .0408309
573.727 .0403654
574.517 .0399015
575.307 .0394469
576.096 .0390021
576.885 .0385794
577.673 .0381743
578.461 .0377893
579.248 .0374212
580.035 .0370732
580.821 .0367402
581.607 .0364237
582.392 .0361276
583.177 .0358524
583.962 .0356011
584.746 .0353773
585.529 .0351786
586.313 .0350018
587.095 .0348448
587.878 .0347036
588.660 .0345744
589.441 .0344557
590.222 .0343459
591.003 .0342477
591.783 .0341601
592.563 .0340819
593.342 .0340123
594.121 .0339475
594.899 .0338874
595.678 .0338283
596.455 .0337682
597.233 .0337057
598.009 .0336412
598.786 .0335750
599.562 .0335089
600.338 .0334449
601.113 .0333838
601.888 .0333260
602.663 .0332729
603.437 .0332225
604.211 .0331734
604.984 .0331240
605.757 .0330750
606.530 .0330247
607.302 .0329748
608.074 .0329266
608.845 .0328810
609.616 .0328387
610.387 .0328008
611.158 .0327665
611.928 .0327349
612.697 .0327051
613.467 .0326758
614.236 .0326464
615.004 .0326170
615.773 .0325871
616.541 .0325574
617.308 .0325290
618.076 .0325035
618.843 .0324796
619.609 .0324589
620.375 .0324405
621.141 .0324229
621.907 .0324055
622.672 .0323875
623.437 .0323682
624.202 .0323470
624.966 .0323247
625.730 .0323017
626.493 .0322776
627.257 .0322541
628.020 .0322306
628.782 .0322081
629.545 .0321861
630.307 .0321637
631.068 .0321403
631.830 .0321160
632.591 .0320896
633.352 .0320619
634.112 .0320332
634.872 .0320039
635.632 .0319745
636.392 .0319455
637.151 .0319178
637.910 .0318910
638.668 .0318649
639.427 .0318403
640.185 .0318159
640.943 .0317917
641.700 .0317658
642.457 .0317386
643.214 .0317102
643.971 .0316794
644.727 .0316469
645.483 .0316136
646.239 .0315796
646.994 .0315463
647.750 .0315136
648.505 .0314826
649.259 .0314530
650.014 .0314242
650.768 .0313962
651.521 .0313685
652.275 .0313403
653.028 .0313117
653.781 .0312821
654.534 .0312525
655.286 .0312229
656.039 .0311944
656.791 .0311677
657.542 .0311427
658.294 .0311188
659.045 .0310955
659.796 .0310722
660.546 .0310482
661.297 .0310226
662.047 .0309957
662.796 .0309673
663.546 .0309374
664.295 .0309065
665.044 .0308753
665.793 .0308443
666.542 .0308139
667.290 .0307841
668.038 .0307550
668.786 .0307265
669.533 .0306986
670.281 .0306719
671.028 .0306465
671.774 .0306225
672.521 .0305998
673.267 .0305790
674.013 .0305596
674.759 .0305415
675.505 .0305242
676.250 .0305079
676.995 .0304925
677.740 .0304773
678.484 .0304619
679.229 .0304469
679.973 .0304326
680.717 .0304188
681.460 .0304056
682.204 .0303929
682.947 .0303802
683.690 .0303672
684.433 .0303539
685.175 .0303393
685.917 .0303240
686.659 .0303080
687.401 .0302917
688.142 .0302758
688.884 .0302605
689.625 .0302458
690.365 .0302319
691.106 .0302184
691.846 .0302047
692.586 .0301899
693.326 .0301737
694.066 .0301562
694.805 .0301377
695.545 .0301185
696.284 .0300992
697.022 .0300798
697.761 .0300616
698.499 .0300440
699.237 .0300269
699.975 .0300100
700.713 .0299933
701.450 .0299769
702.187 .0299607
702.924 .0299451
703.661 .0299302
704.397 .0299163
705.133 .0299036
705.869 .0298918
706.605 .0298805
707.341 .0298694
708.076 .0298581
708.811 .0298459
709.546 .0298331
710.281 .0298189
711.015 .0298037
711.749 .0297875
712.483 .0297704
713.217 .0297525
713.950 .0297337
714.684 .0297144
715.417 .0296943
716.150 .0296736
716.882 .0296520
717.615 .0296291
718.347 .0296054
719.079 .0295809
719.811 .0295561
720.542 .0295316
721.273 .0295080
722.005 .0294850
722.735 .0294634
723.466 .0294429
724.196 .0294237
724.927 .0294052
725.656 .0293869
726.386 .0293686
727.116 .0293500
727.845 .0293312
728.574 .0293119
729.303 .0292926
730.031 .0292742
730.760 .0292564
731.488 .0292392
732.216 .0292225
732.944 .0292061
733.671 .0291899
734.398 .0291740
735.125 .0291579
735.852 .0291414
736.579 .0291249
737.305 .0291086
738.031 .0290925
738.757 .0290764
739.483 .0290605
740.208 .0290444
740.933 .0290284
741.658 .0290116
742.383 .0289936
743.108 .0289751
743.832 .0289562
744.556 .0289368
745.280 .0289169
746.004 .0288970
746.727 .0288774
747.450 .0288581
748.173 .0288395
748.896 .0288209
749.618 .0288025
750.340 .0287843
751.062 .0287663
751.784 .0287484
752.506 .0287307
753.227 .0287134
753.948 .0286965
754.669 .0286805
755.389 .0286647
756.110 .0286486
756.830 .0286322
757.550 .0286154
758.269 .0285975
758.989 .0285784
759.708 .0285584
760.427 .0285378
761.146 .0285170
761.864 .0284959
762.582 .0284751
763.300 .0284547
764.018 .0284349
764.736 .0284160
765.453 .0283972
766.170 .0283795
766.887 .0283623
767.603 .0283457
768.320 .0283298
769.036 .0283150
769.751 .0283012
770.467 .0282880
771.182 .0282759
771.897 .0282645
772.612 .0282535
773.327 .0282433
774.041 .0282336
774.755 .0282242
775.469 .0282154
776.183 .0282068
776.896 .0281981
777.609 .0281905
778.322 .0281835
779.035 .0281771
779.747 .0281722
780.459 .0281685
781.171 .0281660
781.882 .0281646
782.594 .0281645
783.305 .0281649
784.016 .0281660
784.726 .0281673
785.436 .0281683
786.147 .0281691
786.856 .0281699
787.566 .0281702
788.275 .0281704
788.984 .0281706
789.693 .0281704
790.401 .0281702
791.110 .0281696
791.818 .0281684
792.525 .0281667
793.233 .0281640
793.940 .0281605
794.647 .0281561
795.353 .0281510
796.060 .0281453
796.766 .0281392
797.472 .0281331
798.177 .0281272
798.883 .0281215
799.588 .0281164
800.292 .0281123
800.997 .0281089
801.701 .0281057
802.405 .0281027
803.109 .0281000
803.812 .0280972
804.515 .0280939
805.218 .0280904
805.921 .0280865
806.623 .0280822
807.325 .0280777
808.027 .0280729
808.728 .0280680
809.429 .0280628
810.130 .0280565
810.831 .0280493
811.531 .0280409
812.231 .0280308
812.931 .0280193
813.630 .0280065
814.330 .0279926
815.029 .0279777
815.727 .0279627
816.426 .0279477
817.124 .0279331
817.821 .0279188
818.519 .0279049
819.216 .0278914
819.913 .0278782
820.609 .0278648
821.306 .0278516
822.002 .0278390
822.697 .0278273
823.393 .0278166
824.088 .0278075
824.783 .0278004
825.477 .0277952
826.171 .0277919
826.865 .0277902
827.559 .0277898
828.252 .0277903
828.945 .0277910
829.638 .0277914
830.330 .0277913
831.023 .0277903
831.714 .0277888
832.406 .0277867
833.097 .0277837
833.788 .0277796
834.479 .0277748
835.169 .0277690
835.859 .0277621
836.548 .0277546
837.238 .0277459
837.927 .0277361
838.615 .0277257
839.304 .0277145
839.992 .0277030
840.680 .0276913
841.367 .0276792
842.054 .0276666
842.741 .0276539
843.428 .0276409
844.114 .0276277
844.800 .0276149
845.485 .0276021
846.170 .0275890
846.855 .0275751
847.540 .0275602
848.224 .0275436
848.908 .0275256
849.592 .0275063
850.275 .0274852
850.958 .0274628
851.641 .0274396
852.323 .0274157
853.005 .0273912
853.687 .0273660
854.368 .0273399
855.049 .0273132
855.730 .0272858
856.410 .0272573
857.090 .0272285
857.769 .0272001
858.449 .0271725
859.128 .0271458
859.806 .0271199
860.485 .0270948
861.163 .0270703
861.840 .0270458
862.518 .0270209
863.195 .0269953
863.871 .0269695
864.548 .0269431
865.224 .0269172
865.899 .0268919
866.574 .0268673
867.249 .0268435
867.924 .0268207
868.598 .0267980
869.272 .0267752
869.946 .0267521
870.619 .0267280
871.292 .0267039
871.964 .0266799
872.636 .0266560
873.308 .0266335
873.979 .0266123
874.651 .0265930
875.321 .0265750
875.992 .0265592
876.662 .0265453
877.331 .0265328
878.001 .0265215
878.670 .0265110
879.338 .0265010
880.007 .0264915
880.675 .0264817
881.342 .0264719
882.009 .0264627
882.676 .0264536
883.343 .0264450
884.009 .0264368
884.675 .0264296
885.340 .0264234
886.005 .0264179
886.670 .0264134
887.334 .0264098
887.998 .0264070
888.662 .0264050
889.325 .0264038
889.988 .0264037
890.650 .0264046
891.312 .0264063
891.974 .0264091
892.636 .0264122
893.297 .0264157
893.957 .0264191
894.618 .0264219
895.278 .0264243
895.937 .0264257
896.596 .0264262
897.255 .0264260
897.914 .0264248
898.572 .0264228
899.230 .0264201
899.887 .0264168
900.544 .0264126
901.201 .0264075
901.857 .0264018
902.513 .0263956
903.168 .0263891
903.823 .0263826
904.478 .0263763
905.132 .0263703
905.786 .0263650
906.440 .0263596
907.093 .0263544
907.746 .0263488
908.399 .0263426
909.051 .0263354
909.703 .0263270
910.354 .0263171
911.005 .0263065
911.656 .0262952
912.306 .0262838
912.956 .0262725
913.605 .0262616
914.254 .0262512
914.903 .0262413
915.551 .0262313
916.199 .0262214
916.847 .0262118
917.494 .0262027
918.141 .0261938
918.788 .0261855
919.434 .0261784
920.079 .0261724
920.725 .0261683
921.370 .0261654
922.014 .0261632
922.658 .0261617
923.302 .0261597
923.946 .0261572
924.589 .0261536
925.231 .0261492
925.873 .0261440
926.515 .0261379
927.157 .0261314
927.798 .0261242
928.439 .0261167
929.079 .0261091
929.719 .0261006
930.359 .0260912
930.998 .0260813
931.637 .0260707
932.275 .0260601
932.913 .0260496
933.551 .0260394
934.188 .0260303
934.825 .0260222
935.462 .0260149
936.098 .0260085
936.733 .0260032
937.369 .0259989
938.004 .0259950
938.638 .0259922
939.273 .0259902
939.907 .0259892
940.540 .0259894
941.173 .0259909
941.806 .0259938
942.438 .0259977
943.070 .0260023
943.702 .0260073
944.333 .0260121
944.964 .0260161
945.594 .0260191
946.224 .0260215
946.854 .0260234
947.483 .0260251
948.112 .0260271
948.741 .0260293
949.369 .0260313
949.996 .0260333
950.624 .0260351
951.251 .0260365
951.878 .0260373
952.504 .0260369
953.130 .0260357
953.755 .0260337
954.380 .0260312
955.005 .0260284
955.629 .0260259
956.253 .0260240
956.877 .0260225
957.500 .0260214
958.123 .0260209
958.746 .0260213
959.368 .0260226
959.990 .0260241
960.611 .0260252
961.232 .0260255
961.853 .0260251
962.473 .0260239
963.093 .0260214
963.712 .0260175
964.331 .0260122
964.950 .0260055
965.569 .0259978
966.187 .0259897
966.804 .0259816
967.422 .0259740
968.039 .0259668
968.655 .0259589
969.272 .0259499
969.887 .0259399
970.503 .0259289
971.118 .0259172
971.733 .0259046
972.347 .0258912
972.961 .0258774
973.575 .0258642
974.188 .0258511
974.801 .0258379
975.414 .0258246
976.026 .0258108
976.638 .0257960
977.250 .0257797
977.861 .0257621
978.472 .0257442
979.083 .0257259
979.693 .0257071
980.303 .0256877
980.912 .0256680
981.521 .0256476
982.130 .0256271
982.738 .0256067
983.346 .0255860
983.954 .0255650
984.562 .0255441
985.169 .0255233
985.775 .0255026
986.382 .0254824
986.988 .0254624
987.594 .0254430
988.199 .0254238
988.804 .0254046
989.409 .0253853
990.013 .0253661
990.617 .0253471
991.221 .0253280
991.824 .0253094
992.427 .0252914
993.030 .0252739
993.632 .0252571
994.234 .0252411
994.836 .0252263
995.438 .0252124
996.039 .0251990
996.640 .0251855
997.240 .0251722
997.840 .0251587
998.440 .0251448
999.040 .0251306
999.639 .0251160
1000.238 .0251014
1000.836 .0250862
1001.435 .0250703
1002.033 .0250537
1002.630 .0250367
1003.228 .0250189
1003.825 .0250008
1004.422 .0249829
1005.018 .0249652
1005.614 .0249482
1006.210 .0249323
1006.806 .0249177
1007.401 .0249036
1007.996 .0248904
1008.591 .0248776
1009.186 .0248651
1009.780 .0248531
1010.374 .0248410
1010.967 .0248299
1011.561 .0248199
1012.154 .0248108
1012.746 .0248024
1013.339 .0247944
1013.931 .0247869
1014.523 .0247795
1015.115 .0247712
1015.706 .0247626
1016.298 .0247537
1016.888 .0247445
1017.479 .0247357
1018.069 .0247277
1018.660 .0247210
1019.250 .0247158
1019.839 .0247123
1020.429 .0247106
1021.018 .0247095
1021.607 .0247092
1022.195 .0247090
1022.784 .0247082
1023.372 .0247077
1023.960 .0247072
1024.547 .0247071
1025.135 .0247080
1025.722 .0247099
1026.309 .0247128
1026.896 .0247164
1027.483 .0247208
1028.069 .0247246
1028.655 .0247272
1029.241 .0247283
1029.827 .0247278
1030.412 .0247256
1030.997 .0247229
1031.582 .0247197
1032.167 .0247173
1032.752 .0247150
1033.336 .0247135
1033.921 .0247124
1034.505 .0247111
1035.089 .0247089
1035.672 .0247057
1036.256 .0247010
1036.839 .0246956
1037.422 .0246890
1038.005 .0246824
1038.588 .0246761
1039.171 .0246716
1039.753 .0246678
1040.335 .0246655
1040.918 .0246642
1041.500 .0246639
1042.081 .0246633
1042.663 .0246627
1043.244 .0246613
1043.826 .0246592
1044.407 .0246566
1044.988 .0246538
1045.569 .0246505
1046.150 .0246476
1046.730 .0246448
1047.311 .0246422
1047.891 .0246390
1048.471 .0246352
1049.052 .0246297
1049.632 .0246234
1050.211 .0246171
1050.791 .0246103
1051.371 .0246046
1051.950 .0246010
1052.530 .0245999
1053.109 .0246007
1053.688 .0246036
1054.268 .0246078
1054.847 .0246134
1055.426 .0246200
1056.005 .0246267
1056.583 .0246330
1057.162 .0246396
1057.741 .0246465
1058.319 .0246533
1058.898 .0246605
1059.476 .0246668
1060.055 .0246724
1060.633 .0246778
1061.211 .0246807
1061.790 .0246819
1062.368 .0246814
1062.946 .0246800
1063.524 .0246774
1064.102 .0246747
1064.680 .0246724
1065.258 .0246713
1065.836 .0246725
1066.414 .0246758
1066.992 .0246810
1067.570 .0246887
1068.148 .0246972
1068.726 .0247055
1069.304 .0247133
1069.882 .0247195
1070.460 .0247238
1071.038 .0247278
1071.616 .0247309
1072.194 .0247351
1072.772 .0247407
1073.350 .0247487
1073.928 .0247588
1074.506 .0247701
1075.084 .0247810
1075.662 .0247893
1076.240 .0247950
1076.819 .0247981
1077.397 .0247998
1077.976 .0248030
1078.554 .0248095
1079.133 .0248210
1079.711 .0248376
1080.290 .0248592
1080.869 .0248830
1081.448 .0249078
1082.027 .0249307
1082.606 .0249504
1083.185 .0249658
1083.764 .0249775
1084.343 .0249877
1084.923 .0249990
1085.502 .0250127
1086.082 .0250295
1086.662 .0250497
1087.242 .0250738
1087.822 .0250996
1088.402 .0251261
1088.983 .0251529
1089.563 .0251807
1090.144 .0252078
1090.725 .0252350
1091.306 .0252624
1091.887 .0252906
1092.469 .0253207
1093.050 .0253520
1093.632 .0253833
1094.214 .0254156
1094.796 .0254482
1095.379 .0254808
1095.961 .0255135
1096.544 .0255450
1097.127 .0255737
1097.710 .0256000
1098.294 .0256253
1098.877 .0256480
1099.461 .0256675
1100.046 .0256852
1100.630 .0257008
1101.215 .0257158
1101.800 .0257305
1102.385 .0257438
1102.970 .0257588
1103.556 .0257754
1104.142 .0257939
1104.728 .0258152
1105.315 .0258411
1105.902 .0258716
1106.489 .0259091
1107.077 .0259505
1107.664 .0259943
1108.253 .0260374
1108.841 .0260801
1109.430 .0261208
1110.019 .0261597
1110.609 .0261983
1111.198 .0262372
1111.789 .0262797
1112.379 .0263265
1112.970 .0263747
1113.561 .0264283
1114.153 .0264826
1114.745 .0265352
1115.338 .0265822
1115.931 .0266224
1116.524 .0266541
1117.117 .0266822
1117.712 .0267099
1118.306 .0267403
1118.901 .0267766
1119.496 .0268187
1120.092 .0268664
1120.689 .0269213
1121.285 .0269791
1121.882 .0270366
1122.480 .0270913
1123.078 .0271443
1123.677 .0271897
1124.276 .0272301
1124.875 .0272675
1125.476 .0273067
1126.076 .0273526
1126.677 .0274064
1127.279 .0274697
1127.881 .0275454
1128.484 .0276286
1129.087 .0277199
1129.691 .0278167
1130.295 .0279183
1130.900 .0280196
1131.505 .0281200
1132.111 .0282217
1132.718 .0283238
1133.325 .0284321
1133.933 .0285464
1134.541 .0286690
1135.150 .0287992
1135.760 .0289346
1136.370 .0290712
1136.981 .0292092
1137.592 .0293444
1138.204 .0294778
1138.817 .0296052
1139.431 .0297330
1140.045 .0298635
1140.660 .0300021
1141.275 .0301585
1141.891 .0303422
1142.508 .0304483
1143.126 .0307054
1143.744 .0308672
1144.363 .0312797
1144.983 .0317027
