Measurement Sequence started on: 15-12-46-377
Integration time: 28
Scans to Average: 2 
>>>>>Begin Spectral Data<<<<<
432.689 .0000100
433.621 .0000100
434.552 .0000100
435.482 .0000100
436.410 .0000100
437.337 .0000100
438.262 .0273126
439.187 .0578736
440.110 .0958377
441.031 .1386621
441.952 .1802206
442.871 .2128855
443.789 .2307484
444.705 .2317746
445.621 .2184932
446.535 .1963389
447.447 .1712788
448.359 .1329634
449.269 .1139962
450.178 .1020535
451.086 .0936106
451.993 .0871503
452.898 .0820437
453.803 .0778357
454.706 .0743319
455.608 .0713250
456.508 .0687351
457.408 .0664784
458.306 .0644777
459.204 .0626971
460.100 .0610963
460.995 .0596682
461.888 .0583960
462.781 .0572431
463.673 .0561934
464.563 .0552330
465.452 .0543389
466.340 .0534955
467.228 .0527024
468.114 .0519489
468.999 .0512431
469.882 .0505733
470.765 .0499501
471.647 .0493755
472.528 .0488495
473.407 .0483748
474.286 .0479427
475.163 .0475499
476.040 .0471861
476.915 .0468382
477.790 .0465061
478.663 .0461979
479.535 .0459134
480.407 .0456646
481.277 .0454504
482.147 .0452810
483.015 .0451596
483.883 .0450843
484.749 .0450520
485.615 .0450520
486.479 .0450746
487.343 .0451217
488.206 .0451769
489.067 .0452481
489.928 .0453262
490.788 .0454192
491.647 .0455351
492.505 .0456750
493.362 .0458304
494.218 .0460024
495.073 .0461781
495.928 .0463587
496.781 .0465236
497.634 .0466822
498.486 .0468332
499.337 .0469829
500.187 .0471455
501.036 .0473270
501.884 .0475379
502.731 .0477928
503.578 .0480849
504.424 .0484241
505.268 .0487991
506.113 .0492165
506.956 .0496775
507.798 .0501945
508.640 .0507769
509.480 .0514280
510.320 .0521704
511.160 .0530214
511.998 .0539716
512.836 .0550423
513.672 .0562457
514.508 .0575817
515.344 .0590595
516.178 .0606988
517.012 .0625182
517.845 .0645568
518.677 .0668326
519.508 .0693755
520.339 .0722127
521.169 .0754177
521.998 .0789891
522.826 .0830055
523.654 .0875240
524.481 .0925460
525.307 .0981062
526.133 .1042316
526.958 .1107468
527.782 .1176096
528.605 .1246418
529.428 .1316799
530.250 .1382131
531.072 .1440716
531.892 .1488930
532.712 .1524850
533.532 .1547018
534.350 .1553428
535.168 .1543044
535.986 .1517629
536.802 .1477193
537.618 .1424301
538.434 .1361242
539.249 .1292528
540.063 .1220002
540.876 .1147715
541.689 .1077732
542.501 .1012427
543.313 .0953289
544.124 .0900808
544.934 .0853921
545.744 .0812065
546.553 .0774317
547.361 .0740366
548.169 .0709914
548.976 .0682415
549.783 .0657403
550.589 .0635125
551.395 .0615000
552.200 .0597163
553.004 .0581220
553.808 .0567067
554.611 .0554508
555.414 .0543275
556.216 .0533258
557.018 .0524358
557.819 .0516264
558.619 .0508706
559.419 .0501646
560.218 .0494922
561.017 .0488263
561.815 .0481663
562.613 .0475058
563.410 .0468430
564.207 .0461765
565.003 .0455189
565.799 .0448663
566.594 .0442267
567.388 .0436101
568.182 .0430044
568.976 .0424151
569.769 .0418305
570.562 .0412481
571.354 .0406711
572.145 .0401080
572.936 .0395533
573.727 .0390158
574.517 .0385036
575.307 .0380215
576.096 .0375725
576.885 .0371611
577.673 .0367857
578.461 .0364483
579.248 .0361396
580.035 .0358549
580.821 .0355899
581.607 .0353433
582.392 .0351096
583.177 .0348917
583.962 .0346895
584.746 .0345031
585.529 .0343323
586.313 .0341828
587.095 .0340491
587.878 .0339318
588.660 .0338287
589.441 .0337351
590.222 .0336485
591.003 .0335700
591.783 .0334953
592.563 .0334243
593.342 .0333575
594.121 .0332930
594.899 .0332316
595.678 .0331741
596.455 .0331201
597.233 .0330683
598.009 .0330192
598.786 .0329721
599.562 .0329244
600.338 .0328769
601.113 .0328293
601.888 .0327808
602.663 .0327328
603.437 .0326847
604.211 .0326367
604.984 .0325884
605.757 .0325406
606.530 .0324929
607.302 .0324459
608.074 .0323994
608.845 .0323534
609.616 .0323075
610.387 .0322636
611.158 .0322214
611.928 .0321803
612.697 .0321406
613.467 .0321023
614.236 .0320649
615.004 .0320292
615.773 .0319951
616.541 .0319638
617.308 .0319349
618.076 .0319095
618.843 .0318860
619.609 .0318650
620.375 .0318449
621.141 .0318255
621.907 .0318060
622.672 .0317861
623.437 .0317644
624.202 .0317415
624.966 .0317176
625.730 .0316930
626.493 .0316675
627.257 .0316418
628.020 .0316152
628.782 .0315882
629.545 .0315602
630.307 .0315312
631.068 .0315022
631.830 .0314739
632.591 .0314456
633.352 .0314184
634.112 .0313920
634.872 .0313665
635.632 .0313420
636.392 .0313190
637.151 .0312974
637.910 .0312778
638.668 .0312608
639.427 .0312457
640.185 .0312333
640.943 .0312233
641.700 .0312144
642.457 .0312058
643.214 .0311970
643.971 .0311866
644.727 .0311747
645.483 .0311614
646.239 .0311473
646.994 .0311327
647.750 .0311186
648.505 .0311050
649.259 .0310922
650.014 .0310797
650.768 .0310664
651.521 .0310520
652.275 .0310364
653.028 .0310185
653.781 .0309987
654.534 .0309776
655.286 .0309556
656.039 .0309333
656.791 .0309109
657.542 .0308881
658.294 .0308655
659.045 .0308432
659.796 .0308196
660.546 .0307954
661.297 .0307702
662.047 .0307438
662.796 .0307159
663.546 .0306877
664.295 .0306588
665.044 .0306294
665.793 .0306006
666.542 .0305712
667.290 .0305415
668.038 .0305124
668.786 .0304825
669.533 .0304523
670.281 .0304220
671.028 .0303913
671.774 .0303600
672.521 .0303300
673.267 .0303009
674.013 .0302731
674.759 .0302468
675.505 .0302225
676.250 .0301994
676.995 .0301775
677.740 .0301566
678.484 .0301360
679.229 .0301170
679.973 .0300986
680.717 .0300805
681.460 .0300634
682.204 .0300468
682.947 .0300308
683.690 .0300149
684.433 .0299989
685.175 .0299822
685.917 .0299652
686.659 .0299475
687.401 .0299294
688.142 .0299110
688.884 .0298928
689.625 .0298749
690.365 .0298570
691.106 .0298387
691.846 .0298197
692.586 .0298004
693.326 .0297801
694.066 .0297587
694.805 .0297367
695.545 .0297141
696.284 .0296915
697.022 .0296695
697.761 .0296480
698.499 .0296269
699.237 .0296067
699.975 .0295870
700.713 .0295678
701.450 .0295494
702.187 .0295317
702.924 .0295152
703.661 .0294997
704.397 .0294853
705.133 .0294719
705.869 .0294599
706.605 .0294494
707.341 .0294396
708.076 .0294312
708.811 .0294241
709.546 .0294181
710.281 .0294131
711.015 .0294086
711.749 .0294046
712.483 .0294004
713.217 .0293950
713.950 .0293878
714.684 .0293793
715.417 .0293692
716.150 .0293583
716.882 .0293466
717.615 .0293351
718.347 .0293242
719.079 .0293142
719.811 .0293050
720.542 .0292967
721.273 .0292888
722.005 .0292804
722.735 .0292707
723.466 .0292603
724.196 .0292482
724.927 .0292351
725.656 .0292213
726.386 .0292074
727.116 .0291933
727.845 .0291793
728.574 .0291654
729.303 .0291520
730.031 .0291389
730.760 .0291259
731.488 .0291125
732.216 .0290994
732.944 .0290863
733.671 .0290733
734.398 .0290606
735.125 .0290492
735.852 .0290384
736.579 .0290280
737.305 .0290181
738.031 .0290083
738.757 .0289987
739.483 .0289889
740.208 .0289787
740.933 .0289685
741.658 .0289578
742.383 .0289466
743.108 .0289345
743.832 .0289218
744.556 .0289087
745.280 .0288945
746.004 .0288790
746.727 .0288628
747.450 .0288459
748.173 .0288283
748.896 .0288109
749.618 .0287939
750.340 .0287771
751.062 .0287607
751.784 .0287448
752.506 .0287288
753.227 .0287127
753.948 .0286967
754.669 .0286802
755.389 .0286632
756.110 .0286457
756.830 .0286267
757.550 .0286069
758.269 .0285860
758.989 .0285635
759.708 .0285393
760.427 .0285142
761.146 .0284880
761.864 .0284617
762.582 .0284356
763.300 .0284102
764.018 .0283858
764.736 .0283625
765.453 .0283399
766.170 .0283177
766.887 .0282960
767.603 .0282751
768.320 .0282544
769.036 .0282348
769.751 .0282161
770.467 .0281988
771.182 .0281832
771.897 .0281687
772.612 .0281551
773.327 .0281425
774.041 .0281303
774.755 .0281183
775.469 .0281065
776.183 .0280955
776.896 .0280853
777.609 .0280763
778.322 .0280686
779.035 .0280623
779.747 .0280575
780.459 .0280544
781.171 .0280526
781.882 .0280520
782.594 .0280523
783.305 .0280533
784.016 .0280551
784.726 .0280575
785.436 .0280597
786.147 .0280616
786.856 .0280634
787.566 .0280647
788.275 .0280649
788.984 .0280646
789.693 .0280633
790.401 .0280612
791.110 .0280580
791.818 .0280536
792.525 .0280483
793.233 .0280427
793.940 .0280365
794.647 .0280300
795.353 .0280241
796.060 .0280192
796.766 .0280149
797.472 .0280116
798.177 .0280085
798.883 .0280059
799.588 .0280030
800.292 .0280001
800.997 .0279967
801.701 .0279934
802.405 .0279897
803.109 .0279859
803.812 .0279819
804.515 .0279777
805.218 .0279725
805.921 .0279663
806.623 .0279589
807.325 .0279502
808.027 .0279404
808.728 .0279300
809.429 .0279196
810.130 .0279099
810.831 .0279007
811.531 .0278922
812.231 .0278836
812.931 .0278749
813.630 .0278654
814.330 .0278548
815.029 .0278434
815.727 .0278315
816.426 .0278197
817.124 .0278084
817.821 .0277981
818.519 .0277893
819.216 .0277822
819.913 .0277764
820.609 .0277715
821.306 .0277669
822.002 .0277631
822.697 .0277593
823.393 .0277560
824.088 .0277538
824.783 .0277522
825.477 .0277516
826.171 .0277518
826.865 .0277531
827.559 .0277548
828.252 .0277566
828.945 .0277584
829.638 .0277598
830.330 .0277606
831.023 .0277603
831.714 .0277590
832.406 .0277570
833.097 .0277542
833.788 .0277500
834.479 .0277450
835.169 .0277396
835.859 .0277336
836.548 .0277276
837.238 .0277219
837.927 .0277165
838.615 .0277114
839.304 .0277060
839.992 .0277004
840.680 .0276941
841.367 .0276871
842.054 .0276791
842.741 .0276704
843.428 .0276617
844.114 .0276531
844.800 .0276443
845.485 .0276360
846.170 .0276270
846.855 .0276171
847.540 .0276052
848.224 .0275910
848.908 .0275743
849.592 .0275551
850.275 .0275340
850.958 .0275115
851.641 .0274884
852.323 .0274652
853.005 .0274422
853.687 .0274192
854.368 .0273961
855.049 .0273718
855.730 .0273462
856.410 .0273192
857.090 .0272907
857.769 .0272614
858.449 .0272321
859.128 .0272034
859.806 .0271763
860.485 .0271511
861.163 .0271283
861.840 .0271069
862.518 .0270870
863.195 .0270672
863.871 .0270469
864.548 .0270260
865.224 .0270046
865.899 .0269824
866.574 .0269604
867.249 .0269389
867.924 .0269184
868.598 .0268994
869.272 .0268818
869.946 .0268652
870.619 .0268498
871.292 .0268349
871.964 .0268200
872.636 .0268044
873.308 .0267887
873.979 .0267726
874.651 .0267565
875.321 .0267408
875.992 .0267258
876.662 .0267119
877.331 .0266992
878.001 .0266872
878.670 .0266759
879.338 .0266650
880.007 .0266543
880.675 .0266435
881.342 .0266326
882.009 .0266217
882.676 .0266108
883.343 .0266005
884.009 .0265914
884.675 .0265833
885.340 .0265765
886.005 .0265712
886.670 .0265677
887.334 .0265659
887.998 .0265655
888.662 .0265661
889.325 .0265677
889.988 .0265703
890.650 .0265735
891.312 .0265766
891.974 .0265807
892.636 .0265853
893.297 .0265904
893.957 .0265958
894.618 .0266009
895.278 .0266058
895.937 .0266098
896.596 .0266133
897.255 .0266157
897.914 .0266168
898.572 .0266170
899.230 .0266162
899.887 .0266150
900.544 .0266134
901.201 .0266115
901.857 .0266098
902.513 .0266077
903.168 .0266050
903.823 .0266011
904.478 .0265962
905.132 .0265905
905.786 .0265838
906.440 .0265762
907.093 .0265682
907.746 .0265602
908.399 .0265521
909.051 .0265442
909.703 .0265358
910.354 .0265270
911.005 .0265176
911.656 .0265080
912.306 .0264978
912.956 .0264875
913.605 .0264781
914.254 .0264696
914.903 .0264618
915.551 .0264555
916.199 .0264497
916.847 .0264452
917.494 .0264413
918.141 .0264375
918.788 .0264330
919.434 .0264289
920.079 .0264242
920.725 .0264194
921.370 .0264144
922.014 .0264093
922.658 .0264035
923.302 .0263976
923.946 .0263906
924.589 .0263823
925.231 .0263724
925.873 .0263616
926.515 .0263491
927.157 .0263360
927.798 .0263218
928.439 .0263075
929.079 .0262935
929.719 .0262797
930.359 .0262655
930.998 .0262514
931.637 .0262377
932.275 .0262242
932.913 .0262112
933.551 .0261988
934.188 .0261873
934.825 .0261773
935.462 .0261684
936.098 .0261607
936.733 .0261545
937.369 .0261496
938.004 .0261458
938.638 .0261429
939.273 .0261406
939.907 .0261384
940.540 .0261366
941.173 .0261352
941.806 .0261346
942.438 .0261345
943.070 .0261356
943.702 .0261373
944.333 .0261394
944.964 .0261418
945.594 .0261436
946.224 .0261448
946.854 .0261458
947.483 .0261455
948.112 .0261446
948.741 .0261431
949.369 .0261417
949.996 .0261399
950.624 .0261381
951.251 .0261365
951.878 .0261347
952.504 .0261326
953.130 .0261294
953.755 .0261252
954.380 .0261204
955.005 .0261144
955.629 .0261070
956.253 .0260988
956.877 .0260901
957.500 .0260804
958.123 .0260700
958.746 .0260588
959.368 .0260463
959.990 .0260325
960.611 .0260173
961.232 .0260010
961.853 .0259838
962.473 .0259666
963.093 .0259490
963.712 .0259315
964.331 .0259134
964.950 .0258945
965.569 .0258752
966.187 .0258559
966.804 .0258366
967.422 .0258182
968.039 .0258010
968.655 .0257859
969.272 .0257727
969.887 .0257613
970.503 .0257515
971.118 .0257432
971.733 .0257353
972.347 .0257281
972.961 .0257213
973.575 .0257151
974.188 .0257095
974.801 .0257050
975.414 .0257008
976.026 .0256961
976.638 .0256906
977.250 .0256831
977.861 .0256737
978.472 .0256620
979.083 .0256477
979.693 .0256314
980.303 .0256136
980.912 .0255946
981.521 .0255746
982.130 .0255546
982.738 .0255341
983.346 .0255122
983.954 .0254893
984.562 .0254650
985.169 .0254391
985.775 .0254121
986.382 .0253852
986.988 .0253584
987.594 .0253330
988.199 .0253086
988.804 .0252862
989.409 .0252658
990.013 .0252472
990.617 .0252296
991.221 .0252131
991.824 .0251980
992.427 .0251834
993.030 .0251697
993.632 .0251576
994.234 .0251469
994.836 .0251380
995.438 .0251308
996.039 .0251252
996.640 .0251206
997.240 .0251169
997.840 .0251137
998.440 .0251107
999.040 .0251080
999.639 .0251048
1000.238 .0251009
1000.836 .0250965
1001.435 .0250915
1002.033 .0250855
1002.630 .0250789
1003.228 .0250720
1003.825 .0250650
1004.422 .0250581
1005.018 .0250515
1005.614 .0250455
1006.210 .0250408
1006.806 .0250374
1007.401 .0250347
1007.996 .0250323
1008.591 .0250304
1009.186 .0250280
1009.780 .0250255
1010.374 .0250221
1010.967 .0250183
1011.561 .0250143
1012.154 .0250101
1012.746 .0250057
1013.339 .0250012
1013.931 .0249965
1014.523 .0249914
1015.115 .0249847
1015.706 .0249768
1016.298 .0249672
1016.888 .0249563
1017.479 .0249449
1018.069 .0249344
1018.660 .0249250
1019.250 .0249177
1019.839 .0249125
1020.429 .0249103
1021.018 .0249109
1021.607 .0249134
1022.195 .0249170
1022.784 .0249215
1023.372 .0249270
1023.960 .0249332
1024.547 .0249402
1025.135 .0249502
1025.722 .0249620
1026.309 .0249765
1026.896 .0249934
1027.483 .0250120
1028.069 .0250314
1028.655 .0250514
1029.241 .0250703
1029.827 .0250880
1030.412 .0251042
1030.997 .0251184
1031.582 .0251314
1032.167 .0251439
1032.752 .0251553
1033.336 .0251656
1033.921 .0251753
1034.505 .0251843
1035.089 .0251912
1035.672 .0251969
1036.256 .0252007
1036.839 .0252027
1037.422 .0252029
1038.005 .0252021
1038.588 .0252008
1039.171 .0252005
1039.753 .0252015
1040.335 .0252040
1040.918 .0252087
1041.500 .0252150
1042.081 .0252224
1042.663 .0252305
1043.244 .0252385
1043.826 .0252453
1044.407 .0252515
1044.988 .0252572
1045.569 .0252619
1046.150 .0252664
1046.730 .0252711
1047.311 .0252769
1047.891 .0252833
1048.471 .0252902
1049.052 .0252958
1049.632 .0253008
1050.211 .0253050
1050.791 .0253071
1051.371 .0253084
1051.950 .0253101
1052.530 .0253131
1053.109 .0253184
1053.688 .0253263
1054.268 .0253363
1054.847 .0253473
1055.426 .0253592
1056.005 .0253698
1056.583 .0253785
1057.162 .0253836
1057.741 .0253862
1058.319 .0253863
1058.898 .0253852
1059.476 .0253834
1060.055 .0253826
1060.633 .0253839
1061.211 .0253865
1061.790 .0253904
1062.368 .0253955
1062.946 .0254014
1063.524 .0254087
1064.102 .0254159
1064.680 .0254244
1065.258 .0254344
1065.836 .0254462
1066.414 .0254593
1066.992 .0254748
1067.570 .0254918
1068.148 .0255089
1068.726 .0255266
1069.304 .0255438
1069.882 .0255595
1070.460 .0255747
1071.038 .0255897
1071.616 .0256032
1072.194 .0256160
1072.772 .0256269
1073.350 .0256375
1073.928 .0256474
1074.506 .0256580
1075.084 .0256669
1075.662 .0256769
1076.240 .0256891
1076.819 .0257018
1077.397 .0257148
1077.976 .0257302
1078.554 .0257464
1079.133 .0257634
1079.711 .0257788
1080.290 .0257939
1080.869 .0258053
1081.448 .0258168
1082.027 .0258258
1082.606 .0258336
1083.185 .0258396
1083.764 .0258464
1084.343 .0258522
1084.923 .0258593
1085.502 .0258663
1086.082 .0258736
1086.662 .0258822
1087.242 .0258922
1087.822 .0259021
1088.402 .0259131
1088.983 .0259243
1089.563 .0259386
1090.144 .0259521
1090.725 .0259675
1091.306 .0259835
1091.887 .0260018
1092.469 .0260222
1093.050 .0260448
1093.632 .0260695
1094.214 .0260952
1094.796 .0261214
1095.379 .0261480
1095.961 .0261721
1096.544 .0261951
1097.127 .0262169
1097.710 .0262372
1098.294 .0262570
1098.877 .0262789
1099.461 .0263006
1100.046 .0263252
1100.630 .0263507
1101.215 .0263775
1101.800 .0264030
1102.385 .0264264
1102.970 .0264453
1103.556 .0264602
1104.142 .0264730
1104.728 .0264840
1105.315 .0264935
1105.902 .0265065
1106.489 .0265215
1107.077 .0265405
1107.664 .0265625
1108.253 .0265872
1108.841 .0266126
1109.430 .0266377
1110.019 .0266586
1110.609 .0266770
1111.198 .0266934
1111.789 .0267103
1112.379 .0267288
1112.970 .0267535
1113.561 .0267843
1114.153 .0268215
1114.745 .0268662
1115.338 .0269195
1115.931 .0269782
1116.524 .0270399
1117.117 .0271002
1117.712 .0271597
1118.306 .0272167
1118.901 .0272696
1119.496 .0273183
1120.092 .0273662
1120.689 .0274116
1121.285 .0274541
1121.882 .0274926
1122.480 .0275298
1123.078 .0275648
1123.677 .0275970
1124.276 .0276253
1124.875 .0276510
1125.476 .0276741
1126.076 .0276940
1126.677 .0277156
1127.279 .0277418
1127.881 .0277717
1128.484 .0278046
1129.087 .0278385
1129.691 .0278767
1130.295 .0279166
1130.900 .0279607
1131.505 .0280080
1132.111 .0280611
1132.718 .0281222
1133.325 .0281907
1133.933 .0282699
1134.541 .0283615
1135.150 .0284630
1135.760 .0285714
1136.370 .0286806
1136.981 .0287913
1137.592 .0288963
1138.204 .0290014
1138.817 .0291088
1139.431 .0292207
1140.045 .0293406
1140.660 .0294626
1141.275 .0295817
1141.891 .0297008
1142.508 .0299784
1143.126 .0301428
1143.744 .0300417
1144.363 .0299410
1144.983 .0301033
