Measurement Sequence started on: 15-12-46-377
Integration time: 28
Scans to Average: 2 
>>>>>Begin Spectral Data<<<<<
432.689 .0000100
433.621 .0000100
434.552 .0000100
435.482 .0000100
436.410 .0000100
437.337 .0000100
438.262 .0266875
439.187 .0563504
440.110 .0931915
441.031 .1346689
441.952 .1748491
442.871 .2063655
443.789 .2234286
444.705 .2241081
445.621 .2109305
446.535 .1892384
447.447 .1648457
448.359 .1275882
449.269 .1094166
450.178 .0980514
451.086 .0901275
451.993 .0841291
452.898 .0794092
453.803 .0755921
454.706 .0724291
455.608 .0696901
456.508 .0672924
457.408 .0651811
458.306 .0633101
459.204 .0616320
460.100 .0601228
460.995 .0587599
461.888 .0575181
462.781 .0563702
463.673 .0553024
464.563 .0543141
465.452 .0533841
466.340 .0524996
467.228 .0516722
468.114 .0509037
468.999 .0502013
469.882 .0495636
470.765 .0490031
471.647 .0485153
472.528 .0480937
473.407 .0477247
474.286 .0474001
475.163 .0471127
476.040 .0468601
476.915 .0466305
477.790 .0464264
478.663 .0462498
479.535 .0460916
480.407 .0459590
481.277 .0458532
482.147 .0457721
483.015 .0457137
483.883 .0456741
484.749 .0456533
485.615 .0456428
486.479 .0456394
487.343 .0456517
488.206 .0456728
489.067 .0457004
489.928 .0457358
490.788 .0457784
491.647 .0458312
492.505 .0459049
493.362 .0459964
494.218 .0461108
495.073 .0462502
495.928 .0464150
496.781 .0465930
497.634 .0468043
498.486 .0470412
499.337 .0472977
500.187 .0475841
501.036 .0479084
501.884 .0482534
502.731 .0486347
503.578 .0490554
504.424 .0495153
505.268 .0500117
506.113 .0505488
506.956 .0511052
507.798 .0517062
508.640 .0523535
509.480 .0530512
510.320 .0538099
511.160 .0546584
511.998 .0555859
512.836 .0566144
513.672 .0577564
514.508 .0590225
515.344 .0604004
516.178 .0619489
517.012 .0636720
517.845 .0656332
518.677 .0678682
519.508 .0704214
520.339 .0733353
521.169 .0766920
521.998 .0804955
522.826 .0847974
523.654 .0896132
524.481 .0949415
525.307 .1007935
526.133 .1071043
526.958 .1138104
527.782 .1208509
528.605 .1280486
529.428 .1353499
530.250 .1421898
531.072 .1484323
531.892 .1536527
532.712 .1575366
533.532 .1599393
534.350 .1606234
535.168 .1595302
535.986 .1567228
536.802 .1523613
537.618 .1467506
538.434 .1401170
539.249 .1329924
540.063 .1255310
540.876 .1181207
541.689 .1109644
542.501 .1042037
543.313 .0979981
544.124 .0924320
544.934 .0874258
545.744 .0829330
546.553 .0789189
547.361 .0753410
548.169 .0722107
548.976 .0694483
549.783 .0670170
550.589 .0648752
551.395 .0629307
552.200 .0611708
553.004 .0595577
553.808 .0580744
554.611 .0567027
555.414 .0554503
556.216 .0543200
557.018 .0533078
557.819 .0523903
558.619 .0515396
559.419 .0507392
560.218 .0499600
561.017 .0491814
561.815 .0483938
562.613 .0476095
563.410 .0468291
564.207 .0460500
565.003 .0453013
565.799 .0445776
566.594 .0438827
567.388 .0432239
568.182 .0425992
568.976 .0419992
569.769 .0414205
570.562 .0408605
571.354 .0403159
572.145 .0397978
572.936 .0393046
573.727 .0388444
574.517 .0384178
575.307 .0380265
576.096 .0376636
576.885 .0373219
577.673 .0370081
578.461 .0367146
579.248 .0364351
580.035 .0361709
580.821 .0359196
581.607 .0356812
582.392 .0354558
583.177 .0352486
583.962 .0350598
584.746 .0348915
585.529 .0347399
586.313 .0346014
587.095 .0344729
587.878 .0343559
588.660 .0342448
589.441 .0341398
590.222 .0340422
591.003 .0339503
591.783 .0338627
592.563 .0337816
593.342 .0337064
594.121 .0336361
594.899 .0335718
595.678 .0335111
596.455 .0334536
597.233 .0333994
598.009 .0333475
598.786 .0332990
599.562 .0332544
600.338 .0332122
601.113 .0331705
601.888 .0331307
602.663 .0330919
603.437 .0330531
604.211 .0330144
604.984 .0329762
605.757 .0329381
606.530 .0329003
607.302 .0328639
608.074 .0328288
608.845 .0327958
609.616 .0327643
610.387 .0327341
611.158 .0327047
611.928 .0326749
612.697 .0326451
613.467 .0326146
614.236 .0325847
615.004 .0325551
615.773 .0325260
616.541 .0324982
617.308 .0324728
618.076 .0324499
618.843 .0324288
619.609 .0324089
620.375 .0323893
621.141 .0323689
621.907 .0323469
622.672 .0323234
623.437 .0322976
624.202 .0322702
624.966 .0322418
625.730 .0322120
626.493 .0321822
627.257 .0321520
628.020 .0321216
628.782 .0320906
629.545 .0320587
630.307 .0320259
631.068 .0319916
631.830 .0319568
632.591 .0319219
633.352 .0318872
634.112 .0318535
634.872 .0318204
635.632 .0317880
636.392 .0317564
637.151 .0317254
637.910 .0316950
638.668 .0316648
639.427 .0316353
640.185 .0316067
640.943 .0315795
641.700 .0315538
642.457 .0315295
643.214 .0315072
643.971 .0314862
644.727 .0314663
645.483 .0314473
646.239 .0314288
646.994 .0314107
647.750 .0313936
648.505 .0313767
649.259 .0313600
650.014 .0313440
650.768 .0313276
651.521 .0313111
652.275 .0312940
653.028 .0312763
653.781 .0312575
654.534 .0312383
655.286 .0312188
656.039 .0311983
656.791 .0311781
657.542 .0311573
658.294 .0311365
659.045 .0311163
659.796 .0310958
660.546 .0310753
661.297 .0310550
662.047 .0310351
662.796 .0310144
663.546 .0309937
664.295 .0309728
665.044 .0309511
665.793 .0309292
666.542 .0309071
667.290 .0308850
668.038 .0308636
668.786 .0308424
669.533 .0308213
670.281 .0308008
671.028 .0307803
671.774 .0307591
672.521 .0307382
673.267 .0307177
674.013 .0306978
674.759 .0306789
675.505 .0306617
676.250 .0306460
676.995 .0306315
677.740 .0306183
678.484 .0306053
679.229 .0305928
679.973 .0305803
680.717 .0305674
681.460 .0305549
682.204 .0305427
682.947 .0305304
683.690 .0305184
684.433 .0305065
685.175 .0304944
685.917 .0304813
686.659 .0304676
687.401 .0304528
688.142 .0304374
688.884 .0304219
689.625 .0304062
690.365 .0303908
691.106 .0303756
691.846 .0303606
692.586 .0303453
693.326 .0303292
694.066 .0303117
694.805 .0302926
695.545 .0302717
696.284 .0302490
697.022 .0302248
697.761 .0301999
698.499 .0301741
699.237 .0301484
699.975 .0301230
700.713 .0300983
701.450 .0300745
702.187 .0300521
702.924 .0300306
703.661 .0300097
704.397 .0299890
705.133 .0299684
705.869 .0299480
706.605 .0299277
707.341 .0299075
708.076 .0298885
708.811 .0298710
709.546 .0298555
710.281 .0298415
711.015 .0298294
711.749 .0298183
712.483 .0298072
713.217 .0297950
713.950 .0297807
714.684 .0297641
715.417 .0297454
716.150 .0297250
716.882 .0297036
717.615 .0296820
718.347 .0296610
719.079 .0296407
719.811 .0296213
720.542 .0296025
721.273 .0295839
722.005 .0295649
722.735 .0295456
723.466 .0295253
724.196 .0295046
724.927 .0294837
725.656 .0294632
726.386 .0294432
727.116 .0294241
727.845 .0294056
728.574 .0293880
729.303 .0293714
730.031 .0293557
730.760 .0293408
731.488 .0293273
732.216 .0293151
732.944 .0293043
733.671 .0292948
734.398 .0292866
735.125 .0292791
735.852 .0292725
736.579 .0292659
737.305 .0292598
738.031 .0292536
738.757 .0292478
739.483 .0292424
740.208 .0292377
740.933 .0292332
741.658 .0292286
742.383 .0292237
743.108 .0292184
743.832 .0292123
744.556 .0292061
745.280 .0291991
746.004 .0291919
746.727 .0291845
747.450 .0291774
748.173 .0291703
748.896 .0291635
749.618 .0291567
750.340 .0291496
751.062 .0291421
751.784 .0291343
752.506 .0291259
753.227 .0291174
753.948 .0291091
754.669 .0291001
755.389 .0290907
756.110 .0290806
756.830 .0290691
757.550 .0290564
758.269 .0290425
758.989 .0290273
759.708 .0290104
760.427 .0289931
761.146 .0289750
761.864 .0289566
762.582 .0289386
763.300 .0289204
764.018 .0289023
764.736 .0288843
765.453 .0288661
766.170 .0288476
766.887 .0288293
767.603 .0288113
768.320 .0287927
769.036 .0287739
769.751 .0287548
770.467 .0287355
771.182 .0287156
771.897 .0286961
772.612 .0286767
773.327 .0286580
774.041 .0286403
774.755 .0286240
775.469 .0286092
776.183 .0285960
776.896 .0285843
777.609 .0285734
778.322 .0285631
779.035 .0285536
779.747 .0285441
780.459 .0285355
781.171 .0285277
781.882 .0285209
782.594 .0285146
783.305 .0285096
784.016 .0285052
784.726 .0285010
785.436 .0284966
786.147 .0284916
786.856 .0284851
787.566 .0284773
788.275 .0284678
788.984 .0284569
789.693 .0284453
790.401 .0284336
791.110 .0284211
791.818 .0284086
792.525 .0283957
793.233 .0283827
793.940 .0283695
794.647 .0283563
795.353 .0283427
796.060 .0283290
796.766 .0283148
797.472 .0283003
798.177 .0282856
798.883 .0282712
799.588 .0282567
800.292 .0282427
800.997 .0282286
801.701 .0282142
802.405 .0281997
803.109 .0281852
803.812 .0281705
804.515 .0281556
805.218 .0281400
805.921 .0281238
806.623 .0281073
807.325 .0280908
808.027 .0280743
808.728 .0280586
809.429 .0280436
810.130 .0280286
810.831 .0280141
811.531 .0279998
812.231 .0279854
812.931 .0279713
813.630 .0279573
814.330 .0279430
815.029 .0279292
815.727 .0279159
816.426 .0279032
817.124 .0278917
817.821 .0278814
818.519 .0278716
819.216 .0278627
819.913 .0278544
820.609 .0278460
821.306 .0278379
822.002 .0278304
822.697 .0278234
823.393 .0278172
824.088 .0278119
824.783 .0278075
825.477 .0278041
826.171 .0278014
826.865 .0277990
827.559 .0277973
828.252 .0277964
828.945 .0277960
829.638 .0277963
830.330 .0277977
831.023 .0278003
831.714 .0278038
832.406 .0278079
833.097 .0278123
833.788 .0278165
834.479 .0278200
835.169 .0278227
835.859 .0278250
836.548 .0278268
837.238 .0278281
837.927 .0278293
838.615 .0278305
839.304 .0278312
839.992 .0278316
840.680 .0278309
841.367 .0278294
842.054 .0278266
842.741 .0278226
843.428 .0278178
844.114 .0278122
844.800 .0278061
845.485 .0277995
846.170 .0277923
846.855 .0277845
847.540 .0277754
848.224 .0277658
848.908 .0277553
849.592 .0277441
850.275 .0277320
850.958 .0277197
851.641 .0277079
852.323 .0276963
853.005 .0276842
853.687 .0276720
854.368 .0276590
855.049 .0276451
855.730 .0276301
856.410 .0276139
857.090 .0275969
857.769 .0275799
858.449 .0275629
859.128 .0275465
859.806 .0275307
860.485 .0275161
861.163 .0275020
861.840 .0274885
862.518 .0274747
863.195 .0274598
863.871 .0274437
864.548 .0274268
865.224 .0274084
865.899 .0273892
866.574 .0273697
867.249 .0273504
867.924 .0273318
868.598 .0273140
869.272 .0272968
869.946 .0272803
870.619 .0272642
871.292 .0272478
871.964 .0272307
872.636 .0272130
873.308 .0271947
873.979 .0271762
874.651 .0271575
875.321 .0271390
875.992 .0271210
876.662 .0271038
877.331 .0270871
878.001 .0270709
878.670 .0270554
879.338 .0270402
880.007 .0270253
880.675 .0270112
881.342 .0269975
882.009 .0269845
882.676 .0269721
883.343 .0269604
884.009 .0269490
884.675 .0269378
885.340 .0269268
886.005 .0269161
886.670 .0269058
887.334 .0268963
887.998 .0268876
888.662 .0268803
889.325 .0268740
889.988 .0268684
890.650 .0268636
891.312 .0268590
891.974 .0268546
892.636 .0268495
893.297 .0268440
893.957 .0268382
894.618 .0268321
895.278 .0268257
895.937 .0268194
896.596 .0268131
897.255 .0268066
897.914 .0267993
898.572 .0267914
899.230 .0267827
899.887 .0267724
900.544 .0267609
901.201 .0267482
901.857 .0267342
902.513 .0267196
903.168 .0267039
903.823 .0266881
904.478 .0266723
905.132 .0266561
905.786 .0266394
906.440 .0266226
907.093 .0266060
907.746 .0265889
908.399 .0265716
909.051 .0265547
909.703 .0265377
910.354 .0265208
911.005 .0265045
911.656 .0264888
912.306 .0264740
912.956 .0264596
913.605 .0264454
914.254 .0264312
914.903 .0264166
915.551 .0264014
916.199 .0263857
916.847 .0263701
917.494 .0263545
918.141 .0263393
918.788 .0263247
919.434 .0263113
920.079 .0262991
920.725 .0262874
921.370 .0262762
922.014 .0262651
922.658 .0262534
923.302 .0262410
923.946 .0262281
924.589 .0262148
925.231 .0262011
925.873 .0261879
926.515 .0261749
927.157 .0261624
927.798 .0261503
928.439 .0261386
929.079 .0261276
929.719 .0261171
930.359 .0261067
930.998 .0260964
931.637 .0260861
932.275 .0260764
932.913 .0260669
933.551 .0260579
934.188 .0260495
934.825 .0260419
935.462 .0260352
936.098 .0260298
936.733 .0260256
937.369 .0260231
938.004 .0260219
938.638 .0260220
939.273 .0260225
939.907 .0260232
940.540 .0260238
941.173 .0260248
941.806 .0260259
942.438 .0260277
943.070 .0260298
943.702 .0260330
944.333 .0260371
944.964 .0260417
945.594 .0260463
946.224 .0260503
946.854 .0260534
947.483 .0260551
948.112 .0260551
948.741 .0260538
949.369 .0260514
949.996 .0260486
950.624 .0260451
951.251 .0260416
951.878 .0260382
952.504 .0260347
953.130 .0260310
953.755 .0260272
954.380 .0260228
955.005 .0260179
955.629 .0260131
956.253 .0260086
956.877 .0260050
957.500 .0260026
958.123 .0260015
958.746 .0260015
959.368 .0260027
959.990 .0260049
960.611 .0260079
961.232 .0260111
961.853 .0260139
962.473 .0260162
963.093 .0260177
963.712 .0260178
964.331 .0260168
964.950 .0260145
965.569 .0260112
966.187 .0260069
966.804 .0260017
967.422 .0259961
968.039 .0259907
968.655 .0259849
969.272 .0259789
969.887 .0259724
970.503 .0259652
971.118 .0259572
971.733 .0259489
972.347 .0259404
972.961 .0259322
973.575 .0259249
974.188 .0259180
974.801 .0259119
975.414 .0259062
976.026 .0259006
976.638 .0258946
977.250 .0258879
977.861 .0258802
978.472 .0258707
979.083 .0258603
979.693 .0258479
980.303 .0258343
980.912 .0258194
981.521 .0258030
982.130 .0257854
982.738 .0257667
983.346 .0257472
983.954 .0257273
984.562 .0257079
985.169 .0256889
985.775 .0256703
986.382 .0256523
986.988 .0256348
987.594 .0256174
988.199 .0255997
988.804 .0255821
989.409 .0255643
990.013 .0255474
990.617 .0255310
991.221 .0255152
991.824 .0255013
992.427 .0254889
993.030 .0254784
993.632 .0254680
994.234 .0254582
994.836 .0254480
995.438 .0254372
996.039 .0254255
996.640 .0254127
997.240 .0253997
997.840 .0253873
998.440 .0253752
999.040 .0253641
999.639 .0253537
1000.238 .0253443
1000.836 .0253357
1001.435 .0253274
1002.033 .0253186
1002.630 .0253095
1003.228 .0253001
1003.825 .0252909
1004.422 .0252823
1005.018 .0252744
1005.614 .0252668
1006.210 .0252602
1006.806 .0252544
1007.401 .0252477
1007.996 .0252409
1008.591 .0252341
1009.186 .0252273
1009.780 .0252208
1010.374 .0252146
1010.967 .0252086
1011.561 .0252032
1012.154 .0251984
1012.746 .0251932
1013.339 .0251877
1013.931 .0251825
1014.523 .0251765
1015.115 .0251704
1015.706 .0251645
1016.298 .0251586
1016.888 .0251535
1017.479 .0251493
1018.069 .0251452
1018.660 .0251406
1019.250 .0251358
1019.839 .0251306
1020.429 .0251253
1021.018 .0251201
1021.607 .0251149
1022.195 .0251098
1022.784 .0251054
1023.372 .0251007
1023.960 .0250964
1024.547 .0250922
1025.135 .0250880
1025.722 .0250833
1026.309 .0250786
1026.896 .0250737
1027.483 .0250698
1028.069 .0250668
1028.655 .0250654
1029.241 .0250649
1029.827 .0250655
1030.412 .0250665
1030.997 .0250683
1031.582 .0250708
1032.167 .0250740
1032.752 .0250782
1033.336 .0250830
1033.921 .0250878
1034.505 .0250922
1035.089 .0250963
1035.672 .0250999
1036.256 .0251027
1036.839 .0251043
1037.422 .0251054
1038.005 .0251062
1038.588 .0251081
1039.171 .0251108
1039.753 .0251144
1040.335 .0251184
1040.918 .0251227
1041.500 .0251259
1042.081 .0251274
1042.663 .0251268
1043.244 .0251248
1043.826 .0251204
1044.407 .0251151
1044.988 .0251091
1045.569 .0251038
1046.150 .0250994
1046.730 .0250968
1047.311 .0250952
1047.891 .0250944
1048.471 .0250930
1049.052 .0250909
1049.632 .0250879
1050.211 .0250848
1050.791 .0250814
1051.371 .0250792
1051.950 .0250795
1052.530 .0250825
1053.109 .0250878
1053.688 .0250963
1054.268 .0251064
1054.847 .0251168
1055.426 .0251265
1056.005 .0251350
1056.583 .0251415
1057.162 .0251470
1057.741 .0251513
1058.319 .0251561
1058.898 .0251611
1059.476 .0251665
1060.055 .0251715
1060.633 .0251765
1061.211 .0251808
1061.790 .0251834
1062.368 .0251850
1062.946 .0251865
1063.524 .0251882
1064.102 .0251916
1064.680 .0251971
1065.258 .0252053
1065.836 .0252149
1066.414 .0252261
1066.992 .0252373
1067.570 .0252485
1068.148 .0252581
1068.726 .0252665
1069.304 .0252739
1069.882 .0252808
1070.460 .0252869
1071.038 .0252922
1071.616 .0252974
1072.194 .0253016
1072.772 .0253042
1073.350 .0253064
1073.928 .0253077
1074.506 .0253091
1075.084 .0253114
1075.662 .0253159
1076.240 .0253232
1076.819 .0253334
1077.397 .0253463
1077.976 .0253615
1078.554 .0253796
1079.133 .0253989
1079.711 .0254193
1080.290 .0254398
1080.869 .0254614
1081.448 .0254825
1082.027 .0255023
1082.606 .0255206
1083.185 .0255379
1083.764 .0255541
1084.343 .0255692
1084.923 .0255833
1085.502 .0255976
1086.082 .0256126
1086.662 .0256288
1087.242 .0256448
1087.822 .0256613
1088.402 .0256778
1088.983 .0256934
1089.563 .0257074
1090.144 .0257205
1090.725 .0257328
1091.306 .0257447
1091.887 .0257584
1092.469 .0257739
1093.050 .0257908
1093.632 .0258102
1094.214 .0258318
1094.796 .0258549
1095.379 .0258783
1095.961 .0258999
1096.544 .0259194
1097.127 .0259380
1097.710 .0259541
1098.294 .0259679
1098.877 .0259822
1099.461 .0259988
1100.046 .0260160
1100.630 .0260346
1101.215 .0260554
1101.800 .0260767
1102.385 .0260997
1102.970 .0261234
1103.556 .0261458
1104.142 .0261683
1104.728 .0261911
1105.315 .0262149
1105.902 .0262403
1106.489 .0262672
1107.077 .0262944
1107.664 .0263219
1108.253 .0263485
1108.841 .0263734
1109.430 .0263972
1110.019 .0264218
1110.609 .0264485
1111.198 .0264763
1111.789 .0265093
1112.379 .0265463
1112.970 .0265872
1113.561 .0266302
1114.153 .0266734
1114.745 .0267151
1115.338 .0267544
1115.931 .0267907
1116.524 .0268258
1117.117 .0268626
1117.712 .0269054
1118.306 .0269551
1118.901 .0270134
1119.496 .0270769
1120.092 .0271474
1120.689 .0272201
1121.285 .0272964
1121.882 .0273725
1122.480 .0274502
1123.078 .0275298
1123.677 .0276099
1124.276 .0276895
1124.875 .0277708
1125.476 .0278524
1126.076 .0279349
1126.677 .0280175
1127.279 .0280997
1127.881 .0281785
1128.484 .0282562
1129.087 .0283324
1129.691 .0284091
1130.295 .0284859
1130.900 .0285634
1131.505 .0286397
1132.111 .0287193
1132.718 .0288025
1133.325 .0288893
1133.933 .0289837
1134.541 .0290915
1135.150 .0292104
1135.760 .0293404
1136.370 .0294804
1136.981 .0296301
1137.592 .0297855
1138.204 .0299462
1138.817 .0301107
1139.431 .0302771
1140.045 .0304426
1140.660 .0306103
1141.275 .0307683
1141.891 .0309210
1142.508 .0312037
1143.126 .0312775
1143.744 .0314280
1144.363 .0313608
1144.983 .0314811
