Measurement Sequence started on: 15-12-46-377
Integration time: 28
Scans to Average: 2 
>>>>>Begin Spectral Data<<<<<
432.689 .0000100
433.621 .0000100
434.552 .0000100
435.482 .0000100
436.410 .0000100
437.337 .0000100
438.262 .0287500
439.187 .0608542
440.110 .1007436
441.031 .1456605
441.952 .1891971
442.871 .2233723
443.789 .2419714
444.705 .2428685
445.621 .2287566
446.535 .2054002
447.447 .1790685
448.359 .1388297
449.269 .1190207
450.178 .1065432
451.086 .0977640
451.993 .0910181
452.898 .0856367
453.803 .0812078
454.706 .0775400
455.608 .0744206
456.508 .0717496
457.408 .0694487
458.306 .0674412
459.204 .0656503
460.100 .0640408
460.995 .0625593
461.888 .0611962
462.781 .0599247
463.673 .0587448
464.563 .0576660
465.452 .0566746
466.340 .0557585
467.228 .0549306
468.114 .0541670
468.999 .0534708
469.882 .0528156
470.765 .0522087
471.647 .0516476
472.528 .0511319
473.407 .0506532
474.286 .0502238
475.163 .0498477
476.040 .0495247
476.915 .0492434
477.790 .0490053
478.663 .0487987
479.535 .0486201
480.407 .0484676
481.277 .0483302
482.147 .0482112
483.015 .0481169
483.883 .0480405
484.749 .0479844
485.615 .0479474
486.479 .0479196
487.343 .0479067
488.206 .0479158
489.067 .0479312
489.928 .0479481
490.788 .0479766
491.647 .0480180
492.505 .0480757
493.362 .0481487
494.218 .0482389
495.073 .0483457
495.928 .0484798
496.781 .0486207
497.634 .0487795
498.486 .0489616
499.337 .0491670
500.187 .0493977
501.036 .0496574
501.884 .0499420
502.731 .0502477
503.578 .0505828
504.424 .0509504
505.268 .0513347
506.113 .0517511
506.956 .0521855
507.798 .0526559
508.640 .0531696
509.480 .0537331
510.320 .0543684
511.160 .0550992
511.998 .0559212
512.836 .0568549
513.672 .0579133
514.508 .0591219
515.344 .0604811
516.178 .0620073
517.012 .0637308
517.845 .0656725
518.677 .0678738
519.508 .0703649
520.339 .0731580
521.169 .0763405
521.998 .0799194
522.826 .0839327
523.654 .0884412
524.481 .0934659
525.307 .0990985
526.133 .1053073
526.958 .1120870
527.782 .1194197
528.605 .1270780
529.428 .1349838
530.250 .1426537
531.072 .1497693
531.892 .1559294
532.712 .1607560
533.532 .1639962
534.350 .1654403
535.168 .1649825
535.986 .1627290
536.802 .1588150
537.618 .1536162
538.434 .1473291
539.249 .1403637
540.063 .1330154
540.876 .1255701
541.689 .1182190
542.501 .1111509
543.313 .1044745
544.124 .0983519
544.934 .0927530
545.744 .0876965
546.553 .0831656
547.361 .0791671
548.169 .0756941
548.976 .0726456
549.783 .0699532
550.589 .0675783
551.395 .0654286
552.200 .0634688
553.004 .0616710
553.808 .0600071
554.611 .0584909
555.414 .0571335
556.216 .0559196
557.018 .0548583
557.819 .0539084
558.619 .0530615
559.419 .0522728
560.218 .0515313
561.017 .0508129
561.815 .0500936
562.613 .0493885
563.410 .0486865
564.207 .0479908
565.003 .0473114
565.799 .0466409
566.594 .0459802
567.388 .0453324
568.182 .0446875
568.976 .0440335
569.769 .0433824
570.562 .0427405
571.354 .0421077
572.145 .0414944
572.936 .0409050
573.727 .0403426
574.517 .0398170
575.307 .0393265
576.096 .0388609
576.885 .0384315
577.673 .0380310
578.461 .0376535
579.248 .0372960
580.035 .0369636
580.821 .0366539
581.607 .0363664
582.392 .0361032
583.177 .0358591
583.962 .0356363
584.746 .0354379
585.529 .0352568
586.313 .0350943
587.095 .0349477
587.878 .0348154
588.660 .0346950
589.441 .0345882
590.222 .0344907
591.003 .0344053
591.783 .0343294
592.563 .0342624
593.342 .0342005
594.121 .0341418
594.899 .0340847
595.678 .0340270
596.455 .0339693
597.233 .0339122
598.009 .0338550
598.786 .0337994
599.562 .0337455
600.338 .0336942
601.113 .0336447
601.888 .0335967
602.663 .0335485
603.437 .0334996
604.211 .0334496
604.984 .0333989
605.757 .0333488
606.530 .0333001
607.302 .0332531
608.074 .0332081
608.845 .0331658
609.616 .0331258
610.387 .0330867
611.158 .0330492
611.928 .0330126
612.697 .0329765
613.467 .0329411
614.236 .0329059
615.004 .0328717
615.773 .0328385
616.541 .0328067
617.308 .0327757
618.076 .0327451
618.843 .0327149
619.609 .0326850
620.375 .0326548
621.141 .0326247
621.907 .0325937
622.672 .0325623
623.437 .0325299
624.202 .0324961
624.966 .0324613
625.730 .0324262
626.493 .0323906
627.257 .0323550
628.020 .0323188
628.782 .0322832
629.545 .0322475
630.307 .0322120
631.068 .0321764
631.830 .0321398
632.591 .0321027
633.352 .0320652
634.112 .0320274
634.872 .0319902
635.632 .0319530
636.392 .0319171
637.151 .0318823
637.910 .0318486
638.668 .0318154
639.427 .0317830
640.185 .0317518
640.943 .0317217
641.700 .0316918
642.457 .0316633
643.214 .0316354
643.971 .0316080
644.727 .0315816
645.483 .0315557
646.239 .0315301
646.994 .0315055
647.750 .0314821
648.505 .0314610
649.259 .0314426
650.014 .0314274
650.768 .0314145
651.521 .0314048
652.275 .0313962
653.028 .0313878
653.781 .0313793
654.534 .0313709
655.286 .0313613
656.039 .0313508
656.791 .0313398
657.542 .0313270
658.294 .0313141
659.045 .0313009
659.796 .0312868
660.546 .0312722
661.297 .0312561
662.047 .0312384
662.796 .0312194
663.546 .0311987
664.295 .0311763
665.044 .0311527
665.793 .0311286
666.542 .0311033
667.290 .0310768
668.038 .0310494
668.786 .0310218
669.533 .0309942
670.281 .0309677
671.028 .0309415
671.774 .0309168
672.521 .0308943
673.267 .0308735
674.013 .0308550
674.759 .0308372
675.505 .0308199
676.250 .0308027
676.995 .0307851
677.740 .0307668
678.484 .0307480
679.229 .0307296
679.973 .0307120
680.717 .0306950
681.460 .0306788
682.204 .0306626
682.947 .0306467
683.690 .0306304
684.433 .0306125
685.175 .0305922
685.917 .0305701
686.659 .0305459
687.401 .0305206
688.142 .0304944
688.884 .0304682
689.625 .0304417
690.365 .0304149
691.106 .0303874
691.846 .0303585
692.586 .0303281
693.326 .0302963
694.066 .0302630
694.805 .0302291
695.545 .0301948
696.284 .0301605
697.022 .0301267
697.761 .0300943
698.499 .0300620
699.237 .0300300
699.975 .0299980
700.713 .0299657
701.450 .0299330
702.187 .0299003
702.924 .0298678
703.661 .0298362
704.397 .0298059
705.133 .0297773
705.869 .0297503
706.605 .0297255
707.341 .0297020
708.076 .0296799
708.811 .0296584
709.546 .0296371
710.281 .0296153
711.015 .0295934
711.749 .0295710
712.483 .0295480
713.217 .0295250
713.950 .0295021
714.684 .0294793
715.417 .0294572
716.150 .0294354
716.882 .0294138
717.615 .0293920
718.347 .0293703
719.079 .0293480
719.811 .0293255
720.542 .0293029
721.273 .0292805
722.005 .0292587
722.735 .0292377
723.466 .0292173
724.196 .0291980
724.927 .0291795
725.656 .0291617
726.386 .0291439
727.116 .0291266
727.845 .0291093
728.574 .0290921
729.303 .0290751
730.031 .0290586
730.760 .0290425
731.488 .0290274
732.216 .0290133
732.944 .0290006
733.671 .0289894
734.398 .0289798
735.125 .0289718
735.852 .0289660
736.579 .0289617
737.305 .0289590
738.031 .0289579
738.757 .0289581
739.483 .0289593
740.208 .0289611
740.933 .0289636
741.658 .0289667
742.383 .0289698
743.108 .0289729
743.832 .0289756
744.556 .0289778
745.280 .0289792
746.004 .0289796
746.727 .0289791
747.450 .0289774
748.173 .0289741
748.896 .0289699
749.618 .0289647
750.340 .0289585
751.062 .0289517
751.784 .0289443
752.506 .0289369
753.227 .0289291
753.948 .0289212
754.669 .0289134
755.389 .0289056
756.110 .0288979
756.830 .0288897
757.550 .0288809
758.269 .0288716
758.989 .0288612
759.708 .0288499
760.427 .0288377
761.146 .0288242
761.864 .0288104
762.582 .0287960
763.300 .0287812
764.018 .0287662
764.736 .0287514
765.453 .0287365
766.170 .0287218
766.887 .0287070
767.603 .0286918
768.320 .0286760
769.036 .0286601
769.751 .0286436
770.467 .0286273
771.182 .0286110
771.897 .0285950
772.612 .0285793
773.327 .0285645
774.041 .0285498
774.755 .0285351
775.469 .0285209
776.183 .0285069
776.896 .0284927
777.609 .0284787
778.322 .0284648
779.035 .0284513
779.747 .0284383
780.459 .0284256
781.171 .0284132
781.882 .0284014
782.594 .0283898
783.305 .0283782
784.016 .0283665
784.726 .0283548
785.436 .0283424
786.147 .0283295
786.856 .0283157
787.566 .0283010
788.275 .0282853
788.984 .0282686
789.693 .0282509
790.401 .0282324
791.110 .0282130
791.818 .0281929
792.525 .0281719
793.233 .0281502
793.940 .0281277
794.647 .0281046
795.353 .0280811
796.060 .0280572
796.766 .0280329
797.472 .0280079
798.177 .0279825
798.883 .0279570
799.588 .0279312
800.292 .0279053
800.997 .0278794
801.701 .0278531
802.405 .0278268
803.109 .0278002
803.812 .0277738
804.515 .0277479
805.218 .0277222
805.921 .0276965
806.623 .0276708
807.325 .0276449
808.027 .0276192
808.728 .0275931
809.429 .0275671
810.130 .0275412
810.831 .0275157
811.531 .0274907
812.231 .0274663
812.931 .0274430
813.630 .0274207
814.330 .0273987
815.029 .0273770
815.727 .0273551
816.426 .0273332
817.124 .0273111
817.821 .0272894
818.519 .0272687
819.216 .0272495
819.913 .0272320
820.609 .0272167
821.306 .0272033
822.002 .0271920
822.697 .0271824
823.393 .0271744
824.088 .0271678
824.783 .0271623
825.477 .0271577
826.171 .0271543
826.865 .0271525
827.559 .0271521
828.252 .0271532
828.945 .0271560
829.638 .0271599
830.330 .0271645
831.023 .0271695
831.714 .0271750
832.406 .0271810
833.097 .0271869
833.788 .0271923
834.479 .0271971
835.169 .0272015
835.859 .0272050
836.548 .0272083
837.238 .0272116
837.927 .0272153
838.615 .0272193
839.304 .0272241
839.992 .0272294
840.680 .0272353
841.367 .0272414
842.054 .0272474
842.741 .0272529
843.428 .0272579
844.114 .0272623
844.800 .0272663
845.485 .0272706
846.170 .0272749
846.855 .0272794
847.540 .0272842
848.224 .0272884
848.908 .0272922
849.592 .0272951
850.275 .0272967
850.958 .0272969
851.641 .0272959
852.323 .0272934
853.005 .0272898
853.687 .0272857
854.368 .0272810
855.049 .0272755
855.730 .0272697
856.410 .0272630
857.090 .0272556
857.769 .0272474
858.449 .0272383
859.128 .0272278
859.806 .0272171
860.485 .0272057
861.163 .0271942
861.840 .0271831
862.518 .0271726
863.195 .0271625
863.871 .0271531
864.548 .0271444
865.224 .0271365
865.899 .0271293
866.574 .0271236
867.249 .0271189
867.924 .0271158
868.598 .0271144
869.272 .0271145
869.946 .0271164
870.619 .0271194
871.292 .0271227
871.964 .0271254
872.636 .0271270
873.308 .0271265
873.979 .0271244
874.651 .0271207
875.321 .0271162
875.992 .0271113
876.662 .0271067
877.331 .0271025
878.001 .0270983
878.670 .0270943
879.338 .0270898
880.007 .0270842
880.675 .0270777
881.342 .0270695
882.009 .0270609
882.676 .0270522
883.343 .0270440
884.009 .0270370
884.675 .0270315
885.340 .0270271
886.005 .0270235
886.670 .0270204
887.334 .0270165
887.998 .0270115
888.662 .0270053
889.325 .0269976
889.988 .0269885
890.650 .0269790
891.312 .0269689
891.974 .0269589
892.636 .0269495
893.297 .0269404
893.957 .0269313
894.618 .0269226
895.278 .0269136
895.937 .0269044
896.596 .0268955
897.255 .0268866
897.914 .0268767
898.572 .0268670
899.230 .0268566
899.887 .0268453
900.544 .0268329
901.201 .0268195
901.857 .0268046
902.513 .0267885
903.168 .0267709
903.823 .0267516
904.478 .0267309
905.132 .0267089
905.786 .0266847
906.440 .0266587
907.093 .0266306
907.746 .0266003
908.399 .0265679
909.051 .0265342
909.703 .0264990
910.354 .0264629
911.005 .0264265
911.656 .0263905
912.306 .0263550
912.956 .0263203
913.605 .0262865
914.254 .0262534
914.903 .0262209
915.551 .0261890
916.199 .0261571
916.847 .0261259
917.494 .0260952
918.141 .0260651
918.788 .0260354
919.434 .0260064
920.079 .0259781
920.725 .0259504
921.370 .0259236
922.014 .0258972
922.658 .0258705
923.302 .0258436
923.946 .0258160
924.589 .0257869
925.231 .0257564
925.873 .0257253
926.515 .0256933
927.157 .0256614
927.798 .0256296
928.439 .0255984
929.079 .0255680
929.719 .0255380
930.359 .0255081
930.998 .0254778
931.637 .0254471
932.275 .0254156
932.913 .0253830
933.551 .0253502
934.188 .0253168
934.825 .0252837
935.462 .0252514
936.098 .0252201
936.733 .0251901
937.369 .0251614
938.004 .0251343
938.638 .0251087
939.273 .0250847
939.907 .0250626
940.540 .0250425
941.173 .0250249
941.806 .0250095
942.438 .0249961
943.070 .0249848
943.702 .0249754
944.333 .0249670
944.964 .0249596
945.594 .0249526
946.224 .0249462
946.854 .0249402
947.483 .0249347
948.112 .0249300
948.741 .0249259
949.369 .0249224
949.996 .0249192
950.624 .0249155
951.251 .0249118
951.878 .0249072
952.504 .0249019
953.130 .0248961
953.755 .0248895
954.380 .0248828
955.005 .0248764
955.629 .0248707
956.253 .0248658
956.877 .0248624
957.500 .0248603
958.123 .0248588
958.746 .0248576
959.368 .0248560
959.990 .0248535
960.611 .0248499
961.232 .0248453
961.853 .0248397
962.473 .0248341
963.093 .0248289
963.712 .0248242
964.331 .0248206
964.950 .0248182
965.569 .0248167
966.187 .0248159
966.804 .0248163
967.422 .0248172
968.039 .0248184
968.655 .0248201
969.272 .0248220
969.887 .0248243
970.503 .0248266
971.118 .0248290
971.733 .0248311
972.347 .0248332
972.961 .0248349
973.575 .0248365
974.188 .0248383
974.801 .0248402
975.414 .0248422
976.026 .0248445
976.638 .0248464
977.250 .0248479
977.861 .0248488
978.472 .0248497
979.083 .0248503
979.693 .0248507
980.303 .0248508
980.912 .0248515
981.521 .0248531
982.130 .0248557
982.738 .0248598
983.346 .0248657
983.954 .0248731
984.562 .0248816
985.169 .0248909
985.775 .0249011
986.382 .0249115
986.988 .0249221
987.594 .0249324
988.199 .0249424
988.804 .0249520
989.409 .0249613
990.013 .0249704
990.617 .0249795
991.221 .0249884
991.824 .0249978
992.427 .0250077
993.030 .0250187
993.632 .0250303
994.234 .0250430
994.836 .0250562
995.438 .0250692
996.039 .0250818
996.640 .0250939
997.240 .0251051
997.840 .0251158
998.440 .0251261
999.040 .0251364
999.639 .0251468
1000.238 .0251577
1000.836 .0251689
1001.435 .0251799
1002.033 .0251905
1002.630 .0252001
1003.228 .0252083
1003.825 .0252159
1004.422 .0252226
1005.018 .0252291
1005.614 .0252363
1006.210 .0252443
1006.806 .0252531
1007.401 .0252627
1007.996 .0252729
1008.591 .0252833
1009.186 .0252937
1009.780 .0253041
1010.374 .0253141
1010.967 .0253243
1011.561 .0253353
1012.154 .0253466
1012.746 .0253586
1013.339 .0253709
1013.931 .0253824
1014.523 .0253928
1015.115 .0254014
1015.706 .0254084
1016.298 .0254138
1016.888 .0254183
1017.479 .0254232
1018.069 .0254280
1018.660 .0254340
1019.250 .0254408
1019.839 .0254482
1020.429 .0254565
1021.018 .0254649
1021.607 .0254731
1022.195 .0254815
1022.784 .0254904
1023.372 .0254994
1023.960 .0255096
1024.547 .0255212
1025.135 .0255350
1025.722 .0255500
1026.309 .0255662
1026.896 .0255832
1027.483 .0255997
1028.069 .0256154
1028.655 .0256297
1029.241 .0256425
1029.827 .0256541
1030.412 .0256643
1030.997 .0256741
1031.582 .0256838
1032.167 .0256936
1032.752 .0257028
1033.336 .0257114
1033.921 .0257190
1034.505 .0257248
1035.089 .0257281
1035.672 .0257296
1036.256 .0257297
1036.839 .0257281
1037.422 .0257261
1038.005 .0257239
1038.588 .0257224
1039.171 .0257221
1039.753 .0257225
1040.335 .0257236
1040.918 .0257246
1041.500 .0257244
1042.081 .0257230
1042.663 .0257206
1043.244 .0257171
1043.826 .0257120
1044.407 .0257063
1044.988 .0257004
1045.569 .0256934
1046.150 .0256858
1046.730 .0256778
1047.311 .0256686
1047.891 .0256590
1048.471 .0256478
1049.052 .0256348
1049.632 .0256212
1050.211 .0256072
1050.791 .0255932
1051.371 .0255792
1051.950 .0255651
1052.530 .0255499
1053.109 .0255338
1053.688 .0255160
1054.268 .0254965
1054.847 .0254756
1055.426 .0254545
1056.005 .0254329
1056.583 .0254117
1057.162 .0253908
1057.741 .0253710
1058.319 .0253528
1058.898 .0253351
1059.476 .0253161
1060.055 .0252961
1060.633 .0252744
1061.211 .0252519
1061.790 .0252298
1062.368 .0252096
1062.946 .0251915
1063.524 .0251779
1064.102 .0251672
1064.680 .0251594
1065.258 .0251534
1065.836 .0251485
1066.414 .0251420
1066.992 .0251343
1067.570 .0251252
1068.148 .0251132
1068.726 .0251010
1069.304 .0250902
1069.882 .0250809
1070.460 .0250742
1071.038 .0250695
1071.616 .0250668
1072.194 .0250638
1072.772 .0250602
1073.350 .0250527
1073.928 .0250414
1074.506 .0250265
1075.084 .0250069
1075.662 .0249840
1076.240 .0249611
1076.819 .0249398
1077.397 .0249210
1077.976 .0249067
1078.554 .0248962
1079.133 .0248885
1079.711 .0248830
1080.290 .0248781
1080.869 .0248729
1081.448 .0248667
1082.027 .0248605
1082.606 .0248550
1083.185 .0248523
1083.764 .0248533
1084.343 .0248569
1084.923 .0248643
1085.502 .0248733
1086.082 .0248831
1086.662 .0248918
1087.242 .0248992
1087.822 .0249048
1088.402 .0249078
1088.983 .0249084
1089.563 .0249058
1090.144 .0249000
1090.725 .0248907
1091.306 .0248782
1091.887 .0248636
1092.469 .0248480
1093.050 .0248342
1093.632 .0248240
1094.214 .0248187
1094.796 .0248187
1095.379 .0248243
1095.961 .0248322
1096.544 .0248413
1097.127 .0248503
1097.710 .0248561
1098.294 .0248596
1098.877 .0248615
1099.461 .0248639
1100.046 .0248684
1100.630 .0248769
1101.215 .0248898
1101.800 .0249050
1102.385 .0249226
1102.970 .0249384
1103.556 .0249496
1104.142 .0249562
1104.728 .0249590
1105.315 .0249572
1105.902 .0249538
1106.489 .0249524
1107.077 .0249534
1107.664 .0249598
1108.253 .0249715
1108.841 .0249880
1109.430 .0250083
1110.019 .0250301
1110.609 .0250537
1111.198 .0250746
1111.789 .0250977
1112.379 .0251207
1112.970 .0251429
1113.561 .0251657
1114.153 .0251906
1114.745 .0252183
1115.338 .0252498
1115.931 .0252860
1116.524 .0253252
1117.117 .0253674
1117.712 .0254115
1118.306 .0254543
1118.901 .0254966
1119.496 .0255356
1120.092 .0255749
1120.689 .0256106
1121.285 .0256474
1121.882 .0256850
1122.480 .0257228
1123.078 .0257673
1123.677 .0258167
1124.276 .0258700
1124.875 .0259268
1125.476 .0259859
1126.076 .0260487
1126.677 .0261109
1127.279 .0261722
1127.881 .0262345
1128.484 .0262983
1129.087 .0263640
1129.691 .0264346
1130.295 .0265098
1130.900 .0265958
1131.505 .0266893
1132.111 .0267902
1132.718 .0268976
1133.325 .0270066
1133.933 .0271145
1134.541 .0272185
1135.150 .0273191
1135.760 .0274165
1136.370 .0275100
1136.981 .0276077
1137.592 .0277086
1138.204 .0278142
1138.817 .0279253
1139.431 .0280329
1140.045 .0281382
1140.660 .0282432
1141.275 .0283622
1141.891 .0285153
1142.508 .0284238
1143.126 .0284950
1143.744 .0287370
1144.363 .0294334
1144.983 .0302182
