Measurement Sequence started on: 15-12-46-377
Integration time: 28
Scans to Average: 2 
>>>>>Begin Spectral Data<<<<<
432.689 .0000100
433.621 .0000100
434.552 .0000100
435.482 .0000100
436.410 .0000100
437.337 .0000100
438.262 .0279615
439.187 .0592397
440.110 .0982000
441.031 .1421453
441.952 .1848504
442.871 .2184333
443.789 .2368321
444.705 .2379276
445.621 .2242705
446.535 .2014120
447.447 .1755069
448.359 .1359828
449.269 .1162706
450.178 .1037317
451.086 .0949153
451.993 .0881991
452.898 .0829777
453.803 .0787139
454.706 .0751993
455.608 .0722149
456.508 .0696759
457.408 .0674719
458.306 .0655604
459.204 .0638851
460.100 .0624109
460.995 .0611199
461.888 .0599916
462.781 .0589651
463.673 .0580315
464.563 .0571614
465.452 .0563373
466.340 .0555424
467.228 .0547952
468.114 .0540839
468.999 .0534367
469.882 .0528226
470.765 .0522506
471.647 .0517200
472.528 .0512274
473.407 .0507724
474.286 .0503476
475.163 .0499542
476.040 .0495983
476.915 .0492719
477.790 .0489827
478.663 .0487294
479.535 .0485066
480.407 .0483146
481.277 .0481443
482.147 .0479933
483.015 .0478546
483.883 .0477365
484.749 .0476415
485.615 .0475696
486.479 .0475278
487.343 .0475218
488.206 .0475373
489.067 .0475854
489.928 .0476489
490.788 .0477265
491.647 .0478134
492.505 .0479098
493.362 .0480117
494.218 .0481302
495.073 .0482624
495.928 .0484238
496.781 .0486089
497.634 .0488319
498.486 .0490798
499.337 .0493610
500.187 .0496623
501.036 .0499788
501.884 .0503057
502.731 .0506534
503.578 .0510153
504.424 .0514051
505.268 .0518140
506.113 .0522706
506.956 .0527762
507.798 .0533493
508.640 .0539864
509.480 .0547003
510.320 .0554922
511.160 .0563631
511.998 .0573043
512.836 .0583243
513.672 .0594374
514.508 .0606661
515.344 .0620192
516.178 .0635480
517.012 .0652835
517.845 .0672726
518.677 .0695592
519.508 .0721543
520.339 .0750919
521.169 .0784255
521.998 .0821276
522.826 .0862565
523.654 .0908570
524.481 .0959592
525.307 .1016286
526.133 .1078626
526.958 .1146413
527.782 .1218872
528.605 .1294332
529.428 .1370928
530.250 .1443024
531.072 .1507733
531.892 .1560512
532.712 .1598828
533.532 .1620970
534.350 .1625089
535.168 .1611142
535.986 .1580676
536.802 .1535360
537.618 .1477586
538.434 .1409719
539.249 .1336369
540.063 .1259483
540.876 .1182023
541.689 .1106195
542.501 .1034511
543.313 .0968996
544.124 .0910401
544.934 .0858086
545.744 .0811734
546.553 .0770849
547.361 .0734847
548.169 .0703243
548.976 .0675376
549.783 .0650909
550.589 .0629398
551.395 .0610318
552.200 .0593395
553.004 .0578333
553.808 .0564889
554.611 .0552988
555.414 .0542371
556.216 .0532686
557.018 .0523825
557.819 .0515603
558.619 .0507759
559.419 .0500118
560.218 .0492652
561.017 .0485369
561.815 .0478139
562.613 .0470930
563.410 .0463786
564.207 .0456840
565.003 .0450162
565.799 .0443760
566.594 .0437674
567.388 .0431988
568.182 .0426713
568.976 .0421816
569.769 .0417299
570.562 .0413168
571.354 .0409264
572.145 .0405558
572.936 .0401985
573.727 .0398426
574.517 .0394851
575.307 .0391263
576.096 .0387656
576.885 .0384035
577.673 .0380454
578.461 .0376965
579.248 .0373566
580.035 .0370330
580.821 .0367201
581.607 .0364206
582.392 .0361360
583.177 .0358663
583.962 .0356070
584.746 .0353651
585.529 .0351419
586.313 .0349377
587.095 .0347553
587.878 .0345947
588.660 .0344533
589.441 .0343303
590.222 .0342229
591.003 .0341301
591.783 .0340459
592.563 .0339697
593.342 .0338979
594.121 .0338295
594.899 .0337639
595.678 .0337003
596.455 .0336389
597.233 .0335815
598.009 .0335278
598.786 .0334773
599.562 .0334297
600.338 .0333840
601.113 .0333397
601.888 .0332952
602.663 .0332495
603.437 .0332015
604.211 .0331500
604.984 .0330967
605.757 .0330419
606.530 .0329865
607.302 .0329323
608.074 .0328810
608.845 .0328336
609.616 .0327903
610.387 .0327517
611.158 .0327164
611.928 .0326838
612.697 .0326527
613.467 .0326224
614.236 .0325926
615.004 .0325638
615.773 .0325372
616.541 .0325137
617.308 .0324941
618.076 .0324782
618.843 .0324656
619.609 .0324564
620.375 .0324486
621.141 .0324401
621.907 .0324297
622.672 .0324166
623.437 .0323997
624.202 .0323794
624.966 .0323564
625.730 .0323319
626.493 .0323064
627.257 .0322806
628.020 .0322547
628.782 .0322287
629.545 .0322024
630.307 .0321749
631.068 .0321467
631.830 .0321175
632.591 .0320862
633.352 .0320540
634.112 .0320213
634.872 .0319887
635.632 .0319560
636.392 .0319227
637.151 .0318890
637.910 .0318542
638.668 .0318184
639.427 .0317816
640.185 .0317443
640.943 .0317071
641.700 .0316701
642.457 .0316339
643.214 .0315995
643.971 .0315662
644.727 .0315344
645.483 .0315046
646.239 .0314759
646.994 .0314481
647.750 .0314210
648.505 .0313947
649.259 .0313703
650.014 .0313474
650.768 .0313256
651.521 .0313043
652.275 .0312844
653.028 .0312647
653.781 .0312443
654.534 .0312232
655.286 .0312011
656.039 .0311772
656.791 .0311516
657.542 .0311234
658.294 .0310936
659.045 .0310631
659.796 .0310319
660.546 .0310000
661.297 .0309684
662.047 .0309374
662.796 .0309071
663.546 .0308776
664.295 .0308493
665.044 .0308211
665.793 .0307933
666.542 .0307658
667.290 .0307385
668.038 .0307117
668.786 .0306857
669.533 .0306604
670.281 .0306366
671.028 .0306140
671.774 .0305924
672.521 .0305715
673.267 .0305522
674.013 .0305335
674.759 .0305150
675.505 .0304967
676.250 .0304795
676.995 .0304624
677.740 .0304463
678.484 .0304303
679.229 .0304144
679.973 .0303991
680.717 .0303835
681.460 .0303672
682.204 .0303508
682.947 .0303346
683.690 .0303182
684.433 .0303017
685.175 .0302861
685.917 .0302705
686.659 .0302551
687.401 .0302400
688.142 .0302249
688.884 .0302098
689.625 .0301946
690.365 .0301789
691.106 .0301632
691.846 .0301477
692.586 .0301316
693.326 .0301151
694.066 .0300983
694.805 .0300807
695.545 .0300618
696.284 .0300416
697.022 .0300203
697.761 .0299978
698.499 .0299746
699.237 .0299513
699.975 .0299276
700.713 .0299046
701.450 .0298816
702.187 .0298588
702.924 .0298365
703.661 .0298142
704.397 .0297917
705.133 .0297694
705.869 .0297473
706.605 .0297256
707.341 .0297045
708.076 .0296849
708.811 .0296660
709.546 .0296480
710.281 .0296303
711.015 .0296126
711.749 .0295941
712.483 .0295749
713.217 .0295547
713.950 .0295337
714.684 .0295120
715.417 .0294900
716.150 .0294675
716.882 .0294455
717.615 .0294234
718.347 .0294015
719.079 .0293795
719.811 .0293578
720.542 .0293358
721.273 .0293141
722.005 .0292927
722.735 .0292720
723.466 .0292520
724.196 .0292327
724.927 .0292136
725.656 .0291950
726.386 .0291768
727.116 .0291589
727.845 .0291411
728.574 .0291239
729.303 .0291069
730.031 .0290907
730.760 .0290750
731.488 .0290599
732.216 .0290456
732.944 .0290316
733.671 .0290177
734.398 .0290034
735.125 .0289887
735.852 .0289738
736.579 .0289588
737.305 .0289440
738.031 .0289290
738.757 .0289141
739.483 .0288992
740.208 .0288843
740.933 .0288691
741.658 .0288537
742.383 .0288380
743.108 .0288224
743.832 .0288073
744.556 .0287926
745.280 .0287785
746.004 .0287655
746.727 .0287535
747.450 .0287419
748.173 .0287302
748.896 .0287181
749.618 .0287057
750.340 .0286934
751.062 .0286811
751.784 .0286687
752.506 .0286570
753.227 .0286459
753.948 .0286354
754.669 .0286248
755.389 .0286139
756.110 .0286020
756.830 .0285888
757.550 .0285737
758.269 .0285567
758.989 .0285383
759.708 .0285193
760.427 .0285003
761.146 .0284822
761.864 .0284651
762.582 .0284491
763.300 .0284343
764.018 .0284208
764.736 .0284076
765.453 .0283949
766.170 .0283822
766.887 .0283700
767.603 .0283580
768.320 .0283466
769.036 .0283359
769.751 .0283264
770.467 .0283184
771.182 .0283109
771.897 .0283038
772.612 .0282971
773.327 .0282902
774.041 .0282831
774.755 .0282755
775.469 .0282676
776.183 .0282594
776.896 .0282513
777.609 .0282433
778.322 .0282354
779.035 .0282279
779.747 .0282212
780.459 .0282153
781.171 .0282104
781.882 .0282063
782.594 .0282033
783.305 .0282016
784.016 .0282009
784.726 .0282011
785.436 .0282016
786.147 .0282023
786.856 .0282033
787.566 .0282041
788.275 .0282049
788.984 .0282062
789.693 .0282078
790.401 .0282096
791.110 .0282111
791.818 .0282118
792.525 .0282111
793.233 .0282092
793.940 .0282060
794.647 .0282009
795.353 .0281945
796.060 .0281870
796.766 .0281787
797.472 .0281698
798.177 .0281604
798.883 .0281503
799.588 .0281391
800.292 .0281266
800.997 .0281126
801.701 .0280974
802.405 .0280819
803.109 .0280664
803.812 .0280516
804.515 .0280374
805.218 .0280241
805.921 .0280113
806.623 .0279993
807.325 .0279876
808.027 .0279762
808.728 .0279648
809.429 .0279535
810.130 .0279420
810.831 .0279306
811.531 .0279187
812.231 .0279063
812.931 .0278923
813.630 .0278769
814.330 .0278595
815.029 .0278408
815.727 .0278213
816.426 .0278015
817.124 .0277819
817.821 .0277627
818.519 .0277438
819.216 .0277251
819.913 .0277064
820.609 .0276874
821.306 .0276681
822.002 .0276492
822.697 .0276311
823.393 .0276146
824.088 .0276005
824.783 .0275889
825.477 .0275796
826.171 .0275716
826.865 .0275646
827.559 .0275578
828.252 .0275510
828.945 .0275436
829.638 .0275359
830.330 .0275282
831.023 .0275208
831.714 .0275136
832.406 .0275067
833.097 .0275000
833.788 .0274924
834.479 .0274839
835.169 .0274742
835.859 .0274632
836.548 .0274516
837.238 .0274394
837.927 .0274275
838.615 .0274159
839.304 .0274044
839.992 .0273932
840.680 .0273817
841.367 .0273695
842.054 .0273564
842.741 .0273424
843.428 .0273284
844.114 .0273144
844.800 .0273007
845.485 .0272878
846.170 .0272754
846.855 .0272633
847.540 .0272509
848.224 .0272378
848.908 .0272236
849.592 .0272081
850.275 .0271917
850.958 .0271748
851.641 .0271578
852.323 .0271411
853.005 .0271248
853.687 .0271090
854.368 .0270932
855.049 .0270769
855.730 .0270597
856.410 .0270415
857.090 .0270220
857.769 .0270011
858.449 .0269792
859.128 .0269566
859.806 .0269337
860.485 .0269110
861.163 .0268888
861.840 .0268670
862.518 .0268454
863.195 .0268243
863.871 .0268035
864.548 .0267827
865.224 .0267624
865.899 .0267427
866.574 .0267235
867.249 .0267051
867.924 .0266873
868.598 .0266702
869.272 .0266539
869.946 .0266383
870.619 .0266233
871.292 .0266091
871.964 .0265960
872.636 .0265839
873.308 .0265728
873.979 .0265632
874.651 .0265543
875.321 .0265464
875.992 .0265397
876.662 .0265336
877.331 .0265281
878.001 .0265235
878.670 .0265200
879.338 .0265176
880.007 .0265165
880.675 .0265165
881.342 .0265176
882.009 .0265199
882.676 .0265222
883.343 .0265247
884.009 .0265275
884.675 .0265303
885.340 .0265325
886.005 .0265343
886.670 .0265360
887.334 .0265376
887.998 .0265394
888.662 .0265413
889.325 .0265434
889.988 .0265460
890.650 .0265489
891.312 .0265523
891.974 .0265568
892.636 .0265626
893.297 .0265692
893.957 .0265772
894.618 .0265858
895.278 .0265947
895.937 .0266034
896.596 .0266124
897.255 .0266211
897.914 .0266296
898.572 .0266377
899.230 .0266453
899.887 .0266525
900.544 .0266593
901.201 .0266648
901.857 .0266692
902.513 .0266724
903.168 .0266738
903.823 .0266728
904.478 .0266704
905.132 .0266658
905.786 .0266595
906.440 .0266513
907.093 .0266415
907.746 .0266299
908.399 .0266173
909.051 .0266034
909.703 .0265887
910.354 .0265734
911.005 .0265580
911.656 .0265421
912.306 .0265266
912.956 .0265112
913.605 .0264960
914.254 .0264815
914.903 .0264678
915.551 .0264546
916.199 .0264428
916.847 .0264319
917.494 .0264225
918.141 .0264143
918.788 .0264075
919.434 .0264015
920.079 .0263963
920.725 .0263913
921.370 .0263860
922.014 .0263801
922.658 .0263735
923.302 .0263655
923.946 .0263563
924.589 .0263455
925.231 .0263333
925.873 .0263197
926.515 .0263053
927.157 .0262898
927.798 .0262739
928.439 .0262576
929.079 .0262412
929.719 .0262241
930.359 .0262063
930.998 .0261878
931.637 .0261684
932.275 .0261486
932.913 .0261288
933.551 .0261089
934.188 .0260900
934.825 .0260726
935.462 .0260567
936.098 .0260422
936.733 .0260295
937.369 .0260180
938.004 .0260072
938.638 .0259966
939.273 .0259863
939.907 .0259760
940.540 .0259663
941.173 .0259572
941.806 .0259492
942.438 .0259425
943.070 .0259374
943.702 .0259333
944.333 .0259300
944.964 .0259268
945.594 .0259229
946.224 .0259185
946.854 .0259135
947.483 .0259076
948.112 .0259014
948.741 .0258952
949.369 .0258895
949.996 .0258835
950.624 .0258774
951.251 .0258708
951.878 .0258637
952.504 .0258552
953.130 .0258457
953.755 .0258350
954.380 .0258234
955.005 .0258114
955.629 .0257990
956.253 .0257863
956.877 .0257737
957.500 .0257614
958.123 .0257493
958.746 .0257370
959.368 .0257255
959.990 .0257136
960.611 .0257024
961.232 .0256910
961.853 .0256795
962.473 .0256680
963.093 .0256561
963.712 .0256434
964.331 .0256291
964.950 .0256139
965.569 .0255975
966.187 .0255803
966.804 .0255633
967.422 .0255467
968.039 .0255312
968.655 .0255166
969.272 .0255034
969.887 .0254905
970.503 .0254775
971.118 .0254639
971.733 .0254492
972.347 .0254333
972.961 .0254164
973.575 .0253994
974.188 .0253826
974.801 .0253666
975.414 .0253510
976.026 .0253361
976.638 .0253217
977.250 .0253065
977.861 .0252896
978.472 .0252701
979.083 .0252482
979.693 .0252230
980.303 .0251956
980.912 .0251672
981.521 .0251389
982.130 .0251120
982.738 .0250869
983.346 .0250640
983.954 .0250431
984.562 .0250237
985.169 .0250050
985.775 .0249862
986.382 .0249661
986.988 .0249447
987.594 .0249226
988.199 .0249004
988.804 .0248793
989.409 .0248596
990.013 .0248422
990.617 .0248270
991.221 .0248137
991.824 .0248019
992.427 .0247910
993.030 .0247807
993.632 .0247701
994.234 .0247592
994.836 .0247478
995.438 .0247360
996.039 .0247244
996.640 .0247136
997.240 .0247036
997.840 .0246946
998.440 .0246871
999.040 .0246802
999.639 .0246743
1000.238 .0246688
1000.836 .0246628
1001.435 .0246562
1002.033 .0246481
1002.630 .0246387
1003.228 .0246285
1003.825 .0246178
1004.422 .0246069
1005.018 .0245961
1005.614 .0245868
1006.210 .0245782
1006.806 .0245709
1007.401 .0245648
1007.996 .0245596
1008.591 .0245549
1009.186 .0245509
1009.780 .0245466
1010.374 .0245428
1010.967 .0245388
1011.561 .0245354
1012.154 .0245313
1012.746 .0245271
1013.339 .0245216
1013.931 .0245160
1014.523 .0245101
1015.115 .0245045
1015.706 .0244992
1016.298 .0244954
1016.888 .0244928
1017.479 .0244921
1018.069 .0244927
1018.660 .0244946
1019.250 .0244968
1019.839 .0244998
1020.429 .0245024
1021.018 .0245053
1021.607 .0245078
1022.195 .0245114
1022.784 .0245160
1023.372 .0245226
1023.960 .0245308
1024.547 .0245403
1025.135 .0245515
1025.722 .0245635
1026.309 .0245755
1026.896 .0245874
1027.483 .0245985
1028.069 .0246089
1028.655 .0246179
1029.241 .0246266
1029.827 .0246342
1030.412 .0246419
1030.997 .0246509
1031.582 .0246614
1032.167 .0246733
1032.752 .0246868
1033.336 .0247018
1033.921 .0247174
1034.505 .0247340
1035.089 .0247498
1035.672 .0247646
1036.256 .0247789
1036.839 .0247921
1037.422 .0248046
1038.005 .0248171
1038.588 .0248311
1039.171 .0248455
1039.753 .0248603
1040.335 .0248745
1040.918 .0248858
1041.500 .0248945
1042.081 .0248995
1042.663 .0249011
1043.244 .0248996
1043.826 .0248960
1044.407 .0248913
1044.988 .0248869
1045.569 .0248835
1046.150 .0248808
1046.730 .0248786
1047.311 .0248763
1047.891 .0248737
1048.471 .0248697
1049.052 .0248650
1049.632 .0248620
1050.211 .0248613
1050.791 .0248638
1051.371 .0248701
1051.950 .0248813
1052.530 .0248964
1053.109 .0249147
1053.688 .0249340
1054.268 .0249533
1054.847 .0249721
1055.426 .0249893
1056.005 .0250046
1056.583 .0250199
1057.162 .0250359
1057.741 .0250523
1058.319 .0250694
1058.898 .0250878
1059.476 .0251052
1060.055 .0251218
1060.633 .0251364
1061.211 .0251481
1061.790 .0251572
1062.368 .0251634
1062.946 .0251663
1063.524 .0251676
1064.102 .0251689
1064.680 .0251695
1065.258 .0251697
1065.836 .0251716
1066.414 .0251743
1066.992 .0251780
1067.570 .0251835
1068.148 .0251905
1068.726 .0251978
1069.304 .0252059
1069.882 .0252130
1070.460 .0252189
1071.038 .0252245
1071.616 .0252297
1072.194 .0252356
1072.772 .0252430
1073.350 .0252529
1073.928 .0252654
1074.506 .0252804
1075.084 .0252984
1075.662 .0253167
1076.240 .0253355
1076.819 .0253523
1077.397 .0253669
1077.976 .0253789
1078.554 .0253885
1079.133 .0253959
1079.711 .0254039
1080.290 .0254128
1080.869 .0254235
1081.448 .0254358
1082.027 .0254489
1082.606 .0254634
1083.185 .0254790
1083.764 .0254945
1084.343 .0255101
1084.923 .0255261
1085.502 .0255448
1086.082 .0255628
1086.662 .0255835
1087.242 .0256065
1087.822 .0256325
1088.402 .0256610
1088.983 .0256900
1089.563 .0257194
1090.144 .0257496
1090.725 .0257795
1091.306 .0258072
1091.887 .0258330
1092.469 .0258577
1093.050 .0258794
1093.632 .0258986
1094.214 .0259165
1094.796 .0259343
1095.379 .0259511
1095.961 .0259692
1096.544 .0259866
1097.127 .0260041
1097.710 .0260229
1098.294 .0260409
1098.877 .0260603
1099.461 .0260801
1100.046 .0261003
1100.630 .0261203
1101.215 .0261414
1101.800 .0261630
1102.385 .0261837
1102.970 .0262050
1103.556 .0262256
1104.142 .0262449
1104.728 .0262632
1105.315 .0262788
1105.902 .0262933
1106.489 .0263073
1107.077 .0263214
1107.664 .0263330
1108.253 .0263462
1108.841 .0263591
1109.430 .0263719
1110.019 .0263843
1110.609 .0263973
1111.198 .0264111
1111.789 .0264267
1112.379 .0264465
1112.970 .0264702
1113.561 .0265001
1114.153 .0265358
1114.745 .0265750
1115.338 .0266210
1115.931 .0266702
1116.524 .0267222
1117.117 .0267749
1117.712 .0268289
1118.306 .0268828
1118.901 .0269357
1119.496 .0269902
1120.092 .0270491
1120.689 .0271147
1121.285 .0271858
1121.882 .0272606
1122.480 .0273383
1123.078 .0274188
1123.677 .0274982
1124.276 .0275760
1124.875 .0276501
1125.476 .0277191
1126.076 .0277859
1126.677 .0278486
1127.279 .0279095
1127.881 .0279702
1128.484 .0280325
1129.087 .0280948
1129.691 .0281548
1130.295 .0282132
1130.900 .0282704
1131.505 .0283290
1132.111 .0283908
1132.718 .0284543
1133.325 .0285222
1133.933 .0285967
1134.541 .0286749
1135.150 .0287631
1135.760 .0288621
1136.370 .0289709
1136.981 .0290924
1137.592 .0292227
1138.204 .0293623
1138.817 .0295125
1139.431 .0296731
1140.045 .0298494
1140.660 .0300337
1141.275 .0302408
1141.891 .0304511
1142.508 .0305865
1143.126 .0309657
1143.744 .0310692
1144.363 .0315847
1144.983 .0315416
