Measurement Sequence started on: 15-12-46-377
Integration time: 28
Scans to Average: 2 
>>>>>Begin Spectral Data<<<<<
432.689 .0000100
433.621 .0000100
434.552 .0000100
435.482 .0000100
436.410 .0000100
437.337 .0000100
438.262 .0260175
439.187 .0550997
440.110 .0912008
441.031 .1318909
441.952 .1713717
442.871 .2024244
443.789 .2193757
444.705 .2203339
445.621 .2077068
446.535 .1866946
447.447 .1629598
448.359 .1266169
449.269 .1087071
450.178 .0974746
451.086 .0895378
451.993 .0834319
452.898 .0785442
453.803 .0745182
454.706 .0711181
455.608 .0681764
456.508 .0656077
457.408 .0633630
458.306 .0613814
459.204 .0596428
460.100 .0580737
460.995 .0566816
461.888 .0554262
462.781 .0542737
463.673 .0532004
464.563 .0522130
465.452 .0512844
466.340 .0504306
467.228 .0496561
468.114 .0489586
468.999 .0483387
469.882 .0477945
470.765 .0473099
471.647 .0468764
472.528 .0464845
473.407 .0461264
474.286 .0457910
475.163 .0454927
476.040 .0452094
476.915 .0449470
477.790 .0447122
478.663 .0445042
479.535 .0443195
480.407 .0441636
481.277 .0440340
482.147 .0439352
483.015 .0438645
483.883 .0438188
484.749 .0437902
485.615 .0437799
486.479 .0437792
487.343 .0437856
488.206 .0437931
489.067 .0438021
489.928 .0438088
490.788 .0438242
491.647 .0438545
492.505 .0439041
493.362 .0439733
494.218 .0440662
495.073 .0441841
495.928 .0443247
496.781 .0444726
497.634 .0446344
498.486 .0448121
499.337 .0450071
500.187 .0452105
501.036 .0454364
501.884 .0456882
502.731 .0459700
503.578 .0462877
504.424 .0466378
505.268 .0470146
506.113 .0474255
506.956 .0478621
507.798 .0483185
508.640 .0487998
509.480 .0493182
510.320 .0498609
511.160 .0504526
511.998 .0511122
512.836 .0518336
513.672 .0526521
514.508 .0536045
515.344 .0546653
516.178 .0558679
517.012 .0572267
517.845 .0587467
518.677 .0604615
519.508 .0624138
520.339 .0646327
521.169 .0671962
521.998 .0701958
522.826 .0736560
523.654 .0776588
524.481 .0822753
525.307 .0875000
526.133 .0932978
526.958 .0996196
527.782 .1063532
528.605 .1133108
529.428 .1204146
530.250 .1271867
531.072 .1334697
531.892 .1389792
532.712 .1434080
533.532 .1465108
534.350 .1481083
535.168 .1479872
535.986 .1461346
536.802 .1426441
537.618 .1377435
538.434 .1316479
539.249 .1249209
540.063 .1177933
540.876 .1106893
541.689 .1038777
542.501 .0975853
543.313 .0918801
544.124 .0868279
544.934 .0823072
545.744 .0782354
546.553 .0745650
547.361 .0712744
548.169 .0683161
548.976 .0656804
549.783 .0633280
550.589 .0612412
551.395 .0593519
552.200 .0576434
553.004 .0560935
553.808 .0546684
554.611 .0533584
555.414 .0521481
556.216 .0510233
557.018 .0500029
557.819 .0490800
558.619 .0482410
559.419 .0474866
560.218 .0468057
561.017 .0461697
561.815 .0455646
562.613 .0449822
563.410 .0444015
564.207 .0438235
565.003 .0432485
565.799 .0426766
566.594 .0421082
567.388 .0415663
568.182 .0410389
568.976 .0405234
569.769 .0400264
570.562 .0395402
571.354 .0390552
572.145 .0385861
572.936 .0381270
573.727 .0376834
574.517 .0372550
575.307 .0368452
576.096 .0364558
576.885 .0360916
577.673 .0357506
578.461 .0354286
579.248 .0351246
580.035 .0348435
580.821 .0345752
581.607 .0343233
582.392 .0340839
583.177 .0338569
583.962 .0336385
584.746 .0334346
585.529 .0332428
586.313 .0330639
587.095 .0328991
587.878 .0327498
588.660 .0326147
589.441 .0324926
590.222 .0323806
591.003 .0322789
591.783 .0321861
592.563 .0321020
593.342 .0320246
594.121 .0319536
594.899 .0318891
595.678 .0318300
596.455 .0317750
597.233 .0317244
598.009 .0316747
598.786 .0316262
599.562 .0315772
600.338 .0315295
601.113 .0314835
601.888 .0314391
602.663 .0313973
603.437 .0313584
604.211 .0313214
604.984 .0312867
605.757 .0312532
606.530 .0312203
607.302 .0311870
608.074 .0311530
608.845 .0311181
609.616 .0310827
610.387 .0310480
611.158 .0310151
611.928 .0309837
612.697 .0309550
613.467 .0309286
614.236 .0309043
615.004 .0308829
615.773 .0308631
616.541 .0308444
617.308 .0308278
618.076 .0308117
618.843 .0307960
619.609 .0307804
620.375 .0307658
621.141 .0307522
621.907 .0307400
622.672 .0307294
623.437 .0307195
624.202 .0307100
624.966 .0307004
625.730 .0306889
626.493 .0306751
627.257 .0306578
628.020 .0306369
628.782 .0306132
629.545 .0305867
630.307 .0305579
631.068 .0305286
631.830 .0304996
632.591 .0304715
633.352 .0304432
634.112 .0304145
634.872 .0303855
635.632 .0303560
636.392 .0303251
637.151 .0302939
637.910 .0302624
638.668 .0302310
639.427 .0301996
640.185 .0301689
640.943 .0301382
641.700 .0301082
642.457 .0300791
643.214 .0300504
643.971 .0300218
644.727 .0299942
645.483 .0299668
646.239 .0299409
646.994 .0299165
647.750 .0298935
648.505 .0298719
649.259 .0298524
650.014 .0298340
650.768 .0298163
651.521 .0297999
652.275 .0297837
653.028 .0297675
653.781 .0297511
654.534 .0297342
655.286 .0297165
656.039 .0296985
656.791 .0296797
657.542 .0296599
658.294 .0296391
659.045 .0296180
659.796 .0295956
660.546 .0295730
661.297 .0295499
662.047 .0295270
662.796 .0295048
663.546 .0294834
664.295 .0294630
665.044 .0294438
665.793 .0294253
666.542 .0294072
667.290 .0293895
668.038 .0293722
668.786 .0293550
669.533 .0293380
670.281 .0293211
671.028 .0293049
671.774 .0292891
672.521 .0292744
673.267 .0292604
674.013 .0292475
674.759 .0292355
675.505 .0292232
676.250 .0292116
676.995 .0292001
677.740 .0291895
678.484 .0291798
679.229 .0291714
679.973 .0291640
680.717 .0291576
681.460 .0291520
682.204 .0291466
682.947 .0291413
683.690 .0291360
684.433 .0291299
685.175 .0291228
685.917 .0291147
686.659 .0291056
687.401 .0290954
688.142 .0290849
688.884 .0290736
689.625 .0290619
690.365 .0290496
691.106 .0290371
691.846 .0290243
692.586 .0290116
693.326 .0289984
694.066 .0289850
694.805 .0289711
695.545 .0289562
696.284 .0289398
697.022 .0289224
697.761 .0289038
698.499 .0288844
699.237 .0288637
699.975 .0288424
700.713 .0288215
701.450 .0288014
702.187 .0287821
702.924 .0287636
703.661 .0287463
704.397 .0287296
705.133 .0287128
705.869 .0286956
706.605 .0286781
707.341 .0286603
708.076 .0286420
708.811 .0286234
709.546 .0286049
710.281 .0285863
711.015 .0285680
711.749 .0285497
712.483 .0285314
713.217 .0285120
713.950 .0284916
714.684 .0284696
715.417 .0284470
716.150 .0284232
716.882 .0283985
717.615 .0283737
718.347 .0283492
719.079 .0283247
719.811 .0283007
720.542 .0282774
721.273 .0282556
722.005 .0282343
722.735 .0282139
723.466 .0281940
724.196 .0281751
724.927 .0281566
725.656 .0281382
726.386 .0281197
727.116 .0281014
727.845 .0280824
728.574 .0280630
729.303 .0280436
730.031 .0280243
730.760 .0280056
731.488 .0279871
732.216 .0279693
732.944 .0279523
733.671 .0279359
734.398 .0279206
735.125 .0279062
735.852 .0278927
736.579 .0278800
737.305 .0278683
738.031 .0278578
738.757 .0278482
739.483 .0278392
740.208 .0278310
740.933 .0278234
741.658 .0278162
742.383 .0278091
743.108 .0278022
743.832 .0277965
744.556 .0277915
745.280 .0277873
746.004 .0277837
746.727 .0277806
747.450 .0277782
748.173 .0277755
748.896 .0277727
749.618 .0277695
750.340 .0277659
751.062 .0277622
751.784 .0277580
752.506 .0277533
753.227 .0277481
753.948 .0277420
754.669 .0277353
755.389 .0277276
756.110 .0277192
756.830 .0277100
757.550 .0277006
758.269 .0276909
758.989 .0276805
759.708 .0276694
760.427 .0276578
761.146 .0276454
761.864 .0276328
762.582 .0276192
763.300 .0276051
764.018 .0275914
764.736 .0275784
765.453 .0275662
766.170 .0275552
766.887 .0275449
767.603 .0275354
768.320 .0275259
769.036 .0275161
769.751 .0275058
770.467 .0274952
771.182 .0274842
771.897 .0274727
772.612 .0274610
773.327 .0274496
774.041 .0274385
774.755 .0274283
775.469 .0274189
776.183 .0274104
776.896 .0274027
777.609 .0273954
778.322 .0273891
779.035 .0273836
779.747 .0273786
780.459 .0273740
781.171 .0273702
781.882 .0273668
782.594 .0273634
783.305 .0273605
784.016 .0273584
784.726 .0273570
785.436 .0273559
786.147 .0273544
786.856 .0273524
787.566 .0273494
788.275 .0273455
788.984 .0273399
789.693 .0273335
790.401 .0273262
791.110 .0273179
791.818 .0273093
792.525 .0273008
793.233 .0272923
793.940 .0272835
794.647 .0272748
795.353 .0272654
796.060 .0272553
796.766 .0272442
797.472 .0272322
798.177 .0272194
798.883 .0272063
799.588 .0271928
800.292 .0271790
800.997 .0271655
801.701 .0271516
802.405 .0271372
803.109 .0271223
803.812 .0271064
804.515 .0270892
805.218 .0270704
805.921 .0270499
806.623 .0270274
807.325 .0270037
808.027 .0269788
808.728 .0269531
809.429 .0269273
810.130 .0269015
810.831 .0268762
811.531 .0268515
812.231 .0268273
812.931 .0268030
813.630 .0267790
814.330 .0267548
815.029 .0267302
815.727 .0267053
816.426 .0266807
817.124 .0266569
817.821 .0266343
818.519 .0266134
819.216 .0265948
819.913 .0265783
820.609 .0265639
821.306 .0265507
822.002 .0265386
822.697 .0265268
823.393 .0265155
824.088 .0265042
824.783 .0264932
825.477 .0264824
826.171 .0264720
826.865 .0264620
827.559 .0264527
828.252 .0264442
828.945 .0264361
829.638 .0264282
830.330 .0264206
831.023 .0264125
831.714 .0264042
832.406 .0263957
833.097 .0263872
833.788 .0263781
834.479 .0263691
835.169 .0263597
835.859 .0263506
836.548 .0263423
837.238 .0263349
837.927 .0263282
838.615 .0263228
839.304 .0263182
839.992 .0263140
840.680 .0263099
841.367 .0263062
842.054 .0263023
842.741 .0262984
843.428 .0262941
844.114 .0262898
844.800 .0262858
845.485 .0262824
846.170 .0262790
846.855 .0262757
847.540 .0262721
848.224 .0262682
848.908 .0262633
849.592 .0262576
850.275 .0262511
850.958 .0262437
851.641 .0262356
852.323 .0262270
853.005 .0262178
853.687 .0262085
854.368 .0261988
855.049 .0261894
855.730 .0261796
856.410 .0261690
857.090 .0261579
857.769 .0261464
858.449 .0261342
859.128 .0261217
859.806 .0261082
860.485 .0260949
861.163 .0260818
861.840 .0260690
862.518 .0260570
863.195 .0260459
863.871 .0260356
864.548 .0260259
865.224 .0260163
865.899 .0260072
866.574 .0259980
867.249 .0259892
867.924 .0259803
868.598 .0259718
869.272 .0259640
869.946 .0259568
870.619 .0259505
871.292 .0259453
871.964 .0259404
872.636 .0259361
873.308 .0259318
873.979 .0259275
874.651 .0259228
875.321 .0259176
875.992 .0259124
876.662 .0259072
877.331 .0259026
878.001 .0258987
878.670 .0258958
879.338 .0258948
880.007 .0258952
880.675 .0258969
881.342 .0258998
882.009 .0259037
882.676 .0259078
883.343 .0259115
884.009 .0259150
884.675 .0259180
885.340 .0259208
886.005 .0259236
886.670 .0259266
887.334 .0259303
887.998 .0259350
888.662 .0259399
889.325 .0259450
889.988 .0259499
890.650 .0259540
891.312 .0259568
891.974 .0259587
892.636 .0259597
893.297 .0259596
893.957 .0259592
894.618 .0259595
895.278 .0259601
895.937 .0259613
896.596 .0259631
897.255 .0259651
897.914 .0259671
898.572 .0259685
899.230 .0259687
899.887 .0259678
900.544 .0259658
901.201 .0259626
901.857 .0259582
902.513 .0259532
903.168 .0259476
903.823 .0259408
904.478 .0259332
905.132 .0259239
905.786 .0259124
906.440 .0258987
907.093 .0258829
907.746 .0258649
908.399 .0258458
909.051 .0258257
909.703 .0258053
910.354 .0257852
911.005 .0257656
911.656 .0257460
912.306 .0257262
912.956 .0257061
913.605 .0256851
914.254 .0256629
914.903 .0256407
915.551 .0256186
916.199 .0255976
916.847 .0255785
917.494 .0255613
918.141 .0255462
918.788 .0255328
919.434 .0255204
920.079 .0255077
920.725 .0254942
921.370 .0254790
922.014 .0254615
922.658 .0254421
923.302 .0254215
923.946 .0253997
924.589 .0253771
925.231 .0253540
925.873 .0253302
926.515 .0253055
927.157 .0252797
927.798 .0252522
928.439 .0252236
929.079 .0251933
929.719 .0251618
930.359 .0251298
930.998 .0250978
931.637 .0250669
932.275 .0250373
932.913 .0250099
933.551 .0249846
934.188 .0249614
934.825 .0249405
935.462 .0249216
936.098 .0249047
936.733 .0248893
937.369 .0248753
938.004 .0248622
938.638 .0248499
939.273 .0248376
939.907 .0248258
940.540 .0248143
941.173 .0248032
941.806 .0247926
942.438 .0247823
943.070 .0247725
943.702 .0247626
944.333 .0247524
944.964 .0247418
945.594 .0247302
946.224 .0247179
946.854 .0247042
947.483 .0246896
948.112 .0246744
948.741 .0246587
949.369 .0246432
949.996 .0246280
950.624 .0246127
951.251 .0245974
951.878 .0245823
952.504 .0245669
953.130 .0245516
953.755 .0245360
954.380 .0245202
955.005 .0245041
955.629 .0244878
956.253 .0244715
956.877 .0244556
957.500 .0244407
958.123 .0244264
958.746 .0244128
959.368 .0244002
959.990 .0243880
960.611 .0243767
961.232 .0243661
961.853 .0243559
962.473 .0243458
963.093 .0243359
963.712 .0243255
964.331 .0243151
964.950 .0243049
965.569 .0242950
966.187 .0242860
966.804 .0242780
967.422 .0242705
968.039 .0242636
968.655 .0242578
969.272 .0242523
969.887 .0242467
970.503 .0242413
971.118 .0242359
971.733 .0242308
972.347 .0242265
972.961 .0242228
973.575 .0242196
974.188 .0242175
974.801 .0242155
975.414 .0242131
976.026 .0242109
976.638 .0242084
977.250 .0242055
977.861 .0242025
978.472 .0241991
979.083 .0241953
979.693 .0241911
980.303 .0241864
980.912 .0241810
981.521 .0241746
982.130 .0241679
982.738 .0241608
983.346 .0241539
983.954 .0241472
984.562 .0241404
985.169 .0241334
985.775 .0241257
986.382 .0241169
986.988 .0241064
987.594 .0240944
988.199 .0240813
988.804 .0240677
989.409 .0240538
990.013 .0240407
990.617 .0240291
991.221 .0240189
991.824 .0240101
992.427 .0240022
993.030 .0239948
993.632 .0239883
994.234 .0239824
994.836 .0239773
995.438 .0239737
996.039 .0239727
996.640 .0239738
997.240 .0239776
997.840 .0239844
998.440 .0239933
999.040 .0240045
999.639 .0240175
1000.238 .0240309
1000.836 .0240449
1001.435 .0240595
1002.033 .0240742
1002.630 .0240883
1003.228 .0241026
1003.825 .0241158
1004.422 .0241283
1005.018 .0241403
1005.614 .0241512
1006.210 .0241618
1006.806 .0241723
1007.401 .0241823
1007.996 .0241914
1008.591 .0242001
1009.186 .0242081
1009.780 .0242152
1010.374 .0242221
1010.967 .0242276
1011.561 .0242323
1012.154 .0242362
1012.746 .0242392
1013.339 .0242420
1013.931 .0242453
1014.523 .0242489
1015.115 .0242526
1015.706 .0242574
1016.298 .0242626
1016.888 .0242688
1017.479 .0242764
1018.069 .0242849
1018.660 .0242949
1019.250 .0243061
1019.839 .0243185
1020.429 .0243324
1021.018 .0243477
1021.607 .0243640
1022.195 .0243814
1022.784 .0243996
1023.372 .0244174
1023.960 .0244350
1024.547 .0244524
1025.135 .0244695
1025.722 .0244862
1026.309 .0245026
1026.896 .0245188
1027.483 .0245350
1028.069 .0245514
1028.655 .0245677
1029.241 .0245843
1029.827 .0246015
1030.412 .0246184
1030.997 .0246355
1031.582 .0246523
1032.167 .0246688
1032.752 .0246849
1033.336 .0247004
1033.921 .0247151
1034.505 .0247288
1035.089 .0247416
1035.672 .0247527
1036.256 .0247623
1036.839 .0247699
1037.422 .0247757
1038.005 .0247803
1038.588 .0247835
1039.171 .0247858
1039.753 .0247876
1040.335 .0247895
1040.918 .0247915
1041.500 .0247937
1042.081 .0247969
1042.663 .0248001
1043.244 .0248045
1043.826 .0248092
1044.407 .0248138
1044.988 .0248184
1045.569 .0248231
1046.150 .0248270
1046.730 .0248301
1047.311 .0248327
1047.891 .0248349
1048.471 .0248374
1049.052 .0248396
1049.632 .0248409
1050.211 .0248420
1050.791 .0248430
1051.371 .0248434
1051.950 .0248423
1052.530 .0248409
1053.109 .0248383
1053.688 .0248355
1054.268 .0248330
1054.847 .0248318
1055.426 .0248323
1056.005 .0248356
1056.583 .0248412
1057.162 .0248480
1057.741 .0248561
1058.319 .0248638
1058.898 .0248704
1059.476 .0248750
1060.055 .0248769
1060.633 .0248759
1061.211 .0248723
1061.790 .0248677
1062.368 .0248626
1062.946 .0248576
1063.524 .0248529
1064.102 .0248485
1064.680 .0248442
1065.258 .0248391
1065.836 .0248337
1066.414 .0248278
1066.992 .0248223
1067.570 .0248166
1068.148 .0248123
1068.726 .0248078
1069.304 .0248056
1069.882 .0248049
1070.460 .0248046
1071.038 .0248051
1071.616 .0248057
1072.194 .0248057
1072.772 .0248041
1073.350 .0248014
1073.928 .0247979
1074.506 .0247918
1075.084 .0247854
1075.662 .0247770
1076.240 .0247681
1076.819 .0247579
1077.397 .0247469
1077.976 .0247340
1078.554 .0247216
1079.133 .0247105
1079.711 .0246986
1080.290 .0246882
1080.869 .0246805
1081.448 .0246739
1082.027 .0246696
1082.606 .0246671
1083.185 .0246665
1083.764 .0246669
1084.343 .0246700
1084.923 .0246736
1085.502 .0246787
1086.082 .0246856
1086.662 .0246934
1087.242 .0247003
1087.822 .0247075
1088.402 .0247126
1088.983 .0247158
1089.563 .0247189
1090.144 .0247202
1090.725 .0247204
1091.306 .0247204
1091.887 .0247204
1092.469 .0247231
1093.050 .0247279
1093.632 .0247363
1094.214 .0247470
1094.796 .0247624
1095.379 .0247798
1095.961 .0247972
1096.544 .0248156
1097.127 .0248319
1097.710 .0248458
1098.294 .0248581
1098.877 .0248664
1099.461 .0248741
1100.046 .0248840
1100.630 .0248949
1101.215 .0249097
1101.800 .0249277
1102.385 .0249467
1102.970 .0249660
1103.556 .0249854
1104.142 .0250031
1104.728 .0250177
1105.315 .0250326
1105.902 .0250470
1106.489 .0250631
1107.077 .0250863
1107.664 .0251133
1108.253 .0251470
1108.841 .0251868
1109.430 .0252280
1110.019 .0252678
1110.609 .0253048
1111.198 .0253368
1111.789 .0253651
1112.379 .0253908
1112.970 .0254132
1113.561 .0254327
1114.153 .0254541
1114.745 .0254757
1115.338 .0254973
1115.931 .0255209
1116.524 .0255442
1117.117 .0255656
1117.712 .0255873
1118.306 .0256074
1118.901 .0256298
1119.496 .0256551
1120.092 .0256850
1120.689 .0257188
1121.285 .0257594
1121.882 .0258060
1122.480 .0258577
1123.078 .0259154
1123.677 .0259775
1124.276 .0260416
1124.875 .0261069
1125.476 .0261709
1126.076 .0262377
1126.677 .0263040
1127.279 .0263714
1127.881 .0264395
1128.484 .0265064
1129.087 .0265682
1129.691 .0266293
1130.295 .0266834
1130.900 .0267356
1131.505 .0267838
1132.111 .0268314
1132.718 .0268820
1133.325 .0269406
1133.933 .0270062
1134.541 .0270746
1135.150 .0271500
1135.760 .0272304
1136.370 .0273064
1136.981 .0273858
1137.592 .0274616
1138.204 .0275426
1138.817 .0276273
1139.431 .0277234
1140.045 .0278267
1140.660 .0279311
1141.275 .0280620
1141.891 .0282110
1142.508 .0284519
1143.126 .0284625
1143.744 .0283043
1144.363 .0290324
1144.983 .0293948
