Measurement Sequence started on: 15-12-46-377
Integration time: 28
Scans to Average: 2 
>>>>>Begin Spectral Data<<<<<
432.689 .0000100
433.621 .0000100
434.552 .0000100
435.482 .0000100
436.410 .0000100
437.337 .0000100
438.262 .0273276
439.187 .0579250
440.110 .0959238
441.031 .1387246
441.952 .1802580
442.871 .2128524
443.789 .2305689
444.705 .2313951
445.621 .2178391
446.535 .1953880
447.447 .1700239
448.359 .1314007
449.269 .1121540
450.178 .0999786
451.086 .0913890
451.993 .0848106
452.898 .0796494
453.803 .0754561
454.706 .0719896
455.608 .0690669
456.508 .0665643
457.408 .0643894
458.306 .0624735
459.204 .0607684
460.100 .0592348
460.995 .0578686
461.888 .0566444
462.781 .0555415
463.673 .0545459
464.563 .0536505
465.452 .0528210
466.340 .0520350
467.228 .0513121
468.114 .0506361
468.999 .0500078
469.882 .0494287
470.765 .0489009
471.647 .0484277
472.528 .0480108
473.407 .0476393
474.286 .0473104
475.163 .0470276
476.040 .0467864
476.915 .0465677
477.790 .0463764
478.663 .0462118
479.535 .0460670
480.407 .0459381
481.277 .0458279
482.147 .0457264
483.015 .0456303
483.883 .0455398
484.749 .0454527
485.615 .0453694
486.479 .0452982
487.343 .0452418
488.206 .0452141
489.067 .0452118
489.928 .0452312
490.788 .0452720
491.647 .0453374
492.505 .0454181
493.362 .0455122
494.218 .0456169
495.073 .0457317
495.928 .0458706
496.781 .0460304
497.634 .0462230
498.486 .0464502
499.337 .0467157
500.187 .0470165
501.036 .0473422
501.884 .0476860
502.731 .0480344
503.578 .0484018
504.424 .0487877
505.268 .0491863
506.113 .0496215
506.956 .0501000
507.798 .0506355
508.640 .0512356
509.480 .0519191
510.320 .0526881
511.160 .0535476
511.998 .0544951
512.836 .0555416
513.672 .0567012
514.508 .0579833
515.344 .0594086
516.178 .0610148
517.012 .0628344
517.845 .0648791
518.677 .0671804
519.508 .0697418
520.339 .0725928
521.169 .0758068
521.998 .0793737
522.826 .0833788
523.654 .0878651
524.481 .0928565
525.307 .0983967
526.133 .1044615
526.958 .1110653
527.782 .1181041
528.605 .1254586
529.428 .1329834
530.250 .1401460
531.072 .1467265
531.892 .1522713
532.712 .1564844
533.532 .1591875
534.350 .1601165
535.168 .1592120
535.986 .1565838
536.802 .1524331
537.618 .1470227
538.434 .1406003
539.249 .1336382
540.063 .1263419
540.876 .1189876
541.689 .1117792
542.501 .1048946
543.313 .0985333
544.124 .0927655
544.934 .0875259
545.744 .0828168
546.553 .0786246
547.361 .0749149
548.169 .0716674
548.976 .0687973
549.783 .0662831
550.589 .0640474
551.395 .0620097
552.200 .0601659
553.004 .0584911
553.808 .0569577
554.611 .0555824
555.414 .0543613
556.216 .0532790
557.018 .0523134
557.819 .0514510
558.619 .0506653
559.419 .0499265
560.218 .0492154
561.017 .0485190
561.815 .0478197
562.613 .0471328
563.410 .0464450
564.207 .0457614
565.003 .0451004
565.799 .0444524
566.594 .0438120
567.388 .0431951
568.182 .0425956
568.976 .0420091
569.769 .0414375
570.562 .0408806
571.354 .0403381
572.145 .0398109
572.936 .0393038
573.727 .0388207
574.517 .0383615
575.307 .0379243
576.096 .0375066
576.885 .0371133
577.673 .0367463
578.461 .0364002
579.248 .0360819
580.035 .0357897
580.821 .0355225
581.607 .0352777
582.392 .0350550
583.177 .0348521
583.962 .0346666
584.746 .0344970
585.529 .0343369
586.313 .0341847
587.095 .0340397
587.878 .0339012
588.660 .0337741
589.441 .0336560
590.222 .0335475
591.003 .0334497
591.783 .0333619
592.563 .0332808
593.342 .0332050
594.121 .0331318
594.899 .0330612
595.678 .0329905
596.455 .0329213
597.233 .0328539
598.009 .0327902
598.786 .0327307
599.562 .0326750
600.338 .0326244
601.113 .0325781
601.888 .0325333
602.663 .0324904
603.437 .0324487
604.211 .0324063
604.984 .0323645
605.757 .0323235
606.530 .0322836
607.302 .0322454
608.074 .0322087
608.845 .0321735
609.616 .0321394
610.387 .0321070
611.158 .0320757
611.928 .0320458
612.697 .0320183
613.467 .0319912
614.236 .0319649
615.004 .0319394
615.773 .0319145
616.541 .0318897
617.308 .0318656
618.076 .0318421
618.843 .0318186
619.609 .0317958
620.375 .0317734
621.141 .0317512
621.907 .0317281
622.672 .0317040
623.437 .0316788
624.202 .0316515
624.966 .0316231
625.730 .0315942
626.493 .0315650
627.257 .0315370
628.020 .0315102
628.782 .0314850
629.545 .0314606
630.307 .0314373
631.068 .0314135
631.830 .0313893
632.591 .0313642
633.352 .0313377
634.112 .0313099
634.872 .0312831
635.632 .0312560
636.392 .0312289
637.151 .0312034
637.910 .0311790
638.668 .0311555
639.427 .0311333
640.185 .0311107
640.943 .0310886
641.700 .0310659
642.457 .0310434
643.214 .0310207
643.971 .0309983
644.727 .0309769
645.483 .0309564
646.239 .0309387
646.994 .0309237
647.750 .0309109
648.505 .0309014
649.259 .0308940
650.014 .0308881
650.768 .0308815
651.521 .0308736
652.275 .0308641
653.028 .0308533
653.781 .0308404
654.534 .0308263
655.286 .0308113
656.039 .0307970
656.791 .0307833
657.542 .0307690
658.294 .0307544
659.045 .0307384
659.796 .0307207
660.546 .0307002
661.297 .0306766
662.047 .0306507
662.796 .0306223
663.546 .0305933
664.295 .0305635
665.044 .0305337
665.793 .0305052
666.542 .0304776
667.290 .0304505
668.038 .0304234
668.786 .0303956
669.533 .0303666
670.281 .0303370
671.028 .0303071
671.774 .0302770
672.521 .0302475
673.267 .0302200
674.013 .0301947
674.759 .0301720
675.505 .0301515
676.250 .0301320
676.995 .0301130
677.740 .0300939
678.484 .0300743
679.229 .0300541
679.973 .0300338
680.717 .0300141
681.460 .0299946
682.204 .0299757
682.947 .0299575
683.690 .0299397
684.433 .0299223
685.175 .0299045
685.917 .0298862
686.659 .0298675
687.401 .0298484
688.142 .0298297
688.884 .0298113
689.625 .0297940
690.365 .0297777
691.106 .0297616
691.846 .0297462
692.586 .0297312
693.326 .0297160
694.066 .0297003
694.805 .0296847
695.545 .0296687
696.284 .0296520
697.022 .0296351
697.761 .0296178
698.499 .0296000
699.237 .0295817
699.975 .0295626
700.713 .0295427
701.450 .0295229
702.187 .0295035
702.924 .0294844
703.661 .0294663
704.397 .0294496
705.133 .0294344
705.869 .0294207
706.605 .0294085
707.341 .0293975
708.076 .0293878
708.811 .0293789
709.546 .0293704
710.281 .0293624
711.015 .0293548
711.749 .0293473
712.483 .0293396
713.217 .0293316
713.950 .0293228
714.684 .0293129
715.417 .0293023
716.150 .0292906
716.882 .0292775
717.615 .0292631
718.347 .0292474
719.079 .0292311
719.811 .0292136
720.542 .0291955
721.273 .0291769
722.005 .0291582
722.735 .0291395
723.466 .0291207
724.196 .0291023
724.927 .0290851
725.656 .0290683
726.386 .0290524
727.116 .0290372
727.845 .0290230
728.574 .0290093
729.303 .0289961
730.031 .0289835
730.760 .0289713
731.488 .0289595
732.216 .0289489
732.944 .0289388
733.671 .0289303
734.398 .0289228
735.125 .0289166
735.852 .0289116
736.579 .0289071
737.305 .0289027
738.031 .0288981
738.757 .0288929
739.483 .0288870
740.208 .0288799
740.933 .0288724
741.658 .0288647
742.383 .0288567
743.108 .0288487
743.832 .0288409
744.556 .0288327
745.280 .0288245
746.004 .0288151
746.727 .0288046
747.450 .0287923
748.173 .0287783
748.896 .0287631
749.618 .0287464
750.340 .0287297
751.062 .0287126
751.784 .0286960
752.506 .0286798
753.227 .0286639
753.948 .0286484
754.669 .0286330
755.389 .0286174
756.110 .0286012
756.830 .0285848
757.550 .0285683
758.269 .0285515
758.989 .0285353
759.708 .0285191
760.427 .0285033
761.146 .0284875
761.864 .0284718
762.582 .0284558
763.300 .0284398
764.018 .0284232
764.736 .0284058
765.453 .0283878
766.170 .0283693
766.887 .0283499
767.603 .0283302
768.320 .0283103
769.036 .0282902
769.751 .0282698
770.467 .0282497
771.182 .0282297
771.897 .0282102
772.612 .0281908
773.327 .0281720
774.041 .0281537
774.755 .0281363
775.469 .0281200
776.183 .0281048
776.896 .0280909
777.609 .0280787
778.322 .0280673
779.035 .0280570
779.747 .0280479
780.459 .0280397
781.171 .0280325
781.882 .0280265
782.594 .0280213
783.305 .0280171
784.016 .0280138
784.726 .0280116
785.436 .0280098
786.147 .0280085
786.856 .0280074
787.566 .0280061
788.275 .0280046
788.984 .0280028
789.693 .0280000
790.401 .0279967
791.110 .0279922
791.818 .0279864
792.525 .0279796
793.233 .0279718
793.940 .0279634
794.647 .0279551
795.353 .0279469
796.060 .0279394
796.766 .0279323
797.472 .0279259
798.177 .0279194
798.883 .0279128
799.588 .0279054
800.292 .0278977
800.997 .0278898
801.701 .0278819
802.405 .0278740
803.109 .0278671
803.812 .0278610
804.515 .0278552
805.218 .0278494
805.921 .0278428
806.623 .0278345
807.325 .0278250
808.027 .0278138
808.728 .0278011
809.429 .0277875
810.130 .0277736
810.831 .0277596
811.531 .0277460
812.231 .0277323
812.931 .0277190
813.630 .0277055
814.330 .0276921
815.029 .0276786
815.727 .0276655
816.426 .0276534
817.124 .0276424
817.821 .0276325
818.519 .0276243
819.216 .0276172
819.913 .0276110
820.609 .0276054
821.306 .0276005
822.002 .0275962
822.697 .0275925
823.393 .0275895
824.088 .0275876
824.783 .0275863
825.477 .0275859
826.171 .0275859
826.865 .0275860
827.559 .0275861
828.252 .0275854
828.945 .0275844
829.638 .0275830
830.330 .0275814
831.023 .0275800
831.714 .0275787
832.406 .0275782
833.097 .0275777
833.788 .0275772
834.479 .0275763
835.169 .0275749
835.859 .0275728
836.548 .0275701
837.238 .0275668
837.927 .0275629
838.615 .0275589
839.304 .0275551
839.992 .0275510
840.680 .0275469
841.367 .0275422
842.054 .0275367
842.741 .0275303
843.428 .0275228
844.114 .0275142
844.800 .0275049
845.485 .0274950
846.170 .0274840
846.855 .0274724
847.540 .0274600
848.224 .0274470
848.908 .0274334
849.592 .0274194
850.275 .0274047
850.958 .0273891
851.641 .0273731
852.323 .0273564
853.005 .0273388
853.687 .0273205
854.368 .0273011
855.049 .0272807
855.730 .0272594
856.410 .0272376
857.090 .0272150
857.769 .0271927
858.449 .0271709
859.128 .0271494
859.806 .0271281
860.485 .0271076
861.163 .0270874
861.840 .0270677
862.518 .0270483
863.195 .0270287
863.871 .0270091
864.548 .0269901
865.224 .0269716
865.899 .0269534
866.574 .0269362
867.249 .0269198
867.924 .0269036
868.598 .0268877
869.272 .0268717
869.946 .0268557
870.619 .0268395
871.292 .0268232
871.964 .0268066
872.636 .0267899
873.308 .0267735
873.979 .0267571
874.651 .0267411
875.321 .0267257
875.992 .0267105
876.662 .0266953
877.331 .0266804
878.001 .0266656
878.670 .0266512
879.338 .0266372
880.007 .0266239
880.675 .0266116
881.342 .0265999
882.009 .0265895
882.676 .0265802
883.343 .0265722
884.009 .0265657
884.675 .0265598
885.340 .0265551
886.005 .0265514
886.670 .0265484
887.334 .0265465
887.998 .0265453
888.662 .0265449
889.325 .0265451
889.988 .0265456
890.650 .0265467
891.312 .0265484
891.974 .0265507
892.636 .0265532
893.297 .0265559
893.957 .0265589
894.618 .0265611
895.278 .0265626
895.937 .0265633
896.596 .0265629
897.255 .0265617
897.914 .0265595
898.572 .0265564
899.230 .0265531
899.887 .0265496
900.544 .0265456
901.201 .0265415
901.857 .0265368
902.513 .0265307
903.168 .0265231
903.823 .0265145
904.478 .0265043
905.132 .0264930
905.786 .0264811
906.440 .0264686
907.093 .0264559
907.746 .0264435
908.399 .0264308
909.051 .0264183
909.703 .0264059
910.354 .0263931
911.005 .0263795
911.656 .0263661
912.306 .0263525
912.956 .0263391
913.605 .0263265
914.254 .0263149
914.903 .0263040
915.551 .0262941
916.199 .0262848
916.847 .0262751
917.494 .0262654
918.141 .0262552
918.788 .0262439
919.434 .0262329
920.079 .0262220
920.725 .0262118
921.370 .0262027
922.014 .0261950
922.658 .0261881
923.302 .0261813
923.946 .0261741
924.589 .0261655
925.231 .0261547
925.873 .0261421
926.515 .0261273
927.157 .0261109
927.798 .0260938
928.439 .0260763
929.079 .0260592
929.719 .0260428
930.359 .0260270
930.998 .0260119
931.637 .0259970
932.275 .0259825
932.913 .0259680
933.551 .0259534
934.188 .0259391
934.825 .0259253
935.462 .0259125
936.098 .0259015
936.733 .0258923
937.369 .0258849
938.004 .0258794
938.638 .0258757
939.273 .0258729
939.907 .0258706
940.540 .0258690
941.173 .0258673
941.806 .0258656
942.438 .0258639
943.070 .0258620
943.702 .0258603
944.333 .0258590
944.964 .0258576
945.594 .0258564
946.224 .0258552
946.854 .0258535
947.483 .0258514
948.112 .0258490
948.741 .0258459
949.369 .0258418
949.996 .0258367
950.624 .0258309
951.251 .0258241
951.878 .0258167
952.504 .0258087
953.130 .0258009
953.755 .0257929
954.380 .0257847
955.005 .0257763
955.629 .0257679
956.253 .0257589
956.877 .0257500
957.500 .0257405
958.123 .0257307
958.746 .0257208
959.368 .0257107
959.990 .0257009
960.611 .0256917
961.232 .0256827
961.853 .0256740
962.473 .0256654
963.093 .0256567
963.712 .0256470
964.331 .0256369
964.950 .0256262
965.569 .0256153
966.187 .0256046
966.804 .0255947
967.422 .0255858
968.039 .0255784
968.655 .0255723
969.272 .0255673
969.887 .0255629
970.503 .0255590
971.118 .0255557
971.733 .0255531
972.347 .0255512
972.961 .0255504
973.575 .0255505
974.188 .0255515
974.801 .0255527
975.414 .0255534
976.026 .0255531
976.638 .0255514
977.250 .0255480
977.861 .0255432
978.472 .0255371
979.083 .0255298
979.693 .0255211
980.303 .0255108
980.912 .0254988
981.521 .0254845
982.130 .0254675
982.738 .0254479
983.346 .0254257
983.954 .0254015
984.562 .0253761
985.169 .0253498
985.775 .0253237
986.382 .0252981
986.988 .0252731
987.594 .0252488
988.199 .0252247
988.804 .0252014
989.409 .0251786
990.013 .0251571
990.617 .0251376
991.221 .0251198
991.824 .0251055
992.427 .0250943
993.030 .0250861
993.632 .0250803
994.234 .0250767
994.836 .0250740
995.438 .0250719
996.039 .0250702
996.640 .0250685
997.240 .0250671
997.840 .0250668
998.440 .0250672
999.040 .0250681
999.639 .0250696
1000.238 .0250713
1000.836 .0250724
1001.435 .0250730
1002.033 .0250722
1002.630 .0250703
1003.228 .0250683
1003.825 .0250663
1004.422 .0250643
1005.018 .0250627
1005.614 .0250616
1006.210 .0250603
1006.806 .0250582
1007.401 .0250555
1007.996 .0250513
1008.591 .0250459
1009.186 .0250394
1009.780 .0250323
1010.374 .0250246
1010.967 .0250173
1011.561 .0250104
1012.154 .0250040
1012.746 .0249982
1013.339 .0249923
1013.931 .0249866
1014.523 .0249811
1015.115 .0249759
1015.706 .0249711
1016.298 .0249672
1016.888 .0249650
1017.479 .0249640
1018.069 .0249646
1018.660 .0249666
1019.250 .0249699
1019.839 .0249747
1020.429 .0249800
1021.018 .0249868
1021.607 .0249942
1022.195 .0250024
1022.784 .0250112
1023.372 .0250205
1023.960 .0250305
1024.547 .0250409
1025.135 .0250518
1025.722 .0250627
1026.309 .0250736
1026.896 .0250849
1027.483 .0250962
1028.069 .0251075
1028.655 .0251185
1029.241 .0251287
1029.827 .0251382
1030.412 .0251472
1030.997 .0251552
1031.582 .0251626
1032.167 .0251695
1032.752 .0251759
1033.336 .0251818
1033.921 .0251872
1034.505 .0251926
1035.089 .0251978
1035.672 .0252033
1036.256 .0252090
1036.839 .0252138
1037.422 .0252177
1038.005 .0252214
1038.588 .0252247
1039.171 .0252280
1039.753 .0252307
1040.335 .0252335
1040.918 .0252365
1041.500 .0252395
1042.081 .0252422
1042.663 .0252442
1043.244 .0252458
1043.826 .0252470
1044.407 .0252460
1044.988 .0252443
1045.569 .0252409
1046.150 .0252369
1046.730 .0252322
1047.311 .0252277
1047.891 .0252230
1048.471 .0252193
1049.052 .0252167
1049.632 .0252155
1050.211 .0252163
1050.791 .0252194
1051.371 .0252237
1051.950 .0252297
1052.530 .0252365
1053.109 .0252429
1053.688 .0252484
1054.268 .0252532
1054.847 .0252555
1055.426 .0252573
1056.005 .0252575
1056.583 .0252578
1057.162 .0252591
1057.741 .0252620
1058.319 .0252665
1058.898 .0252715
1059.476 .0252769
1060.055 .0252816
1060.633 .0252842
1061.211 .0252853
1061.790 .0252847
1062.368 .0252850
1062.946 .0252858
1063.524 .0252888
1064.102 .0252948
1064.680 .0253040
1065.258 .0253151
1065.836 .0253278
1066.414 .0253406
1066.992 .0253528
1067.570 .0253642
1068.148 .0253734
1068.726 .0253817
1069.304 .0253894
1069.882 .0253964
1070.460 .0254025
1071.038 .0254080
1071.616 .0254124
1072.194 .0254153
1072.772 .0254177
1073.350 .0254198
1073.928 .0254224
1074.506 .0254265
1075.084 .0254323
1075.662 .0254409
1076.240 .0254524
1076.819 .0254662
1077.397 .0254812
1077.976 .0254981
1078.554 .0255155
1079.133 .0255331
1079.711 .0255501
1080.290 .0255670
1080.869 .0255830
1081.448 .0255973
1082.027 .0256088
1082.606 .0256174
1083.185 .0256242
1083.764 .0256267
1084.343 .0256283
1084.923 .0256305
1085.502 .0256323
1086.082 .0256349
1086.662 .0256382
1087.242 .0256426
1087.822 .0256476
1088.402 .0256525
1088.983 .0256583
1089.563 .0256639
1090.144 .0256705
1090.725 .0256789
1091.306 .0256891
1091.887 .0257020
1092.469 .0257170
1093.050 .0257315
1093.632 .0257486
1094.214 .0257646
1094.796 .0257801
1095.379 .0257939
1095.961 .0258058
1096.544 .0258181
1097.127 .0258276
1097.710 .0258363
1098.294 .0258474
1098.877 .0258583
1099.461 .0258728
1100.046 .0258890
1100.630 .0259065
1101.215 .0259270
1101.800 .0259502
1102.385 .0259740
1102.970 .0259974
1103.556 .0260192
1104.142 .0260406
1104.728 .0260590
1105.315 .0260786
1105.902 .0260986
1106.489 .0261182
1107.077 .0261420
1107.664 .0261673
1108.253 .0261925
1108.841 .0262215
1109.430 .0262490
1110.019 .0262763
1110.609 .0263028
1111.198 .0263275
1111.789 .0263485
1112.379 .0263673
1112.970 .0263861
1113.561 .0264051
1114.153 .0264245
1114.745 .0264476
1115.338 .0264713
1115.931 .0265006
1116.524 .0265309
1117.117 .0265617
1117.712 .0265952
1118.306 .0266303
1118.901 .0266635
1119.496 .0266969
1120.092 .0267314
1120.689 .0267665
1121.285 .0268031
1121.882 .0268429
1122.480 .0268876
1123.078 .0269395
1123.677 .0269925
1124.276 .0270472
1124.875 .0271016
1125.476 .0271565
1126.076 .0272082
1126.677 .0272588
1127.279 .0273098
1127.881 .0273600
1128.484 .0274121
1129.087 .0274660
1129.691 .0275236
1130.295 .0275869
1130.900 .0276507
1131.505 .0277201
1132.111 .0277955
1132.718 .0278718
1133.325 .0279507
1133.933 .0280372
1134.541 .0281291
1135.150 .0282273
1135.760 .0283307
1136.370 .0284415
1136.981 .0285614
1137.592 .0286872
1138.204 .0288189
1138.817 .0289540
1139.431 .0291026
1140.045 .0292473
1140.660 .0294055
1141.275 .0295871
1141.891 .0297891
1142.508 .0299901
1143.126 .0298838
1143.744 .0304738
1144.363 .0310012
1144.983 .0312474
