Measurement Sequence started on: 15-12-46-377
Integration time: 28
Scans to Average: 2 
>>>>>Begin Spectral Data<<<<<
432.689 .0000100
433.621 .0000100
434.552 .0000100
435.482 .0000100
436.410 .0000100
437.337 .0000100
438.262 .0283768
439.187 .0601681
440.110 .0997151
441.031 .1443195
441.952 .1876381
442.871 .2217421
443.789 .2404206
444.705 .2415808
445.621 .2277967
446.535 .2047524
447.447 .1786501
448.359 .1387393
449.269 .1189152
450.178 .1063884
451.086 .0975693
451.993 .0908413
452.898 .0855349
453.803 .0812183
454.706 .0776206
455.608 .0745621
456.508 .0719193
457.408 .0696198
458.306 .0675781
459.204 .0657240
460.100 .0640233
460.995 .0624656
461.888 .0610332
462.781 .0597086
463.673 .0584901
464.563 .0573810
465.452 .0563675
466.340 .0554296
467.228 .0545771
468.114 .0538015
468.999 .0531046
469.882 .0524666
470.765 .0518835
471.647 .0513583
472.528 .0508853
473.407 .0504654
474.286 .0500983
475.163 .0497781
476.040 .0494957
476.915 .0492397
477.790 .0490114
478.663 .0488038
479.535 .0486140
480.407 .0484462
481.277 .0482994
482.147 .0481707
483.015 .0480559
483.883 .0479569
484.749 .0478729
485.615 .0478057
486.479 .0477467
487.343 .0477005
488.206 .0476669
489.067 .0476483
489.928 .0476431
490.788 .0476608
491.647 .0477031
492.505 .0477683
493.362 .0478557
494.218 .0479691
495.073 .0481052
495.928 .0482639
496.781 .0484387
497.634 .0486363
498.486 .0488552
499.337 .0490908
500.187 .0493424
501.036 .0496218
501.884 .0499216
502.731 .0502466
503.578 .0505987
504.424 .0509806
505.268 .0513856
506.113 .0518241
506.956 .0522970
507.798 .0528079
508.640 .0533664
509.480 .0539710
510.320 .0546379
511.160 .0553804
511.998 .0561972
512.836 .0570797
513.672 .0580593
514.508 .0591464
515.344 .0603368
516.178 .0616700
517.012 .0631651
517.845 .0648619
518.677 .0667822
519.508 .0689530
520.339 .0714409
521.169 .0742865
521.998 .0775315
522.826 .0812081
523.654 .0854044
524.481 .0901196
525.307 .0954315
526.133 .1013110
526.958 .1077264
527.782 .1146340
528.605 .1218439
529.428 .1292652
530.250 .1363558
531.072 .1429078
531.892 .1484621
532.712 .1527186
533.532 .1554596
534.350 .1563900
535.168 .1554980
535.986 .1528625
536.802 .1486516
537.618 .1431460
538.434 .1366084
539.249 .1296087
540.063 .1223321
540.876 .1151438
541.689 .1082351
542.501 .1018248
543.313 .0960188
544.124 .0908294
544.934 .0861577
545.744 .0819601
546.553 .0781929
547.361 .0748101
548.169 .0717952
548.976 .0691085
549.783 .0667520
550.589 .0646805
551.395 .0628347
552.200 .0612071
553.004 .0597237
553.808 .0583644
554.611 .0571035
555.414 .0559339
556.216 .0548279
557.018 .0538158
557.819 .0528862
558.619 .0520289
559.419 .0512394
560.218 .0505114
561.017 .0498216
561.815 .0491592
562.613 .0485113
563.410 .0478599
564.207 .0472022
565.003 .0465489
565.799 .0458906
566.594 .0452356
567.388 .0446017
568.182 .0439903
568.976 .0433987
569.769 .0428398
570.562 .0423018
571.354 .0417819
572.145 .0412816
572.936 .0408005
573.727 .0403300
574.517 .0398688
575.307 .0394175
576.096 .0389702
576.885 .0385304
577.673 .0381055
578.461 .0376937
579.248 .0373017
580.035 .0369330
580.821 .0365890
581.607 .0362706
582.392 .0359795
583.177 .0357156
583.962 .0354764
584.746 .0352644
585.529 .0350740
586.313 .0349046
587.095 .0347552
587.878 .0346232
588.660 .0345055
589.441 .0343995
590.222 .0343035
591.003 .0342151
591.783 .0341345
592.563 .0340593
593.342 .0339881
594.121 .0339209
594.899 .0338580
595.678 .0337965
596.455 .0337357
597.233 .0336736
598.009 .0336098
598.786 .0335465
599.562 .0334827
600.338 .0334187
601.113 .0333560
601.888 .0332954
602.663 .0332366
603.437 .0331805
604.211 .0331268
604.984 .0330741
605.757 .0330234
606.530 .0329744
607.302 .0329257
608.074 .0328788
608.845 .0328334
609.616 .0327896
610.387 .0327489
611.158 .0327105
611.928 .0326731
612.697 .0326368
613.467 .0326017
614.236 .0325666
615.004 .0325311
615.773 .0324967
616.541 .0324623
617.308 .0324293
618.076 .0323986
618.843 .0323697
619.609 .0323433
620.375 .0323185
621.141 .0322952
621.907 .0322729
622.672 .0322517
623.437 .0322311
624.202 .0322112
624.966 .0321929
625.730 .0321770
626.493 .0321623
627.257 .0321499
628.020 .0321391
628.782 .0321295
629.545 .0321193
630.307 .0321074
631.068 .0320933
631.830 .0320768
632.591 .0320571
633.352 .0320359
634.112 .0320121
634.872 .0319878
635.632 .0319630
636.392 .0319381
637.151 .0319130
637.910 .0318878
638.668 .0318610
639.427 .0318332
640.185 .0318038
640.943 .0317732
641.700 .0317413
642.457 .0317102
643.214 .0316799
643.971 .0316504
644.727 .0316223
645.483 .0315962
646.239 .0315714
646.994 .0315482
647.750 .0315252
648.505 .0315027
649.259 .0314808
650.014 .0314592
650.768 .0314373
651.521 .0314156
652.275 .0313941
653.028 .0313722
653.781 .0313497
654.534 .0313258
655.286 .0313004
656.039 .0312743
656.791 .0312471
657.542 .0312187
658.294 .0311895
659.045 .0311599
659.796 .0311300
660.546 .0311001
661.297 .0310696
662.047 .0310387
662.796 .0310071
663.546 .0309751
664.295 .0309429
665.044 .0309104
665.793 .0308782
666.542 .0308464
667.290 .0308152
668.038 .0307850
668.786 .0307548
669.533 .0307255
670.281 .0306970
671.028 .0306690
671.774 .0306409
672.521 .0306127
673.267 .0305849
674.013 .0305568
674.759 .0305286
675.505 .0305003
676.250 .0304716
676.995 .0304429
677.740 .0304146
678.484 .0303864
679.229 .0303588
679.973 .0303321
680.717 .0303067
681.460 .0302826
682.204 .0302603
682.947 .0302393
683.690 .0302200
684.433 .0302025
685.175 .0301863
685.917 .0301708
686.659 .0301565
687.401 .0301428
688.142 .0301295
688.884 .0301168
689.625 .0301046
690.365 .0300923
691.106 .0300799
691.846 .0300676
692.586 .0300545
693.326 .0300401
694.066 .0300245
694.805 .0300072
695.545 .0299882
696.284 .0299672
697.022 .0299447
697.761 .0299215
698.499 .0298977
699.237 .0298739
699.975 .0298505
700.713 .0298284
701.450 .0298074
702.187 .0297874
702.924 .0297685
703.661 .0297512
704.397 .0297349
705.133 .0297197
705.869 .0297061
706.605 .0296943
707.341 .0296839
708.076 .0296755
708.811 .0296688
709.546 .0296639
710.281 .0296596
711.015 .0296558
711.749 .0296512
712.483 .0296461
713.217 .0296391
713.950 .0296304
714.684 .0296200
715.417 .0296083
716.150 .0295950
716.882 .0295806
717.615 .0295655
718.347 .0295500
719.079 .0295339
719.811 .0295176
720.542 .0295008
721.273 .0294841
722.005 .0294665
722.735 .0294486
723.466 .0294305
724.196 .0294129
724.927 .0293951
725.656 .0293773
726.386 .0293599
727.116 .0293427
727.845 .0293258
728.574 .0293089
729.303 .0292929
730.031 .0292775
730.760 .0292627
731.488 .0292480
732.216 .0292339
732.944 .0292206
733.671 .0292078
734.398 .0291954
735.125 .0291837
735.852 .0291721
736.579 .0291606
737.305 .0291497
738.031 .0291395
738.757 .0291295
739.483 .0291200
740.208 .0291102
740.933 .0291006
741.658 .0290905
742.383 .0290797
743.108 .0290679
743.832 .0290556
744.556 .0290419
745.280 .0290262
746.004 .0290090
746.727 .0289908
747.450 .0289714
748.173 .0289517
748.896 .0289314
749.618 .0289109
750.340 .0288908
751.062 .0288711
751.784 .0288512
752.506 .0288317
753.227 .0288118
753.948 .0287917
754.669 .0287714
755.389 .0287508
756.110 .0287302
756.830 .0287100
757.550 .0286906
758.269 .0286709
758.989 .0286516
759.708 .0286320
760.427 .0286116
761.146 .0285908
761.864 .0285691
762.582 .0285465
763.300 .0285239
764.018 .0285014
764.736 .0284791
765.453 .0284574
766.170 .0284365
766.887 .0284153
767.603 .0283946
768.320 .0283737
769.036 .0283523
769.751 .0283307
770.467 .0283094
771.182 .0282881
771.897 .0282675
772.612 .0282475
773.327 .0282281
774.041 .0282092
774.755 .0281906
775.469 .0281723
776.183 .0281545
776.896 .0281376
777.609 .0281219
778.322 .0281075
779.035 .0280952
779.747 .0280846
780.459 .0280755
781.171 .0280678
781.882 .0280604
782.594 .0280537
783.305 .0280467
784.016 .0280394
784.726 .0280324
785.436 .0280254
786.147 .0280187
786.856 .0280124
787.566 .0280068
788.275 .0280017
788.984 .0279969
789.693 .0279922
790.401 .0279875
791.110 .0279822
791.818 .0279768
792.525 .0279706
793.233 .0279643
793.940 .0279579
794.647 .0279515
795.353 .0279453
796.060 .0279399
796.766 .0279349
797.472 .0279306
798.177 .0279262
798.883 .0279220
799.588 .0279171
800.292 .0279112
800.997 .0279041
801.701 .0278961
802.405 .0278873
803.109 .0278783
803.812 .0278695
804.515 .0278615
805.218 .0278537
805.921 .0278469
806.623 .0278404
807.325 .0278346
808.027 .0278289
808.728 .0278233
809.429 .0278175
810.130 .0278123
810.831 .0278071
811.531 .0278026
812.231 .0277986
812.931 .0277947
813.630 .0277904
814.330 .0277856
815.029 .0277800
815.727 .0277737
816.426 .0277671
817.124 .0277604
817.821 .0277534
818.519 .0277470
819.216 .0277407
819.913 .0277351
820.609 .0277301
821.306 .0277256
822.002 .0277216
822.697 .0277182
823.393 .0277157
824.088 .0277142
824.783 .0277143
825.477 .0277160
826.171 .0277191
826.865 .0277238
827.559 .0277293
828.252 .0277355
828.945 .0277419
829.638 .0277484
830.330 .0277549
831.023 .0277608
831.714 .0277661
832.406 .0277708
833.097 .0277748
833.788 .0277776
834.479 .0277794
835.169 .0277804
835.859 .0277806
836.548 .0277799
837.238 .0277786
837.927 .0277763
838.615 .0277735
839.304 .0277698
839.992 .0277651
840.680 .0277599
841.367 .0277541
842.054 .0277474
842.741 .0277408
843.428 .0277343
844.114 .0277281
844.800 .0277221
845.485 .0277163
846.170 .0277097
846.855 .0277023
847.540 .0276936
848.224 .0276832
848.908 .0276716
849.592 .0276589
850.275 .0276446
850.958 .0276297
851.641 .0276142
852.323 .0275980
853.005 .0275811
853.687 .0275637
854.368 .0275453
855.049 .0275258
855.730 .0275052
856.410 .0274833
857.090 .0274604
857.769 .0274369
858.449 .0274127
859.128 .0273878
859.806 .0273627
860.485 .0273375
861.163 .0273118
861.840 .0272856
862.518 .0272590
863.195 .0272318
863.871 .0272040
864.548 .0271761
865.224 .0271483
865.899 .0271211
866.574 .0270948
867.249 .0270694
867.924 .0270452
868.598 .0270219
869.272 .0269992
869.946 .0269766
870.619 .0269543
871.292 .0269319
871.964 .0269087
872.636 .0268853
873.308 .0268621
873.979 .0268390
874.651 .0268167
875.321 .0267947
875.992 .0267731
876.662 .0267518
877.331 .0267300
878.001 .0267076
878.670 .0266846
879.338 .0266613
880.007 .0266377
880.675 .0266143
881.342 .0265918
882.009 .0265703
882.676 .0265502
883.343 .0265318
884.009 .0265146
884.675 .0264981
885.340 .0264819
886.005 .0264653
886.670 .0264489
887.334 .0264324
887.998 .0264164
888.662 .0264011
889.325 .0263867
889.988 .0263737
890.650 .0263622
891.312 .0263520
891.974 .0263434
892.636 .0263356
893.297 .0263283
893.957 .0263211
894.618 .0263143
895.278 .0263081
895.937 .0263029
896.596 .0262989
897.255 .0262962
897.914 .0262942
898.572 .0262928
899.230 .0262908
899.887 .0262882
900.544 .0262845
901.201 .0262788
901.857 .0262714
902.513 .0262622
903.168 .0262515
903.823 .0262392
904.478 .0262261
905.132 .0262121
905.786 .0261968
906.440 .0261801
907.093 .0261620
907.746 .0261425
908.399 .0261217
909.051 .0260999
909.703 .0260774
910.354 .0260549
911.005 .0260327
911.656 .0260108
912.306 .0259901
912.956 .0259699
913.605 .0259505
914.254 .0259319
914.903 .0259140
915.551 .0258965
916.199 .0258798
916.847 .0258641
917.494 .0258499
918.141 .0258370
918.788 .0258254
919.434 .0258156
920.079 .0258072
920.725 .0258002
921.370 .0257939
922.014 .0257884
922.658 .0257831
923.302 .0257775
923.946 .0257718
924.589 .0257654
925.231 .0257581
925.873 .0257506
926.515 .0257426
927.157 .0257345
927.798 .0257260
928.439 .0257170
929.079 .0257076
929.719 .0256978
930.359 .0256871
930.998 .0256758
931.637 .0256643
932.275 .0256533
932.913 .0256428
933.551 .0256331
934.188 .0256248
934.825 .0256178
935.462 .0256120
936.098 .0256073
936.733 .0256039
937.369 .0256019
938.004 .0256009
938.638 .0256017
939.273 .0256042
939.907 .0256084
940.540 .0256145
941.173 .0256222
941.806 .0256315
942.438 .0256421
943.070 .0256532
943.702 .0256647
944.333 .0256764
944.964 .0256884
945.594 .0257005
946.224 .0257129
946.854 .0257255
947.483 .0257380
948.112 .0257502
948.741 .0257624
949.369 .0257738
949.996 .0257845
950.624 .0257945
951.251 .0258036
951.878 .0258119
952.504 .0258190
953.130 .0258252
953.755 .0258303
954.380 .0258343
955.005 .0258371
955.629 .0258387
956.253 .0258397
956.877 .0258407
957.500 .0258417
958.123 .0258430
958.746 .0258442
959.368 .0258452
959.990 .0258457
960.611 .0258455
961.232 .0258445
961.853 .0258426
962.473 .0258406
963.093 .0258390
963.712 .0258383
964.331 .0258387
964.950 .0258401
965.569 .0258430
966.187 .0258467
966.804 .0258507
967.422 .0258547
968.039 .0258586
968.655 .0258624
969.272 .0258664
969.887 .0258705
970.503 .0258753
971.118 .0258807
971.733 .0258867
972.347 .0258929
972.961 .0258986
973.575 .0259038
974.188 .0259072
974.801 .0259084
975.414 .0259075
976.026 .0259039
976.638 .0258981
977.250 .0258902
977.861 .0258812
978.472 .0258710
979.083 .0258601
979.693 .0258481
980.303 .0258356
980.912 .0258222
981.521 .0258080
982.130 .0257925
982.738 .0257763
983.346 .0257598
983.954 .0257426
984.562 .0257257
985.169 .0257092
985.775 .0256936
986.382 .0256791
986.988 .0256658
987.594 .0256539
988.199 .0256430
988.804 .0256334
989.409 .0256246
990.013 .0256166
990.617 .0256087
991.221 .0256001
991.824 .0255911
992.427 .0255816
993.030 .0255715
993.632 .0255607
994.234 .0255501
994.836 .0255398
995.438 .0255306
996.039 .0255225
996.640 .0255154
997.240 .0255096
997.840 .0255053
998.440 .0255015
999.040 .0254979
999.639 .0254943
1000.238 .0254902
1000.836 .0254852
1001.435 .0254795
1002.033 .0254727
1002.630 .0254653
1003.228 .0254575
1003.825 .0254494
1004.422 .0254407
1005.018 .0254314
1005.614 .0254211
1006.210 .0254097
1006.806 .0253972
1007.401 .0253826
1007.996 .0253660
1008.591 .0253478
1009.186 .0253290
1009.780 .0253097
1010.374 .0252912
1010.967 .0252743
1011.561 .0252596
1012.154 .0252472
1012.746 .0252369
1013.339 .0252284
1013.931 .0252214
1014.523 .0252144
1015.115 .0252073
1015.706 .0251996
1016.298 .0251912
1016.888 .0251819
1017.479 .0251730
1018.069 .0251644
1018.660 .0251566
1019.250 .0251489
1019.839 .0251420
1020.429 .0251350
1021.018 .0251279
1021.607 .0251196
1022.195 .0251104
1022.784 .0251004
1023.372 .0250902
1023.960 .0250803
1024.547 .0250718
1025.135 .0250656
1025.722 .0250613
1026.309 .0250589
1026.896 .0250587
1027.483 .0250592
1028.069 .0250595
1028.655 .0250599
1029.241 .0250601
1029.827 .0250596
1030.412 .0250589
1030.997 .0250586
1031.582 .0250592
1032.167 .0250599
1032.752 .0250603
1033.336 .0250594
1033.921 .0250574
1034.505 .0250543
1035.089 .0250480
1035.672 .0250404
1036.256 .0250315
1036.839 .0250215
1037.422 .0250110
1038.005 .0250002
1038.588 .0249896
1039.171 .0249789
1039.753 .0249679
1040.335 .0249559
1040.918 .0249426
1041.500 .0249283
1042.081 .0249140
1042.663 .0248996
1043.244 .0248866
1043.826 .0248753
1044.407 .0248658
1044.988 .0248591
1045.569 .0248539
1046.150 .0248499
1046.730 .0248456
1047.311 .0248398
1047.891 .0248328
1048.471 .0248231
1049.052 .0248110
1049.632 .0247972
1050.211 .0247834
1050.791 .0247694
1051.371 .0247556
1051.950 .0247421
1052.530 .0247285
1053.109 .0247144
1053.688 .0246981
1054.268 .0246794
1054.847 .0246585
1055.426 .0246363
1056.005 .0246128
1056.583 .0245904
1057.162 .0245711
1057.741 .0245558
1058.319 .0245447
1058.898 .0245374
1059.476 .0245333
1060.055 .0245312
1060.633 .0245292
1061.211 .0245271
1061.790 .0245245
1062.368 .0245223
1062.946 .0245206
1063.524 .0245220
1064.102 .0245255
1064.680 .0245323
1065.258 .0245414
1065.836 .0245520
1066.414 .0245616
1066.992 .0245693
1067.570 .0245729
1068.148 .0245727
1068.726 .0245690
1069.304 .0245625
1069.882 .0245539
1070.460 .0245457
1071.038 .0245375
1071.616 .0245293
1072.194 .0245220
1072.772 .0245141
1073.350 .0245030
1073.928 .0244912
1074.506 .0244764
1075.084 .0244591
1075.662 .0244402
1076.240 .0244213
1076.819 .0244029
1077.397 .0243866
1077.976 .0243725
1078.554 .0243610
1079.133 .0243528
1079.711 .0243474
1080.290 .0243440
1080.869 .0243439
1081.448 .0243478
1082.027 .0243553
1082.606 .0243667
1083.185 .0243837
1083.764 .0244042
1084.343 .0244277
1084.923 .0244532
1085.502 .0244801
1086.082 .0245075
1086.662 .0245342
1087.242 .0245601
1087.822 .0245867
1088.402 .0246150
1088.983 .0246436
1089.563 .0246723
1090.144 .0247010
1090.725 .0247288
1091.306 .0247522
1091.887 .0247709
1092.469 .0247854
1093.050 .0247968
1093.632 .0248065
1094.214 .0248160
1094.796 .0248273
1095.379 .0248432
1095.961 .0248636
1096.544 .0248881
1097.127 .0249159
1097.710 .0249463
1098.294 .0249784
1098.877 .0250115
1099.461 .0250462
1100.046 .0250833
1100.630 .0251219
1101.215 .0251650
1101.800 .0252106
1102.385 .0252570
1102.970 .0253039
1103.556 .0253489
1104.142 .0253912
1104.728 .0254295
1105.315 .0254618
1105.902 .0254904
1106.489 .0255160
1107.077 .0255410
1107.664 .0255641
1108.253 .0255867
1108.841 .0256104
1109.430 .0256346
1110.019 .0256582
1110.609 .0256822
1111.198 .0257049
1111.789 .0257288
1112.379 .0257518
1112.970 .0257757
1113.561 .0258014
1114.153 .0258330
1114.745 .0258681
1115.338 .0259082
1115.931 .0259502
1116.524 .0259956
1117.117 .0260419
1117.712 .0260879
1118.306 .0261325
1118.901 .0261777
1119.496 .0262215
1120.092 .0262634
1120.689 .0263035
1121.285 .0263454
1121.882 .0263866
1122.480 .0264312
1123.078 .0264770
1123.677 .0265254
1124.276 .0265772
1124.875 .0266334
1125.476 .0266924
1126.076 .0267560
1126.677 .0268229
1127.279 .0268867
1127.881 .0269519
1128.484 .0270192
1129.087 .0270847
1129.691 .0271545
1130.295 .0272329
1130.900 .0273194
1131.505 .0274167
1132.111 .0275295
1132.718 .0276544
1133.325 .0277906
1133.933 .0279352
1134.541 .0280779
1135.150 .0282175
1135.760 .0283555
1136.370 .0284887
1136.981 .0286180
1137.592 .0287499
1138.204 .0288809
1138.817 .0290150
1139.431 .0291586
1140.045 .0292987
1140.660 .0294368
1141.275 .0295741
1141.891 .0297106
1142.508 .0299789
1143.126 .0298797
1143.744 .0299745
1144.363 .0302288
1144.983 .0304833
