Measurement Sequence started on: 15-12-46-377
Integration time: 28
Scans to Average: 2 
>>>>>Begin Spectral Data<<<<<
432.689 .0000100
433.621 .0000100
434.552 .0000100
435.482 .0000100
436.410 .0000100
437.337 .0000100
438.262 .0271749
439.187 .0576888
440.110 .0955722
441.031 .1383508
441.952 .1798705
442.871 .2125384
443.789 .2304357
444.705 .2315334
445.621 .2183426
446.535 .1962697
447.447 .1712946
448.359 .1331349
449.269 .1141934
450.178 .1023258
451.086 .0939345
451.993 .0875445
452.898 .0824735
453.803 .0782747
454.706 .0747240
455.608 .0716457
456.508 .0689789
457.408 .0666490
458.306 .0645962
459.204 .0627911
460.100 .0611969
460.995 .0598060
461.888 .0585852
462.781 .0574868
463.673 .0564796
464.563 .0555627
465.452 .0546921
466.340 .0538640
467.228 .0530752
468.114 .0523326
468.999 .0516440
469.882 .0510035
470.765 .0504123
471.647 .0498637
472.528 .0493587
473.407 .0489031
474.286 .0484775
475.163 .0480958
476.040 .0477472
476.915 .0474246
477.790 .0471287
478.663 .0468586
479.535 .0466129
480.407 .0463937
481.277 .0462020
482.147 .0460409
483.015 .0459007
483.883 .0457884
484.749 .0456997
485.615 .0456304
486.479 .0455717
487.343 .0455198
488.206 .0454704
489.067 .0454267
489.928 .0453837
490.788 .0453468
491.647 .0453269
492.505 .0453371
493.362 .0453711
494.218 .0454269
495.073 .0455153
495.928 .0456386
496.781 .0457826
497.634 .0459547
498.486 .0461509
499.337 .0463722
500.187 .0466215
501.036 .0469033
501.884 .0472185
502.731 .0475710
503.578 .0479578
504.424 .0483715
505.268 .0488048
506.113 .0492601
506.956 .0497185
507.798 .0502073
508.640 .0507340
509.480 .0513032
510.320 .0519241
511.160 .0526277
511.998 .0534220
512.836 .0543261
513.672 .0553442
514.508 .0564832
515.344 .0577554
516.178 .0591802
517.012 .0607492
517.845 .0625189
518.677 .0645158
519.508 .0667763
520.339 .0693429
521.169 .0722907
521.998 .0756118
522.826 .0793930
523.654 .0836159
524.481 .0883097
525.307 .0934897
526.133 .0991330
526.958 .1051243
527.782 .1114979
528.605 .1181308
529.428 .1249136
530.250 .1314077
531.072 .1374327
531.892 .1425600
532.712 .1465645
533.532 .1492179
534.350 .1502835
535.168 .1496969
535.986 .1475600
536.802 .1439412
537.618 .1391502
538.434 .1334267
539.249 .1271771
540.063 .1206049
540.876 .1140145
541.689 .1075545
542.501 .1013893
543.313 .0956932
544.124 .0905172
544.934 .0858367
545.744 .0815918
546.553 .0777358
547.361 .0742652
548.169 .0711940
548.976 .0684196
549.783 .0659290
550.589 .0637020
551.395 .0616803
552.200 .0598544
553.004 .0582081
553.808 .0567127
554.611 .0553875
555.414 .0542075
556.216 .0531552
557.018 .0522004
557.819 .0513453
558.619 .0505538
559.419 .0498234
560.218 .0491440
561.017 .0484955
561.815 .0478556
562.613 .0472399
563.410 .0466407
564.207 .0460488
565.003 .0454677
565.799 .0448952
566.594 .0443126
567.388 .0437357
568.182 .0431495
568.976 .0425552
569.769 .0419614
570.562 .0413705
571.354 .0407829
572.145 .0402086
572.936 .0396589
573.727 .0391235
574.517 .0386085
575.307 .0381227
576.096 .0376557
576.885 .0372077
577.673 .0367853
578.461 .0363885
579.248 .0360191
580.035 .0356771
580.821 .0353566
581.607 .0350579
582.392 .0347858
583.177 .0345343
583.962 .0343014
584.746 .0340885
585.529 .0338953
586.313 .0337183
587.095 .0335606
587.878 .0334214
588.660 .0332969
589.441 .0331897
590.222 .0330946
591.003 .0330088
591.783 .0329284
592.563 .0328506
593.342 .0327764
594.121 .0327031
594.899 .0326322
595.678 .0325628
596.455 .0324981
597.233 .0324392
598.009 .0323835
598.786 .0323303
599.562 .0322801
600.338 .0322315
601.113 .0321830
601.888 .0321343
602.663 .0320847
603.437 .0320360
604.211 .0319886
604.984 .0319439
605.757 .0319029
606.530 .0318658
607.302 .0318331
608.074 .0318038
608.845 .0317782
609.616 .0317544
610.387 .0317314
611.158 .0317105
611.928 .0316894
612.697 .0316693
613.467 .0316490
614.236 .0316291
615.004 .0316096
615.773 .0315900
616.541 .0315700
617.308 .0315491
618.076 .0315284
618.843 .0315067
619.609 .0314843
620.375 .0314620
621.141 .0314396
621.907 .0314167
622.672 .0313935
623.437 .0313701
624.202 .0313462
624.966 .0313225
625.730 .0312982
626.493 .0312737
627.257 .0312495
628.020 .0312252
628.782 .0312007
629.545 .0311763
630.307 .0311524
631.068 .0311280
631.830 .0311033
632.591 .0310777
633.352 .0310506
634.112 .0310223
634.872 .0309935
635.632 .0309642
636.392 .0309345
637.151 .0309053
637.910 .0308761
638.668 .0308474
639.427 .0308193
640.185 .0307913
640.943 .0307639
641.700 .0307374
642.457 .0307119
643.214 .0306870
643.971 .0306631
644.727 .0306409
645.483 .0306201
646.239 .0305997
646.994 .0305795
647.750 .0305585
648.505 .0305368
649.259 .0305148
650.014 .0304916
650.768 .0304679
651.521 .0304433
652.275 .0304181
653.028 .0303922
653.781 .0303660
654.534 .0303401
655.286 .0303137
656.039 .0302888
656.791 .0302641
657.542 .0302389
658.294 .0302138
659.045 .0301894
659.796 .0301654
660.546 .0301413
661.297 .0301176
662.047 .0300938
662.796 .0300709
663.546 .0300491
664.295 .0300275
665.044 .0300072
665.793 .0299877
666.542 .0299689
667.290 .0299506
668.038 .0299329
668.786 .0299150
669.533 .0298967
670.281 .0298788
671.028 .0298610
671.774 .0298433
672.521 .0298265
673.267 .0298113
674.013 .0297977
674.759 .0297854
675.505 .0297740
676.250 .0297629
676.995 .0297525
677.740 .0297420
678.484 .0297307
679.229 .0297190
679.973 .0297068
680.717 .0296939
681.460 .0296805
682.204 .0296677
682.947 .0296551
683.690 .0296430
684.433 .0296317
685.175 .0296205
685.917 .0296089
686.659 .0295974
687.401 .0295855
688.142 .0295732
688.884 .0295610
689.625 .0295487
690.365 .0295360
691.106 .0295242
691.846 .0295127
692.586 .0295012
693.326 .0294900
694.066 .0294788
694.805 .0294672
695.545 .0294547
696.284 .0294415
697.022 .0294272
697.761 .0294119
698.499 .0293956
699.237 .0293778
699.975 .0293587
700.713 .0293389
701.450 .0293181
702.187 .0292970
702.924 .0292761
703.661 .0292558
704.397 .0292360
705.133 .0292170
705.869 .0291989
706.605 .0291815
707.341 .0291646
708.076 .0291483
708.811 .0291318
709.546 .0291147
710.281 .0290974
711.015 .0290793
711.749 .0290609
712.483 .0290421
713.217 .0290226
713.950 .0290025
714.684 .0289815
715.417 .0289591
716.150 .0289353
716.882 .0289104
717.615 .0288842
718.347 .0288567
719.079 .0288283
719.811 .0287988
720.542 .0287688
721.273 .0287391
722.005 .0287097
722.735 .0286812
723.466 .0286538
724.196 .0286272
724.927 .0286013
725.656 .0285758
726.386 .0285506
727.116 .0285254
727.845 .0285003
728.574 .0284750
729.303 .0284499
730.031 .0284250
730.760 .0284009
731.488 .0283774
732.216 .0283551
732.944 .0283343
733.671 .0283147
734.398 .0282966
735.125 .0282797
735.852 .0282643
736.579 .0282504
737.305 .0282377
738.031 .0282270
738.757 .0282175
739.483 .0282091
740.208 .0282018
740.933 .0281954
741.658 .0281891
742.383 .0281830
743.108 .0281770
743.832 .0281710
744.556 .0281653
745.280 .0281593
746.004 .0281534
746.727 .0281481
747.450 .0281433
748.173 .0281384
748.896 .0281333
749.618 .0281282
750.340 .0281226
751.062 .0281172
751.784 .0281123
752.506 .0281080
753.227 .0281046
753.948 .0281021
754.669 .0281006
755.389 .0280994
756.110 .0280983
756.830 .0280967
757.550 .0280947
758.269 .0280914
758.989 .0280863
759.708 .0280795
760.427 .0280713
761.146 .0280622
761.864 .0280524
762.582 .0280417
763.300 .0280303
764.018 .0280187
764.736 .0280070
765.453 .0279949
766.170 .0279835
766.887 .0279723
767.603 .0279617
768.320 .0279518
769.036 .0279421
769.751 .0279320
770.467 .0279221
771.182 .0279124
771.897 .0279026
772.612 .0278932
773.327 .0278846
774.041 .0278771
774.755 .0278711
775.469 .0278665
776.183 .0278634
776.896 .0278610
777.609 .0278593
778.322 .0278577
779.035 .0278560
779.747 .0278540
780.459 .0278523
781.171 .0278508
781.882 .0278499
782.594 .0278496
783.305 .0278495
784.016 .0278493
784.726 .0278496
785.436 .0278491
786.147 .0278472
786.856 .0278437
787.566 .0278380
788.275 .0278298
788.984 .0278197
789.693 .0278074
790.401 .0277936
791.110 .0277786
791.818 .0277628
792.525 .0277460
793.233 .0277289
793.940 .0277114
794.647 .0276931
795.353 .0276742
796.060 .0276545
796.766 .0276332
797.472 .0276108
798.177 .0275880
798.883 .0275648
799.588 .0275419
800.292 .0275197
800.997 .0274982
801.701 .0274775
802.405 .0274570
803.109 .0274363
803.812 .0274151
804.515 .0273928
805.218 .0273689
805.921 .0273436
806.623 .0273175
807.325 .0272905
808.027 .0272630
808.728 .0272354
809.429 .0272069
810.130 .0271780
810.831 .0271482
811.531 .0271173
812.231 .0270854
812.931 .0270527
813.630 .0270191
814.330 .0269854
815.029 .0269521
815.727 .0269192
816.426 .0268875
817.124 .0268571
817.821 .0268274
818.519 .0267990
819.216 .0267724
819.913 .0267479
820.609 .0267251
821.306 .0267049
822.002 .0266870
822.697 .0266717
823.393 .0266593
824.088 .0266494
824.783 .0266419
825.477 .0266366
826.171 .0266325
826.865 .0266289
827.559 .0266261
828.252 .0266237
828.945 .0266212
829.638 .0266189
830.330 .0266167
831.023 .0266140
831.714 .0266113
832.406 .0266091
833.097 .0266067
833.788 .0266041
834.479 .0266013
835.169 .0265978
835.859 .0265943
836.548 .0265908
837.238 .0265874
837.927 .0265846
838.615 .0265831
839.304 .0265828
839.992 .0265837
840.680 .0265865
841.367 .0265905
842.054 .0265955
842.741 .0266013
843.428 .0266072
844.114 .0266131
844.800 .0266191
845.485 .0266249
846.170 .0266304
846.855 .0266356
847.540 .0266401
848.224 .0266438
848.908 .0266469
849.592 .0266491
850.275 .0266504
850.958 .0266509
851.641 .0266508
852.323 .0266504
853.005 .0266499
853.687 .0266494
854.368 .0266491
855.049 .0266490
855.730 .0266487
856.410 .0266483
857.090 .0266476
857.769 .0266468
858.449 .0266464
859.128 .0266462
859.806 .0266460
860.485 .0266464
861.163 .0266474
861.840 .0266488
862.518 .0266505
863.195 .0266522
863.871 .0266532
864.548 .0266536
865.224 .0266533
865.899 .0266522
866.574 .0266508
867.249 .0266493
867.924 .0266478
868.598 .0266468
869.272 .0266464
869.946 .0266462
870.619 .0266463
871.292 .0266467
871.964 .0266468
872.636 .0266465
873.308 .0266455
873.979 .0266439
874.651 .0266415
875.321 .0266381
875.992 .0266336
876.662 .0266285
877.331 .0266226
878.001 .0266160
878.670 .0266088
879.338 .0266012
880.007 .0265928
880.675 .0265840
881.342 .0265743
882.009 .0265637
882.676 .0265523
883.343 .0265404
884.009 .0265279
884.675 .0265155
885.340 .0265031
886.005 .0264910
886.670 .0264797
887.334 .0264698
887.998 .0264603
888.662 .0264514
889.325 .0264431
889.988 .0264348
890.650 .0264261
891.312 .0264173
891.974 .0264081
892.636 .0263992
893.297 .0263905
893.957 .0263823
894.618 .0263741
895.278 .0263663
895.937 .0263581
896.596 .0263492
897.255 .0263393
897.914 .0263278
898.572 .0263146
899.230 .0263005
899.887 .0262854
900.544 .0262694
901.201 .0262528
901.857 .0262359
902.513 .0262186
903.168 .0261999
903.823 .0261795
904.478 .0261572
905.132 .0261326
905.786 .0261053
906.440 .0260755
907.093 .0260435
907.746 .0260098
908.399 .0259744
909.051 .0259382
909.703 .0259006
910.354 .0258625
911.005 .0258234
911.656 .0257841
912.306 .0257444
912.956 .0257046
913.605 .0256647
914.254 .0256256
914.903 .0255879
915.551 .0255517
916.199 .0255168
916.847 .0254842
917.494 .0254529
918.141 .0254233
918.788 .0253946
919.434 .0253673
920.079 .0253408
920.725 .0253152
921.370 .0252898
922.014 .0252649
922.658 .0252404
923.302 .0252159
923.946 .0251908
924.589 .0251655
925.231 .0251391
925.873 .0251118
926.515 .0250833
927.157 .0250540
927.798 .0250235
928.439 .0249928
929.079 .0249614
929.719 .0249297
930.359 .0248982
930.998 .0248671
931.637 .0248365
932.275 .0248072
932.913 .0247789
933.551 .0247517
934.188 .0247264
934.825 .0247031
935.462 .0246816
936.098 .0246625
936.733 .0246455
937.369 .0246306
938.004 .0246173
938.638 .0246053
939.273 .0245945
939.907 .0245849
940.540 .0245766
941.173 .0245692
941.806 .0245632
942.438 .0245590
943.070 .0245565
943.702 .0245555
944.333 .0245554
944.964 .0245555
945.594 .0245554
946.224 .0245546
946.854 .0245534
947.483 .0245516
948.112 .0245498
948.741 .0245489
949.369 .0245487
949.996 .0245498
950.624 .0245524
951.251 .0245562
951.878 .0245605
952.504 .0245647
953.130 .0245679
953.755 .0245697
954.380 .0245706
955.005 .0245701
955.629 .0245693
956.253 .0245688
956.877 .0245691
957.500 .0245701
958.123 .0245726
958.746 .0245762
959.368 .0245802
959.990 .0245851
960.611 .0245897
961.232 .0245946
961.853 .0246000
962.473 .0246058
963.093 .0246122
963.712 .0246199
964.331 .0246287
964.950 .0246380
965.569 .0246489
966.187 .0246607
966.804 .0246734
967.422 .0246869
968.039 .0247006
968.655 .0247140
969.272 .0247268
969.887 .0247388
970.503 .0247496
971.118 .0247598
971.733 .0247693
972.347 .0247781
972.961 .0247872
973.575 .0247966
974.188 .0248060
974.801 .0248154
975.414 .0248250
976.026 .0248339
976.638 .0248422
977.250 .0248499
977.861 .0248569
978.472 .0248638
979.083 .0248708
979.693 .0248778
980.303 .0248852
980.912 .0248927
981.521 .0248999
982.130 .0249064
982.738 .0249119
983.346 .0249165
983.954 .0249199
984.562 .0249226
985.169 .0249244
985.775 .0249253
986.382 .0249255
986.988 .0249255
987.594 .0249251
988.199 .0249248
988.804 .0249251
989.409 .0249256
990.013 .0249269
990.617 .0249290
991.221 .0249321
991.824 .0249358
992.427 .0249409
993.030 .0249472
993.632 .0249545
994.234 .0249633
994.836 .0249736
995.438 .0249854
996.039 .0249993
996.640 .0250144
997.240 .0250303
997.840 .0250465
998.440 .0250628
999.040 .0250777
999.639 .0250917
1000.238 .0251042
1000.836 .0251152
1001.435 .0251242
1002.033 .0251320
1002.630 .0251381
1003.228 .0251433
1003.825 .0251483
1004.422 .0251531
1005.018 .0251578
1005.614 .0251624
1006.210 .0251660
1006.806 .0251685
1007.401 .0251696
1007.996 .0251689
1008.591 .0251665
1009.186 .0251628
1009.780 .0251588
1010.374 .0251542
1010.967 .0251501
1011.561 .0251472
1012.154 .0251450
1012.746 .0251430
1013.339 .0251409
1013.931 .0251374
1014.523 .0251322
1015.115 .0251250
1015.706 .0251165
1016.298 .0251075
1016.888 .0250989
1017.479 .0250917
1018.069 .0250863
1018.660 .0250829
1019.250 .0250817
1019.839 .0250813
1020.429 .0250819
1021.018 .0250827
1021.607 .0250834
1022.195 .0250842
1022.784 .0250858
1023.372 .0250885
1023.960 .0250924
1024.547 .0250977
1025.135 .0251042
1025.722 .0251110
1026.309 .0251169
1026.896 .0251216
1027.483 .0251240
1028.069 .0251240
1028.655 .0251217
1029.241 .0251171
1029.827 .0251109
1030.412 .0251034
1030.997 .0250958
1031.582 .0250877
1032.167 .0250794
1032.752 .0250710
1033.336 .0250621
1033.921 .0250521
1034.505 .0250411
1035.089 .0250287
1035.672 .0250145
1036.256 .0249998
1036.839 .0249843
1037.422 .0249684
1038.005 .0249531
1038.588 .0249388
1039.171 .0249252
1039.753 .0249125
1040.335 .0249002
1040.918 .0248875
1041.500 .0248741
1042.081 .0248593
1042.663 .0248416
1043.244 .0248210
1043.826 .0247981
1044.407 .0247734
1044.988 .0247477
1045.569 .0247224
1046.150 .0246970
1046.730 .0246738
1047.311 .0246521
1047.891 .0246317
1048.471 .0246122
1049.052 .0245934
1049.632 .0245748
1050.211 .0245565
1050.791 .0245372
1051.371 .0245174
1051.950 .0244973
1052.530 .0244782
1053.109 .0244596
1053.688 .0244412
1054.268 .0244235
1054.847 .0244075
1055.426 .0243929
1056.005 .0243805
1056.583 .0243693
1057.162 .0243596
1057.741 .0243503
1058.319 .0243416
1058.898 .0243323
1059.476 .0243215
1060.055 .0243099
1060.633 .0242978
1061.211 .0242849
1061.790 .0242725
1062.368 .0242608
1062.946 .0242513
1063.524 .0242449
1064.102 .0242398
1064.680 .0242339
1065.258 .0242265
1065.836 .0242163
1066.414 .0242019
1066.992 .0241830
1067.570 .0241609
1068.148 .0241354
1068.726 .0241091
1069.304 .0240844
1069.882 .0240614
1070.460 .0240419
1071.038 .0240256
1071.616 .0240118
1072.194 .0240005
1072.772 .0239897
1073.350 .0239787
1073.928 .0239680
1074.506 .0239580
1075.084 .0239485
1075.662 .0239399
1076.240 .0239349
1076.819 .0239330
1077.397 .0239349
1077.976 .0239395
1078.554 .0239449
1079.133 .0239498
1079.711 .0239523
1080.290 .0239504
1080.869 .0239449
1081.448 .0239360
1082.027 .0239243
1082.606 .0239116
1083.185 .0239016
1083.764 .0238945
1084.343 .0238916
1084.923 .0238932
1085.502 .0238984
1086.082 .0239045
1086.662 .0239120
1087.242 .0239180
1087.822 .0239230
1088.402 .0239280
1088.983 .0239331
1089.563 .0239394
1090.144 .0239497
1090.725 .0239645
1091.306 .0239844
1091.887 .0240091
1092.469 .0240387
1093.050 .0240686
1093.632 .0241002
1094.214 .0241307
1094.796 .0241584
1095.379 .0241834
1095.961 .0242064
1096.544 .0242274
1097.127 .0242472
1097.710 .0242677
1098.294 .0242900
1098.877 .0243149
1099.461 .0243429
1100.046 .0243720
1100.630 .0244025
1101.215 .0244324
1101.800 .0244602
1102.385 .0244840
1102.970 .0245044
1103.556 .0245205
1104.142 .0245334
1104.728 .0245453
1105.315 .0245580
1105.902 .0245725
1106.489 .0245893
1107.077 .0246104
1107.664 .0246347
1108.253 .0246615
1108.841 .0246900
1109.430 .0247200
1110.019 .0247502
1110.609 .0247787
1111.198 .0248058
1111.789 .0248319
1112.379 .0248589
1112.970 .0248890
1113.561 .0249234
1114.153 .0249630
1114.745 .0250081
1115.338 .0250605
1115.931 .0251176
1116.524 .0251785
1117.117 .0252420
1117.712 .0253071
1118.306 .0253736
1118.901 .0254398
1119.496 .0255046
1120.092 .0255712
1120.689 .0256412
1121.285 .0257139
1121.882 .0257869
1122.480 .0258638
1123.078 .0259428
1123.677 .0260192
1124.276 .0260912
1124.875 .0261601
1125.476 .0262219
1126.076 .0262769
1126.677 .0263266
1127.279 .0263720
1127.881 .0264163
1128.484 .0264593
1129.087 .0265029
1129.691 .0265482
1130.295 .0265969
1130.900 .0266444
1131.505 .0266934
1132.111 .0267506
1132.718 .0268136
1133.325 .0268819
1133.933 .0269608
1134.541 .0270559
1135.150 .0271637
1135.760 .0272808
1136.370 .0274090
1136.981 .0275449
1137.592 .0276870
1138.204 .0278348
1138.817 .0279875
1139.431 .0281521
1140.045 .0283215
1140.660 .0284995
1141.275 .0286781
1141.891 .0288956
1142.508 .0292021
1143.126 .0291969
1143.744 .0294399
1144.363 .0295558
1144.983 .0306484
