Measurement Sequence started on: 15-12-46-377
Integration time: 28
Scans to Average: 2 
>>>>>Begin Spectral Data<<<<<
432.689 .0000100
433.621 .0000100
434.552 .0000100
435.482 .0000100
436.410 .0000100
437.337 .0000100
438.262 .0280912
439.187 .0595496
440.110 .0986157
441.031 .1427112
441.952 .1855764
442.871 .2193568
443.789 .2379061
444.705 .2390941
445.621 .2254674
446.535 .2026270
447.447 .1766727
448.359 .1369736
449.269 .1170791
450.178 .1044124
451.086 .0953828
451.993 .0884615
452.898 .0830312
453.803 .0786708
454.706 .0751152
455.608 .0721128
456.508 .0695299
457.408 .0672840
458.306 .0652904
459.204 .0635268
460.100 .0619479
460.995 .0605405
461.888 .0592964
462.781 .0581948
463.673 .0572005
464.563 .0563056
465.452 .0554820
466.340 .0546930
467.228 .0539582
468.114 .0532653
468.999 .0526178
469.882 .0520092
470.765 .0514632
471.647 .0509708
472.528 .0505266
473.407 .0501278
474.286 .0497624
475.163 .0494190
476.040 .0491065
476.915 .0488182
477.790 .0485557
478.663 .0483309
479.535 .0481519
480.407 .0480125
481.277 .0479136
482.147 .0478486
483.015 .0478073
483.883 .0477851
484.749 .0477781
485.615 .0477728
486.479 .0477699
487.343 .0477845
488.206 .0478086
489.067 .0478442
489.928 .0479000
490.788 .0479729
491.647 .0480587
492.505 .0481624
493.362 .0482728
494.218 .0483944
495.073 .0485271
495.928 .0486797
496.781 .0488383
497.634 .0490181
498.486 .0492169
499.337 .0494390
500.187 .0496870
501.036 .0499644
501.884 .0502640
502.731 .0505970
503.578 .0509629
504.424 .0513635
505.268 .0517914
506.113 .0522542
506.956 .0527478
507.798 .0532830
508.640 .0538469
509.480 .0544605
510.320 .0551250
511.160 .0558737
511.998 .0567079
512.836 .0576514
513.672 .0587121
514.508 .0599067
515.344 .0612472
516.178 .0627350
517.012 .0643961
517.845 .0662697
518.677 .0683804
519.508 .0707684
520.339 .0734714
521.169 .0765684
521.998 .0801001
522.826 .0841549
523.654 .0887362
524.481 .0939159
525.307 .0996719
526.133 .1059800
526.958 .1127532
527.782 .1198986
528.605 .1272617
529.428 .1347040
530.250 .1417630
531.072 .1482391
531.892 .1537235
532.712 .1580124
533.532 .1608229
534.350 .1620069
535.168 .1614055
535.986 .1590824
536.802 .1551125
537.618 .1497452
538.434 .1431719
539.249 .1359177
540.063 .1282057
540.876 .1204198
541.689 .1128120
542.501 .1056279
543.313 .0990275
544.124 .0931088
544.934 .0878086
545.744 .0831043
546.553 .0789065
547.361 .0752323
548.169 .0719898
548.976 .0691485
549.783 .0666901
550.589 .0645425
551.395 .0626475
552.200 .0609689
553.004 .0594512
553.808 .0580656
554.611 .0567902
555.414 .0556299
556.216 .0545667
557.018 .0536064
557.819 .0527320
558.619 .0519206
559.419 .0511551
560.218 .0504327
561.017 .0497232
561.815 .0490215
562.613 .0483254
563.410 .0476249
564.207 .0469223
565.003 .0462331
565.799 .0455585
566.594 .0449025
567.388 .0442761
568.182 .0436742
568.976 .0430951
569.769 .0425421
570.562 .0420081
571.354 .0414933
572.145 .0410024
572.936 .0405299
573.727 .0400684
574.517 .0396255
575.307 .0392000
576.096 .0387917
576.885 .0384047
577.673 .0380402
578.461 .0376991
579.248 .0373833
580.035 .0370884
580.821 .0368101
581.607 .0365485
582.392 .0363026
583.177 .0360711
583.962 .0358527
584.746 .0356486
585.529 .0354602
586.313 .0352870
587.095 .0351297
587.878 .0349855
588.660 .0348543
589.441 .0347349
590.222 .0346250
591.003 .0345260
591.783 .0344347
592.563 .0343510
593.342 .0342741
594.121 .0342023
594.899 .0341366
595.678 .0340744
596.455 .0340169
597.233 .0339638
598.009 .0339137
598.786 .0338663
599.562 .0338207
600.338 .0337766
601.113 .0337337
601.888 .0336921
602.663 .0336504
603.437 .0336085
604.211 .0335668
604.984 .0335239
605.757 .0334787
606.530 .0334317
607.302 .0333833
608.074 .0333336
608.845 .0332842
609.616 .0332352
610.387 .0331881
611.158 .0331446
611.928 .0331039
612.697 .0330653
613.467 .0330288
614.236 .0329940
615.004 .0329597
615.773 .0329258
616.541 .0328928
617.308 .0328596
618.076 .0328275
618.843 .0327967
619.609 .0327673
620.375 .0327392
621.141 .0327127
621.907 .0326870
622.672 .0326612
623.437 .0326348
624.202 .0326072
624.966 .0325777
625.730 .0325473
626.493 .0325154
627.257 .0324821
628.020 .0324475
628.782 .0324128
629.545 .0323779
630.307 .0323427
631.068 .0323082
631.830 .0322738
632.591 .0322391
633.352 .0322041
634.112 .0321681
634.872 .0321303
635.632 .0320907
636.392 .0320494
637.151 .0320061
637.910 .0319618
638.668 .0319179
639.427 .0318744
640.185 .0318329
640.943 .0317937
641.700 .0317569
642.457 .0317221
643.214 .0316901
643.971 .0316598
644.727 .0316314
645.483 .0316047
646.239 .0315798
646.994 .0315561
647.750 .0315345
648.505 .0315148
649.259 .0314967
650.014 .0314800
650.768 .0314641
651.521 .0314480
652.275 .0314319
653.028 .0314149
653.781 .0313967
654.534 .0313773
655.286 .0313574
656.039 .0313366
656.791 .0313156
657.542 .0312950
658.294 .0312747
659.045 .0312552
659.796 .0312363
660.546 .0312172
661.297 .0311981
662.047 .0311792
662.796 .0311595
663.546 .0311396
664.295 .0311196
665.044 .0310991
665.793 .0310790
666.542 .0310600
667.290 .0310415
668.038 .0310232
668.786 .0310058
669.533 .0309884
670.281 .0309704
671.028 .0309529
671.774 .0309348
672.521 .0309172
673.267 .0309002
674.013 .0308843
674.759 .0308693
675.505 .0308560
676.250 .0308430
676.995 .0308303
677.740 .0308177
678.484 .0308039
679.229 .0307889
679.973 .0307726
680.717 .0307556
681.460 .0307376
682.204 .0307183
682.947 .0306985
683.690 .0306776
684.433 .0306567
685.175 .0306347
685.917 .0306127
686.659 .0305909
687.401 .0305691
688.142 .0305470
688.884 .0305253
689.625 .0305037
690.365 .0304816
691.106 .0304588
691.846 .0304351
692.586 .0304105
693.326 .0303847
694.066 .0303579
694.805 .0303310
695.545 .0303038
696.284 .0302765
697.022 .0302481
697.761 .0302190
698.499 .0301888
699.237 .0301569
699.975 .0301236
700.713 .0300893
701.450 .0300545
702.187 .0300198
702.924 .0299855
703.661 .0299525
704.397 .0299209
705.133 .0298909
705.869 .0298624
706.605 .0298348
707.341 .0298080
708.076 .0297824
708.811 .0297572
709.546 .0297328
710.281 .0297089
711.015 .0296854
711.749 .0296617
712.483 .0296379
713.217 .0296135
713.950 .0295887
714.684 .0295635
715.417 .0295379
716.150 .0295119
716.882 .0294864
717.615 .0294608
718.347 .0294355
719.079 .0294107
719.811 .0293863
720.542 .0293622
721.273 .0293385
722.005 .0293148
722.735 .0292915
723.466 .0292687
724.196 .0292467
724.927 .0292251
725.656 .0292049
726.386 .0291859
727.116 .0291678
727.845 .0291513
728.574 .0291360
729.303 .0291213
730.031 .0291076
730.760 .0290941
731.488 .0290811
732.216 .0290684
732.944 .0290568
733.671 .0290464
734.398 .0290376
735.125 .0290307
735.852 .0290253
736.579 .0290209
737.305 .0290176
738.031 .0290141
738.757 .0290100
739.483 .0290053
740.208 .0289999
740.933 .0289942
741.658 .0289884
742.383 .0289833
743.108 .0289788
743.832 .0289751
744.556 .0289719
745.280 .0289679
746.004 .0289631
746.727 .0289578
747.450 .0289516
748.173 .0289450
748.896 .0289383
749.618 .0289319
750.340 .0289266
751.062 .0289225
751.784 .0289193
752.506 .0289168
753.227 .0289151
753.948 .0289132
754.669 .0289106
755.389 .0289076
756.110 .0289038
756.830 .0288994
757.550 .0288951
758.269 .0288903
758.989 .0288851
759.708 .0288796
760.427 .0288735
761.146 .0288663
761.864 .0288583
762.582 .0288487
763.300 .0288375
764.018 .0288250
764.736 .0288115
765.453 .0287960
766.170 .0287796
766.887 .0287624
767.603 .0287444
768.320 .0287261
769.036 .0287081
769.751 .0286901
770.467 .0286727
771.182 .0286561
771.897 .0286395
772.612 .0286233
773.327 .0286084
774.041 .0285938
774.755 .0285798
775.469 .0285666
776.183 .0285543
776.896 .0285429
777.609 .0285328
778.322 .0285235
779.035 .0285143
779.747 .0285059
780.459 .0284974
781.171 .0284885
781.882 .0284798
782.594 .0284710
783.305 .0284615
784.016 .0284516
784.726 .0284410
785.436 .0284297
786.147 .0284180
786.856 .0284062
787.566 .0283937
788.275 .0283809
788.984 .0283675
789.693 .0283537
790.401 .0283397
791.110 .0283251
791.818 .0283097
792.525 .0282937
793.233 .0282767
793.940 .0282584
794.647 .0282391
795.353 .0282191
796.060 .0281987
796.766 .0281778
797.472 .0281565
798.177 .0281347
798.883 .0281124
799.588 .0280894
800.292 .0280654
800.997 .0280408
801.701 .0280155
802.405 .0279897
803.109 .0279641
803.812 .0279386
804.515 .0279135
805.218 .0278884
805.921 .0278628
806.623 .0278367
807.325 .0278097
808.027 .0277819
808.728 .0277537
809.429 .0277253
810.130 .0276974
810.831 .0276703
811.531 .0276444
812.231 .0276197
812.931 .0275954
813.630 .0275716
814.330 .0275476
815.029 .0275231
815.727 .0274984
816.426 .0274732
817.124 .0274476
817.821 .0274221
818.519 .0273969
819.216 .0273724
819.913 .0273485
820.609 .0273259
821.306 .0273041
822.002 .0272836
822.697 .0272646
823.393 .0272470
824.088 .0272309
824.783 .0272163
825.477 .0272027
826.171 .0271905
826.865 .0271801
827.559 .0271715
828.252 .0271650
828.945 .0271614
829.638 .0271602
830.330 .0271611
831.023 .0271635
831.714 .0271671
832.406 .0271710
833.097 .0271746
833.788 .0271769
834.479 .0271781
835.169 .0271790
835.859 .0271798
836.548 .0271810
837.238 .0271830
837.927 .0271853
838.615 .0271882
839.304 .0271910
839.992 .0271934
840.680 .0271951
841.367 .0271967
842.054 .0271983
842.741 .0272002
843.428 .0272030
844.114 .0272071
844.800 .0272124
845.485 .0272193
846.170 .0272265
846.855 .0272331
847.540 .0272388
848.224 .0272435
848.908 .0272467
849.592 .0272490
850.275 .0272504
850.958 .0272509
851.641 .0272508
852.323 .0272506
853.005 .0272494
853.687 .0272474
854.368 .0272445
855.049 .0272403
855.730 .0272346
856.410 .0272276
857.090 .0272196
857.769 .0272111
858.449 .0272026
859.128 .0271943
859.806 .0271864
860.485 .0271794
861.163 .0271731
861.840 .0271674
862.518 .0271624
863.195 .0271574
863.871 .0271514
864.548 .0271449
865.224 .0271380
865.899 .0271310
866.574 .0271243
867.249 .0271182
867.924 .0271134
868.598 .0271096
869.272 .0271067
869.946 .0271045
870.619 .0271025
871.292 .0271004
871.964 .0270974
872.636 .0270933
873.308 .0270883
873.979 .0270829
874.651 .0270778
875.321 .0270733
875.992 .0270698
876.662 .0270672
877.331 .0270657
878.001 .0270649
878.670 .0270643
879.338 .0270630
880.007 .0270612
880.675 .0270586
881.342 .0270551
882.009 .0270513
882.676 .0270478
883.343 .0270447
884.009 .0270425
884.675 .0270410
885.340 .0270398
886.005 .0270388
886.670 .0270382
887.334 .0270372
887.998 .0270360
888.662 .0270343
889.325 .0270324
889.988 .0270306
890.650 .0270291
891.312 .0270275
891.974 .0270261
892.636 .0270253
893.297 .0270250
893.957 .0270245
894.618 .0270240
895.278 .0270230
895.937 .0270214
896.596 .0270185
897.255 .0270140
897.914 .0270077
898.572 .0270000
899.230 .0269908
899.887 .0269801
900.544 .0269680
901.201 .0269550
901.857 .0269409
902.513 .0269256
903.168 .0269085
903.823 .0268894
904.478 .0268678
905.132 .0268438
905.786 .0268177
906.440 .0267902
907.093 .0267618
907.746 .0267336
908.399 .0267058
909.051 .0266787
909.703 .0266522
910.354 .0266256
911.005 .0265985
911.656 .0265707
912.306 .0265414
912.956 .0265104
913.605 .0264783
914.254 .0264455
914.903 .0264123
915.551 .0263794
916.199 .0263471
916.847 .0263153
917.494 .0262839
918.141 .0262526
918.788 .0262208
919.434 .0261887
920.079 .0261561
920.725 .0261227
921.370 .0260895
922.014 .0260560
922.658 .0260223
923.302 .0259888
923.946 .0259559
924.589 .0259233
925.231 .0258905
925.873 .0258575
926.515 .0258241
927.157 .0257904
927.798 .0257566
928.439 .0257221
929.079 .0256874
929.719 .0256522
930.359 .0256169
930.998 .0255811
931.637 .0255455
932.275 .0255105
932.913 .0254769
933.551 .0254447
934.188 .0254137
934.825 .0253839
935.462 .0253554
936.098 .0253283
936.733 .0253023
937.369 .0252773
938.004 .0252536
938.638 .0252309
939.273 .0252096
939.907 .0251898
940.540 .0251716
941.173 .0251550
941.806 .0251401
942.438 .0251261
943.070 .0251125
943.702 .0250992
944.333 .0250860
944.964 .0250731
945.594 .0250607
946.224 .0250491
946.854 .0250383
947.483 .0250288
948.112 .0250208
948.741 .0250133
949.369 .0250066
949.996 .0249999
950.624 .0249926
951.251 .0249845
951.878 .0249760
952.504 .0249666
953.130 .0249569
953.755 .0249474
954.380 .0249374
955.005 .0249275
955.629 .0249173
956.253 .0249071
956.877 .0248971
957.500 .0248879
958.123 .0248793
958.746 .0248710
959.368 .0248639
959.990 .0248573
960.611 .0248512
961.232 .0248457
961.853 .0248403
962.473 .0248352
963.093 .0248305
963.712 .0248262
964.331 .0248224
964.950 .0248192
965.569 .0248166
966.187 .0248147
966.804 .0248133
967.422 .0248117
968.039 .0248102
968.655 .0248084
969.272 .0248066
969.887 .0248043
970.503 .0248019
971.118 .0247997
971.733 .0247980
972.347 .0247969
972.961 .0247961
973.575 .0247961
974.188 .0247965
974.801 .0247969
975.414 .0247975
976.026 .0247979
976.638 .0247985
977.250 .0247992
977.861 .0248003
978.472 .0248018
979.083 .0248040
979.693 .0248067
980.303 .0248096
980.912 .0248130
981.521 .0248163
982.130 .0248191
982.738 .0248219
983.346 .0248244
983.954 .0248269
984.562 .0248292
985.169 .0248314
985.775 .0248336
986.382 .0248359
986.988 .0248380
987.594 .0248399
988.199 .0248416
988.804 .0248432
989.409 .0248444
990.013 .0248459
990.617 .0248475
991.221 .0248493
991.824 .0248518
992.427 .0248552
993.030 .0248596
993.632 .0248657
994.234 .0248731
994.836 .0248820
995.438 .0248921
996.039 .0249032
996.640 .0249151
997.240 .0249270
997.840 .0249395
998.440 .0249520
999.040 .0249644
999.639 .0249773
1000.238 .0249903
1000.836 .0250039
1001.435 .0250183
1002.033 .0250331
1002.630 .0250481
1003.228 .0250635
1003.825 .0250794
1004.422 .0250955
1005.018 .0251123
1005.614 .0251298
1006.210 .0251476
1006.806 .0251659
1007.401 .0251848
1007.996 .0252034
1008.591 .0252222
1009.186 .0252408
1009.780 .0252585
1010.374 .0252760
1010.967 .0252928
1011.561 .0253087
1012.154 .0253244
1012.746 .0253398
1013.339 .0253542
1013.931 .0253678
1014.523 .0253807
1015.115 .0253925
1015.706 .0254034
1016.298 .0254134
1016.888 .0254229
1017.479 .0254321
1018.069 .0254421
1018.660 .0254517
1019.250 .0254621
1019.839 .0254732
1020.429 .0254843
1021.018 .0254954
1021.607 .0255068
1022.195 .0255174
1022.784 .0255279
1023.372 .0255380
1023.960 .0255483
1024.547 .0255587
1025.135 .0255705
1025.722 .0255834
1026.309 .0255978
1026.896 .0256131
1027.483 .0256288
1028.069 .0256442
1028.655 .0256597
1029.241 .0256738
1029.827 .0256868
1030.412 .0256986
1030.997 .0257097
1031.582 .0257193
1032.167 .0257286
1032.752 .0257375
1033.336 .0257465
1033.921 .0257555
1034.505 .0257643
1035.089 .0257722
1035.672 .0257795
1036.256 .0257863
1036.839 .0257922
1037.422 .0257971
1038.005 .0258016
1038.588 .0258056
1039.171 .0258095
1039.753 .0258139
1040.335 .0258180
1040.918 .0258220
1041.500 .0258262
1042.081 .0258301
1042.663 .0258318
1043.244 .0258324
1043.826 .0258298
1044.407 .0258248
1044.988 .0258169
1045.569 .0258064
1046.150 .0257927
1046.730 .0257782
1047.311 .0257630
1047.891 .0257476
1048.471 .0257322
1049.052 .0257181
1049.632 .0257042
1050.211 .0256923
1050.791 .0256800
1051.371 .0256679
1051.950 .0256567
1052.530 .0256473
1053.109 .0256385
1053.688 .0256315
1054.268 .0256261
1054.847 .0256226
1055.426 .0256207
1056.005 .0256202
1056.583 .0256197
1057.162 .0256194
1057.741 .0256174
1058.319 .0256142
1058.898 .0256095
1059.476 .0256022
1060.055 .0255919
1060.633 .0255806
1061.211 .0255677
1061.790 .0255537
1062.368 .0255397
1062.946 .0255259
1063.524 .0255131
1064.102 .0255016
1064.680 .0254906
1065.258 .0254790
1065.836 .0254688
1066.414 .0254584
1066.992 .0254472
1067.570 .0254367
1068.148 .0254246
1068.726 .0254116
1069.304 .0254003
1069.882 .0253893
1070.460 .0253780
1071.038 .0253673
1071.616 .0253576
1072.194 .0253468
1072.772 .0253357
1073.350 .0253229
1073.928 .0253086
1074.506 .0252929
1075.084 .0252768
1075.662 .0252579
1076.240 .0252391
1076.819 .0252210
1077.397 .0252030
1077.976 .0251875
1078.554 .0251729
1079.133 .0251584
1079.711 .0251449
1080.290 .0251327
1080.869 .0251212
1081.448 .0251088
1082.027 .0250963
1082.606 .0250831
1083.185 .0250702
1083.764 .0250566
1084.343 .0250420
1084.923 .0250272
1085.502 .0250137
1086.082 .0249998
1086.662 .0249859
1087.242 .0249731
1087.822 .0249610
1088.402 .0249502
1088.983 .0249405
1089.563 .0249307
1090.144 .0249197
1090.725 .0249079
1091.306 .0248955
1091.887 .0248821
1092.469 .0248691
1093.050 .0248560
1093.632 .0248452
1094.214 .0248375
1094.796 .0248322
1095.379 .0248297
1095.961 .0248311
1096.544 .0248355
1097.127 .0248414
1097.710 .0248490
1098.294 .0248586
1098.877 .0248705
1099.461 .0248859
1100.046 .0249050
1100.630 .0249276
1101.215 .0249530
1101.800 .0249808
1102.385 .0250095
1102.970 .0250391
1103.556 .0250671
1104.142 .0250925
1104.728 .0251167
1105.315 .0251392
1105.902 .0251589
1106.489 .0251751
1107.077 .0251889
1107.664 .0252010
1108.253 .0252106
1108.841 .0252185
1109.430 .0252266
1110.019 .0252344
1110.609 .0252421
1111.198 .0252502
1111.789 .0252590
1112.379 .0252678
1112.970 .0252751
1113.561 .0252805
1114.153 .0252860
1114.745 .0252905
1115.338 .0252954
1115.931 .0253013
1116.524 .0253128
1117.117 .0253294
1117.712 .0253507
1118.306 .0253768
1118.901 .0254066
1119.496 .0254366
1120.092 .0254696
1120.689 .0255038
1121.285 .0255399
1121.882 .0255788
1122.480 .0256204
1123.078 .0256666
1123.677 .0257191
1124.276 .0257761
1124.875 .0258381
1125.476 .0259046
1126.076 .0259755
1126.677 .0260444
1127.279 .0261141
1127.881 .0261839
1128.484 .0262538
1129.087 .0263235
1129.691 .0263947
1130.295 .0264669
1130.900 .0265437
1131.505 .0266243
1132.111 .0267091
1132.718 .0267981
1133.325 .0268901
1133.933 .0269815
1134.541 .0270742
1135.150 .0271695
1135.760 .0272676
1136.370 .0273690
1136.981 .0274817
1137.592 .0276008
1138.204 .0277274
1138.817 .0278554
1139.431 .0279834
1140.045 .0281144
1140.660 .0282555
1141.275 .0284095
1141.891 .0285787
1142.508 .0285417
1143.126 .0287984
1143.744 .0292222
1144.363 .0295703
1144.983 .0297806
