Measurement Sequence started on: 15-12-46-377
Integration time: 28
Scans to Average: 2 
>>>>>Begin Spectral Data<<<<<
432.689 .0000100
433.621 .0000100
434.552 .0000100
435.482 .0000100
436.410 .0000100
437.337 .0000100
438.262 .0267657
439.187 .0568092
440.110 .0942055
441.031 .1363982
441.952 .1774915
442.871 .2099608
443.789 .2279075
444.705 .2292903
445.621 .2165245
446.535 .1949357
447.447 .1703683
448.359 .1327211
449.269 .1139741
450.178 .1021468
451.086 .0938994
451.993 .0876718
452.898 .0828844
453.803 .0790944
454.706 .0760148
455.608 .0733996
456.508 .0711186
457.408 .0690879
458.306 .0672358
459.204 .0655280
460.100 .0639617
460.995 .0625319
461.888 .0612210
462.781 .0600250
463.673 .0589401
464.563 .0579538
465.452 .0570396
466.340 .0561797
467.228 .0553796
468.114 .0546146
468.999 .0538979
469.882 .0532206
470.765 .0525890
471.647 .0520126
472.528 .0514900
473.407 .0510248
474.286 .0506169
475.163 .0502677
476.040 .0499672
476.915 .0497046
477.790 .0494856
478.663 .0492892
479.535 .0491081
480.407 .0489465
481.277 .0487998
482.147 .0486686
483.015 .0485545
483.883 .0484581
484.749 .0483807
485.615 .0483230
486.479 .0482833
487.343 .0482592
488.206 .0482513
489.067 .0482547
489.928 .0482562
490.788 .0482677
491.647 .0482914
492.505 .0483294
493.362 .0483896
494.218 .0484810
495.073 .0486027
495.928 .0487605
496.781 .0489490
497.634 .0491758
498.486 .0494359
499.337 .0497303
500.187 .0500496
501.036 .0503934
501.884 .0507604
502.731 .0511507
503.578 .0515725
504.424 .0520352
505.268 .0525251
506.113 .0530551
506.956 .0536137
507.798 .0542151
508.640 .0548650
509.480 .0555698
510.320 .0563395
511.160 .0571849
511.998 .0581125
512.836 .0591398
513.672 .0602699
514.508 .0615297
515.344 .0629086
516.178 .0644349
517.012 .0661230
517.845 .0680120
518.677 .0701509
519.508 .0725999
520.339 .0754076
521.169 .0786796
521.998 .0824349
522.826 .0867281
523.654 .0916085
524.481 .0970649
525.307 .1031360
526.133 .1097763
526.958 .1169188
527.782 .1244854
528.605 .1322772
529.428 .1402378
530.250 .1477517
531.072 .1546026
531.892 .1603434
532.712 .1646412
533.532 .1673064
534.350 .1681199
535.168 .1669614
535.986 .1639898
536.802 .1593681
537.618 .1533903
538.434 .1462816
539.249 .1386245
540.063 .1305917
540.876 .1225570
541.689 .1147750
542.501 .1074311
543.313 .1006860
544.124 .0947012
544.934 .0893447
545.744 .0845716
546.553 .0803252
547.361 .0765427
548.169 .0731926
548.976 .0702141
549.783 .0675448
550.589 .0651321
551.395 .0629644
552.200 .0610223
553.004 .0592613
553.808 .0576833
554.611 .0562940
555.414 .0550630
556.216 .0539783
557.018 .0530236
557.819 .0521725
558.619 .0514035
559.419 .0507040
560.218 .0500566
561.017 .0494451
561.815 .0488536
562.613 .0482709
563.410 .0476933
564.207 .0471313
565.003 .0465687
565.799 .0460114
566.594 .0454566
567.388 .0449190
568.182 .0443789
568.976 .0438437
569.769 .0433218
570.562 .0428152
571.354 .0423248
572.145 .0418421
572.936 .0413670
573.727 .0409016
574.517 .0404398
575.307 .0399846
576.096 .0395335
576.885 .0390967
577.673 .0386755
578.461 .0382759
579.248 .0378987
580.035 .0375503
580.821 .0372258
581.607 .0369209
582.392 .0366364
583.177 .0363674
583.962 .0361114
584.746 .0358703
585.529 .0356437
586.313 .0354355
587.095 .0352429
587.878 .0350684
588.660 .0349075
589.441 .0347606
590.222 .0346245
591.003 .0344983
591.783 .0343807
592.563 .0342715
593.342 .0341688
594.121 .0340739
594.899 .0339880
595.678 .0339098
596.455 .0338390
597.233 .0337760
598.009 .0337180
598.786 .0336646
599.562 .0336137
600.338 .0335647
601.113 .0335157
601.888 .0334669
602.663 .0334168
603.437 .0333671
604.211 .0333176
604.984 .0332688
605.757 .0332218
606.530 .0331768
607.302 .0331328
608.074 .0330907
608.845 .0330499
609.616 .0330104
610.387 .0329731
611.158 .0329384
611.928 .0329059
612.697 .0328769
613.467 .0328516
614.236 .0328295
615.004 .0328117
615.773 .0327987
616.541 .0327891
617.308 .0327824
618.076 .0327787
618.843 .0327763
619.609 .0327753
620.375 .0327745
621.141 .0327731
621.907 .0327712
622.672 .0327678
623.437 .0327614
624.202 .0327529
624.966 .0327428
625.730 .0327308
626.493 .0327157
627.257 .0326990
628.020 .0326798
628.782 .0326582
629.545 .0326337
630.307 .0326065
631.068 .0325771
631.830 .0325463
632.591 .0325133
633.352 .0324800
634.112 .0324466
634.872 .0324130
635.632 .0323792
636.392 .0323453
637.151 .0323104
637.910 .0322742
638.668 .0322369
639.427 .0321995
640.185 .0321618
640.943 .0321253
641.700 .0320895
642.457 .0320553
643.214 .0320230
643.971 .0319908
644.727 .0319591
645.483 .0319279
646.239 .0318963
646.994 .0318638
647.750 .0318309
648.505 .0317983
649.259 .0317659
650.014 .0317336
650.768 .0317009
651.521 .0316674
652.275 .0316334
653.028 .0315983
653.781 .0315615
654.534 .0315238
655.286 .0314854
656.039 .0314458
656.791 .0314061
657.542 .0313652
658.294 .0313238
659.045 .0312826
659.796 .0312414
660.546 .0312005
661.297 .0311598
662.047 .0311202
662.796 .0310817
663.546 .0310454
664.295 .0310112
665.044 .0309786
665.793 .0309482
666.542 .0309197
667.290 .0308927
668.038 .0308673
668.786 .0308435
669.533 .0308210
670.281 .0307994
671.028 .0307782
671.774 .0307568
672.521 .0307357
673.267 .0307151
674.013 .0306951
674.759 .0306759
675.505 .0306573
676.250 .0306390
676.995 .0306214
677.740 .0306042
678.484 .0305870
679.229 .0305693
679.973 .0305513
680.717 .0305328
681.460 .0305143
682.204 .0304956
682.947 .0304780
683.690 .0304615
684.433 .0304465
685.175 .0304327
685.917 .0304204
686.659 .0304092
687.401 .0303995
688.142 .0303908
688.884 .0303832
689.625 .0303761
690.365 .0303693
691.106 .0303620
691.846 .0303553
692.586 .0303486
693.326 .0303419
694.066 .0303355
694.805 .0303294
695.545 .0303229
696.284 .0303157
697.022 .0303078
697.761 .0302990
698.499 .0302888
699.237 .0302776
699.975 .0302653
700.713 .0302523
701.450 .0302389
702.187 .0302258
702.924 .0302130
703.661 .0302008
704.397 .0301885
705.133 .0301761
705.869 .0301630
706.605 .0301496
707.341 .0301359
708.076 .0301223
708.811 .0301095
709.546 .0300973
710.281 .0300854
711.015 .0300741
711.749 .0300626
712.483 .0300507
713.217 .0300376
713.950 .0300235
714.684 .0300074
715.417 .0299898
716.150 .0299720
716.882 .0299537
717.615 .0299352
718.347 .0299167
719.079 .0298977
719.811 .0298774
720.542 .0298558
721.273 .0298325
722.005 .0298075
722.735 .0297814
723.466 .0297539
724.196 .0297252
724.927 .0296958
725.656 .0296662
726.386 .0296362
727.116 .0296064
727.845 .0295770
728.574 .0295473
729.303 .0295174
730.031 .0294876
730.760 .0294581
731.488 .0294288
732.216 .0294005
732.944 .0293734
733.671 .0293473
734.398 .0293223
735.125 .0292982
735.852 .0292751
736.579 .0292531
737.305 .0292321
738.031 .0292121
738.757 .0291928
739.483 .0291744
740.208 .0291567
740.933 .0291397
741.658 .0291237
742.383 .0291080
743.108 .0290924
743.832 .0290766
744.556 .0290602
745.280 .0290431
746.004 .0290253
746.727 .0290069
747.450 .0289877
748.173 .0289674
748.896 .0289463
749.618 .0289239
750.340 .0289010
751.062 .0288776
751.784 .0288538
752.506 .0288294
753.227 .0288048
753.948 .0287796
754.669 .0287545
755.389 .0287294
756.110 .0287051
756.830 .0286818
757.550 .0286596
758.269 .0286383
758.989 .0286176
759.708 .0285977
760.427 .0285787
761.146 .0285600
761.864 .0285419
762.582 .0285236
763.300 .0285056
764.018 .0284875
764.736 .0284694
765.453 .0284516
766.170 .0284347
766.887 .0284184
767.603 .0284027
768.320 .0283878
769.036 .0283737
769.751 .0283609
770.467 .0283495
771.182 .0283389
771.897 .0283294
772.612 .0283205
773.327 .0283125
774.041 .0283048
774.755 .0282980
775.469 .0282921
776.183 .0282871
776.896 .0282833
777.609 .0282809
778.322 .0282796
779.035 .0282797
779.747 .0282810
780.459 .0282830
781.171 .0282852
781.882 .0282871
782.594 .0282885
783.305 .0282903
784.016 .0282920
784.726 .0282942
785.436 .0282970
786.147 .0283008
786.856 .0283052
787.566 .0283099
788.275 .0283149
788.984 .0283199
789.693 .0283242
790.401 .0283274
791.110 .0283287
791.818 .0283293
792.525 .0283286
793.233 .0283271
793.940 .0283253
794.647 .0283238
795.353 .0283225
796.060 .0283216
796.766 .0283213
797.472 .0283210
798.177 .0283206
798.883 .0283198
799.588 .0283182
800.292 .0283164
800.997 .0283145
801.701 .0283123
802.405 .0283103
803.109 .0283089
803.812 .0283077
804.515 .0283063
805.218 .0283047
805.921 .0283020
806.623 .0282977
807.325 .0282918
808.027 .0282841
808.728 .0282751
809.429 .0282651
810.130 .0282540
810.831 .0282427
811.531 .0282312
812.231 .0282198
812.931 .0282080
813.630 .0281960
814.330 .0281837
815.029 .0281709
815.727 .0281577
816.426 .0281441
817.124 .0281307
817.821 .0281177
818.519 .0281052
819.216 .0280932
819.913 .0280817
820.609 .0280707
821.306 .0280603
822.002 .0280507
822.697 .0280417
823.393 .0280338
824.088 .0280266
824.783 .0280203
825.477 .0280146
826.171 .0280093
826.865 .0280039
827.559 .0279986
828.252 .0279936
828.945 .0279882
829.638 .0279829
830.330 .0279779
831.023 .0279727
831.714 .0279674
832.406 .0279617
833.097 .0279549
833.788 .0279465
834.479 .0279364
835.169 .0279244
835.859 .0279109
836.548 .0278963
837.238 .0278808
837.927 .0278649
838.615 .0278491
839.304 .0278335
839.992 .0278177
840.680 .0278026
841.367 .0277873
842.054 .0277722
842.741 .0277576
843.428 .0277435
844.114 .0277299
844.800 .0277171
845.485 .0277044
846.170 .0276913
846.855 .0276772
847.540 .0276618
848.224 .0276446
848.908 .0276259
849.592 .0276054
850.275 .0275830
850.958 .0275591
851.641 .0275339
852.323 .0275073
853.005 .0274792
853.687 .0274497
854.368 .0274189
855.049 .0273868
855.730 .0273538
856.410 .0273206
857.090 .0272876
857.769 .0272552
858.449 .0272237
859.128 .0271926
859.806 .0271618
860.485 .0271316
861.163 .0271015
861.840 .0270715
862.518 .0270417
863.195 .0270120
863.871 .0269822
864.548 .0269524
865.224 .0269227
865.899 .0268929
866.574 .0268632
867.249 .0268335
867.924 .0268035
868.598 .0267736
869.272 .0267442
869.946 .0267159
870.619 .0266885
871.292 .0266625
871.964 .0266377
872.636 .0266145
873.308 .0265927
873.979 .0265721
874.651 .0265525
875.321 .0265342
875.992 .0265173
876.662 .0265013
877.331 .0264863
878.001 .0264726
878.670 .0264599
879.338 .0264482
880.007 .0264376
880.675 .0264277
881.342 .0264185
882.009 .0264100
882.676 .0264019
883.343 .0263942
884.009 .0263864
884.675 .0263789
885.340 .0263716
886.005 .0263648
886.670 .0263589
887.334 .0263540
887.998 .0263506
888.662 .0263490
889.325 .0263489
889.988 .0263501
890.650 .0263522
891.312 .0263550
891.974 .0263582
892.636 .0263616
893.297 .0263652
893.957 .0263690
894.618 .0263728
895.278 .0263770
895.937 .0263815
896.596 .0263863
897.255 .0263911
897.914 .0263959
898.572 .0264005
899.230 .0264041
899.887 .0264072
900.544 .0264092
901.201 .0264105
901.857 .0264114
902.513 .0264117
903.168 .0264109
903.823 .0264093
904.478 .0264067
905.132 .0264027
905.786 .0263972
906.440 .0263903
907.093 .0263818
907.746 .0263722
908.399 .0263615
909.051 .0263501
909.703 .0263385
910.354 .0263275
911.005 .0263166
911.656 .0263065
912.306 .0262971
912.956 .0262885
913.605 .0262811
914.254 .0262751
914.903 .0262701
915.551 .0262661
916.199 .0262634
916.847 .0262617
917.494 .0262610
918.141 .0262613
918.788 .0262626
919.434 .0262650
920.079 .0262680
920.725 .0262711
921.370 .0262742
922.014 .0262772
922.658 .0262793
923.302 .0262799
923.946 .0262791
924.589 .0262761
925.231 .0262713
925.873 .0262653
926.515 .0262583
927.157 .0262506
927.798 .0262427
928.439 .0262348
929.079 .0262268
929.719 .0262186
930.359 .0262095
930.998 .0261996
931.637 .0261891
932.275 .0261780
932.913 .0261664
933.551 .0261554
934.188 .0261460
934.825 .0261381
935.462 .0261323
936.098 .0261283
936.733 .0261263
937.369 .0261257
938.004 .0261266
938.638 .0261284
939.273 .0261311
939.907 .0261345
940.540 .0261390
941.173 .0261448
941.806 .0261525
942.438 .0261617
943.070 .0261721
943.702 .0261831
944.333 .0261944
944.964 .0262043
945.594 .0262132
946.224 .0262206
946.854 .0262269
947.483 .0262317
948.112 .0262357
948.741 .0262388
949.369 .0262420
949.996 .0262451
950.624 .0262480
951.251 .0262503
951.878 .0262519
952.504 .0262521
953.130 .0262512
953.755 .0262486
954.380 .0262454
955.005 .0262413
955.629 .0262372
956.253 .0262325
956.877 .0262286
957.500 .0262253
958.123 .0262231
958.746 .0262212
959.368 .0262197
959.990 .0262178
960.611 .0262155
961.232 .0262124
961.853 .0262089
962.473 .0262052
963.093 .0262014
963.712 .0261974
964.331 .0261937
964.950 .0261896
965.569 .0261856
966.187 .0261811
966.804 .0261763
967.422 .0261708
968.039 .0261645
968.655 .0261572
969.272 .0261493
969.887 .0261404
970.503 .0261305
971.118 .0261197
971.733 .0261081
972.347 .0260954
972.961 .0260813
973.575 .0260662
974.188 .0260496
974.801 .0260318
975.414 .0260129
976.026 .0259929
976.638 .0259724
977.250 .0259516
977.861 .0259307
978.472 .0259098
979.083 .0258887
979.693 .0258676
980.303 .0258465
980.912 .0258248
981.521 .0258023
982.130 .0257792
982.738 .0257558
983.346 .0257325
983.954 .0257096
984.562 .0256869
985.169 .0256645
985.775 .0256425
986.382 .0256198
986.988 .0255963
987.594 .0255720
988.199 .0255465
988.804 .0255199
989.409 .0254926
990.013 .0254655
990.617 .0254388
991.221 .0254135
991.824 .0253903
992.427 .0253694
993.030 .0253507
993.632 .0253339
994.234 .0253186
994.836 .0253048
995.438 .0252921
996.039 .0252798
996.640 .0252681
997.240 .0252571
997.840 .0252469
998.440 .0252371
999.040 .0252271
999.639 .0252176
1000.238 .0252078
1000.836 .0251974
1001.435 .0251860
1002.033 .0251738
1002.630 .0251602
1003.228 .0251450
1003.825 .0251287
1004.422 .0251112
1005.018 .0250930
1005.614 .0250749
1006.210 .0250569
1006.806 .0250398
1007.401 .0250244
1007.996 .0250102
1008.591 .0249976
1009.186 .0249869
1009.780 .0249769
1010.374 .0249665
1010.967 .0249557
1011.561 .0249442
1012.154 .0249314
1012.746 .0249177
1013.339 .0249033
1013.931 .0248880
1014.523 .0248730
1015.115 .0248578
1015.706 .0248422
1016.298 .0248268
1016.888 .0248114
1017.479 .0247946
1018.069 .0247767
1018.660 .0247581
1019.250 .0247393
1019.839 .0247207
1020.429 .0247032
1021.018 .0246867
1021.607 .0246723
1022.195 .0246600
1022.784 .0246492
1023.372 .0246402
1023.960 .0246335
1024.547 .0246280
1025.135 .0246238
1025.722 .0246206
1026.309 .0246186
1026.896 .0246174
1027.483 .0246176
1028.069 .0246179
1028.655 .0246184
1029.241 .0246182
1029.827 .0246180
1030.412 .0246173
1030.997 .0246175
1031.582 .0246177
1032.167 .0246185
1032.752 .0246203
1033.336 .0246225
1033.921 .0246248
1034.505 .0246271
1035.089 .0246287
1035.672 .0246294
1036.256 .0246281
1036.839 .0246245
1037.422 .0246196
1038.005 .0246137
1038.588 .0246072
1039.171 .0246001
1039.753 .0245933
1040.335 .0245868
1040.918 .0245806
1041.500 .0245745
1042.081 .0245683
1042.663 .0245623
1043.244 .0245567
1043.826 .0245501
1044.407 .0245436
1044.988 .0245367
1045.569 .0245300
1046.150 .0245236
1046.730 .0245176
1047.311 .0245116
1047.891 .0245068
1048.471 .0245030
1049.052 .0245007
1049.632 .0244990
1050.211 .0244987
1050.791 .0244984
1051.371 .0244976
1051.950 .0244961
1052.530 .0244929
1053.109 .0244883
1053.688 .0244833
1054.268 .0244770
1054.847 .0244718
1055.426 .0244678
1056.005 .0244668
1056.583 .0244682
1057.162 .0244719
1057.741 .0244768
1058.319 .0244816
1058.898 .0244857
1059.476 .0244881
1060.055 .0244885
1060.633 .0244878
1061.211 .0244865
1061.790 .0244860
1062.368 .0244871
1062.946 .0244914
1063.524 .0244994
1064.102 .0245111
1064.680 .0245245
1065.258 .0245385
1065.836 .0245512
1066.414 .0245627
1066.992 .0245731
1067.570 .0245829
1068.148 .0245927
1068.726 .0246037
1069.304 .0246170
1069.882 .0246328
1070.460 .0246500
1071.038 .0246697
1071.616 .0246895
1072.194 .0247090
1072.772 .0247256
1073.350 .0247389
1073.928 .0247494
1074.506 .0247582
1075.084 .0247660
1075.662 .0247727
1076.240 .0247792
1076.819 .0247861
1077.397 .0247929
1077.976 .0248009
1078.554 .0248092
1079.133 .0248183
1079.711 .0248272
1080.290 .0248371
1080.869 .0248462
1081.448 .0248555
1082.027 .0248665
1082.606 .0248789
1083.185 .0248924
1083.764 .0249078
1084.343 .0249248
1084.923 .0249437
1085.502 .0249658
1086.082 .0249911
1086.662 .0250181
1087.242 .0250489
1087.822 .0250797
1088.402 .0251106
1088.983 .0251398
1089.563 .0251683
1090.144 .0251930
1090.725 .0252164
1091.306 .0252381
1091.887 .0252579
1092.469 .0252773
1093.050 .0252983
1093.632 .0253195
1094.214 .0253417
1094.796 .0253626
1095.379 .0253836
1095.961 .0254025
1096.544 .0254213
1097.127 .0254372
1097.710 .0254535
1098.294 .0254708
1098.877 .0254911
1099.461 .0255134
1100.046 .0255410
1100.630 .0255729
1101.215 .0256103
1101.800 .0256502
1102.385 .0256924
1102.970 .0257365
1103.556 .0257810
1104.142 .0258248
1104.728 .0258681
1105.315 .0259099
1105.902 .0259507
1106.489 .0259908
1107.077 .0260308
1107.664 .0260705
1108.253 .0261118
1108.841 .0261523
1109.430 .0261926
1110.019 .0262318
1110.609 .0262718
1111.198 .0263112
1111.789 .0263535
1112.379 .0263984
1112.970 .0264452
1113.561 .0264956
1114.153 .0265505
1114.745 .0266085
1115.338 .0266700
1115.931 .0267326
1116.524 .0267967
1117.117 .0268600
1117.712 .0269259
1118.306 .0269911
1118.901 .0270587
1119.496 .0271264
1120.092 .0271957
1120.689 .0272608
1121.285 .0273215
1121.882 .0273739
1122.480 .0274205
1123.078 .0274608
1123.677 .0274994
1124.276 .0275362
1124.875 .0275799
1125.476 .0276298
1126.076 .0276922
1126.677 .0277614
1127.279 .0278363
1127.881 .0279107
1128.484 .0279836
1129.087 .0280510
1129.691 .0281179
1130.295 .0281863
1130.900 .0282635
1131.505 .0283506
1132.111 .0284531
1132.718 .0285667
1133.325 .0286928
1133.933 .0288234
1134.541 .0289561
1135.150 .0290862
1135.760 .0292119
1136.370 .0293296
1136.981 .0294434
1137.592 .0295575
1138.204 .0296752
1138.817 .0297962
1139.431 .0299201
1140.045 .0300570
1140.660 .0301979
1141.275 .0303417
1141.891 .0304547
1142.508 .0305708
1143.126 .0309522
1143.744 .0308722
1144.363 .0310212
1144.983 .0302824
