Measurement Sequence started on: 15-12-46-377
Integration time: 28
Scans to Average: 2 
>>>>>Begin Spectral Data<<<<<
432.689 .0000100
433.621 .0000100
434.552 .0000100
435.482 .0000100
436.410 .0000100
437.337 .0000100
438.262 .0274312
439.187 .0581102
440.110 .0962344
441.031 .1392121
441.952 .1809430
442.871 .2137361
443.789 .2316992
444.705 .2327594
445.621 .2194421
446.535 .1972133
447.447 .1720203
448.359 .1334502
449.269 .1142628
450.178 .1020580
451.086 .0933622
451.993 .0866404
452.898 .0813328
453.803 .0769743
454.706 .0734180
455.608 .0704543
456.508 .0679692
457.408 .0658739
458.306 .0640683
459.204 .0624823
460.100 .0610714
460.995 .0598196
461.888 .0586958
462.781 .0576757
463.673 .0567388
464.563 .0558697
465.452 .0550423
466.340 .0542526
467.228 .0535062
468.114 .0527851
468.999 .0521055
469.882 .0514582
470.765 .0508429
471.647 .0502717
472.528 .0497335
473.407 .0492409
474.286 .0487824
475.163 .0483687
476.040 .0479906
476.915 .0476552
477.790 .0473640
478.663 .0471184
479.535 .0469186
480.407 .0467705
481.277 .0466518
482.147 .0465607
483.015 .0464903
483.883 .0464309
484.749 .0463812
485.615 .0463442
486.479 .0463199
487.343 .0463199
488.206 .0463418
489.067 .0463917
489.928 .0464558
490.788 .0465397
491.647 .0466314
492.505 .0467263
493.362 .0468308
494.218 .0469360
495.073 .0470449
495.928 .0471667
496.781 .0473043
497.634 .0474663
498.486 .0476573
499.337 .0478759
500.187 .0481232
501.036 .0483994
501.884 .0487047
502.731 .0490314
503.578 .0493815
504.424 .0497562
505.268 .0501470
506.113 .0505516
506.956 .0509805
507.798 .0514429
508.640 .0519656
509.480 .0525683
510.320 .0532759
511.160 .0540990
511.998 .0550489
512.836 .0561335
513.672 .0573461
514.508 .0586733
515.344 .0601120
516.178 .0616724
517.012 .0633773
517.845 .0652594
518.677 .0673630
519.508 .0697230
520.339 .0724361
521.169 .0755355
521.998 .0790348
522.826 .0829753
523.654 .0873944
524.481 .0922753
525.307 .0976834
526.133 .1035677
526.958 .1098957
527.782 .1166286
528.605 .1236289
529.428 .1307535
530.250 .1375454
531.072 .1438378
531.892 .1492274
532.712 .1534644
533.532 .1563631
534.350 .1575875
535.168 .1570919
535.986 .1549038
536.802 .1510972
537.618 .1458814
538.434 .1394863
539.249 .1324088
540.063 .1248537
540.876 .1172613
541.689 .1098435
542.501 .1028855
543.313 .0965998
544.124 .0909957
544.934 .0859920
545.744 .0815399
546.553 .0775975
547.361 .0741059
548.169 .0710239
548.976 .0682808
549.783 .0658450
550.589 .0637006
551.395 .0617641
552.200 .0600469
553.004 .0585068
553.808 .0571187
554.611 .0558552
555.414 .0547152
556.216 .0536583
557.018 .0526900
557.819 .0518015
558.619 .0509706
559.419 .0502063
560.218 .0494886
561.017 .0488028
561.815 .0481481
562.613 .0475173
563.410 .0468961
564.207 .0462732
565.003 .0456709
565.799 .0450700
566.594 .0444739
567.388 .0438947
568.182 .0433219
568.976 .0427582
569.769 .0422116
570.562 .0416717
571.354 .0411389
572.145 .0406160
572.936 .0400940
573.727 .0395763
574.517 .0390678
575.307 .0385725
576.096 .0380933
576.885 .0376414
577.673 .0372205
578.461 .0368251
579.248 .0364662
580.035 .0361381
580.821 .0358395
581.607 .0355664
582.392 .0353148
583.177 .0350824
583.962 .0348674
584.746 .0346721
585.529 .0344958
586.313 .0343405
587.095 .0342077
587.878 .0340915
588.660 .0339917
589.441 .0339054
590.222 .0338265
591.003 .0337544
591.783 .0336846
592.563 .0336136
593.342 .0335415
594.121 .0334661
594.899 .0333908
595.678 .0333150
596.455 .0332414
597.233 .0331725
598.009 .0331058
598.786 .0330438
599.562 .0329847
600.338 .0329273
601.113 .0328724
601.888 .0328179
602.663 .0327641
603.437 .0327124
604.211 .0326637
604.984 .0326194
605.757 .0325800
606.530 .0325455
607.302 .0325150
608.074 .0324876
608.845 .0324630
609.616 .0324390
610.387 .0324136
611.158 .0323872
611.928 .0323584
612.697 .0323281
613.467 .0322963
614.236 .0322640
615.004 .0322321
615.773 .0322012
616.541 .0321713
617.308 .0321422
618.076 .0321143
618.843 .0320878
619.609 .0320622
620.375 .0320380
621.141 .0320139
621.907 .0319902
622.672 .0319669
623.437 .0319445
624.202 .0319227
624.966 .0319012
625.730 .0318802
626.493 .0318597
627.257 .0318394
628.020 .0318188
628.782 .0317978
629.545 .0317755
630.307 .0317514
631.068 .0317252
631.830 .0316967
632.591 .0316658
633.352 .0316338
634.112 .0316012
634.872 .0315684
635.632 .0315361
636.392 .0315046
637.151 .0314748
637.910 .0314470
638.668 .0314201
639.427 .0313938
640.185 .0313677
640.943 .0313421
641.700 .0313152
642.457 .0312880
643.214 .0312609
643.971 .0312334
644.727 .0312063
645.483 .0311800
646.239 .0311543
646.994 .0311303
647.750 .0311078
648.505 .0310868
649.259 .0310667
650.014 .0310470
650.768 .0310268
651.521 .0310065
652.275 .0309857
653.028 .0309641
653.781 .0309418
654.534 .0309201
655.286 .0308989
656.039 .0308781
656.791 .0308578
657.542 .0308369
658.294 .0308161
659.045 .0307941
659.796 .0307695
660.546 .0307429
661.297 .0307138
662.047 .0306828
662.796 .0306500
663.546 .0306164
664.295 .0305829
665.044 .0305504
665.793 .0305202
666.542 .0304918
667.290 .0304656
668.038 .0304417
668.786 .0304192
669.533 .0303982
670.281 .0303781
671.028 .0303582
671.774 .0303385
672.521 .0303194
673.267 .0303007
674.013 .0302829
674.759 .0302659
675.505 .0302503
676.250 .0302360
676.995 .0302225
677.740 .0302092
678.484 .0301950
679.229 .0301803
679.973 .0301643
680.717 .0301466
681.460 .0301279
682.204 .0301080
682.947 .0300882
683.690 .0300690
684.433 .0300508
685.175 .0300335
685.917 .0300168
686.659 .0300005
687.401 .0299841
688.142 .0299674
688.884 .0299501
689.625 .0299319
690.365 .0299135
691.106 .0298951
691.846 .0298764
692.586 .0298580
693.326 .0298396
694.066 .0298213
694.805 .0298026
695.545 .0297832
696.284 .0297626
697.022 .0297409
697.761 .0297187
698.499 .0296958
699.237 .0296725
699.975 .0296488
700.713 .0296251
701.450 .0296016
702.187 .0295782
702.924 .0295550
703.661 .0295319
704.397 .0295097
705.133 .0294884
705.869 .0294682
706.605 .0294488
707.341 .0294308
708.076 .0294137
708.811 .0293973
709.546 .0293811
710.281 .0293651
711.015 .0293492
711.749 .0293331
712.483 .0293171
713.217 .0293010
713.950 .0292848
714.684 .0292689
715.417 .0292529
716.150 .0292371
716.882 .0292212
717.615 .0292049
718.347 .0291886
719.079 .0291725
719.811 .0291558
720.542 .0291388
721.273 .0291216
722.005 .0291040
722.735 .0290858
723.466 .0290673
724.196 .0290486
724.927 .0290296
725.656 .0290102
726.386 .0289906
727.116 .0289705
727.845 .0289504
728.574 .0289298
729.303 .0289086
730.031 .0288873
730.760 .0288658
731.488 .0288439
732.216 .0288232
732.944 .0288035
733.671 .0287857
734.398 .0287696
735.125 .0287557
735.852 .0287440
736.579 .0287338
737.305 .0287252
738.031 .0287178
738.757 .0287115
739.483 .0287054
740.208 .0286990
740.933 .0286927
741.658 .0286861
742.383 .0286788
743.108 .0286709
743.832 .0286626
744.556 .0286535
745.280 .0286436
746.004 .0286324
746.727 .0286203
747.450 .0286074
748.173 .0285931
748.896 .0285781
749.618 .0285622
750.340 .0285461
751.062 .0285297
751.784 .0285142
752.506 .0284996
753.227 .0284858
753.948 .0284727
754.669 .0284603
755.389 .0284482
756.110 .0284361
756.830 .0284236
757.550 .0284111
758.269 .0283981
758.989 .0283846
759.708 .0283700
760.427 .0283549
761.146 .0283391
761.864 .0283221
762.582 .0283036
763.300 .0282834
764.018 .0282618
764.736 .0282383
765.453 .0282139
766.170 .0281894
766.887 .0281650
767.603 .0281414
768.320 .0281192
769.036 .0280986
769.751 .0280796
770.467 .0280622
771.182 .0280466
771.897 .0280321
772.612 .0280187
773.327 .0280057
774.041 .0279937
774.755 .0279830
775.469 .0279740
776.183 .0279663
776.896 .0279606
777.609 .0279561
778.322 .0279527
779.035 .0279496
779.747 .0279463
780.459 .0279421
781.171 .0279370
781.882 .0279303
782.594 .0279227
783.305 .0279141
784.016 .0279057
784.726 .0278974
785.436 .0278902
786.147 .0278836
786.856 .0278780
787.566 .0278726
788.275 .0278675
788.984 .0278621
789.693 .0278563
790.401 .0278493
791.110 .0278413
791.818 .0278322
792.525 .0278223
793.233 .0278115
793.940 .0278003
794.647 .0277887
795.353 .0277772
796.060 .0277654
796.766 .0277533
797.472 .0277406
798.177 .0277273
798.883 .0277127
799.588 .0276964
800.292 .0276785
800.997 .0276590
801.701 .0276387
802.405 .0276180
803.109 .0275979
803.812 .0275789
804.515 .0275610
805.218 .0275443
805.921 .0275280
806.623 .0275118
807.325 .0274954
808.027 .0274784
808.728 .0274605
809.429 .0274418
810.130 .0274230
810.831 .0274043
811.531 .0273865
812.231 .0273695
812.931 .0273533
813.630 .0273378
814.330 .0273225
815.029 .0273070
815.727 .0272914
816.426 .0272755
817.124 .0272589
817.821 .0272417
818.519 .0272244
819.216 .0272067
819.913 .0271893
820.609 .0271725
821.306 .0271570
822.002 .0271429
822.697 .0271304
823.393 .0271195
824.088 .0271108
824.783 .0271039
825.477 .0270978
826.171 .0270928
826.865 .0270882
827.559 .0270841
828.252 .0270802
828.945 .0270767
829.638 .0270740
830.330 .0270726
831.023 .0270723
831.714 .0270729
832.406 .0270744
833.097 .0270765
833.788 .0270776
834.479 .0270785
835.169 .0270780
835.859 .0270760
836.548 .0270727
837.238 .0270687
837.927 .0270637
838.615 .0270584
839.304 .0270529
839.992 .0270473
840.680 .0270423
841.367 .0270376
842.054 .0270327
842.741 .0270284
843.428 .0270246
844.114 .0270205
844.800 .0270161
845.485 .0270117
846.170 .0270064
846.855 .0270006
847.540 .0269943
848.224 .0269874
848.908 .0269804
849.592 .0269736
850.275 .0269666
850.958 .0269589
851.641 .0269505
852.323 .0269403
853.005 .0269286
853.687 .0269146
854.368 .0268979
855.049 .0268789
855.730 .0268579
856.410 .0268357
857.090 .0268128
857.769 .0267899
858.449 .0267677
859.128 .0267460
859.806 .0267251
860.485 .0267042
861.163 .0266841
861.840 .0266643
862.518 .0266448
863.195 .0266257
863.871 .0266074
864.548 .0265899
865.224 .0265739
865.899 .0265597
866.574 .0265470
867.249 .0265361
867.924 .0265261
868.598 .0265168
869.272 .0265080
869.946 .0264996
870.619 .0264910
871.292 .0264826
871.964 .0264742
872.636 .0264656
873.308 .0264570
873.979 .0264489
874.651 .0264411
875.321 .0264341
875.992 .0264276
876.662 .0264216
877.331 .0264159
878.001 .0264110
878.670 .0264063
879.338 .0264021
880.007 .0263983
880.675 .0263944
881.342 .0263900
882.009 .0263857
882.676 .0263810
883.343 .0263764
884.009 .0263720
884.675 .0263674
885.340 .0263627
886.005 .0263582
886.670 .0263535
887.334 .0263490
887.998 .0263445
888.662 .0263402
889.325 .0263355
889.988 .0263312
890.650 .0263270
891.312 .0263227
891.974 .0263187
892.636 .0263152
893.297 .0263116
893.957 .0263085
894.618 .0263049
895.278 .0263013
895.937 .0262978
896.596 .0262945
897.255 .0262909
897.914 .0262867
898.572 .0262821
899.230 .0262767
899.887 .0262701
900.544 .0262625
901.201 .0262537
901.857 .0262444
902.513 .0262348
903.168 .0262246
903.823 .0262141
904.478 .0262035
905.132 .0261923
905.786 .0261805
906.440 .0261671
907.093 .0261530
907.746 .0261374
908.399 .0261207
909.051 .0261039
909.703 .0260868
910.354 .0260701
911.005 .0260540
911.656 .0260375
912.306 .0260211
912.956 .0260032
913.605 .0259841
914.254 .0259635
914.903 .0259417
915.551 .0259188
916.199 .0258953
916.847 .0258722
917.494 .0258504
918.141 .0258295
918.788 .0258101
919.434 .0257917
920.079 .0257736
920.725 .0257550
921.370 .0257353
922.014 .0257145
922.658 .0256929
923.302 .0256701
923.946 .0256472
924.589 .0256242
925.231 .0256015
925.873 .0255792
926.515 .0255569
927.157 .0255347
927.798 .0255115
928.439 .0254870
929.079 .0254613
929.719 .0254347
930.359 .0254080
930.998 .0253811
931.637 .0253553
932.275 .0253310
932.913 .0253079
933.551 .0252863
934.188 .0252658
934.825 .0252465
935.462 .0252283
936.098 .0252107
936.733 .0251941
937.369 .0251790
938.004 .0251656
938.638 .0251539
939.273 .0251440
939.907 .0251354
940.540 .0251275
941.173 .0251204
941.806 .0251140
942.438 .0251079
943.070 .0251024
943.702 .0250972
944.333 .0250922
944.964 .0250874
945.594 .0250823
946.224 .0250765
946.854 .0250706
947.483 .0250637
948.112 .0250563
948.741 .0250481
949.369 .0250400
949.996 .0250319
950.624 .0250244
951.251 .0250173
951.878 .0250101
952.504 .0250026
953.130 .0249948
953.755 .0249860
954.380 .0249766
955.005 .0249665
955.629 .0249563
956.253 .0249461
956.877 .0249366
957.500 .0249280
958.123 .0249207
958.746 .0249143
959.368 .0249088
959.990 .0249034
960.611 .0248977
961.232 .0248914
961.853 .0248847
962.473 .0248780
963.093 .0248713
963.712 .0248647
964.331 .0248582
964.950 .0248520
965.569 .0248466
966.187 .0248417
966.804 .0248372
967.422 .0248334
968.039 .0248299
968.655 .0248261
969.272 .0248219
969.887 .0248174
970.503 .0248124
971.118 .0248066
971.733 .0247999
972.347 .0247919
972.961 .0247831
973.575 .0247738
974.188 .0247640
974.801 .0247543
975.414 .0247449
976.026 .0247356
976.638 .0247263
977.250 .0247175
977.861 .0247088
978.472 .0247002
979.083 .0246914
979.693 .0246821
980.303 .0246717
980.912 .0246605
981.521 .0246482
982.130 .0246353
982.738 .0246225
983.346 .0246101
983.954 .0245980
984.562 .0245869
985.169 .0245765
985.775 .0245662
986.382 .0245560
986.988 .0245458
987.594 .0245347
988.199 .0245229
988.804 .0245107
989.409 .0244987
990.013 .0244878
990.617 .0244787
991.221 .0244716
991.824 .0244669
992.427 .0244650
993.030 .0244647
993.632 .0244654
994.234 .0244676
994.836 .0244706
995.438 .0244741
996.039 .0244781
996.640 .0244823
997.240 .0244871
997.840 .0244926
998.440 .0244984
999.040 .0245037
999.639 .0245092
1000.238 .0245143
1000.836 .0245182
1001.435 .0245215
1002.033 .0245243
1002.630 .0245271
1003.228 .0245306
1003.825 .0245344
1004.422 .0245385
1005.018 .0245429
1005.614 .0245483
1006.210 .0245536
1006.806 .0245589
1007.401 .0245641
1007.996 .0245695
1008.591 .0245747
1009.186 .0245804
1009.780 .0245861
1010.374 .0245921
1010.967 .0245988
1011.561 .0246058
1012.154 .0246122
1012.746 .0246178
1013.339 .0246225
1013.931 .0246264
1014.523 .0246287
1015.115 .0246296
1015.706 .0246297
1016.298 .0246297
1016.888 .0246306
1017.479 .0246328
1018.069 .0246365
1018.660 .0246413
1019.250 .0246483
1019.839 .0246560
1020.429 .0246636
1021.018 .0246711
1021.607 .0246783
1022.195 .0246851
1022.784 .0246918
1023.372 .0246983
1023.960 .0247055
1024.547 .0247143
1025.135 .0247251
1025.722 .0247361
1026.309 .0247483
1026.896 .0247615
1027.483 .0247747
1028.069 .0247876
1028.655 .0248007
1029.241 .0248126
1029.827 .0248247
1030.412 .0248374
1030.997 .0248506
1031.582 .0248641
1032.167 .0248787
1032.752 .0248936
1033.336 .0249089
1033.921 .0249241
1034.505 .0249382
1035.089 .0249505
1035.672 .0249619
1036.256 .0249708
1036.839 .0249764
1037.422 .0249799
1038.005 .0249817
1038.588 .0249823
1039.171 .0249826
1039.753 .0249828
1040.335 .0249837
1040.918 .0249851
1041.500 .0249875
1042.081 .0249895
1042.663 .0249913
1043.244 .0249927
1043.826 .0249922
1044.407 .0249903
1044.988 .0249874
1045.569 .0249833
1046.150 .0249792
1046.730 .0249754
1047.311 .0249730
1047.891 .0249710
1048.471 .0249699
1049.052 .0249689
1049.632 .0249675
1050.211 .0249656
1050.791 .0249634
1051.371 .0249601
1051.950 .0249580
1052.530 .0249564
1053.109 .0249565
1053.688 .0249583
1054.268 .0249626
1054.847 .0249691
1055.426 .0249769
1056.005 .0249858
1056.583 .0249958
1057.162 .0250052
1057.741 .0250150
1058.319 .0250244
1058.898 .0250336
1059.476 .0250418
1060.055 .0250492
1060.633 .0250553
1061.211 .0250611
1061.790 .0250653
1062.368 .0250685
1062.946 .0250701
1063.524 .0250723
1064.102 .0250732
1064.680 .0250729
1065.258 .0250730
1065.836 .0250732
1066.414 .0250732
1066.992 .0250738
1067.570 .0250737
1068.148 .0250731
1068.726 .0250713
1069.304 .0250685
1069.882 .0250642
1070.460 .0250593
1071.038 .0250533
1071.616 .0250469
1072.194 .0250414
1072.772 .0250367
1073.350 .0250321
1073.928 .0250292
1074.506 .0250271
1075.084 .0250234
1075.662 .0250185
1076.240 .0250119
1076.819 .0250034
1077.397 .0249949
1077.976 .0249855
1078.554 .0249772
1079.133 .0249721
1079.711 .0249706
1080.290 .0249712
1080.869 .0249748
1081.448 .0249795
1082.027 .0249822
1082.606 .0249828
1083.185 .0249806
1083.764 .0249745
1084.343 .0249666
1084.923 .0249579
1085.502 .0249499
1086.082 .0249439
1086.662 .0249415
1087.242 .0249402
1087.822 .0249415
1088.402 .0249448
1088.983 .0249467
1089.563 .0249466
1090.144 .0249453
1090.725 .0249424
1091.306 .0249396
1091.887 .0249383
1092.469 .0249406
1093.050 .0249459
1093.632 .0249560
1094.214 .0249696
1094.796 .0249858
1095.379 .0250036
1095.961 .0250216
1096.544 .0250374
1097.127 .0250539
1097.710 .0250705
1098.294 .0250887
1098.877 .0251102
1099.461 .0251364
1100.046 .0251670
1100.630 .0252001
1101.215 .0252343
1101.800 .0252679
1102.385 .0252973
1102.970 .0253223
1103.556 .0253400
1104.142 .0253522
1104.728 .0253632
1105.315 .0253732
1105.902 .0253865
1106.489 .0254045
1107.077 .0254258
1107.664 .0254520
1108.253 .0254786
1108.841 .0255050
1109.430 .0255286
1110.019 .0255488
1110.609 .0255651
1111.198 .0255782
1111.789 .0255938
1112.379 .0256116
1112.970 .0256342
1113.561 .0256655
1114.153 .0257011
1114.745 .0257408
1115.338 .0257805
1115.931 .0258154
1116.524 .0258444
1117.117 .0258690
1117.712 .0258849
1118.306 .0258959
1118.901 .0259044
1119.496 .0259132
1120.092 .0259224
1120.689 .0259355
1121.285 .0259513
1121.882 .0259678
1122.480 .0259880
1123.078 .0260098
1123.677 .0260327
1124.276 .0260611
1124.875 .0260921
1125.476 .0261277
1126.076 .0261685
1126.677 .0262128
1127.279 .0262574
1127.881 .0263062
1128.484 .0263570
1129.087 .0264076
1129.691 .0264580
1130.295 .0265103
1130.900 .0265656
1131.505 .0266276
1132.111 .0266934
1132.718 .0267641
1133.325 .0268418
1133.933 .0269243
1134.541 .0270065
1135.150 .0270940
1135.760 .0271851
1136.370 .0272779
1136.981 .0273759
1137.592 .0274781
1138.204 .0275856
1138.817 .0277056
1139.431 .0278335
1140.045 .0279727
1140.660 .0281123
1141.275 .0282658
1141.891 .0283996
1142.508 .0285919
1143.126 .0288327
1143.744 .0287018
1144.363 .0291743
1144.983 .0286667
