Measurement Sequence started on: 15-12-46-377
Integration time: 28
Scans to Average: 2 
>>>>>Begin Spectral Data<<<<<
432.689 .0000100
433.621 .0000100
434.552 .0000100
435.482 .0000100
436.410 .0000100
437.337 .0000100
438.262 .0268012
439.187 .0567637
440.110 .0939528
441.031 .1358820
441.952 .1765426
442.871 .2084567
443.789 .2258078
444.705 .2266000
445.621 .2133420
446.535 .1913960
447.447 .1666052
448.359 .1288193
449.269 .1100559
450.178 .0981799
451.086 .0897304
451.993 .0832144
452.898 .0780092
453.803 .0737057
454.706 .0700992
455.608 .0669898
456.508 .0643138
457.408 .0620229
458.306 .0600457
459.204 .0583411
460.100 .0568826
460.995 .0556287
461.888 .0545482
462.781 .0536056
463.673 .0527695
464.563 .0520247
465.452 .0513353
466.340 .0506906
467.228 .0500850
468.114 .0495113
468.999 .0489798
469.882 .0484814
470.765 .0480272
471.647 .0476162
472.528 .0472332
473.407 .0468783
474.286 .0465526
475.163 .0462493
476.040 .0459585
476.915 .0456921
477.790 .0454427
478.663 .0452071
479.535 .0449936
480.407 .0448042
481.277 .0446339
482.147 .0444893
483.015 .0443706
483.883 .0442713
484.749 .0442011
485.615 .0441563
486.479 .0441307
487.343 .0441288
488.206 .0441467
489.067 .0441676
489.928 .0441868
490.788 .0442112
491.647 .0442374
492.505 .0442724
493.362 .0443336
494.218 .0444165
495.073 .0445296
495.928 .0446867
496.781 .0448785
497.634 .0451068
498.486 .0453692
499.337 .0456591
500.187 .0459706
501.036 .0462938
501.884 .0466403
502.731 .0470065
503.578 .0474092
504.424 .0478596
505.268 .0483497
506.113 .0488877
506.956 .0494721
507.798 .0501013
508.640 .0507827
509.480 .0515174
510.320 .0523156
511.160 .0531827
511.998 .0541217
512.836 .0551535
513.672 .0562741
514.508 .0574989
515.344 .0588463
516.178 .0603217
517.012 .0619465
517.845 .0637480
518.677 .0657570
519.508 .0679885
520.339 .0705003
521.169 .0733353
521.998 .0764985
522.826 .0800264
523.654 .0839575
524.481 .0882527
525.307 .0929725
526.133 .0981028
526.958 .1036070
527.782 .1094348
528.605 .1155122
529.428 .1217570
530.250 .1277502
531.072 .1332387
531.892 .1379330
532.712 .1415052
533.532 .1438057
534.350 .1445805
535.168 .1437848
535.986 .1415061
536.802 .1378875
537.618 .1331419
538.434 .1274991
539.249 .1214116
540.063 .1150854
540.876 .1087237
541.689 .1025639
542.501 .0967489
543.313 .0914153
544.124 .0865964
544.934 .0822579
545.744 .0783332
546.553 .0747888
547.361 .0715868
548.169 .0687119
548.976 .0661115
549.783 .0637818
550.589 .0616852
551.395 .0597796
552.200 .0580595
553.004 .0564894
553.808 .0550450
554.611 .0537478
555.414 .0525647
556.216 .0514773
557.018 .0504889
557.819 .0495858
558.619 .0487501
559.419 .0479803
560.218 .0472629
561.017 .0465883
561.815 .0459485
562.613 .0453357
563.410 .0447262
564.207 .0441267
565.003 .0435496
565.799 .0429856
566.594 .0424374
567.388 .0419148
568.182 .0414136
568.976 .0409340
569.769 .0404704
570.562 .0400194
571.354 .0395751
572.145 .0391437
572.936 .0387127
573.727 .0382843
574.517 .0378641
575.307 .0374521
576.096 .0370518
576.885 .0366695
577.673 .0363091
578.461 .0359696
579.248 .0356475
580.035 .0353448
580.821 .0350577
581.607 .0347833
582.392 .0345207
583.177 .0342706
583.962 .0340377
584.746 .0338255
585.529 .0336336
586.313 .0334659
587.095 .0333208
587.878 .0331957
588.660 .0330864
589.441 .0329877
590.222 .0328965
591.003 .0328127
591.783 .0327332
592.563 .0326595
593.342 .0325922
594.121 .0325309
594.899 .0324756
595.678 .0324261
596.455 .0323816
597.233 .0323397
598.009 .0322994
598.786 .0322599
599.562 .0322196
600.338 .0321782
601.113 .0321356
601.888 .0320912
602.663 .0320460
603.437 .0320000
604.211 .0319531
604.984 .0319065
605.757 .0318608
606.530 .0318150
607.302 .0317698
608.074 .0317265
608.845 .0316851
609.616 .0316456
610.387 .0316080
611.158 .0315723
611.928 .0315388
612.697 .0315069
613.467 .0314769
614.236 .0314494
615.004 .0314250
615.773 .0314037
616.541 .0313858
617.308 .0313718
618.076 .0313606
618.843 .0313520
619.609 .0313463
620.375 .0313416
621.141 .0313372
621.907 .0313320
622.672 .0313252
623.437 .0313171
624.202 .0313078
624.966 .0312966
625.730 .0312844
626.493 .0312712
627.257 .0312569
628.020 .0312413
628.782 .0312253
629.545 .0312085
630.307 .0311901
631.068 .0311711
631.830 .0311513
632.591 .0311298
633.352 .0311076
634.112 .0310842
634.872 .0310609
635.632 .0310376
636.392 .0310139
637.151 .0309902
637.910 .0309671
638.668 .0309449
639.427 .0309230
640.185 .0309015
640.943 .0308804
641.700 .0308589
642.457 .0308372
643.214 .0308147
643.971 .0307911
644.727 .0307673
645.483 .0307431
646.239 .0307186
646.994 .0306943
647.750 .0306702
648.505 .0306467
649.259 .0306244
650.014 .0306028
650.768 .0305812
651.521 .0305598
652.275 .0305389
653.028 .0305177
653.781 .0304959
654.534 .0304736
655.286 .0304508
656.039 .0304278
656.791 .0304043
657.542 .0303794
658.294 .0303539
659.045 .0303282
659.796 .0303015
660.546 .0302739
661.297 .0302453
662.047 .0302161
662.796 .0301860
663.546 .0301560
664.295 .0301261
665.044 .0300964
665.793 .0300676
666.542 .0300398
667.290 .0300130
668.038 .0299874
668.786 .0299630
669.533 .0299404
670.281 .0299188
671.028 .0298987
671.774 .0298799
672.521 .0298638
673.267 .0298504
674.013 .0298398
674.759 .0298320
675.505 .0298268
676.250 .0298235
676.995 .0298211
677.740 .0298196
678.484 .0298184
679.229 .0298173
679.973 .0298159
680.717 .0298143
681.460 .0298129
682.204 .0298112
682.947 .0298102
683.690 .0298097
684.433 .0298090
685.175 .0298076
685.917 .0298048
686.659 .0298008
687.401 .0297952
688.142 .0297879
688.884 .0297791
689.625 .0297695
690.365 .0297588
691.106 .0297466
691.846 .0297341
692.586 .0297211
693.326 .0297076
694.066 .0296935
694.805 .0296786
695.545 .0296628
696.284 .0296462
697.022 .0296291
697.761 .0296113
698.499 .0295936
699.237 .0295759
699.975 .0295578
700.713 .0295402
701.450 .0295231
702.187 .0295057
702.924 .0294884
703.661 .0294716
704.397 .0294543
705.133 .0294366
705.869 .0294185
706.605 .0293995
707.341 .0293802
708.076 .0293606
708.811 .0293404
709.546 .0293197
710.281 .0292990
711.015 .0292775
711.749 .0292551
712.483 .0292326
713.217 .0292091
713.950 .0291850
714.684 .0291607
715.417 .0291357
716.150 .0291101
716.882 .0290838
717.615 .0290570
718.347 .0290291
719.079 .0290004
719.811 .0289705
720.542 .0289397
721.273 .0289081
722.005 .0288762
722.735 .0288442
723.466 .0288129
724.196 .0287823
724.927 .0287523
725.656 .0287226
726.386 .0286934
727.116 .0286644
727.845 .0286364
728.574 .0286091
729.303 .0285834
730.031 .0285592
730.760 .0285368
731.488 .0285161
732.216 .0284972
732.944 .0284796
733.671 .0284633
734.398 .0284476
735.125 .0284324
735.852 .0284175
736.579 .0284033
737.305 .0283896
738.031 .0283770
738.757 .0283654
739.483 .0283548
740.208 .0283453
740.933 .0283374
741.658 .0283306
742.383 .0283254
743.108 .0283220
743.832 .0283199
744.556 .0283191
745.280 .0283192
746.004 .0283198
746.727 .0283203
747.450 .0283204
748.173 .0283194
748.896 .0283175
749.618 .0283144
750.340 .0283103
751.062 .0283053
751.784 .0283000
752.506 .0282941
753.227 .0282873
753.948 .0282800
754.669 .0282720
755.389 .0282632
756.110 .0282541
756.830 .0282443
757.550 .0282351
758.269 .0282265
758.989 .0282189
759.708 .0282119
760.427 .0282055
761.146 .0281991
761.864 .0281923
762.582 .0281845
763.300 .0281751
764.018 .0281641
764.736 .0281516
765.453 .0281377
766.170 .0281227
766.887 .0281066
767.603 .0280901
768.320 .0280732
769.036 .0280565
769.751 .0280392
770.467 .0280215
771.182 .0280042
771.897 .0279870
772.612 .0279701
773.327 .0279536
774.041 .0279382
774.755 .0279239
775.469 .0279109
776.183 .0278981
776.896 .0278857
777.609 .0278736
778.322 .0278608
779.035 .0278469
779.747 .0278321
780.459 .0278159
781.171 .0277979
781.882 .0277787
782.594 .0277582
783.305 .0277365
784.016 .0277144
784.726 .0276921
785.436 .0276697
786.147 .0276478
786.856 .0276262
787.566 .0276051
788.275 .0275850
788.984 .0275655
789.693 .0275459
790.401 .0275267
791.110 .0275074
791.818 .0274878
792.525 .0274680
793.233 .0274484
793.940 .0274287
794.647 .0274090
795.353 .0273890
796.060 .0273686
796.766 .0273473
797.472 .0273246
798.177 .0273000
798.883 .0272735
799.588 .0272446
800.292 .0272137
800.997 .0271811
801.701 .0271475
802.405 .0271137
803.109 .0270802
803.812 .0270476
804.515 .0270160
805.218 .0269851
805.921 .0269547
806.623 .0269248
807.325 .0268954
808.027 .0268663
808.728 .0268378
809.429 .0268104
810.130 .0267843
810.831 .0267600
811.531 .0267380
812.231 .0267184
812.931 .0267008
813.630 .0266851
814.330 .0266707
815.029 .0266572
815.727 .0266441
816.426 .0266310
817.124 .0266179
817.821 .0266045
818.519 .0265909
819.216 .0265770
819.913 .0265634
820.609 .0265505
821.306 .0265380
822.002 .0265264
822.697 .0265155
823.393 .0265061
824.088 .0264978
824.783 .0264909
825.477 .0264853
826.171 .0264813
826.865 .0264794
827.559 .0264796
828.252 .0264821
828.945 .0264873
829.638 .0264951
830.330 .0265051
831.023 .0265173
831.714 .0265311
832.406 .0265456
833.097 .0265605
833.788 .0265750
834.479 .0265884
835.169 .0266003
835.859 .0266110
836.548 .0266201
837.238 .0266279
837.927 .0266342
838.615 .0266385
839.304 .0266409
839.992 .0266415
840.680 .0266401
841.367 .0266363
842.054 .0266308
842.741 .0266238
843.428 .0266162
844.114 .0266084
844.800 .0266012
845.485 .0265948
846.170 .0265894
846.855 .0265848
847.540 .0265805
848.224 .0265765
848.908 .0265730
849.592 .0265697
850.275 .0265666
850.958 .0265640
851.641 .0265620
852.323 .0265602
853.005 .0265591
853.687 .0265574
854.368 .0265551
855.049 .0265514
855.730 .0265464
856.410 .0265394
857.090 .0265310
857.769 .0265211
858.449 .0265097
859.128 .0264972
859.806 .0264837
860.485 .0264686
861.163 .0264523
861.840 .0264346
862.518 .0264154
863.195 .0263940
863.871 .0263714
864.548 .0263475
865.224 .0263228
865.899 .0262977
866.574 .0262722
867.249 .0262462
867.924 .0262205
868.598 .0261948
869.272 .0261689
869.946 .0261431
870.619 .0261173
871.292 .0260913
871.964 .0260655
872.636 .0260402
873.308 .0260152
873.979 .0259905
874.651 .0259665
875.321 .0259427
875.992 .0259193
876.662 .0258963
877.331 .0258735
878.001 .0258512
878.670 .0258295
879.338 .0258079
880.007 .0257866
880.675 .0257659
881.342 .0257457
882.009 .0257257
882.676 .0257061
883.343 .0256868
884.009 .0256674
884.675 .0256484
885.340 .0256297
886.005 .0256108
886.670 .0255924
887.334 .0255735
887.998 .0255544
888.662 .0255351
889.325 .0255155
889.988 .0254958
890.650 .0254763
891.312 .0254571
891.974 .0254383
892.636 .0254202
893.297 .0254031
893.957 .0253869
894.618 .0253715
895.278 .0253563
895.937 .0253414
896.596 .0253269
897.255 .0253121
897.914 .0252972
898.572 .0252826
899.230 .0252677
899.887 .0252530
900.544 .0252381
901.201 .0252230
901.857 .0252082
902.513 .0251932
903.168 .0251773
903.823 .0251610
904.478 .0251439
905.132 .0251257
905.786 .0251064
906.440 .0250864
907.093 .0250656
907.746 .0250443
908.399 .0250231
909.051 .0250018
909.703 .0249809
910.354 .0249611
911.005 .0249420
911.656 .0249238
912.306 .0249058
912.956 .0248877
913.605 .0248693
914.254 .0248509
914.903 .0248318
915.551 .0248121
916.199 .0247927
916.847 .0247737
917.494 .0247553
918.141 .0247380
918.788 .0247219
919.434 .0247076
920.079 .0246946
920.725 .0246831
921.370 .0246725
922.014 .0246629
922.658 .0246541
923.302 .0246461
923.946 .0246383
924.589 .0246311
925.231 .0246243
925.873 .0246187
926.515 .0246139
927.157 .0246103
927.798 .0246078
928.439 .0246067
929.079 .0246063
929.719 .0246060
930.359 .0246057
930.998 .0246052
931.637 .0246044
932.275 .0246035
932.913 .0246029
933.551 .0246026
934.188 .0246029
934.825 .0246039
935.462 .0246055
936.098 .0246076
936.733 .0246096
937.369 .0246114
938.004 .0246132
938.638 .0246147
939.273 .0246156
939.907 .0246168
940.540 .0246189
941.173 .0246219
941.806 .0246263
942.438 .0246321
943.070 .0246391
943.702 .0246467
944.333 .0246542
944.964 .0246620
945.594 .0246698
946.224 .0246779
946.854 .0246862
947.483 .0246953
948.112 .0247054
948.741 .0247160
949.369 .0247270
949.996 .0247383
950.624 .0247493
951.251 .0247592
951.878 .0247673
952.504 .0247739
953.130 .0247793
953.755 .0247832
954.380 .0247861
955.005 .0247881
955.629 .0247891
956.253 .0247894
956.877 .0247888
957.500 .0247879
958.123 .0247867
958.746 .0247850
959.368 .0247832
959.990 .0247811
960.611 .0247783
961.232 .0247746
961.853 .0247705
962.473 .0247663
963.093 .0247612
963.712 .0247555
964.331 .0247493
964.950 .0247425
965.569 .0247359
966.187 .0247291
966.804 .0247229
967.422 .0247173
968.039 .0247118
968.655 .0247059
969.272 .0246992
969.887 .0246915
970.503 .0246829
971.118 .0246735
971.733 .0246635
972.347 .0246527
972.961 .0246416
973.575 .0246305
974.188 .0246190
974.801 .0246068
975.414 .0245934
976.026 .0245783
976.638 .0245617
977.250 .0245431
977.861 .0245234
978.472 .0245035
979.083 .0244839
979.693 .0244645
980.303 .0244456
980.912 .0244269
981.521 .0244078
982.130 .0243883
982.738 .0243683
983.346 .0243469
983.954 .0243246
984.562 .0243017
985.169 .0242783
985.775 .0242552
986.382 .0242325
986.988 .0242101
987.594 .0241880
988.199 .0241657
988.804 .0241429
989.409 .0241186
990.013 .0240939
990.617 .0240678
991.221 .0240403
991.824 .0240123
992.427 .0239841
993.030 .0239562
993.632 .0239293
994.234 .0239035
994.836 .0238787
995.438 .0238551
996.039 .0238327
996.640 .0238105
997.240 .0237893
997.840 .0237686
998.440 .0237480
999.040 .0237277
999.639 .0237081
1000.238 .0236885
1000.836 .0236696
1001.435 .0236515
1002.033 .0236332
1002.630 .0236152
1003.228 .0235973
1003.825 .0235795
1004.422 .0235619
1005.018 .0235449
1005.614 .0235282
1006.210 .0235119
1006.806 .0234965
1007.401 .0234813
1007.996 .0234662
1008.591 .0234516
1009.186 .0234370
1009.780 .0234225
1010.374 .0234081
1010.967 .0233945
1011.561 .0233819
1012.154 .0233698
1012.746 .0233582
1013.339 .0233465
1013.931 .0233349
1014.523 .0233230
1015.115 .0233106
1015.706 .0232980
1016.298 .0232851
1016.888 .0232722
1017.479 .0232589
1018.069 .0232460
1018.660 .0232329
1019.250 .0232201
1019.839 .0232074
1020.429 .0231950
1021.018 .0231830
1021.607 .0231714
1022.195 .0231619
1022.784 .0231544
1023.372 .0231491
1023.960 .0231460
1024.547 .0231450
1025.135 .0231457
1025.722 .0231470
1026.309 .0231492
1026.896 .0231519
1027.483 .0231554
1028.069 .0231594
1028.655 .0231640
1029.241 .0231698
1029.827 .0231762
1030.412 .0231840
1030.997 .0231923
1031.582 .0232007
1032.167 .0232084
1032.752 .0232153
1033.336 .0232212
1033.921 .0232264
1034.505 .0232311
1035.089 .0232352
1035.672 .0232404
1036.256 .0232460
1036.839 .0232518
1037.422 .0232577
1038.005 .0232642
1038.588 .0232712
1039.171 .0232786
1039.753 .0232875
1040.335 .0232970
1040.918 .0233077
1041.500 .0233196
1042.081 .0233314
1042.663 .0233428
1043.244 .0233533
1043.826 .0233619
1044.407 .0233682
1044.988 .0233732
1045.569 .0233765
1046.150 .0233794
1046.730 .0233830
1047.311 .0233881
1047.891 .0233943
1048.471 .0234014
1049.052 .0234087
1049.632 .0234149
1050.211 .0234201
1050.791 .0234241
1051.371 .0234271
1051.950 .0234317
1052.530 .0234382
1053.109 .0234480
1053.688 .0234609
1054.268 .0234782
1054.847 .0234986
1055.426 .0235217
1056.005 .0235464
1056.583 .0235709
1057.162 .0235939
1057.741 .0236161
1058.319 .0236373
1058.898 .0236582
1059.476 .0236789
1060.055 .0237000
1060.633 .0237209
1061.211 .0237419
1061.790 .0237616
1062.368 .0237807
1062.946 .0237987
1063.524 .0238162
1064.102 .0238332
1064.680 .0238503
1065.258 .0238681
1065.836 .0238867
1066.414 .0239078
1066.992 .0239305
1067.570 .0239541
1068.148 .0239775
1068.726 .0239991
1069.304 .0240203
1069.882 .0240394
1070.460 .0240563
1071.038 .0240718
1071.616 .0240874
1072.194 .0241029
1072.772 .0241178
1073.350 .0241348
1073.928 .0241522
1074.506 .0241709
1075.084 .0241896
1075.662 .0242070
1076.240 .0242237
1076.819 .0242398
1077.397 .0242550
1077.976 .0242694
1078.554 .0242854
1079.133 .0243029
1079.711 .0243222
1080.290 .0243458
1080.869 .0243727
1081.448 .0244023
1082.027 .0244340
1082.606 .0244665
1083.185 .0244981
1083.764 .0245278
1084.343 .0245538
1084.923 .0245768
1085.502 .0245974
1086.082 .0246143
1086.662 .0246290
1087.242 .0246421
1087.822 .0246552
1088.402 .0246682
1088.983 .0246813
1089.563 .0246945
1090.144 .0247079
1090.725 .0247211
1091.306 .0247313
1091.887 .0247390
1092.469 .0247462
1093.050 .0247525
1093.632 .0247585
1094.214 .0247663
1094.796 .0247763
1095.379 .0247902
1095.961 .0248094
1096.544 .0248321
1097.127 .0248572
1097.710 .0248840
1098.294 .0249109
1098.877 .0249355
1099.461 .0249588
1100.046 .0249801
1100.630 .0250014
1101.215 .0250247
1101.800 .0250504
1102.385 .0250771
1102.970 .0251048
1103.556 .0251324
1104.142 .0251569
1104.728 .0251769
1105.315 .0251922
1105.902 .0252007
1106.489 .0252071
1107.077 .0252120
1107.664 .0252189
1108.253 .0252304
1108.841 .0252465
1109.430 .0252680
1110.019 .0252932
1110.609 .0253194
1111.198 .0253451
1111.789 .0253693
1112.379 .0253930
1112.970 .0254153
1113.561 .0254400
1114.153 .0254702
1114.745 .0255049
1115.338 .0255464
1115.931 .0255938
1116.524 .0256424
1117.117 .0256916
1117.712 .0257394
1118.306 .0257804
1118.901 .0258198
1119.496 .0258532
1120.092 .0258817
1120.689 .0259081
1121.285 .0259362
1121.882 .0259659
1122.480 .0259977
1123.078 .0260327
1123.677 .0260676
1124.276 .0261003
1124.875 .0261363
1125.476 .0261658
1126.076 .0261936
1126.677 .0262194
1127.279 .0262424
1127.881 .0262636
1128.484 .0262878
1129.087 .0263124
1129.691 .0263443
1130.295 .0263828
1130.900 .0264280
1131.505 .0264744
1132.111 .0265263
1132.718 .0265802
1133.325 .0266362
1133.933 .0266966
1134.541 .0267627
1135.150 .0268320
1135.760 .0269125
1136.370 .0270010
1136.981 .0271028
1137.592 .0272157
1138.204 .0273406
1138.817 .0274708
1139.431 .0276067
1140.045 .0277479
1140.660 .0278858
1141.275 .0280220
1141.891 .0281608
1142.508 .0282679
1143.126 .0285269
1143.744 .0285058
1144.363 .0286243
1144.983 .0288771
