Measurement Sequence started on: 15-12-46-377
Integration time: 28
Scans to Average: 2 
>>>>>Begin Spectral Data<<<<<
432.689 .0000100
433.621 .0000100
434.552 .0000100
435.482 .0000100
436.410 .0000100
437.337 .0000100
438.262 .0259128
439.187 .0549800
440.110 .0910475
441.031 .1316989
441.952 .1711314
442.871 .2021094
443.789 .2189862
444.705 .2198437
445.621 .2070683
446.535 .1859014
447.447 .1620242
448.359 .1256407
449.269 .1076466
450.178 .0964375
451.086 .0886191
451.993 .0826975
452.898 .0780467
453.803 .0742503
454.706 .0710918
455.608 .0684027
456.508 .0660486
457.408 .0639895
458.306 .0621556
459.204 .0605207
460.100 .0590356
460.995 .0576789
461.888 .0564323
462.781 .0552739
463.673 .0542032
464.563 .0532159
465.452 .0522971
466.340 .0514400
467.228 .0506440
468.114 .0498876
468.999 .0491717
469.882 .0484854
470.765 .0478324
471.647 .0472209
472.528 .0466561
473.407 .0461489
474.286 .0457056
475.163 .0453276
476.040 .0450179
476.915 .0447529
477.790 .0445327
478.663 .0443351
479.535 .0441566
480.407 .0439956
481.277 .0438555
482.147 .0437433
483.015 .0436666
483.883 .0436265
484.749 .0436253
485.615 .0436533
486.479 .0437051
487.343 .0437694
488.206 .0438443
489.067 .0439196
489.928 .0439905
490.788 .0440616
491.647 .0441455
492.505 .0442430
493.362 .0443570
494.218 .0444904
495.073 .0446421
495.928 .0448130
496.781 .0449885
497.634 .0451785
498.486 .0453853
499.337 .0456012
500.187 .0458322
501.036 .0460777
501.884 .0463541
502.731 .0466513
503.578 .0469783
504.424 .0473462
505.268 .0477416
506.113 .0481695
506.956 .0486203
507.798 .0491155
508.640 .0496542
509.480 .0502431
510.320 .0508786
511.160 .0515801
511.998 .0523657
512.836 .0532255
513.672 .0541793
514.508 .0552354
515.344 .0564131
516.178 .0577235
517.012 .0592021
517.845 .0608645
518.677 .0627246
519.508 .0648353
520.339 .0672187
521.169 .0699216
521.998 .0729493
522.826 .0763723
523.654 .0802199
524.481 .0845509
525.307 .0893818
526.133 .0946973
526.958 .1005343
527.782 .1068533
528.605 .1135004
529.428 .1203597
530.250 .1269316
531.072 .1329786
531.892 .1380868
532.712 .1420090
533.532 .1444594
534.350 .1453279
535.168 .1445543
535.986 .1422545
536.802 .1385834
537.618 .1338021
538.434 .1280986
539.249 .1219315
540.063 .1154189
540.876 .1088279
541.689 .1023412
542.501 .0962045
543.313 .0905337
544.124 .0854181
544.934 .0808018
545.744 .0766793
546.553 .0730098
547.361 .0697746
548.169 .0669081
548.976 .0643716
549.783 .0621303
550.589 .0601479
551.395 .0583595
552.200 .0567566
553.004 .0553086
553.808 .0539862
554.611 .0527820
555.414 .0516901
556.216 .0506868
557.018 .0497706
557.819 .0489330
558.619 .0481439
559.419 .0474113
560.218 .0467247
561.017 .0460696
561.815 .0454435
562.613 .0448557
563.410 .0442848
564.207 .0437282
565.003 .0431897
565.799 .0426668
566.594 .0421434
567.388 .0416389
568.182 .0411360
568.976 .0406383
569.769 .0401529
570.562 .0396767
571.354 .0392045
572.145 .0387505
572.936 .0383071
573.727 .0378742
574.517 .0374519
575.307 .0370501
576.096 .0366615
576.885 .0362919
577.673 .0359417
578.461 .0356033
579.248 .0352822
580.035 .0349802
580.821 .0346936
581.607 .0344233
582.392 .0341718
583.177 .0339377
583.962 .0337214
584.746 .0335261
585.529 .0333476
586.313 .0331870
587.095 .0330425
587.878 .0329083
588.660 .0327819
589.441 .0326616
590.222 .0325474
591.003 .0324367
591.783 .0323329
592.563 .0322356
593.342 .0321448
594.121 .0320614
594.899 .0319851
595.678 .0319135
596.455 .0318462
597.233 .0317823
598.009 .0317191
598.786 .0316567
599.562 .0315947
600.338 .0315332
601.113 .0314748
601.888 .0314191
602.663 .0313668
603.437 .0313179
604.211 .0312735
604.984 .0312315
605.757 .0311916
606.530 .0311533
607.302 .0311158
608.074 .0310799
608.845 .0310454
609.616 .0310124
610.387 .0309825
611.158 .0309557
611.928 .0309320
612.697 .0309115
613.467 .0308938
614.236 .0308773
615.004 .0308619
615.773 .0308474
616.541 .0308335
617.308 .0308199
618.076 .0308076
618.843 .0307955
619.609 .0307850
620.375 .0307754
621.141 .0307664
621.907 .0307580
622.672 .0307505
623.437 .0307425
624.202 .0307341
624.966 .0307257
625.730 .0307166
626.493 .0307070
627.257 .0306976
628.020 .0306871
628.782 .0306753
629.545 .0306616
630.307 .0306459
631.068 .0306278
631.830 .0306090
632.591 .0305880
633.352 .0305660
634.112 .0305436
634.872 .0305209
635.632 .0304972
636.392 .0304730
637.151 .0304483
637.910 .0304219
638.668 .0303937
639.427 .0303635
640.185 .0303312
640.943 .0302987
641.700 .0302663
642.457 .0302342
643.214 .0302027
643.971 .0301726
644.727 .0301430
645.483 .0301144
646.239 .0300868
646.994 .0300595
647.750 .0300332
648.505 .0300079
649.259 .0299839
650.014 .0299608
650.768 .0299384
651.521 .0299169
652.275 .0298963
653.028 .0298758
653.781 .0298543
654.534 .0298322
655.286 .0298094
656.039 .0297855
656.791 .0297601
657.542 .0297331
658.294 .0297047
659.045 .0296749
659.796 .0296431
660.546 .0296099
661.297 .0295765
662.047 .0295428
662.796 .0295092
663.546 .0294773
664.295 .0294471
665.044 .0294188
665.793 .0293929
666.542 .0293695
667.290 .0293478
668.038 .0293276
668.786 .0293086
669.533 .0292906
670.281 .0292741
671.028 .0292588
671.774 .0292450
672.521 .0292337
673.267 .0292248
674.013 .0292176
674.759 .0292124
675.505 .0292090
676.250 .0292060
676.995 .0292028
677.740 .0291994
678.484 .0291949
679.229 .0291899
679.973 .0291844
680.717 .0291786
681.460 .0291735
682.204 .0291693
682.947 .0291665
683.690 .0291650
684.433 .0291643
685.175 .0291632
685.917 .0291610
686.659 .0291575
687.401 .0291516
688.142 .0291437
688.884 .0291343
689.625 .0291238
690.365 .0291125
691.106 .0291008
691.846 .0290891
692.586 .0290778
693.326 .0290668
694.066 .0290555
694.805 .0290440
695.545 .0290313
696.284 .0290179
697.022 .0290036
697.761 .0289890
698.499 .0289741
699.237 .0289592
699.975 .0289447
700.713 .0289306
701.450 .0289171
702.187 .0289042
702.924 .0288915
703.661 .0288795
704.397 .0288675
705.133 .0288556
705.869 .0288436
706.605 .0288316
707.341 .0288196
708.076 .0288076
708.811 .0287949
709.546 .0287815
710.281 .0287670
711.015 .0287513
711.749 .0287338
712.483 .0287143
713.217 .0286929
713.950 .0286691
714.684 .0286430
715.417 .0286147
716.150 .0285843
716.882 .0285527
717.615 .0285197
718.347 .0284860
719.079 .0284515
719.811 .0284164
720.542 .0283810
721.273 .0283452
722.005 .0283093
722.735 .0282733
723.466 .0282377
724.196 .0282027
724.927 .0281687
725.656 .0281355
726.386 .0281035
727.116 .0280730
727.845 .0280436
728.574 .0280154
729.303 .0279880
730.031 .0279616
730.760 .0279361
731.488 .0279115
732.216 .0278880
732.944 .0278658
733.671 .0278452
734.398 .0278263
735.125 .0278095
735.852 .0277950
736.579 .0277824
737.305 .0277713
738.031 .0277621
738.757 .0277544
739.483 .0277476
740.208 .0277424
740.933 .0277381
741.658 .0277353
742.383 .0277339
743.108 .0277333
743.832 .0277333
744.556 .0277338
745.280 .0277341
746.004 .0277334
746.727 .0277319
747.450 .0277298
748.173 .0277265
748.896 .0277234
749.618 .0277205
750.340 .0277181
751.062 .0277165
751.784 .0277157
752.506 .0277153
753.227 .0277146
753.948 .0277131
754.669 .0277106
755.389 .0277077
756.110 .0277047
756.830 .0277018
757.550 .0276994
758.269 .0276985
758.989 .0276982
759.708 .0276982
760.427 .0276980
761.146 .0276969
761.864 .0276944
762.582 .0276904
763.300 .0276851
764.018 .0276790
764.736 .0276728
765.453 .0276670
766.170 .0276616
766.887 .0276569
767.603 .0276522
768.320 .0276470
769.036 .0276417
769.751 .0276360
770.467 .0276297
771.182 .0276230
771.897 .0276164
772.612 .0276100
773.327 .0276039
774.041 .0275986
774.755 .0275941
775.469 .0275901
776.183 .0275870
776.896 .0275841
777.609 .0275817
778.322 .0275798
779.035 .0275778
779.747 .0275756
780.459 .0275739
781.171 .0275717
781.882 .0275687
782.594 .0275655
783.305 .0275623
784.016 .0275586
784.726 .0275546
785.436 .0275499
786.147 .0275443
786.856 .0275378
787.566 .0275297
788.275 .0275196
788.984 .0275078
789.693 .0274941
790.401 .0274783
791.110 .0274609
791.818 .0274423
792.525 .0274223
793.233 .0274014
793.940 .0273796
794.647 .0273566
795.353 .0273321
796.060 .0273064
796.766 .0272799
797.472 .0272522
798.177 .0272240
798.883 .0271956
799.588 .0271675
800.292 .0271400
800.997 .0271133
801.701 .0270865
802.405 .0270600
803.109 .0270340
803.812 .0270079
804.515 .0269811
805.218 .0269540
805.921 .0269266
806.623 .0268986
807.325 .0268705
808.027 .0268424
808.728 .0268137
809.429 .0267853
810.130 .0267564
810.831 .0267268
811.531 .0266966
812.231 .0266660
812.931 .0266343
813.630 .0266025
814.330 .0265710
815.029 .0265395
815.727 .0265084
816.426 .0264791
817.124 .0264513
817.821 .0264251
818.519 .0264009
819.216 .0263790
819.913 .0263591
820.609 .0263417
821.306 .0263262
822.002 .0263127
822.697 .0263007
823.393 .0262903
824.088 .0262808
824.783 .0262724
825.477 .0262651
826.171 .0262586
826.865 .0262530
827.559 .0262487
828.252 .0262447
828.945 .0262411
829.638 .0262379
830.330 .0262350
831.023 .0262320
831.714 .0262288
832.406 .0262261
833.097 .0262235
833.788 .0262211
834.479 .0262191
835.169 .0262175
835.859 .0262168
836.548 .0262171
837.238 .0262184
837.927 .0262202
838.615 .0262229
839.304 .0262264
839.992 .0262307
840.680 .0262355
841.367 .0262409
842.054 .0262465
842.741 .0262525
843.428 .0262588
844.114 .0262648
844.800 .0262710
845.485 .0262772
846.170 .0262830
846.855 .0262885
847.540 .0262934
848.224 .0262985
848.908 .0263033
849.592 .0263082
850.275 .0263127
850.958 .0263169
851.641 .0263207
852.323 .0263237
853.005 .0263263
853.687 .0263283
854.368 .0263297
855.049 .0263310
855.730 .0263322
856.410 .0263334
857.090 .0263349
857.769 .0263370
858.449 .0263397
859.128 .0263428
859.806 .0263462
860.485 .0263500
861.163 .0263543
861.840 .0263590
862.518 .0263637
863.195 .0263683
863.871 .0263730
864.548 .0263771
865.224 .0263810
865.899 .0263845
866.574 .0263876
867.249 .0263902
867.924 .0263923
868.598 .0263946
869.272 .0263970
869.946 .0263996
870.619 .0264022
871.292 .0264047
871.964 .0264066
872.636 .0264076
873.308 .0264077
873.979 .0264073
874.651 .0264062
875.321 .0264049
875.992 .0264032
876.662 .0264015
877.331 .0264000
878.001 .0263985
878.670 .0263963
879.338 .0263937
880.007 .0263900
880.675 .0263850
881.342 .0263789
882.009 .0263721
882.676 .0263642
883.343 .0263563
884.009 .0263482
884.675 .0263403
885.340 .0263326
886.005 .0263253
886.670 .0263180
887.334 .0263112
887.998 .0263044
888.662 .0262972
889.325 .0262896
889.988 .0262819
890.650 .0262733
891.312 .0262640
891.974 .0262534
892.636 .0262419
893.297 .0262289
893.957 .0262148
894.618 .0261989
895.278 .0261816
895.937 .0261629
896.596 .0261429
897.255 .0261213
897.914 .0260982
898.572 .0260736
899.230 .0260474
899.887 .0260199
900.544 .0259919
901.201 .0259636
901.857 .0259359
902.513 .0259092
903.168 .0258835
903.823 .0258583
904.478 .0258335
905.132 .0258085
905.786 .0257827
906.440 .0257560
907.093 .0257277
907.746 .0256981
908.399 .0256675
909.051 .0256365
909.703 .0256053
910.354 .0255741
911.005 .0255432
911.656 .0255120
912.306 .0254800
912.956 .0254467
913.605 .0254121
914.254 .0253761
914.903 .0253389
915.551 .0253009
916.199 .0252630
916.847 .0252259
917.494 .0251899
918.141 .0251551
918.788 .0251218
919.434 .0250898
920.079 .0250585
920.725 .0250275
921.370 .0249966
922.014 .0249660
922.658 .0249355
923.302 .0249050
923.946 .0248748
924.589 .0248445
925.231 .0248143
925.873 .0247842
926.515 .0247540
927.157 .0247236
927.798 .0246934
928.439 .0246633
929.079 .0246336
929.719 .0246041
930.359 .0245750
930.998 .0245467
931.637 .0245203
932.275 .0244956
932.913 .0244725
933.551 .0244510
934.188 .0244313
934.825 .0244131
935.462 .0243962
936.098 .0243803
936.733 .0243657
937.369 .0243524
938.004 .0243402
938.638 .0243289
939.273 .0243188
939.907 .0243105
940.540 .0243039
941.173 .0242984
941.806 .0242940
942.438 .0242900
943.070 .0242865
943.702 .0242829
944.333 .0242791
944.964 .0242750
945.594 .0242709
946.224 .0242673
946.854 .0242646
947.483 .0242630
948.112 .0242629
948.741 .0242640
949.369 .0242664
949.996 .0242691
950.624 .0242717
951.251 .0242738
951.878 .0242758
952.504 .0242775
953.130 .0242791
953.755 .0242810
954.380 .0242838
955.005 .0242873
955.629 .0242920
956.253 .0242974
956.877 .0243034
957.500 .0243098
958.123 .0243166
958.746 .0243229
959.368 .0243290
959.990 .0243353
960.611 .0243418
961.232 .0243486
961.853 .0243563
962.473 .0243645
963.093 .0243735
963.712 .0243829
964.331 .0243927
964.950 .0244028
965.569 .0244139
966.187 .0244261
966.804 .0244400
967.422 .0244559
968.039 .0244741
968.655 .0244939
969.272 .0245152
969.887 .0245371
970.503 .0245589
971.118 .0245801
971.733 .0246008
972.347 .0246210
972.961 .0246407
973.575 .0246603
974.188 .0246798
974.801 .0246984
975.414 .0247158
976.026 .0247308
976.638 .0247431
977.250 .0247523
977.861 .0247584
978.472 .0247615
979.083 .0247628
979.693 .0247631
980.303 .0247632
980.912 .0247636
981.521 .0247648
982.130 .0247666
982.738 .0247689
983.346 .0247713
983.954 .0247735
984.562 .0247752
985.169 .0247766
985.775 .0247780
986.382 .0247795
986.988 .0247812
987.594 .0247839
988.199 .0247871
988.804 .0247909
989.409 .0247954
990.013 .0247998
990.617 .0248041
991.221 .0248084
991.824 .0248125
992.427 .0248162
993.030 .0248201
993.632 .0248241
994.234 .0248287
994.836 .0248342
995.438 .0248416
996.039 .0248500
996.640 .0248603
997.240 .0248720
997.840 .0248852
998.440 .0248996
999.040 .0249149
999.639 .0249309
1000.238 .0249471
1000.836 .0249633
1001.435 .0249789
1002.033 .0249931
1002.630 .0250067
1003.228 .0250184
1003.825 .0250290
1004.422 .0250380
1005.018 .0250459
1005.614 .0250524
1006.210 .0250587
1006.806 .0250642
1007.401 .0250686
1007.996 .0250710
1008.591 .0250717
1009.186 .0250703
1009.780 .0250668
1010.374 .0250613
1010.967 .0250546
1011.561 .0250472
1012.154 .0250402
1012.746 .0250331
1013.339 .0250271
1013.931 .0250216
1014.523 .0250170
1015.115 .0250119
1015.706 .0250059
1016.298 .0249989
1016.888 .0249909
1017.479 .0249823
1018.069 .0249736
1018.660 .0249651
1019.250 .0249573
1019.839 .0249506
1020.429 .0249453
1021.018 .0249407
1021.607 .0249372
1022.195 .0249336
1022.784 .0249303
1023.372 .0249261
1023.960 .0249220
1024.547 .0249172
1025.135 .0249130
1025.722 .0249094
1026.309 .0249060
1026.896 .0249029
1027.483 .0249002
1028.069 .0248975
1028.655 .0248951
1029.241 .0248921
1029.827 .0248894
1030.412 .0248856
1030.997 .0248817
1031.582 .0248769
1032.167 .0248719
1032.752 .0248658
1033.336 .0248583
1033.921 .0248485
1034.505 .0248373
1035.089 .0248234
1035.672 .0248068
1036.256 .0247874
1036.839 .0247662
1037.422 .0247425
1038.005 .0247174
1038.588 .0246911
1039.171 .0246657
1039.753 .0246402
1040.335 .0246151
1040.918 .0245901
1041.500 .0245657
1042.081 .0245419
1042.663 .0245182
1043.244 .0244954
1043.826 .0244738
1044.407 .0244521
1044.988 .0244323
1045.569 .0244128
1046.150 .0243951
1046.730 .0243777
1047.311 .0243613
1047.891 .0243451
1048.471 .0243288
1049.052 .0243113
1049.632 .0242928
1050.211 .0242747
1050.791 .0242560
1051.371 .0242366
1051.950 .0242179
1052.530 .0241996
1053.109 .0241827
1053.688 .0241658
1054.268 .0241502
1054.847 .0241343
1055.426 .0241192
1056.005 .0241037
1056.583 .0240878
1057.162 .0240727
1057.741 .0240580
1058.319 .0240440
1058.898 .0240313
1059.476 .0240183
1060.055 .0240056
1060.633 .0239923
1061.211 .0239780
1061.790 .0239607
1062.368 .0239425
1062.946 .0239230
1063.524 .0239036
1064.102 .0238845
1064.680 .0238673
1065.258 .0238517
1065.836 .0238388
1066.414 .0238286
1066.992 .0238196
1067.570 .0238119
1068.148 .0238053
1068.726 .0237964
1069.304 .0237878
1069.882 .0237783
1070.460 .0237689
1071.038 .0237603
1071.616 .0237541
1072.194 .0237499
1072.772 .0237467
1073.350 .0237464
1073.928 .0237480
1074.506 .0237497
1075.084 .0237526
1075.662 .0237532
1076.240 .0237526
1076.819 .0237504
1077.397 .0237463
1077.976 .0237405
1078.554 .0237364
1079.133 .0237341
1079.711 .0237328
1080.290 .0237339
1080.869 .0237373
1081.448 .0237415
1082.027 .0237457
1082.606 .0237501
1083.185 .0237535
1083.764 .0237551
1084.343 .0237563
1084.923 .0237561
1085.502 .0237575
1086.082 .0237606
1086.662 .0237658
1087.242 .0237736
1087.822 .0237846
1088.402 .0237982
1088.983 .0238121
1089.563 .0238270
1090.144 .0238420
1090.725 .0238550
1091.306 .0238663
1091.887 .0238760
1092.469 .0238840
1093.050 .0238907
1093.632 .0238988
1094.214 .0239085
1094.796 .0239213
1095.379 .0239373
1095.961 .0239554
1096.544 .0239754
1097.127 .0239960
1097.710 .0240159
1098.294 .0240345
1098.877 .0240520
1099.461 .0240686
1100.046 .0240835
1100.630 .0240995
1101.215 .0241179
1101.800 .0241389
1102.385 .0241628
1102.970 .0241889
1103.556 .0242166
1104.142 .0242433
1104.728 .0242689
1105.315 .0242938
1105.902 .0243167
1106.489 .0243382
1107.077 .0243592
1107.664 .0243805
1108.253 .0244024
1108.841 .0244265
1109.430 .0244526
1110.019 .0244803
1110.609 .0245093
1111.198 .0245396
1111.789 .0245702
1112.379 .0246030
1112.970 .0246374
1113.561 .0246730
1114.153 .0247119
1114.745 .0247544
1115.338 .0248001
1115.931 .0248510
1116.524 .0249060
1117.117 .0249651
1117.712 .0250263
1118.306 .0250923
1118.901 .0251623
1119.496 .0252362
1120.092 .0253140
1120.689 .0253974
1121.285 .0254833
1121.882 .0255711
1122.480 .0256585
1123.078 .0257482
1123.677 .0258344
1124.276 .0259168
1124.875 .0259968
1125.476 .0260727
1126.076 .0261452
1126.677 .0262174
1127.279 .0262880
1127.881 .0263635
1128.484 .0264400
1129.087 .0265189
1129.691 .0265998
1130.295 .0266880
1130.900 .0267779
1131.505 .0268724
1132.111 .0269715
1132.718 .0270737
1133.325 .0271781
1133.933 .0272908
1134.541 .0274094
1135.150 .0275338
1135.760 .0276636
1136.370 .0277979
1136.981 .0279361
1137.592 .0280760
1138.204 .0282124
1138.817 .0283470
1139.431 .0284812
1140.045 .0286134
1140.660 .0287347
1141.275 .0288478
1141.891 .0289834
1142.508 .0291212
1143.126 .0293033
1143.744 .0292345
1144.363 .0292354
1144.983 .0301111
