Measurement Sequence started on: 15-12-46-377
Integration time: 28
Scans to Average: 2 
>>>>>Begin Spectral Data<<<<<
432.689 .0000100
433.621 .0000100
434.552 .0000100
435.482 .0000100
436.410 .0000100
437.337 .0000100
438.262 .0239886
439.187 .0509378
440.110 .0844231
441.031 .1223042
441.952 .1591813
442.871 .1883271
443.789 .2045055
444.705 .2058631
445.621 .1945776
446.535 .1754119
447.447 .1535943
448.359 .1200245
449.269 .1033153
450.178 .0927616
451.086 .0852309
451.993 .0794508
452.898 .0748721
453.803 .0711132
454.706 .0679989
455.608 .0653475
456.508 .0630678
457.408 .0610957
458.306 .0593710
459.204 .0578389
460.100 .0564638
460.995 .0552116
461.888 .0540706
462.781 .0530348
463.673 .0520959
464.563 .0512610
465.452 .0505120
466.340 .0498428
467.228 .0492448
468.114 .0486930
468.999 .0481764
469.882 .0476843
470.765 .0472193
471.647 .0467771
472.528 .0463542
473.407 .0459585
474.286 .0455906
475.163 .0452567
476.040 .0449560
476.915 .0446812
477.790 .0444298
478.663 .0441918
479.535 .0439688
480.407 .0437619
481.277 .0435745
482.147 .0434087
483.015 .0432733
483.883 .0431712
484.749 .0430971
485.615 .0430460
486.479 .0430148
487.343 .0430028
488.206 .0430043
489.067 .0430151
489.928 .0430340
490.788 .0430709
491.647 .0431295
492.505 .0432067
493.362 .0433129
494.218 .0434367
495.073 .0435883
495.928 .0437631
496.781 .0439546
497.634 .0441681
498.486 .0443976
499.337 .0446434
500.187 .0449066
501.036 .0451917
501.884 .0455019
502.731 .0458367
503.578 .0462129
504.424 .0466196
505.268 .0470548
506.113 .0475189
506.956 .0480100
507.798 .0485295
508.640 .0490801
509.480 .0496457
510.320 .0502508
511.160 .0509111
511.998 .0516378
512.836 .0524525
513.672 .0533813
514.508 .0544448
515.344 .0556521
516.178 .0570180
517.012 .0585658
517.845 .0602837
518.677 .0622182
519.508 .0643610
520.339 .0667639
521.169 .0694701
521.998 .0725213
522.826 .0759979
523.654 .0799759
524.481 .0844400
525.307 .0894485
526.133 .0949417
526.958 .1009117
527.782 .1072342
528.605 .1136833
529.428 .1201248
530.250 .1260765
531.072 .1313147
531.892 .1355371
532.712 .1385439
533.532 .1402443
534.350 .1405132
535.168 .1393536
535.986 .1368325
536.802 .1331089
537.618 .1284170
538.434 .1229085
539.249 .1169526
540.063 .1106874
540.876 .1043806
541.689 .0982474
542.501 .0925062
543.313 .0872483
544.124 .0825707
544.934 .0784134
545.744 .0747181
546.553 .0714194
547.361 .0684700
548.169 .0658520
548.976 .0634884
549.783 .0613302
550.589 .0593450
551.395 .0574915
552.200 .0557875
553.004 .0542004
553.808 .0527411
554.611 .0514187
555.414 .0502351
556.216 .0491620
557.018 .0482211
557.819 .0473903
558.619 .0466490
559.419 .0459871
560.218 .0453979
561.017 .0448535
561.815 .0443426
562.613 .0438596
563.410 .0433840
564.207 .0429235
565.003 .0424699
565.799 .0420118
566.594 .0415495
567.388 .0410962
568.182 .0406387
568.976 .0401742
569.769 .0397171
570.562 .0392525
571.354 .0387817
572.145 .0383186
572.936 .0378587
573.727 .0374034
574.517 .0369611
575.307 .0365365
576.096 .0361243
576.885 .0357341
577.673 .0353654
578.461 .0350187
579.248 .0346939
580.035 .0343901
580.821 .0341039
581.607 .0338348
582.392 .0335863
583.177 .0333525
583.962 .0331350
584.746 .0329360
585.529 .0327502
586.313 .0325770
587.095 .0324170
587.878 .0322696
588.660 .0321320
589.441 .0320076
590.222 .0318952
591.003 .0317951
591.783 .0317064
592.563 .0316271
593.342 .0315564
594.121 .0314909
594.899 .0314319
595.678 .0313749
596.455 .0313211
597.233 .0312704
598.009 .0312211
598.786 .0311746
599.562 .0311303
600.338 .0310881
601.113 .0310477
601.888 .0310076
602.663 .0309675
603.437 .0309267
604.211 .0308852
604.984 .0308429
605.757 .0308005
606.530 .0307586
607.302 .0307169
608.074 .0306756
608.845 .0306357
609.616 .0305964
610.387 .0305582
611.158 .0305223
611.928 .0304883
612.697 .0304578
613.467 .0304310
614.236 .0304085
615.004 .0303910
615.773 .0303783
616.541 .0303696
617.308 .0303642
618.076 .0303617
618.843 .0303615
619.609 .0303629
620.375 .0303657
621.141 .0303687
621.907 .0303718
622.672 .0303748
623.437 .0303769
624.202 .0303774
624.966 .0303765
625.730 .0303735
626.493 .0303679
627.257 .0303593
628.020 .0303480
628.782 .0303342
629.545 .0303182
630.307 .0303002
631.068 .0302802
631.830 .0302590
632.591 .0302368
633.352 .0302141
634.112 .0301915
634.872 .0301692
635.632 .0301478
636.392 .0301267
637.151 .0301062
637.910 .0300859
638.668 .0300651
639.427 .0300442
640.185 .0300221
640.943 .0299985
641.700 .0299735
642.457 .0299473
643.214 .0299199
643.971 .0298908
644.727 .0298611
645.483 .0298306
646.239 .0297997
646.994 .0297686
647.750 .0297380
648.505 .0297083
649.259 .0296804
650.014 .0296536
650.768 .0296283
651.521 .0296044
652.275 .0295812
653.028 .0295578
653.781 .0295342
654.534 .0295092
655.286 .0294831
656.039 .0294561
656.791 .0294291
657.542 .0294010
658.294 .0293738
659.045 .0293474
659.796 .0293217
660.546 .0292966
661.297 .0292712
662.047 .0292453
662.796 .0292191
663.546 .0291918
664.295 .0291643
665.044 .0291368
665.793 .0291109
666.542 .0290857
667.290 .0290621
668.038 .0290398
668.786 .0290187
669.533 .0289986
670.281 .0289794
671.028 .0289608
671.774 .0289432
672.521 .0289265
673.267 .0289111
674.013 .0288972
674.759 .0288844
675.505 .0288728
676.250 .0288620
676.995 .0288515
677.740 .0288413
678.484 .0288312
679.229 .0288229
679.973 .0288161
680.717 .0288110
681.460 .0288076
682.204 .0288059
682.947 .0288061
683.690 .0288068
684.433 .0288077
685.175 .0288080
685.917 .0288075
686.659 .0288057
687.401 .0288026
688.142 .0287989
688.884 .0287952
689.625 .0287914
690.365 .0287877
691.106 .0287835
691.846 .0287786
692.586 .0287729
693.326 .0287664
694.066 .0287592
694.805 .0287514
695.545 .0287426
696.284 .0287335
697.022 .0287241
697.761 .0287151
698.499 .0287057
699.237 .0286970
699.975 .0286887
700.713 .0286802
701.450 .0286716
702.187 .0286626
702.924 .0286531
703.661 .0286433
704.397 .0286322
705.133 .0286203
705.869 .0286072
706.605 .0285932
707.341 .0285777
708.076 .0285612
708.811 .0285439
709.546 .0285249
710.281 .0285044
711.015 .0284828
711.749 .0284594
712.483 .0284342
713.217 .0284079
713.950 .0283803
714.684 .0283520
715.417 .0283232
716.150 .0282937
716.882 .0282644
717.615 .0282347
718.347 .0282050
719.079 .0281748
719.811 .0281444
720.542 .0281136
721.273 .0280820
722.005 .0280507
722.735 .0280196
723.466 .0279892
724.196 .0279591
724.927 .0279297
725.656 .0279005
726.386 .0278712
727.116 .0278416
727.845 .0278116
728.574 .0277817
729.303 .0277524
730.031 .0277238
730.760 .0276965
731.488 .0276712
732.216 .0276483
732.944 .0276271
733.671 .0276080
734.398 .0275901
735.125 .0275734
735.852 .0275573
736.579 .0275417
737.305 .0275270
738.031 .0275136
738.757 .0275019
739.483 .0274913
740.208 .0274824
740.933 .0274751
741.658 .0274685
742.383 .0274626
743.108 .0274572
743.832 .0274518
744.556 .0274461
745.280 .0274401
746.004 .0274336
746.727 .0274268
747.450 .0274202
748.173 .0274135
748.896 .0274074
749.618 .0274020
750.340 .0273970
751.062 .0273927
751.784 .0273892
752.506 .0273864
753.227 .0273837
753.948 .0273811
754.669 .0273789
755.389 .0273764
756.110 .0273738
756.830 .0273714
757.550 .0273699
758.269 .0273692
758.989 .0273693
759.708 .0273702
760.427 .0273720
761.146 .0273743
761.864 .0273769
762.582 .0273794
763.300 .0273812
764.018 .0273828
764.736 .0273839
765.453 .0273846
766.170 .0273852
766.887 .0273854
767.603 .0273850
768.320 .0273840
769.036 .0273817
769.751 .0273776
770.467 .0273724
771.182 .0273667
771.897 .0273602
772.612 .0273537
773.327 .0273479
774.041 .0273428
774.755 .0273385
775.469 .0273354
776.183 .0273330
776.896 .0273315
777.609 .0273306
778.322 .0273298
779.035 .0273292
779.747 .0273288
780.459 .0273282
781.171 .0273278
781.882 .0273276
782.594 .0273271
783.305 .0273258
784.016 .0273241
784.726 .0273214
785.436 .0273175
786.147 .0273121
786.856 .0273048
787.566 .0272958
788.275 .0272849
788.984 .0272719
789.693 .0272573
790.401 .0272417
791.110 .0272253
791.818 .0272082
792.525 .0271910
793.233 .0271736
793.940 .0271560
794.647 .0271379
795.353 .0271192
796.060 .0270995
796.766 .0270787
797.472 .0270565
798.177 .0270333
798.883 .0270095
799.588 .0269853
800.292 .0269612
800.997 .0269369
801.701 .0269125
802.405 .0268875
803.109 .0268617
803.812 .0268355
804.515 .0268084
805.218 .0267805
805.921 .0267518
806.623 .0267226
807.325 .0266933
808.027 .0266636
808.728 .0266337
809.429 .0266035
810.130 .0265730
810.831 .0265420
811.531 .0265102
812.231 .0264778
812.931 .0264449
813.630 .0264115
814.330 .0263778
815.029 .0263443
815.727 .0263112
816.426 .0262794
817.124 .0262489
817.821 .0262203
818.519 .0261937
819.216 .0261691
819.913 .0261464
820.609 .0261250
821.306 .0261052
822.002 .0260864
822.697 .0260686
823.393 .0260522
824.088 .0260374
824.783 .0260242
825.477 .0260127
826.171 .0260031
826.865 .0259951
827.559 .0259884
828.252 .0259824
828.945 .0259765
829.638 .0259705
830.330 .0259644
831.023 .0259583
831.714 .0259521
832.406 .0259468
833.097 .0259423
833.788 .0259387
834.479 .0259365
835.169 .0259355
835.859 .0259358
836.548 .0259373
837.238 .0259399
837.927 .0259432
838.615 .0259472
839.304 .0259521
839.992 .0259574
840.680 .0259632
841.367 .0259693
842.054 .0259752
842.741 .0259806
843.428 .0259860
844.114 .0259910
844.800 .0259958
845.485 .0260005
846.170 .0260048
846.855 .0260088
847.540 .0260120
848.224 .0260147
848.908 .0260165
849.592 .0260176
850.275 .0260181
850.958 .0260179
851.641 .0260176
852.323 .0260176
853.005 .0260183
853.687 .0260196
854.368 .0260215
855.049 .0260239
855.730 .0260261
856.410 .0260283
857.090 .0260303
857.769 .0260318
858.449 .0260334
859.128 .0260349
859.806 .0260369
860.485 .0260394
861.163 .0260430
861.840 .0260471
862.518 .0260515
863.195 .0260561
863.871 .0260601
864.548 .0260638
865.224 .0260669
865.899 .0260699
866.574 .0260733
867.249 .0260777
867.924 .0260830
868.598 .0260892
869.272 .0260966
869.946 .0261042
870.619 .0261115
871.292 .0261186
871.964 .0261242
872.636 .0261284
873.308 .0261310
873.979 .0261325
874.651 .0261329
875.321 .0261330
875.992 .0261329
876.662 .0261329
877.331 .0261330
878.001 .0261331
878.670 .0261325
879.338 .0261316
880.007 .0261302
880.675 .0261278
881.342 .0261242
882.009 .0261198
882.676 .0261144
883.343 .0261084
884.009 .0261021
884.675 .0260958
885.340 .0260893
886.005 .0260824
886.670 .0260756
887.334 .0260684
887.998 .0260608
888.662 .0260526
889.325 .0260433
889.988 .0260331
890.650 .0260220
891.312 .0260100
891.974 .0259979
892.636 .0259857
893.297 .0259734
893.957 .0259605
894.618 .0259473
895.278 .0259336
895.937 .0259191
896.596 .0259041
897.255 .0258882
897.914 .0258710
898.572 .0258531
899.230 .0258345
899.887 .0258153
900.544 .0257958
901.201 .0257757
901.857 .0257548
902.513 .0257330
903.168 .0257102
903.823 .0256862
904.478 .0256609
905.132 .0256342
905.786 .0256057
906.440 .0255757
907.093 .0255442
907.746 .0255114
908.399 .0254776
909.051 .0254429
909.703 .0254073
910.354 .0253708
911.005 .0253339
911.656 .0252962
912.306 .0252582
912.956 .0252199
913.605 .0251815
914.254 .0251436
914.903 .0251063
915.551 .0250703
916.199 .0250360
916.847 .0250033
917.494 .0249724
918.141 .0249430
918.788 .0249151
919.434 .0248882
920.079 .0248618
920.725 .0248359
921.370 .0248099
922.014 .0247835
922.658 .0247564
923.302 .0247286
923.946 .0247003
924.589 .0246710
925.231 .0246407
925.873 .0246099
926.515 .0245784
927.157 .0245464
927.798 .0245138
928.439 .0244805
929.079 .0244471
929.719 .0244132
930.359 .0243791
930.998 .0243451
931.637 .0243119
932.275 .0242800
932.913 .0242497
933.551 .0242218
934.188 .0241962
934.825 .0241728
935.462 .0241520
936.098 .0241327
936.733 .0241153
937.369 .0240994
938.004 .0240849
938.638 .0240719
939.273 .0240607
939.907 .0240513
940.540 .0240437
941.173 .0240381
941.806 .0240342
942.438 .0240310
943.070 .0240285
943.702 .0240258
944.333 .0240225
944.964 .0240186
945.594 .0240143
946.224 .0240093
946.854 .0240046
947.483 .0240005
948.112 .0239970
948.741 .0239942
949.369 .0239922
949.996 .0239904
950.624 .0239887
951.251 .0239870
951.878 .0239851
952.504 .0239831
953.130 .0239817
953.755 .0239807
954.380 .0239808
955.005 .0239819
955.629 .0239843
956.253 .0239878
956.877 .0239923
957.500 .0239975
958.123 .0240028
958.746 .0240080
959.368 .0240135
959.990 .0240191
960.611 .0240255
961.232 .0240327
961.853 .0240408
962.473 .0240503
963.093 .0240610
963.712 .0240726
964.331 .0240850
964.950 .0240978
965.569 .0241117
966.187 .0241260
966.804 .0241412
967.422 .0241574
968.039 .0241745
968.655 .0241926
969.272 .0242113
969.887 .0242298
970.503 .0242483
971.118 .0242668
971.733 .0242851
972.347 .0243030
972.961 .0243207
973.575 .0243387
974.188 .0243566
974.801 .0243742
975.414 .0243912
976.026 .0244067
976.638 .0244208
977.250 .0244329
977.861 .0244432
978.472 .0244524
979.083 .0244605
979.693 .0244676
980.303 .0244739
980.912 .0244796
981.521 .0244834
982.130 .0244861
982.738 .0244875
983.346 .0244874
983.954 .0244854
984.562 .0244821
985.169 .0244781
985.775 .0244739
986.382 .0244702
986.988 .0244670
987.594 .0244644
988.199 .0244631
988.804 .0244626
989.409 .0244632
990.013 .0244657
990.617 .0244706
991.221 .0244771
991.824 .0244862
992.427 .0244969
993.030 .0245094
993.632 .0245236
994.234 .0245395
994.836 .0245564
995.438 .0245734
996.039 .0245906
996.640 .0246070
997.240 .0246227
997.840 .0246378
998.440 .0246514
999.040 .0246640
999.639 .0246753
1000.238 .0246851
1000.836 .0246934
1001.435 .0247009
1002.033 .0247080
1002.630 .0247144
1003.228 .0247206
1003.825 .0247263
1004.422 .0247313
1005.018 .0247359
1005.614 .0247400
1006.210 .0247432
1006.806 .0247460
1007.401 .0247484
1007.996 .0247507
1008.591 .0247530
1009.186 .0247557
1009.780 .0247587
1010.374 .0247614
1010.967 .0247639
1011.561 .0247655
1012.154 .0247659
1012.746 .0247651
1013.339 .0247631
1013.931 .0247604
1014.523 .0247578
1015.115 .0247556
1015.706 .0247540
1016.298 .0247531
1016.888 .0247530
1017.479 .0247529
1018.069 .0247527
1018.660 .0247519
1019.250 .0247500
1019.839 .0247469
1020.429 .0247428
1021.018 .0247382
1021.607 .0247337
1022.195 .0247297
1022.784 .0247266
1023.372 .0247249
1023.960 .0247242
1024.547 .0247239
1025.135 .0247238
1025.722 .0247239
1026.309 .0247237
1026.896 .0247224
1027.483 .0247200
1028.069 .0247165
1028.655 .0247120
1029.241 .0247067
1029.827 .0247015
1030.412 .0246966
1030.997 .0246923
1031.582 .0246880
1032.167 .0246839
1032.752 .0246799
1033.336 .0246749
1033.921 .0246686
1034.505 .0246612
1035.089 .0246522
1035.672 .0246419
1036.256 .0246299
1036.839 .0246180
1037.422 .0246056
1038.005 .0245939
1038.588 .0245820
1039.171 .0245702
1039.753 .0245581
1040.335 .0245455
1040.918 .0245318
1041.500 .0245174
1042.081 .0245015
1042.663 .0244845
1043.244 .0244657
1043.826 .0244455
1044.407 .0244226
1044.988 .0243988
1045.569 .0243735
1046.150 .0243478
1046.730 .0243214
1047.311 .0242961
1047.891 .0242712
1048.471 .0242484
1049.052 .0242268
1049.632 .0242073
1050.211 .0241897
1050.791 .0241734
1051.371 .0241572
1051.950 .0241415
1052.530 .0241260
1053.109 .0241112
1053.688 .0240958
1054.268 .0240809
1054.847 .0240650
1055.426 .0240488
1056.005 .0240324
1056.583 .0240152
1057.162 .0239971
1057.741 .0239785
1058.319 .0239593
1058.898 .0239394
1059.476 .0239180
1060.055 .0238965
1060.633 .0238744
1061.211 .0238517
1061.790 .0238276
1062.368 .0238012
1062.946 .0237729
1063.524 .0237436
1064.102 .0237143
1064.680 .0236858
1065.258 .0236592
1065.836 .0236354
1066.414 .0236150
1066.992 .0235989
1067.570 .0235871
1068.148 .0235779
1068.726 .0235715
1069.304 .0235682
1069.882 .0235649
1070.460 .0235617
1071.038 .0235593
1071.616 .0235580
1072.194 .0235585
1072.772 .0235602
1073.350 .0235641
1073.928 .0235697
1074.506 .0235761
1075.084 .0235826
1075.662 .0235874
1076.240 .0235911
1076.819 .0235910
1077.397 .0235876
1077.976 .0235813
1078.554 .0235719
1079.133 .0235609
1079.711 .0235473
1080.290 .0235325
1080.869 .0235173
1081.448 .0235005
1082.027 .0234839
1082.606 .0234674
1083.185 .0234523
1083.764 .0234401
1084.343 .0234317
1084.923 .0234284
1085.502 .0234288
1086.082 .0234337
1086.662 .0234421
1087.242 .0234526
1087.822 .0234644
1088.402 .0234772
1088.983 .0234907
1089.563 .0235052
1090.144 .0235199
1090.725 .0235354
1091.306 .0235514
1091.887 .0235682
1092.469 .0235861
1093.050 .0236037
1093.632 .0236185
1094.214 .0236310
1094.796 .0236398
1095.379 .0236468
1095.961 .0236521
1096.544 .0236582
1097.127 .0236662
1097.710 .0236779
1098.294 .0236952
1098.877 .0237173
1099.461 .0237446
1100.046 .0237766
1100.630 .0238100
1101.215 .0238446
1101.800 .0238778
1102.385 .0239092
1102.970 .0239384
1103.556 .0239675
1104.142 .0239970
1104.728 .0240276
1105.315 .0240598
1105.902 .0240940
1106.489 .0241290
1107.077 .0241632
1107.664 .0241958
1108.253 .0242252
1108.841 .0242501
1109.430 .0242705
1110.019 .0242870
1110.609 .0243013
1111.198 .0243155
1111.789 .0243327
1112.379 .0243538
1112.970 .0243806
1113.561 .0244139
1114.153 .0244538
1114.745 .0244998
1115.338 .0245525
1115.931 .0246082
1116.524 .0246650
1117.117 .0247241
1117.712 .0247831
1118.306 .0248416
1118.901 .0249009
1119.496 .0249630
1120.092 .0250270
1120.689 .0250924
1121.285 .0251614
1121.882 .0252300
1122.480 .0252998
1123.078 .0253700
1123.677 .0254362
1124.276 .0254987
1124.875 .0255564
1125.476 .0256107
1126.076 .0256631
1126.677 .0257177
1127.279 .0257748
1127.881 .0258370
1128.484 .0259051
1129.087 .0259800
1129.691 .0260577
1130.295 .0261437
1130.900 .0262350
1131.505 .0263308
1132.111 .0264349
1132.718 .0265436
1133.325 .0266605
1133.933 .0267852
1134.541 .0269158
1135.150 .0270535
1135.760 .0271916
1136.370 .0273335
1136.981 .0274775
1137.592 .0276239
1138.204 .0277742
1138.817 .0279279
1139.431 .0280913
1140.045 .0282522
1140.660 .0284179
1141.275 .0285911
1141.891 .0288125
1142.508 .0290346
1143.126 .0289569
1143.744 .0292320
1144.363 .0296153
1144.983 .0310191
