Measurement Sequence started on: 15-12-46-377
Integration time: 28
Scans to Average: 2 
>>>>>Begin Spectral Data<<<<<
432.689 .0000100
433.621 .0000100
434.552 .0000100
435.482 .0000100
436.410 .0000100
437.337 .0000100
438.262 .0270597
439.187 .0573473
440.110 .0950418
441.031 .1375447
441.952 .1788630
442.871 .2114318
443.789 .2293637
444.705 .2306357
445.621 .2177345
446.535 .1960383
447.447 .1714493
448.359 .1336727
449.269 .1150390
450.178 .1032832
451.086 .0950156
451.993 .0886721
452.898 .0836592
453.803 .0795607
454.706 .0761569
455.608 .0732560
456.508 .0707697
457.408 .0686059
458.306 .0666989
459.204 .0649654
460.100 .0633929
460.995 .0619557
461.888 .0606233
462.781 .0593804
463.673 .0582260
464.563 .0571558
465.452 .0561495
466.340 .0552037
467.228 .0543303
468.114 .0535290
468.999 .0528037
469.882 .0521477
470.765 .0515605
471.647 .0510383
472.528 .0505688
473.407 .0501446
474.286 .0497654
475.163 .0494165
476.040 .0490994
476.915 .0488147
477.790 .0485640
478.663 .0483531
479.535 .0481827
480.407 .0480535
481.277 .0479623
482.147 .0478998
483.015 .0478508
483.883 .0478056
484.749 .0477588
485.615 .0477028
486.479 .0476404
487.343 .0475811
488.206 .0475264
489.067 .0474824
489.928 .0474633
490.788 .0474645
491.647 .0474849
492.505 .0475237
493.362 .0475766
494.218 .0476344
495.073 .0477030
495.928 .0477852
496.781 .0478871
497.634 .0480214
498.486 .0481961
499.337 .0484171
500.187 .0486891
501.036 .0490176
501.884 .0493887
502.731 .0498034
503.578 .0502595
504.424 .0507354
505.268 .0512270
506.113 .0517374
506.956 .0522651
507.798 .0528059
508.640 .0533723
509.480 .0539776
510.320 .0546187
511.160 .0553239
511.998 .0560908
512.836 .0569373
513.672 .0578585
514.508 .0588844
515.344 .0600050
516.178 .0612810
517.012 .0627490
517.845 .0644617
518.677 .0664865
519.508 .0688758
520.339 .0716658
521.169 .0749268
521.998 .0786884
522.826 .0830172
523.654 .0878961
524.481 .0933639
525.307 .0994316
526.133 .1061415
526.958 .1134408
527.782 .1212932
528.605 .1294707
529.428 .1378498
530.250 .1457970
531.072 .1530248
531.892 .1590257
532.712 .1634826
533.532 .1661365
534.350 .1668222
535.168 .1654684
535.986 .1622728
536.802 .1574196
537.618 .1513346
538.434 .1442388
539.249 .1366590
540.063 .1287643
540.876 .1209282
541.689 .1133636
542.501 .1062661
543.313 .0997324
544.124 .0938546
544.934 .0885580
545.744 .0838066
546.553 .0795257
547.361 .0757143
548.169 .0723796
548.976 .0694508
549.783 .0668926
550.589 .0646618
551.395 .0626945
552.200 .0609771
553.004 .0594348
553.808 .0580225
554.611 .0567288
555.414 .0555245
556.216 .0544054
557.018 .0533733
557.819 .0524386
558.619 .0515825
559.419 .0508023
560.218 .0501007
561.017 .0494532
561.815 .0488481
562.613 .0482682
563.410 .0476917
564.207 .0471216
565.003 .0465520
565.799 .0459768
566.594 .0453942
567.388 .0448280
568.182 .0442718
568.976 .0437278
569.769 .0431973
570.562 .0426787
571.354 .0421638
572.145 .0416524
572.936 .0411388
573.727 .0406252
574.517 .0401168
575.307 .0396198
576.096 .0391405
576.885 .0386895
577.673 .0382693
578.461 .0378826
579.248 .0375268
580.035 .0372011
580.821 .0368931
581.607 .0366002
582.392 .0363202
583.177 .0360521
583.962 .0357981
584.746 .0355637
585.529 .0353528
586.313 .0351653
587.095 .0350000
587.878 .0348533
588.660 .0347224
589.441 .0346036
590.222 .0344924
591.003 .0343880
591.783 .0342897
592.563 .0341953
593.342 .0341058
594.121 .0340204
594.899 .0339407
595.678 .0338648
596.455 .0337921
597.233 .0337230
598.009 .0336559
598.786 .0335895
599.562 .0335236
600.338 .0334582
601.113 .0333946
601.888 .0333313
602.663 .0332695
603.437 .0332095
604.211 .0331512
604.984 .0330947
605.757 .0330406
606.530 .0329882
607.302 .0329376
608.074 .0328891
608.845 .0328429
609.616 .0327994
610.387 .0327596
611.158 .0327231
611.928 .0326902
612.697 .0326608
613.467 .0326344
614.236 .0326103
615.004 .0325891
615.773 .0325703
616.541 .0325517
617.308 .0325340
618.076 .0325169
618.843 .0324998
619.609 .0324836
620.375 .0324681
621.141 .0324528
621.907 .0324380
622.672 .0324234
623.437 .0324079
624.202 .0323918
624.966 .0323750
625.730 .0323563
626.493 .0323354
627.257 .0323120
628.020 .0322850
628.782 .0322547
629.545 .0322223
630.307 .0321876
631.068 .0321512
631.830 .0321146
632.591 .0320779
633.352 .0320426
634.112 .0320092
634.872 .0319775
635.632 .0319475
636.392 .0319186
637.151 .0318905
637.910 .0318618
638.668 .0318338
639.427 .0318066
640.185 .0317805
640.943 .0317560
641.700 .0317334
642.457 .0317129
643.214 .0316944
643.971 .0316768
644.727 .0316600
645.483 .0316430
646.239 .0316261
646.994 .0316082
647.750 .0315895
648.505 .0315700
649.259 .0315500
650.014 .0315286
650.768 .0315069
651.521 .0314847
652.275 .0314618
653.028 .0314386
653.781 .0314156
654.534 .0313923
655.286 .0313691
656.039 .0313455
656.791 .0313216
657.542 .0312959
658.294 .0312689
659.045 .0312397
659.796 .0312084
660.546 .0311758
661.297 .0311416
662.047 .0311066
662.796 .0310716
663.546 .0310369
664.295 .0310028
665.044 .0309694
665.793 .0309369
666.542 .0309048
667.290 .0308726
668.038 .0308408
668.786 .0308088
669.533 .0307771
670.281 .0307460
671.028 .0307152
671.774 .0306849
672.521 .0306555
673.267 .0306269
674.013 .0305997
674.759 .0305738
675.505 .0305495
676.250 .0305264
676.995 .0305043
677.740 .0304832
678.484 .0304629
679.229 .0304431
679.973 .0304235
680.717 .0304034
681.460 .0303828
682.204 .0303614
682.947 .0303402
683.690 .0303188
684.433 .0302976
685.175 .0302771
685.917 .0302566
686.659 .0302359
687.401 .0302147
688.142 .0301930
688.884 .0301702
689.625 .0301463
690.365 .0301211
691.106 .0300940
691.846 .0300662
692.586 .0300380
693.326 .0300096
694.066 .0299822
694.805 .0299561
695.545 .0299311
696.284 .0299074
697.022 .0298851
697.761 .0298635
698.499 .0298426
699.237 .0298227
699.975 .0298036
700.713 .0297848
701.450 .0297671
702.187 .0297504
702.924 .0297345
703.661 .0297205
704.397 .0297079
705.133 .0296965
705.869 .0296871
706.605 .0296790
707.341 .0296717
708.076 .0296649
708.811 .0296587
709.546 .0296523
710.281 .0296456
711.015 .0296390
711.749 .0296314
712.483 .0296233
713.217 .0296154
713.950 .0296074
714.684 .0295990
715.417 .0295906
716.150 .0295815
716.882 .0295711
717.615 .0295597
718.347 .0295473
719.079 .0295337
719.811 .0295194
720.542 .0295047
721.273 .0294894
722.005 .0294740
722.735 .0294587
723.466 .0294426
724.196 .0294268
724.927 .0294110
725.656 .0293941
726.386 .0293764
727.116 .0293588
727.845 .0293410
728.574 .0293232
729.303 .0293059
730.031 .0292893
730.760 .0292731
731.488 .0292572
732.216 .0292414
732.944 .0292256
733.671 .0292096
734.398 .0291928
735.125 .0291754
735.852 .0291579
736.579 .0291402
737.305 .0291224
738.031 .0291053
738.757 .0290888
739.483 .0290729
740.208 .0290569
740.933 .0290410
741.658 .0290250
742.383 .0290084
743.108 .0289908
743.832 .0289725
744.556 .0289533
745.280 .0289340
746.004 .0289148
746.727 .0288970
747.450 .0288799
748.173 .0288638
748.896 .0288483
749.618 .0288332
750.340 .0288179
751.062 .0288013
751.784 .0287836
752.506 .0287647
753.227 .0287446
753.948 .0287234
754.669 .0287017
755.389 .0286799
756.110 .0286584
756.830 .0286370
757.550 .0286152
758.269 .0285928
758.989 .0285698
759.708 .0285461
760.427 .0285214
761.146 .0284955
761.864 .0284691
762.582 .0284420
763.300 .0284154
764.018 .0283889
764.736 .0283629
765.453 .0283376
766.170 .0283131
766.887 .0282891
767.603 .0282648
768.320 .0282406
769.036 .0282162
769.751 .0281918
770.467 .0281677
771.182 .0281439
771.897 .0281207
772.612 .0280985
773.327 .0280778
774.041 .0280583
774.755 .0280405
775.469 .0280242
776.183 .0280094
776.896 .0279961
777.609 .0279844
778.322 .0279740
779.035 .0279654
779.747 .0279589
780.459 .0279540
781.171 .0279508
781.882 .0279491
782.594 .0279487
783.305 .0279498
784.016 .0279521
784.726 .0279552
785.436 .0279591
786.147 .0279640
786.856 .0279693
787.566 .0279751
788.275 .0279811
788.984 .0279869
789.693 .0279921
790.401 .0279965
791.110 .0279994
791.818 .0280013
792.525 .0280022
793.233 .0280025
793.940 .0280023
794.647 .0280019
795.353 .0280005
796.060 .0279990
796.766 .0279969
797.472 .0279942
798.177 .0279904
798.883 .0279861
799.588 .0279809
800.292 .0279751
800.997 .0279693
801.701 .0279636
802.405 .0279583
803.109 .0279537
803.812 .0279491
804.515 .0279449
805.218 .0279402
805.921 .0279353
806.623 .0279298
807.325 .0279240
808.027 .0279175
808.728 .0279104
809.429 .0279025
810.130 .0278942
810.831 .0278855
811.531 .0278765
812.231 .0278665
812.931 .0278559
813.630 .0278445
814.330 .0278324
815.029 .0278199
815.727 .0278077
816.426 .0277957
817.124 .0277847
817.821 .0277741
818.519 .0277642
819.216 .0277552
819.913 .0277473
820.609 .0277402
821.306 .0277339
822.002 .0277283
822.697 .0277236
823.393 .0277196
824.088 .0277167
824.783 .0277141
825.477 .0277120
826.171 .0277101
826.865 .0277085
827.559 .0277069
828.252 .0277051
828.945 .0277031
829.638 .0277011
830.330 .0276986
831.023 .0276956
831.714 .0276914
832.406 .0276864
833.097 .0276803
833.788 .0276728
834.479 .0276641
835.169 .0276547
835.859 .0276447
836.548 .0276343
837.238 .0276235
837.927 .0276124
838.615 .0276009
839.304 .0275892
839.992 .0275767
840.680 .0275637
841.367 .0275497
842.054 .0275350
842.741 .0275198
843.428 .0275044
844.114 .0274887
844.800 .0274728
845.485 .0274567
846.170 .0274400
846.855 .0274224
847.540 .0274042
848.224 .0273852
848.908 .0273656
849.592 .0273450
850.275 .0273235
850.958 .0273005
851.641 .0272765
852.323 .0272511
853.005 .0272243
853.687 .0271959
854.368 .0271660
855.049 .0271348
855.730 .0271025
856.410 .0270694
857.090 .0270361
857.769 .0270024
858.449 .0269689
859.128 .0269351
859.806 .0269013
860.485 .0268679
861.163 .0268353
861.840 .0268033
862.518 .0267723
863.195 .0267423
863.871 .0267133
864.548 .0266853
865.224 .0266588
865.899 .0266338
866.574 .0266106
867.249 .0265890
867.924 .0265689
868.598 .0265497
869.272 .0265317
869.946 .0265144
870.619 .0264977
871.292 .0264817
871.964 .0264657
872.636 .0264498
873.308 .0264342
873.979 .0264188
874.651 .0264036
875.321 .0263888
875.992 .0263747
876.662 .0263609
877.331 .0263475
878.001 .0263342
878.670 .0263214
879.338 .0263090
880.007 .0262971
880.675 .0262853
881.342 .0262740
882.009 .0262633
882.676 .0262531
883.343 .0262438
884.009 .0262354
884.675 .0262276
885.340 .0262205
886.005 .0262139
886.670 .0262081
887.334 .0262028
887.998 .0261986
888.662 .0261957
889.325 .0261944
889.988 .0261947
890.650 .0261968
891.312 .0262005
891.974 .0262055
892.636 .0262116
893.297 .0262190
893.957 .0262270
894.618 .0262359
895.278 .0262455
895.937 .0262561
896.596 .0262677
897.255 .0262803
897.914 .0262932
898.572 .0263063
899.230 .0263188
899.887 .0263299
900.544 .0263396
901.201 .0263474
901.857 .0263531
902.513 .0263570
903.168 .0263594
903.823 .0263602
904.478 .0263590
905.132 .0263561
905.786 .0263513
906.440 .0263450
907.093 .0263370
907.746 .0263280
908.399 .0263185
909.051 .0263090
909.703 .0262994
910.354 .0262900
911.005 .0262811
911.656 .0262723
912.306 .0262634
912.956 .0262546
913.605 .0262456
914.254 .0262373
914.903 .0262298
915.551 .0262236
916.199 .0262191
916.847 .0262161
917.494 .0262141
918.141 .0262132
918.788 .0262129
919.434 .0262126
920.079 .0262120
920.725 .0262113
921.370 .0262101
922.014 .0262085
922.658 .0262067
923.302 .0262046
923.946 .0262026
924.589 .0262005
925.231 .0261974
925.873 .0261937
926.515 .0261897
927.157 .0261850
927.798 .0261797
928.439 .0261740
929.079 .0261682
929.719 .0261617
930.359 .0261549
930.998 .0261476
931.637 .0261399
932.275 .0261323
932.913 .0261245
933.551 .0261161
934.188 .0261076
934.825 .0260994
935.462 .0260912
936.098 .0260833
936.733 .0260759
937.369 .0260686
938.004 .0260617
938.638 .0260554
939.273 .0260496
939.907 .0260439
940.540 .0260394
941.173 .0260352
941.806 .0260319
942.438 .0260295
943.070 .0260275
943.702 .0260261
944.333 .0260252
944.964 .0260242
945.594 .0260225
946.224 .0260204
946.854 .0260183
947.483 .0260157
948.112 .0260132
948.741 .0260101
949.369 .0260064
949.996 .0260023
950.624 .0259976
951.251 .0259918
951.878 .0259854
952.504 .0259779
953.130 .0259694
953.755 .0259598
954.380 .0259493
955.005 .0259378
955.629 .0259255
956.253 .0259122
956.877 .0258975
957.500 .0258819
958.123 .0258657
958.746 .0258489
959.368 .0258325
959.990 .0258162
960.611 .0258001
961.232 .0257844
961.853 .0257688
962.473 .0257531
963.093 .0257372
963.712 .0257208
964.331 .0257034
964.950 .0256856
965.569 .0256675
966.187 .0256496
966.804 .0256324
967.422 .0256165
968.039 .0256014
968.655 .0255867
969.272 .0255720
969.887 .0255564
970.503 .0255397
971.118 .0255218
971.733 .0255023
972.347 .0254816
972.961 .0254599
973.575 .0254375
974.188 .0254142
974.801 .0253908
975.414 .0253667
976.026 .0253421
976.638 .0253172
977.250 .0252916
977.861 .0252653
978.472 .0252384
979.083 .0252110
979.693 .0251827
980.303 .0251536
980.912 .0251237
981.521 .0250931
982.130 .0250624
982.738 .0250318
983.346 .0250019
983.954 .0249731
984.562 .0249456
985.169 .0249188
985.775 .0248927
986.382 .0248666
986.988 .0248399
987.594 .0248126
988.199 .0247845
988.804 .0247562
989.409 .0247281
990.013 .0247008
990.617 .0246749
991.221 .0246506
991.824 .0246275
992.427 .0246052
993.030 .0245834
993.632 .0245620
994.234 .0245408
994.836 .0245199
995.438 .0244995
996.039 .0244798
996.640 .0244618
997.240 .0244457
997.840 .0244318
998.440 .0244204
999.040 .0244105
999.639 .0244020
1000.238 .0243939
1000.836 .0243856
1001.435 .0243772
1002.033 .0243685
1002.630 .0243591
1003.228 .0243492
1003.825 .0243389
1004.422 .0243287
1005.018 .0243189
1005.614 .0243099
1006.210 .0243018
1006.806 .0242938
1007.401 .0242858
1007.996 .0242768
1008.591 .0242667
1009.186 .0242562
1009.780 .0242448
1010.374 .0242332
1010.967 .0242213
1011.561 .0242095
1012.154 .0241989
1012.746 .0241898
1013.339 .0241825
1013.931 .0241766
1014.523 .0241719
1015.115 .0241673
1015.706 .0241630
1016.298 .0241584
1016.888 .0241537
1017.479 .0241499
1018.069 .0241475
1018.660 .0241456
1019.250 .0241452
1019.839 .0241470
1020.429 .0241502
1021.018 .0241553
1021.607 .0241623
1022.195 .0241689
1022.784 .0241762
1023.372 .0241831
1023.960 .0241902
1024.547 .0241972
1025.135 .0242056
1025.722 .0242142
1026.309 .0242244
1026.896 .0242364
1027.483 .0242494
1028.069 .0242635
1028.655 .0242795
1029.241 .0242950
1029.827 .0243103
1030.412 .0243252
1030.997 .0243397
1031.582 .0243534
1032.167 .0243674
1032.752 .0243812
1033.336 .0243962
1033.921 .0244123
1034.505 .0244297
1035.089 .0244477
1035.672 .0244674
1036.256 .0244864
1036.839 .0245042
1037.422 .0245206
1038.005 .0245355
1038.588 .0245483
1039.171 .0245606
1039.753 .0245725
1040.335 .0245849
1040.918 .0245981
1041.500 .0246126
1042.081 .0246278
1042.663 .0246442
1043.244 .0246599
1043.826 .0246746
1044.407 .0246880
1044.988 .0247006
1045.569 .0247106
1046.150 .0247196
1046.730 .0247287
1047.311 .0247380
1047.891 .0247473
1048.471 .0247586
1049.052 .0247709
1049.632 .0247845
1050.211 .0247998
1050.791 .0248159
1051.371 .0248326
1051.950 .0248498
1052.530 .0248661
1053.109 .0248817
1053.688 .0248964
1054.268 .0249097
1054.847 .0249221
1055.426 .0249347
1056.005 .0249483
1056.583 .0249625
1057.162 .0249772
1057.741 .0249937
1058.319 .0250113
1058.898 .0250304
1059.476 .0250493
1060.055 .0250676
1060.633 .0250864
1061.211 .0251038
1061.790 .0251210
1062.368 .0251381
1062.946 .0251556
1063.524 .0251724
1064.102 .0251878
1064.680 .0252023
1065.258 .0252156
1065.836 .0252281
1066.414 .0252404
1066.992 .0252523
1067.570 .0252640
1068.148 .0252755
1068.726 .0252869
1069.304 .0252979
1069.882 .0253091
1070.460 .0253188
1071.038 .0253267
1071.616 .0253334
1072.194 .0253402
1072.772 .0253472
1073.350 .0253565
1073.928 .0253694
1074.506 .0253851
1075.084 .0254040
1075.662 .0254248
1076.240 .0254469
1076.819 .0254694
1077.397 .0254915
1077.976 .0255118
1078.554 .0255303
1079.133 .0255481
1079.711 .0255664
1080.290 .0255850
1080.869 .0256061
1081.448 .0256277
1082.027 .0256486
1082.606 .0256683
1083.185 .0256874
1083.764 .0257054
1084.343 .0257231
1084.923 .0257409
1085.502 .0257597
1086.082 .0257789
1086.662 .0258007
1087.242 .0258228
1087.822 .0258451
1088.402 .0258676
1088.983 .0258889
1089.563 .0259077
1090.144 .0259255
1090.725 .0259432
1091.306 .0259604
1091.887 .0259785
1092.469 .0259971
1093.050 .0260145
1093.632 .0260321
1094.214 .0260498
1094.796 .0260663
1095.379 .0260824
1095.961 .0260995
1096.544 .0261170
1097.127 .0261347
1097.710 .0261545
1098.294 .0261752
1098.877 .0261962
1099.461 .0262162
1100.046 .0262352
1100.630 .0262517
1101.215 .0262675
1101.800 .0262827
1102.385 .0262986
1102.970 .0263166
1103.556 .0263358
1104.142 .0263552
1104.728 .0263760
1105.315 .0263966
1105.902 .0264142
1106.489 .0264274
1107.077 .0264395
1107.664 .0264490
1108.253 .0264564
1108.841 .0264654
1109.430 .0264759
1110.019 .0264910
1110.609 .0265128
1111.198 .0265399
1111.789 .0265733
1112.379 .0266144
1112.970 .0266586
1113.561 .0267039
1114.153 .0267510
1114.745 .0267951
1115.338 .0268356
1115.931 .0268758
1116.524 .0269151
1117.117 .0269523
1117.712 .0269918
1118.306 .0270355
1118.901 .0270804
1119.496 .0271303
1120.092 .0271792
1120.689 .0272232
1121.285 .0272635
1121.882 .0272962
1122.480 .0273185
1123.078 .0273373
1123.677 .0273537
1124.276 .0273710
1124.875 .0273967
1125.476 .0274318
1126.076 .0274774
1126.677 .0275360
1127.279 .0276061
1127.881 .0276829
1128.484 .0277614
1129.087 .0278407
1129.691 .0279119
1130.295 .0279809
1130.900 .0280435
1131.505 .0281029
1132.111 .0281639
1132.718 .0282299
1133.325 .0283040
1133.933 .0283867
1134.541 .0284764
1135.150 .0285699
1135.760 .0286653
1136.370 .0287569
1136.981 .0288390
1137.592 .0289115
1138.204 .0289738
1138.817 .0290352
1139.431 .0291014
1140.045 .0291717
1140.660 .0292354
1141.275 .0293027
1141.891 .0293631
1142.508 .0296668
1143.126 .0296546
1143.744 .0292962
1144.363 .0294964
1144.983 .0294476
