Measurement Sequence started on: 15-12-46-377
Integration time: 28
Scans to Average: 2 
>>>>>Begin Spectral Data<<<<<
432.689 .0000100
433.621 .0000100
434.552 .0000100
435.482 .0000100
436.410 .0000100
437.337 .0000100
438.262 .0259886
439.187 .0550183
440.110 .0910431
441.031 .1316984
441.952 .1711067
442.871 .2020912
443.789 .2190012
444.705 .2198935
445.621 .2071955
446.535 .1860893
447.447 .1622307
448.359 .1257567
449.269 .1077062
450.178 .0963101
451.086 .0881901
451.993 .0819817
452.898 .0770335
453.803 .0729677
454.706 .0696032
455.608 .0667186
456.508 .0642307
457.408 .0620820
458.306 .0601841
459.204 .0585088
460.100 .0570087
460.995 .0556555
461.888 .0544234
462.781 .0532884
463.673 .0522504
464.563 .0512991
465.452 .0504232
466.340 .0496163
467.228 .0488734
468.114 .0481986
468.999 .0475879
469.882 .0470232
470.765 .0465119
471.647 .0460442
472.528 .0456165
473.407 .0452313
474.286 .0448807
475.163 .0445720
476.040 .0443069
476.915 .0440794
477.790 .0438851
478.663 .0437123
479.535 .0435680
480.407 .0434446
481.277 .0433428
482.147 .0432586
483.015 .0431904
483.883 .0431372
484.749 .0431008
485.615 .0430778
486.479 .0430688
487.343 .0430730
488.206 .0430901
489.067 .0431114
489.928 .0431356
490.788 .0431641
491.647 .0432076
492.505 .0432676
493.362 .0433486
494.218 .0434468
495.073 .0435714
495.928 .0437246
496.781 .0439032
497.634 .0441090
498.486 .0443394
499.337 .0445913
500.187 .0448608
501.036 .0451465
501.884 .0454528
502.731 .0457816
503.578 .0461437
504.424 .0465331
505.268 .0469476
506.113 .0473816
506.956 .0478325
507.798 .0483150
508.640 .0488335
509.480 .0493837
510.320 .0499882
511.160 .0506600
511.998 .0514135
512.836 .0522637
513.672 .0532312
514.508 .0543364
515.344 .0555889
516.178 .0570046
517.012 .0586067
517.845 .0604354
518.677 .0625272
519.508 .0649051
520.339 .0676269
521.169 .0707477
521.998 .0742638
522.826 .0782331
523.654 .0826959
524.481 .0876342
525.307 .0930611
526.133 .0989302
526.958 .1051990
527.782 .1117955
528.605 .1185245
529.428 .1252793
530.250 .1315812
531.072 .1372474
531.892 .1418701
532.712 .1452532
533.532 .1472673
534.350 .1477276
535.168 .1465778
535.986 .1439397
536.802 .1399516
537.618 .1348564
538.434 .1288217
539.249 .1223011
540.063 .1154746
540.876 .1086729
541.689 .1020212
542.501 .0957529
543.313 .0900330
544.124 .0849200
544.934 .0803027
545.744 .0761679
546.553 .0724707
547.361 .0691824
548.169 .0662748
548.976 .0636859
549.783 .0613859
550.589 .0593620
551.395 .0575317
552.200 .0558694
553.004 .0543493
553.808 .0529734
554.611 .0517197
555.414 .0505912
556.216 .0495819
557.018 .0486807
557.819 .0478733
558.619 .0471428
559.419 .0464684
560.218 .0458293
561.017 .0452102
561.815 .0445927
562.613 .0439795
563.410 .0433672
564.207 .0427558
565.003 .0421547
565.799 .0415726
566.594 .0410086
567.388 .0404676
568.182 .0399445
568.976 .0394430
569.769 .0389633
570.562 .0385046
571.354 .0380590
572.145 .0376396
572.936 .0372362
573.727 .0368465
574.517 .0364731
575.307 .0361161
576.096 .0357691
576.885 .0354331
577.673 .0351054
578.461 .0347884
579.248 .0344815
580.035 .0341908
580.821 .0339117
581.607 .0336538
582.392 .0334115
583.177 .0331870
583.962 .0329819
584.746 .0327976
585.529 .0326299
586.313 .0324808
587.095 .0323475
587.878 .0322258
588.660 .0321126
589.441 .0320098
590.222 .0319138
591.003 .0318270
591.783 .0317486
592.563 .0316784
593.342 .0316168
594.121 .0315625
594.899 .0315151
595.678 .0314737
596.455 .0314351
597.233 .0313964
598.009 .0313566
598.786 .0313147
599.562 .0312695
600.338 .0312211
601.113 .0311713
601.888 .0311197
602.663 .0310672
603.437 .0310139
604.211 .0309597
604.984 .0309062
605.757 .0308537
606.530 .0308007
607.302 .0307484
608.074 .0306974
608.845 .0306470
609.616 .0305980
610.387 .0305527
611.158 .0305097
611.928 .0304699
612.697 .0304345
613.467 .0304023
614.236 .0303736
615.004 .0303494
615.773 .0303289
616.541 .0303126
617.308 .0303011
618.076 .0302928
618.843 .0302865
619.609 .0302836
620.375 .0302813
621.141 .0302777
621.907 .0302742
622.672 .0302701
623.437 .0302647
624.202 .0302597
624.966 .0302548
625.730 .0302509
626.493 .0302489
627.257 .0302474
628.020 .0302454
628.782 .0302429
629.545 .0302384
630.307 .0302311
631.068 .0302222
631.830 .0302114
632.591 .0301980
633.352 .0301838
634.112 .0301693
634.872 .0301537
635.632 .0301377
636.392 .0301205
637.151 .0301022
637.910 .0300824
638.668 .0300601
639.427 .0300346
640.185 .0300072
640.943 .0299777
641.700 .0299464
642.457 .0299142
643.214 .0298819
643.971 .0298494
644.727 .0298186
645.483 .0297894
646.239 .0297620
646.994 .0297361
647.750 .0297115
648.505 .0296869
649.259 .0296626
650.014 .0296374
650.768 .0296111
651.521 .0295841
652.275 .0295570
653.028 .0295288
653.781 .0295006
654.534 .0294722
655.286 .0294440
656.039 .0294155
656.791 .0293862
657.542 .0293549
658.294 .0293223
659.045 .0292886
659.796 .0292545
660.546 .0292207
661.297 .0291877
662.047 .0291560
662.796 .0291257
663.546 .0290969
664.295 .0290692
665.044 .0290425
665.793 .0290171
666.542 .0289931
667.290 .0289708
668.038 .0289502
668.786 .0289313
669.533 .0289144
670.281 .0288990
671.028 .0288849
671.774 .0288713
672.521 .0288584
673.267 .0288460
674.013 .0288344
674.759 .0288231
675.505 .0288129
676.250 .0288038
676.995 .0287959
677.740 .0287887
678.484 .0287825
679.229 .0287769
679.973 .0287714
680.717 .0287657
681.460 .0287597
682.204 .0287536
682.947 .0287477
683.690 .0287418
684.433 .0287361
685.175 .0287310
685.917 .0287263
686.659 .0287221
687.401 .0287182
688.142 .0287147
688.884 .0287112
689.625 .0287078
690.365 .0287043
691.106 .0287008
691.846 .0286970
692.586 .0286939
693.326 .0286911
694.066 .0286886
694.805 .0286861
695.545 .0286837
696.284 .0286811
697.022 .0286781
697.761 .0286739
698.499 .0286684
699.237 .0286617
699.975 .0286539
700.713 .0286449
701.450 .0286353
702.187 .0286251
702.924 .0286145
703.661 .0286035
704.397 .0285920
705.133 .0285794
705.869 .0285661
706.605 .0285518
707.341 .0285362
708.076 .0285195
708.811 .0285013
709.546 .0284819
710.281 .0284617
711.015 .0284404
711.749 .0284177
712.483 .0283939
713.217 .0283689
713.950 .0283425
714.684 .0283149
715.417 .0282864
716.150 .0282568
716.882 .0282266
717.615 .0281958
718.347 .0281644
719.079 .0281326
719.811 .0281006
720.542 .0280686
721.273 .0280373
722.005 .0280060
722.735 .0279752
723.466 .0279453
724.196 .0279162
724.927 .0278874
725.656 .0278593
726.386 .0278315
727.116 .0278039
727.845 .0277769
728.574 .0277503
729.303 .0277242
730.031 .0276995
730.760 .0276761
731.488 .0276537
732.216 .0276328
732.944 .0276129
733.671 .0275937
734.398 .0275756
735.125 .0275579
735.852 .0275406
736.579 .0275244
737.305 .0275098
738.031 .0274968
738.757 .0274853
739.483 .0274757
740.208 .0274675
740.933 .0274604
741.658 .0274541
742.383 .0274476
743.108 .0274412
743.832 .0274346
744.556 .0274276
745.280 .0274203
746.004 .0274130
746.727 .0274060
747.450 .0273994
748.173 .0273925
748.896 .0273861
749.618 .0273792
750.340 .0273722
751.062 .0273656
751.784 .0273590
752.506 .0273528
753.227 .0273470
753.948 .0273417
754.669 .0273373
755.389 .0273334
756.110 .0273306
756.830 .0273283
757.550 .0273272
758.269 .0273268
758.989 .0273270
759.708 .0273276
760.427 .0273289
761.146 .0273302
761.864 .0273315
762.582 .0273321
763.300 .0273321
764.018 .0273315
764.736 .0273301
765.453 .0273281
766.170 .0273262
766.887 .0273242
767.603 .0273228
768.320 .0273217
769.036 .0273211
769.751 .0273202
770.467 .0273194
771.182 .0273187
771.897 .0273177
772.612 .0273164
773.327 .0273147
774.041 .0273130
774.755 .0273116
775.469 .0273103
776.183 .0273093
776.896 .0273085
777.609 .0273081
778.322 .0273075
779.035 .0273066
779.747 .0273054
780.459 .0273042
781.171 .0273030
781.882 .0273017
782.594 .0273001
783.305 .0272981
784.016 .0272957
784.726 .0272929
785.436 .0272895
786.147 .0272852
786.856 .0272802
787.566 .0272742
788.275 .0272674
788.984 .0272595
789.693 .0272502
790.401 .0272396
791.110 .0272277
791.818 .0272141
792.525 .0271983
793.233 .0271810
793.940 .0271628
794.647 .0271434
795.353 .0271236
796.060 .0271034
796.766 .0270830
797.472 .0270625
798.177 .0270417
798.883 .0270202
799.588 .0269979
800.292 .0269747
800.997 .0269503
801.701 .0269247
802.405 .0268984
803.109 .0268712
803.812 .0268439
804.515 .0268164
805.218 .0267880
805.921 .0267592
806.623 .0267297
807.325 .0266993
808.027 .0266681
808.728 .0266362
809.429 .0266032
810.130 .0265699
810.831 .0265363
811.531 .0265024
812.231 .0264688
812.931 .0264361
813.630 .0264039
814.330 .0263722
815.029 .0263412
815.727 .0263108
816.426 .0262809
817.124 .0262518
817.821 .0262228
818.519 .0261946
819.216 .0261675
819.913 .0261416
820.609 .0261168
821.306 .0260939
822.002 .0260727
822.697 .0260528
823.393 .0260344
824.088 .0260170
824.783 .0260003
825.477 .0259845
826.171 .0259695
826.865 .0259558
827.559 .0259431
828.252 .0259319
828.945 .0259220
829.638 .0259134
830.330 .0259061
831.023 .0258992
831.714 .0258928
832.406 .0258868
833.097 .0258806
833.788 .0258743
834.479 .0258682
835.169 .0258632
835.859 .0258596
836.548 .0258575
837.238 .0258571
837.927 .0258581
838.615 .0258602
839.304 .0258630
839.992 .0258660
840.680 .0258692
841.367 .0258723
842.054 .0258754
842.741 .0258787
843.428 .0258824
844.114 .0258871
844.800 .0258925
845.485 .0258983
846.170 .0259045
846.855 .0259102
847.540 .0259151
848.224 .0259193
848.908 .0259227
849.592 .0259254
850.275 .0259274
850.958 .0259292
851.641 .0259307
852.323 .0259324
853.005 .0259340
853.687 .0259351
854.368 .0259361
855.049 .0259364
855.730 .0259358
856.410 .0259345
857.090 .0259327
857.769 .0259307
858.449 .0259287
859.128 .0259272
859.806 .0259263
860.485 .0259266
861.163 .0259283
861.840 .0259311
862.518 .0259351
863.195 .0259400
863.871 .0259450
864.548 .0259503
865.224 .0259557
865.899 .0259605
866.574 .0259652
867.249 .0259701
867.924 .0259753
868.598 .0259807
869.272 .0259868
869.946 .0259933
870.619 .0259998
871.292 .0260058
871.964 .0260107
872.636 .0260142
873.308 .0260164
873.979 .0260172
874.651 .0260169
875.321 .0260164
875.992 .0260164
876.662 .0260172
877.331 .0260193
878.001 .0260226
878.670 .0260268
879.338 .0260312
880.007 .0260358
880.675 .0260398
881.342 .0260428
882.009 .0260452
882.676 .0260470
883.343 .0260483
884.009 .0260493
884.675 .0260503
885.340 .0260512
886.005 .0260519
886.670 .0260523
887.334 .0260520
887.998 .0260510
888.662 .0260494
889.325 .0260468
889.988 .0260431
890.650 .0260385
891.312 .0260331
891.974 .0260269
892.636 .0260204
893.297 .0260131
893.957 .0260052
894.618 .0259965
895.278 .0259871
895.937 .0259764
896.596 .0259645
897.255 .0259511
897.914 .0259359
898.572 .0259187
899.230 .0259001
899.887 .0258793
900.544 .0258576
901.201 .0258348
901.857 .0258117
902.513 .0257881
903.168 .0257642
903.823 .0257398
904.478 .0257150
905.132 .0256888
905.786 .0256612
906.440 .0256319
907.093 .0256010
907.746 .0255684
908.399 .0255349
909.051 .0255007
909.703 .0254664
910.354 .0254320
911.005 .0253982
911.656 .0253637
912.306 .0253287
912.956 .0252928
913.605 .0252558
914.254 .0252181
914.903 .0251796
915.551 .0251410
916.199 .0251034
916.847 .0250671
917.494 .0250322
918.141 .0249989
918.788 .0249674
919.434 .0249369
920.079 .0249066
920.725 .0248760
921.370 .0248450
922.014 .0248139
922.658 .0247826
923.302 .0247514
923.946 .0247209
924.589 .0246910
925.231 .0246613
925.873 .0246316
926.515 .0246016
927.157 .0245709
927.798 .0245390
928.439 .0245058
929.079 .0244716
929.719 .0244364
930.359 .0244010
930.998 .0243662
931.637 .0243327
932.275 .0243005
932.913 .0242694
933.551 .0242402
934.188 .0242127
934.825 .0241867
935.462 .0241623
936.098 .0241393
936.733 .0241185
937.369 .0240997
938.004 .0240825
938.638 .0240670
939.273 .0240534
939.907 .0240413
940.540 .0240301
941.173 .0240195
941.806 .0240095
942.438 .0239997
943.070 .0239904
943.702 .0239810
944.333 .0239716
944.964 .0239621
945.594 .0239528
946.224 .0239435
946.854 .0239348
947.483 .0239264
948.112 .0239186
948.741 .0239113
949.369 .0239046
949.996 .0238981
950.624 .0238924
951.251 .0238874
951.878 .0238833
952.504 .0238802
953.130 .0238784
953.755 .0238780
954.380 .0238794
955.005 .0238821
955.629 .0238864
956.253 .0238912
956.877 .0238968
957.500 .0239025
958.123 .0239083
958.746 .0239139
959.368 .0239200
959.990 .0239260
960.611 .0239330
961.232 .0239408
961.853 .0239500
962.473 .0239605
963.093 .0239726
963.712 .0239852
964.331 .0239982
964.950 .0240112
965.569 .0240242
966.187 .0240364
966.804 .0240493
967.422 .0240625
968.039 .0240773
968.655 .0240934
969.272 .0241114
969.887 .0241303
970.503 .0241509
971.118 .0241714
971.733 .0241921
972.347 .0242118
972.961 .0242306
973.575 .0242476
974.188 .0242631
974.801 .0242772
975.414 .0242905
976.026 .0243024
976.638 .0243137
977.250 .0243234
977.861 .0243320
978.472 .0243389
979.083 .0243445
979.693 .0243483
980.303 .0243510
980.912 .0243525
981.521 .0243534
982.130 .0243541
982.738 .0243553
983.346 .0243573
983.954 .0243605
984.562 .0243653
985.169 .0243705
985.775 .0243758
986.382 .0243820
986.988 .0243881
987.594 .0243942
988.199 .0243997
988.804 .0244051
989.409 .0244105
990.013 .0244163
990.617 .0244221
991.221 .0244286
991.824 .0244365
992.427 .0244458
993.030 .0244563
993.632 .0244682
994.234 .0244818
994.836 .0244971
995.438 .0245139
996.039 .0245319
996.640 .0245506
997.240 .0245702
997.840 .0245907
998.440 .0246119
999.040 .0246334
999.639 .0246544
1000.238 .0246751
1000.836 .0246951
1001.435 .0247134
1002.033 .0247301
1002.630 .0247443
1003.228 .0247561
1003.825 .0247651
1004.422 .0247715
1005.018 .0247751
1005.614 .0247766
1006.210 .0247767
1006.806 .0247754
1007.401 .0247727
1007.996 .0247690
1008.591 .0247648
1009.186 .0247602
1009.780 .0247559
1010.374 .0247514
1010.967 .0247469
1011.561 .0247429
1012.154 .0247390
1012.746 .0247353
1013.339 .0247324
1013.931 .0247306
1014.523 .0247293
1015.115 .0247284
1015.706 .0247284
1016.298 .0247285
1016.888 .0247286
1017.479 .0247285
1018.069 .0247283
1018.660 .0247278
1019.250 .0247271
1019.839 .0247264
1020.429 .0247265
1021.018 .0247285
1021.607 .0247319
1022.195 .0247363
1022.784 .0247416
1023.372 .0247475
1023.960 .0247530
1024.547 .0247578
1025.135 .0247617
1025.722 .0247649
1026.309 .0247675
1026.896 .0247704
1027.483 .0247737
1028.069 .0247774
1028.655 .0247818
1029.241 .0247862
1029.827 .0247893
1030.412 .0247908
1030.997 .0247895
1031.582 .0247861
1032.167 .0247798
1032.752 .0247716
1033.336 .0247618
1033.921 .0247512
1034.505 .0247407
1035.089 .0247300
1035.672 .0247183
1036.256 .0247064
1036.839 .0246933
1037.422 .0246792
1038.005 .0246639
1038.588 .0246478
1039.171 .0246313
1039.753 .0246151
1040.335 .0245994
1040.918 .0245838
1041.500 .0245678
1042.081 .0245524
1042.663 .0245359
1043.244 .0245181
1043.826 .0244988
1044.407 .0244780
1044.988 .0244562
1045.569 .0244331
1046.150 .0244088
1046.730 .0243843
1047.311 .0243604
1047.891 .0243373
1048.471 .0243143
1049.052 .0242919
1049.632 .0242694
1050.211 .0242471
1050.791 .0242250
1051.371 .0242035
1051.950 .0241837
1052.530 .0241656
1053.109 .0241500
1053.688 .0241367
1054.268 .0241255
1054.847 .0241164
1055.426 .0241089
1056.005 .0241023
1056.583 .0240956
1057.162 .0240877
1057.741 .0240790
1058.319 .0240701
1058.898 .0240604
1059.476 .0240499
1060.055 .0240395
1060.633 .0240289
1061.211 .0240173
1061.790 .0240047
1062.368 .0239916
1062.946 .0239776
1063.524 .0239628
1064.102 .0239474
1064.680 .0239319
1065.258 .0239176
1065.836 .0239036
1066.414 .0238897
1066.992 .0238764
1067.570 .0238632
1068.148 .0238483
1068.726 .0238315
1069.304 .0238140
1069.882 .0237950
1070.460 .0237751
1071.038 .0237552
1071.616 .0237359
1072.194 .0237181
1072.772 .0237010
1073.350 .0236847
1073.928 .0236689
1074.506 .0236534
1075.084 .0236364
1075.662 .0236184
1076.240 .0236007
1076.819 .0235825
1077.397 .0235645
1077.976 .0235471
1078.554 .0235321
1079.133 .0235198
1079.711 .0235097
1080.290 .0235012
1080.869 .0234950
1081.448 .0234900
1082.027 .0234835
1082.606 .0234763
1083.185 .0234685
1083.764 .0234603
1084.343 .0234519
1084.923 .0234444
1085.502 .0234383
1086.082 .0234344
1086.662 .0234329
1087.242 .0234333
1087.822 .0234373
1088.402 .0234436
1088.983 .0234501
1089.563 .0234573
1090.144 .0234648
1090.725 .0234727
1091.306 .0234785
1091.887 .0234862
1092.469 .0234961
1093.050 .0235087
1093.632 .0235235
1094.214 .0235406
1094.796 .0235612
1095.379 .0235835
1095.961 .0236064
1096.544 .0236291
1097.127 .0236515
1097.710 .0236744
1098.294 .0236969
1098.877 .0237204
1099.461 .0237457
1100.046 .0237733
1100.630 .0238024
1101.215 .0238337
1101.800 .0238660
1102.385 .0238974
1102.970 .0239278
1103.556 .0239569
1104.142 .0239839
1104.728 .0240084
1105.315 .0240320
1105.902 .0240550
1106.489 .0240769
1107.077 .0240972
1107.664 .0241163
1108.253 .0241355
1108.841 .0241539
1109.430 .0241723
1110.019 .0241897
1110.609 .0242064
1111.198 .0242227
1111.789 .0242385
1112.379 .0242552
1112.970 .0242724
1113.561 .0242932
1114.153 .0243172
1114.745 .0243460
1115.338 .0243796
1115.931 .0244170
1116.524 .0244595
1117.117 .0245059
1117.712 .0245505
1118.306 .0245940
1118.901 .0246385
1119.496 .0246835
1120.092 .0247284
1120.689 .0247754
1121.285 .0248257
1121.882 .0248796
1122.480 .0249350
1123.078 .0249932
1123.677 .0250501
1124.276 .0251069
1124.875 .0251612
1125.476 .0252122
1126.076 .0252648
1126.677 .0253190
1127.279 .0253748
1127.881 .0254391
1128.484 .0255103
1129.087 .0255883
1129.691 .0256728
1130.295 .0257635
1130.900 .0258617
1131.505 .0259630
1132.111 .0260675
1132.718 .0261777
1133.325 .0262906
1133.933 .0264066
1134.541 .0265220
1135.150 .0266425
1135.760 .0267667
1136.370 .0268913
1136.981 .0270226
1137.592 .0271579
1138.204 .0272994
1138.817 .0274428
1139.431 .0275912
1140.045 .0277441
1140.660 .0278975
1141.275 .0280683
1141.891 .0282249
1142.508 .0283963
1143.126 .0285393
1143.744 .0286381
1144.363 .0293365
1144.983 .0287849
