Measurement Sequence started on: 15-12-46-377
Integration time: 28
Scans to Average: 2 
>>>>>Begin Spectral Data<<<<<
432.689 .0000100
433.621 .0000100
434.552 .0000100
435.482 .0000100
436.410 .0000100
437.337 .0000100
438.262 .0284077
439.187 .0602332
440.110 .0997859
441.031 .1444265
441.952 .1877851
442.871 .2219630
443.789 .2407409
444.705 .2420351
445.621 .2284345
446.535 .2056054
447.447 .1797262
448.359 .1400345
449.269 .1204303
450.178 .1081356
451.086 .0994919
451.993 .0929253
452.898 .0877428
453.803 .0835445
454.706 .0800463
455.608 .0770481
456.508 .0744237
457.408 .0721022
458.306 .0699808
459.204 .0680387
460.100 .0662247
460.995 .0645588
461.888 .0630258
462.781 .0616236
463.673 .0603243
464.563 .0591269
465.452 .0580108
466.340 .0569544
467.228 .0559478
468.114 .0549910
468.999 .0540763
469.882 .0532226
470.765 .0524322
471.647 .0517266
472.528 .0510992
473.407 .0505648
474.286 .0501204
475.163 .0497615
476.040 .0494693
476.915 .0492310
477.790 .0490303
478.663 .0488599
479.535 .0487100
480.407 .0485808
481.277 .0484643
482.147 .0483695
483.015 .0482930
483.883 .0482383
484.749 .0481939
485.615 .0481692
486.479 .0481555
487.343 .0481607
488.206 .0481775
489.067 .0482006
489.928 .0482268
490.788 .0482607
491.647 .0482995
492.505 .0483530
493.362 .0484228
494.218 .0485236
495.073 .0486503
495.928 .0488176
496.781 .0490166
497.634 .0492609
498.486 .0495378
499.337 .0498520
500.187 .0501889
501.036 .0505430
501.884 .0509077
502.731 .0512874
503.578 .0516852
504.424 .0521024
505.268 .0525428
506.113 .0530161
506.956 .0535157
507.798 .0540604
508.640 .0546431
509.480 .0552823
510.320 .0559843
511.160 .0567650
511.998 .0576211
512.836 .0585771
513.672 .0596528
514.508 .0608634
515.344 .0622392
516.178 .0637860
517.012 .0655492
517.845 .0675494
518.677 .0698289
519.508 .0724006
520.339 .0753251
521.169 .0786763
521.998 .0824849
522.826 .0868358
523.654 .0917229
524.481 .0971579
525.307 .1031695
526.133 .1096668
526.958 .1165802
527.782 .1237411
528.605 .1310452
529.428 .1383039
530.250 .1451058
531.072 .1511927
531.892 .1562663
532.712 .1601266
533.532 .1625472
534.350 .1632841
535.168 .1622445
535.986 .1594958
536.802 .1551918
537.618 .1495378
538.434 .1428093
539.249 .1355076
540.063 .1279670
540.876 .1204830
541.689 .1133050
542.501 .1066436
543.313 .1006162
544.124 .0952224
544.934 .0903408
545.744 .0858948
546.553 .0818118
547.361 .0781179
548.169 .0747754
548.976 .0717540
549.783 .0690679
550.589 .0666882
551.395 .0645658
552.200 .0626907
553.004 .0610033
553.808 .0594818
554.611 .0581209
555.414 .0569051
556.216 .0557912
557.018 .0547893
557.819 .0538783
558.619 .0530351
559.419 .0522450
560.218 .0514963
561.017 .0507624
561.815 .0500575
562.613 .0493678
563.410 .0486847
564.207 .0480157
565.003 .0473693
565.799 .0467339
566.594 .0461095
567.388 .0454998
568.182 .0448949
568.976 .0442883
569.769 .0436949
570.562 .0431039
571.354 .0425206
572.145 .0419538
572.936 .0414033
573.727 .0408677
574.517 .0403543
575.307 .0398594
576.096 .0393832
576.885 .0389285
577.673 .0384964
578.461 .0380863
579.248 .0377025
580.035 .0373519
580.821 .0370304
581.607 .0367377
582.392 .0364727
583.177 .0362278
583.962 .0360059
584.746 .0357996
585.529 .0356056
586.313 .0354235
587.095 .0352537
587.878 .0350980
588.660 .0349573
589.441 .0348329
590.222 .0347233
591.003 .0346280
591.783 .0345447
592.563 .0344704
593.342 .0344029
594.121 .0343402
594.899 .0342822
595.678 .0342292
596.455 .0341801
597.233 .0341329
598.009 .0340886
598.786 .0340460
599.562 .0340048
600.338 .0339636
601.113 .0339215
601.888 .0338774
602.663 .0338309
603.437 .0337828
604.211 .0337328
604.984 .0336818
605.757 .0336305
606.530 .0335782
607.302 .0335262
608.074 .0334740
608.845 .0334212
609.616 .0333686
610.387 .0333173
611.158 .0332674
611.928 .0332193
612.697 .0331735
613.467 .0331314
614.236 .0330922
615.004 .0330570
615.773 .0330246
616.541 .0329940
617.308 .0329653
618.076 .0329379
618.843 .0329104
619.609 .0328833
620.375 .0328561
621.141 .0328294
621.907 .0328032
622.672 .0327773
623.437 .0327511
624.202 .0327248
624.966 .0326984
625.730 .0326708
626.493 .0326415
627.257 .0326110
628.020 .0325787
628.782 .0325450
629.545 .0325100
630.307 .0324733
631.068 .0324361
631.830 .0323990
632.591 .0323623
633.352 .0323256
634.112 .0322887
634.872 .0322521
635.632 .0322168
636.392 .0321816
637.151 .0321468
637.910 .0321122
638.668 .0320781
639.427 .0320443
640.185 .0320113
640.943 .0319787
641.700 .0319479
642.457 .0319181
643.214 .0318900
643.971 .0318619
644.727 .0318352
645.483 .0318093
646.239 .0317844
646.994 .0317604
647.750 .0317377
648.505 .0317164
649.259 .0316977
650.014 .0316810
650.768 .0316665
651.521 .0316534
652.275 .0316412
653.028 .0316293
653.781 .0316170
654.534 .0316039
655.286 .0315901
656.039 .0315752
656.791 .0315604
657.542 .0315451
658.294 .0315295
659.045 .0315137
659.796 .0314975
660.546 .0314801
661.297 .0314610
662.047 .0314407
662.796 .0314192
663.546 .0313964
664.295 .0313734
665.044 .0313504
665.793 .0313276
666.542 .0313056
667.290 .0312834
668.038 .0312620
668.786 .0312409
669.533 .0312197
670.281 .0311984
671.028 .0311768
671.774 .0311553
672.521 .0311333
673.267 .0311109
674.013 .0310881
674.759 .0310638
675.505 .0310388
676.250 .0310127
676.995 .0309856
677.740 .0309577
678.484 .0309288
679.229 .0308999
679.973 .0308717
680.717 .0308434
681.460 .0308154
682.204 .0307880
682.947 .0307609
683.690 .0307342
684.433 .0307068
685.175 .0306798
685.917 .0306530
686.659 .0306266
687.401 .0306007
688.142 .0305753
688.884 .0305514
689.625 .0305284
690.365 .0305056
691.106 .0304833
691.846 .0304604
692.586 .0304368
693.326 .0304120
694.066 .0303861
694.805 .0303592
695.545 .0303311
696.284 .0303021
697.022 .0302733
697.761 .0302443
698.499 .0302153
699.237 .0301873
699.975 .0301607
700.713 .0301356
701.450 .0301118
702.187 .0300898
702.924 .0300697
703.661 .0300516
704.397 .0300349
705.133 .0300190
705.869 .0300045
706.605 .0299913
707.341 .0299780
708.076 .0299651
708.811 .0299529
709.546 .0299409
710.281 .0299294
711.015 .0299187
711.749 .0299081
712.483 .0298975
713.217 .0298863
713.950 .0298741
714.684 .0298603
715.417 .0298453
716.150 .0298289
716.882 .0298118
717.615 .0297945
718.347 .0297778
719.079 .0297612
719.811 .0297463
720.542 .0297323
721.273 .0297193
722.005 .0297064
722.735 .0296933
723.466 .0296796
724.196 .0296650
724.927 .0296492
725.656 .0296326
726.386 .0296155
727.116 .0295990
727.845 .0295827
728.574 .0295675
729.303 .0295531
730.031 .0295399
730.760 .0295273
731.488 .0295151
732.216 .0295027
732.944 .0294903
733.671 .0294774
734.398 .0294645
735.125 .0294521
735.852 .0294401
736.579 .0294288
737.305 .0294184
738.031 .0294092
738.757 .0294005
739.483 .0293921
740.208 .0293841
740.933 .0293757
741.658 .0293671
742.383 .0293579
743.108 .0293482
743.832 .0293386
744.556 .0293295
745.280 .0293206
746.004 .0293122
746.727 .0293041
747.450 .0292963
748.173 .0292881
748.896 .0292794
749.618 .0292699
750.340 .0292593
751.062 .0292477
751.784 .0292352
752.506 .0292215
753.227 .0292069
753.948 .0291913
754.669 .0291748
755.389 .0291572
756.110 .0291388
756.830 .0291192
757.550 .0290988
758.269 .0290776
758.989 .0290559
759.708 .0290331
760.427 .0290098
761.146 .0289856
761.864 .0289606
762.582 .0289345
763.300 .0289077
764.018 .0288803
764.736 .0288531
765.453 .0288259
766.170 .0287990
766.887 .0287725
767.603 .0287467
768.320 .0287210
769.036 .0286956
769.751 .0286699
770.467 .0286447
771.182 .0286195
771.897 .0285950
772.612 .0285709
773.327 .0285482
774.041 .0285266
774.755 .0285061
775.469 .0284868
776.183 .0284687
776.896 .0284512
777.609 .0284352
778.322 .0284204
779.035 .0284068
779.747 .0283940
780.459 .0283823
781.171 .0283712
781.882 .0283609
782.594 .0283508
783.305 .0283410
784.016 .0283316
784.726 .0283229
785.436 .0283143
786.147 .0283062
786.856 .0282987
787.566 .0282917
788.275 .0282848
788.984 .0282776
789.693 .0282697
790.401 .0282612
791.110 .0282514
791.818 .0282409
792.525 .0282297
793.233 .0282179
793.940 .0282058
794.647 .0281937
795.353 .0281820
796.060 .0281701
796.766 .0281585
797.472 .0281472
798.177 .0281362
798.883 .0281257
799.588 .0281155
800.292 .0281059
800.997 .0280973
801.701 .0280894
802.405 .0280822
803.109 .0280757
803.812 .0280699
804.515 .0280640
805.218 .0280582
805.921 .0280520
806.623 .0280449
807.325 .0280373
808.027 .0280294
808.728 .0280209
809.429 .0280119
810.130 .0280027
810.831 .0279929
811.531 .0279826
812.231 .0279717
812.931 .0279597
813.630 .0279468
814.330 .0279328
815.029 .0279184
815.727 .0279035
816.426 .0278892
817.124 .0278758
817.821 .0278635
818.519 .0278529
819.216 .0278438
819.913 .0278359
820.609 .0278296
821.306 .0278245
822.002 .0278205
822.697 .0278172
823.393 .0278151
824.088 .0278137
824.783 .0278130
825.477 .0278134
826.171 .0278146
826.865 .0278172
827.559 .0278212
828.252 .0278259
828.945 .0278317
829.638 .0278382
830.330 .0278450
831.023 .0278520
831.714 .0278592
832.406 .0278659
833.097 .0278722
833.788 .0278778
834.479 .0278826
835.169 .0278867
835.859 .0278903
836.548 .0278933
837.238 .0278956
837.927 .0278971
838.615 .0278974
839.304 .0278968
839.992 .0278953
840.680 .0278926
841.367 .0278888
842.054 .0278840
842.741 .0278781
843.428 .0278714
844.114 .0278641
844.800 .0278561
845.485 .0278474
846.170 .0278383
846.855 .0278284
847.540 .0278174
848.224 .0278056
848.908 .0277932
849.592 .0277796
850.275 .0277651
850.958 .0277495
851.641 .0277329
852.323 .0277154
853.005 .0276973
853.687 .0276781
854.368 .0276585
855.049 .0276386
855.730 .0276178
856.410 .0275960
857.090 .0275737
857.769 .0275500
858.449 .0275256
859.128 .0275004
859.806 .0274747
860.485 .0274484
861.163 .0274221
861.840 .0273952
862.518 .0273678
863.195 .0273400
863.871 .0273118
864.548 .0272828
865.224 .0272538
865.899 .0272245
866.574 .0271950
867.249 .0271661
867.924 .0271379
868.598 .0271106
869.272 .0270846
869.946 .0270596
870.619 .0270355
871.292 .0270123
871.964 .0269900
872.636 .0269685
873.308 .0269482
873.979 .0269290
874.651 .0269110
875.321 .0268939
875.992 .0268779
876.662 .0268625
877.331 .0268476
878.001 .0268328
878.670 .0268174
879.338 .0268017
880.007 .0267859
880.675 .0267701
881.342 .0267549
882.009 .0267407
882.676 .0267273
883.343 .0267143
884.009 .0267019
884.675 .0266889
885.340 .0266759
886.005 .0266622
886.670 .0266484
887.334 .0266349
887.998 .0266220
888.662 .0266098
889.325 .0265986
889.988 .0265891
890.650 .0265809
891.312 .0265734
891.974 .0265670
892.636 .0265604
893.297 .0265539
893.957 .0265470
894.618 .0265400
895.278 .0265332
895.937 .0265273
896.596 .0265217
897.255 .0265167
897.914 .0265123
898.572 .0265079
899.230 .0265032
899.887 .0264980
900.544 .0264920
901.201 .0264848
901.857 .0264757
902.513 .0264653
903.168 .0264535
903.823 .0264408
904.478 .0264273
905.132 .0264129
905.786 .0263980
906.440 .0263826
907.093 .0263664
907.746 .0263493
908.399 .0263320
909.051 .0263143
909.703 .0262960
910.354 .0262773
911.005 .0262586
911.656 .0262400
912.306 .0262222
912.956 .0262053
913.605 .0261891
914.254 .0261737
914.903 .0261592
915.551 .0261456
916.199 .0261335
916.847 .0261225
917.494 .0261126
918.141 .0261040
918.788 .0260966
919.434 .0260898
920.079 .0260833
920.725 .0260769
921.370 .0260709
922.014 .0260652
922.658 .0260597
923.302 .0260541
923.946 .0260489
924.589 .0260437
925.231 .0260379
925.873 .0260315
926.515 .0260241
927.157 .0260158
927.798 .0260063
928.439 .0259957
929.079 .0259845
929.719 .0259729
930.359 .0259612
930.998 .0259500
931.637 .0259396
932.275 .0259302
932.913 .0259214
933.551 .0259136
934.188 .0259065
934.825 .0259003
935.462 .0258946
936.098 .0258900
936.733 .0258865
937.369 .0258847
938.004 .0258844
938.638 .0258859
939.273 .0258892
939.907 .0258945
940.540 .0259015
941.173 .0259101
941.806 .0259200
942.438 .0259309
943.070 .0259420
943.702 .0259536
944.333 .0259646
944.964 .0259750
945.594 .0259842
946.224 .0259929
946.854 .0260009
947.483 .0260080
948.112 .0260140
948.741 .0260193
949.369 .0260240
949.996 .0260279
950.624 .0260305
951.251 .0260320
951.878 .0260326
952.504 .0260326
953.130 .0260315
953.755 .0260303
954.380 .0260292
955.005 .0260281
955.629 .0260270
956.253 .0260261
956.877 .0260253
957.500 .0260248
958.123 .0260247
958.746 .0260247
959.368 .0260250
959.990 .0260251
960.611 .0260248
961.232 .0260241
961.853 .0260229
962.473 .0260210
963.093 .0260175
963.712 .0260130
964.331 .0260074
964.950 .0260004
965.569 .0259930
966.187 .0259858
966.804 .0259794
967.422 .0259738
968.039 .0259693
968.655 .0259653
969.272 .0259612
969.887 .0259565
970.503 .0259503
971.118 .0259426
971.733 .0259335
972.347 .0259228
972.961 .0259107
973.575 .0258982
974.188 .0258855
974.801 .0258721
975.414 .0258583
976.026 .0258437
976.638 .0258284
977.250 .0258115
977.861 .0257931
978.472 .0257736
979.083 .0257532
979.693 .0257327
980.303 .0257125
980.912 .0256931
981.521 .0256748
982.130 .0256571
982.738 .0256406
983.346 .0256247
983.954 .0256091
984.562 .0255930
985.169 .0255764
985.775 .0255589
986.382 .0255408
986.988 .0255218
987.594 .0255025
988.199 .0254833
988.804 .0254639
989.409 .0254442
990.013 .0254244
990.617 .0254040
991.221 .0253832
991.824 .0253619
992.427 .0253405
993.030 .0253184
993.632 .0252967
994.234 .0252758
994.836 .0252559
995.438 .0252377
996.039 .0252209
996.640 .0252050
997.240 .0251903
997.840 .0251761
998.440 .0251619
999.040 .0251472
999.639 .0251325
1000.238 .0251170
1000.836 .0251011
1001.435 .0250845
1002.033 .0250676
1002.630 .0250504
1003.228 .0250336
1003.825 .0250164
1004.422 .0249990
1005.018 .0249818
1005.614 .0249647
1006.210 .0249480
1006.806 .0249313
1007.401 .0249144
1007.996 .0248981
1008.591 .0248823
1009.186 .0248675
1009.780 .0248539
1010.374 .0248417
1010.967 .0248310
1011.561 .0248218
1012.154 .0248131
1012.746 .0248049
1013.339 .0247973
1013.931 .0247897
1014.523 .0247818
1015.115 .0247737
1015.706 .0247655
1016.298 .0247571
1016.888 .0247489
1017.479 .0247409
1018.069 .0247323
1018.660 .0247239
1019.250 .0247157
1019.839 .0247069
1020.429 .0246987
1021.018 .0246901
1021.607 .0246816
1022.195 .0246736
1022.784 .0246659
1023.372 .0246582
1023.960 .0246502
1024.547 .0246435
1025.135 .0246375
1025.722 .0246318
1026.309 .0246271
1026.896 .0246230
1027.483 .0246205
1028.069 .0246187
1028.655 .0246176
1029.241 .0246167
1029.827 .0246173
1030.412 .0246184
1030.997 .0246197
1031.582 .0246216
1032.167 .0246243
1032.752 .0246276
1033.336 .0246310
1033.921 .0246347
1034.505 .0246382
1035.089 .0246408
1035.672 .0246431
1036.256 .0246436
1036.839 .0246431
1037.422 .0246412
1038.005 .0246388
1038.588 .0246365
1039.171 .0246349
1039.753 .0246333
1040.335 .0246318
1040.918 .0246313
1041.500 .0246313
1042.081 .0246307
1042.663 .0246303
1043.244 .0246305
1043.826 .0246311
1044.407 .0246324
1044.988 .0246344
1045.569 .0246368
1046.150 .0246404
1046.730 .0246447
1047.311 .0246488
1047.891 .0246526
1048.471 .0246562
1049.052 .0246589
1049.632 .0246611
1050.211 .0246633
1050.791 .0246647
1051.371 .0246666
1051.950 .0246701
1052.530 .0246739
1053.109 .0246787
1053.688 .0246849
1054.268 .0246911
1054.847 .0246980
1055.426 .0247052
1056.005 .0247125
1056.583 .0247199
1057.162 .0247283
1057.741 .0247378
1058.319 .0247478
1058.898 .0247588
1059.476 .0247693
1060.055 .0247800
1060.633 .0247909
1061.211 .0248002
1061.790 .0248086
1062.368 .0248168
1062.946 .0248246
1063.524 .0248320
1064.102 .0248391
1064.680 .0248459
1065.258 .0248521
1065.836 .0248576
1066.414 .0248615
1066.992 .0248636
1067.570 .0248650
1068.148 .0248651
1068.726 .0248639
1069.304 .0248648
1069.882 .0248669
1070.460 .0248709
1071.038 .0248779
1071.616 .0248873
1072.194 .0248987
1072.772 .0249109
1073.350 .0249240
1073.928 .0249376
1074.506 .0249520
1075.084 .0249687
1075.662 .0249862
1076.240 .0250081
1076.819 .0250339
1077.397 .0250612
1077.976 .0250894
1078.554 .0251181
1079.133 .0251440
1079.711 .0251660
1080.290 .0251832
1080.869 .0251968
1081.448 .0252078
1082.027 .0252179
1082.606 .0252284
1083.185 .0252413
1083.764 .0252585
1084.343 .0252788
1084.923 .0252996
1085.502 .0253222
1086.082 .0253437
1086.662 .0253637
1087.242 .0253819
1087.822 .0253993
1088.402 .0254166
1088.983 .0254360
1089.563 .0254582
1090.144 .0254843
1090.725 .0255145
1091.306 .0255478
1091.887 .0255828
1092.469 .0256197
1093.050 .0256574
1093.632 .0256935
1094.214 .0257289
1094.796 .0257650
1095.379 .0258012
1095.961 .0258382
1096.544 .0258753
1097.127 .0259123
1097.710 .0259496
1098.294 .0259875
1098.877 .0260233
1099.461 .0260569
1100.046 .0260905
1100.630 .0261207
1101.215 .0261487
1101.800 .0261735
1102.385 .0261947
1102.970 .0262135
1103.556 .0262302
1104.142 .0262461
1104.728 .0262614
1105.315 .0262791
1105.902 .0262992
1106.489 .0263235
1107.077 .0263542
1107.664 .0263888
1108.253 .0264269
1108.841 .0264693
1109.430 .0265153
1110.019 .0265621
1110.609 .0266112
1111.198 .0266586
1111.789 .0267065
1112.379 .0267540
1112.970 .0267983
1113.561 .0268414
1114.153 .0268832
1114.745 .0269240
1115.338 .0269616
1115.931 .0269961
1116.524 .0270263
1117.117 .0270549
1117.712 .0270856
1118.306 .0271164
1118.901 .0271484
1119.496 .0271824
1120.092 .0272193
1120.689 .0272571
1121.285 .0273002
1121.882 .0273462
1122.480 .0273985
1123.078 .0274592
1123.677 .0275241
1124.276 .0275945
1124.875 .0276706
1125.476 .0277511
1126.076 .0278327
1126.677 .0279136
1127.279 .0279887
1127.881 .0280550
1128.484 .0281173
1129.087 .0281734
1129.691 .0282272
1130.295 .0282794
1130.900 .0283331
1131.505 .0283885
1132.111 .0284486
1132.718 .0285099
1133.325 .0285755
1133.933 .0286471
1134.541 .0287239
1135.150 .0288048
1135.760 .0288914
1136.370 .0289854
1136.981 .0290916
1137.592 .0292094
1138.204 .0293340
1138.817 .0294679
1139.431 .0296148
1140.045 .0297679
1140.660 .0299285
1141.275 .0300859
1141.891 .0302364
1142.508 .0304919
1143.126 .0306708
1143.744 .0307851
1144.363 .0307471
1144.983 .0306937
