Measurement Sequence started on: 15-12-46-377
Integration time: 28
Scans to Average: 2 
>>>>>Begin Spectral Data<<<<<
432.689 .0000100
433.621 .0000100
434.552 .0000100
435.482 .0000100
436.410 .0000100
437.337 .0000100
438.262 .0269803
439.187 .0572195
440.110 .0947645
441.031 .1371134
441.952 .1782196
442.871 .2105703
443.789 .2283152
444.705 .2294265
445.621 .2163844
446.535 .1945797
447.447 .1699155
448.359 .1321551
449.269 .1134727
450.178 .1017524
451.086 .0934898
451.993 .0871724
452.898 .0821831
453.803 .0780909
454.706 .0747121
455.608 .0718452
456.508 .0693731
457.408 .0672144
458.306 .0653040
459.204 .0635890
460.100 .0620296
460.995 .0606153
461.888 .0593275
462.781 .0581226
463.673 .0570146
464.563 .0559983
465.452 .0550580
466.340 .0541915
467.228 .0533966
468.114 .0526616
468.999 .0520025
469.882 .0513938
470.765 .0508402
471.647 .0503418
472.528 .0498926
473.407 .0494839
474.286 .0491180
475.163 .0487878
476.040 .0484843
476.915 .0482070
477.790 .0479544
478.663 .0477116
479.535 .0474740
480.407 .0472383
481.277 .0470034
482.147 .0467714
483.015 .0465442
483.883 .0463190
484.749 .0461116
485.615 .0459189
486.479 .0457406
487.343 .0455863
488.206 .0454586
489.067 .0453533
489.928 .0452713
490.788 .0452162
491.647 .0451919
492.505 .0452035
493.362 .0452584
494.218 .0453552
495.073 .0454962
495.928 .0456806
496.781 .0458991
497.634 .0461594
498.486 .0464670
499.337 .0468150
500.187 .0472065
501.036 .0476444
501.884 .0481291
502.731 .0486475
503.578 .0492100
504.424 .0498110
505.268 .0504393
506.113 .0510866
506.956 .0517527
507.798 .0524451
508.640 .0531763
509.480 .0539626
510.320 .0548162
511.160 .0557549
511.998 .0567882
512.836 .0578942
513.672 .0590765
514.508 .0603466
515.344 .0617120
516.178 .0631922
517.012 .0648461
517.845 .0666793
518.677 .0687731
519.508 .0711759
520.339 .0739408
521.169 .0771277
521.998 .0807409
522.826 .0848247
523.654 .0894060
524.481 .0944618
525.307 .1000500
526.133 .1061202
526.958 .1126979
527.782 .1197114
528.605 .1270428
529.428 .1345479
530.250 .1416663
531.072 .1481434
531.892 .1535822
532.712 .1575570
533.532 .1598549
534.350 .1602904
535.168 .1588840
535.986 .1558053
536.802 .1512535
537.618 .1455476
538.434 .1389865
539.249 .1320748
540.063 .1249271
540.876 .1177838
541.689 .1109040
542.501 .1044030
543.313 .0983687
544.124 .0928919
544.934 .0879091
545.744 .0834193
546.553 .0793874
547.361 .0757944
548.169 .0726070
548.976 .0697821
549.783 .0672850
550.589 .0650906
551.395 .0631364
552.200 .0613812
553.004 .0597643
553.808 .0582846
554.611 .0569303
555.414 .0556852
556.216 .0545333
557.018 .0534864
557.819 .0525265
558.619 .0516381
559.419 .0508030
560.218 .0500230
561.017 .0492740
561.815 .0485530
562.613 .0478460
563.410 .0471440
564.207 .0464447
565.003 .0457502
565.799 .0450627
566.594 .0443934
567.388 .0437519
568.182 .0431386
568.976 .0425608
569.769 .0420196
570.562 .0415069
571.354 .0410221
572.145 .0405611
572.936 .0401187
573.727 .0396854
574.517 .0392683
575.307 .0388655
576.096 .0384761
576.885 .0381061
577.673 .0377528
578.461 .0374230
579.248 .0371124
580.035 .0368180
580.821 .0365355
581.607 .0362630
582.392 .0359989
583.177 .0357426
583.962 .0354998
584.746 .0352721
585.529 .0350607
586.313 .0348693
587.095 .0346989
587.878 .0345500
588.660 .0344211
589.441 .0343092
590.222 .0342086
591.003 .0341187
591.783 .0340334
592.563 .0339525
593.342 .0338744
594.121 .0337996
594.899 .0337292
595.678 .0336621
596.455 .0335998
597.233 .0335409
598.009 .0334858
598.786 .0334332
599.562 .0333807
600.338 .0333284
601.113 .0332756
601.888 .0332214
602.663 .0331666
603.437 .0331118
604.211 .0330581
604.984 .0330058
605.757 .0329556
606.530 .0329077
607.302 .0328629
608.074 .0328215
608.845 .0327832
609.616 .0327477
610.387 .0327154
611.158 .0326857
611.928 .0326588
612.697 .0326353
613.467 .0326143
614.236 .0325946
615.004 .0325772
615.773 .0325601
616.541 .0325433
617.308 .0325258
618.076 .0325077
618.843 .0324891
619.609 .0324702
620.375 .0324514
621.141 .0324318
621.907 .0324120
622.672 .0323918
623.437 .0323699
624.202 .0323465
624.966 .0323205
625.730 .0322917
626.493 .0322607
627.257 .0322283
628.020 .0321944
628.782 .0321602
629.545 .0321262
630.307 .0320929
631.068 .0320610
631.830 .0320294
632.591 .0319976
633.352 .0319652
634.112 .0319323
634.872 .0318986
635.632 .0318638
636.392 .0318282
637.151 .0317924
637.910 .0317571
638.668 .0317231
639.427 .0316894
640.185 .0316575
640.943 .0316274
641.700 .0315993
642.457 .0315728
643.214 .0315478
643.971 .0315237
644.727 .0315013
645.483 .0314798
646.239 .0314602
646.994 .0314413
647.750 .0314243
648.505 .0314093
649.259 .0313968
650.014 .0313862
650.768 .0313770
651.521 .0313687
652.275 .0313606
653.028 .0313512
653.781 .0313406
654.534 .0313280
655.286 .0313142
656.039 .0312992
656.791 .0312834
657.542 .0312661
658.294 .0312490
659.045 .0312311
659.796 .0312128
660.546 .0311941
661.297 .0311744
662.047 .0311534
662.796 .0311311
663.546 .0311080
664.295 .0310840
665.044 .0310594
665.793 .0310350
666.542 .0310099
667.290 .0309854
668.038 .0309612
668.786 .0309374
669.533 .0309147
670.281 .0308930
671.028 .0308716
671.774 .0308510
672.521 .0308309
673.267 .0308109
674.013 .0307914
674.759 .0307726
675.505 .0307543
676.250 .0307361
676.995 .0307183
677.740 .0307013
678.484 .0306849
679.229 .0306694
679.973 .0306535
680.717 .0306379
681.460 .0306220
682.204 .0306052
682.947 .0305880
683.690 .0305707
684.433 .0305529
685.175 .0305343
685.917 .0305153
686.659 .0304960
687.401 .0304760
688.142 .0304557
688.884 .0304348
689.625 .0304137
690.365 .0303918
691.106 .0303691
691.846 .0303458
692.586 .0303225
693.326 .0302985
694.066 .0302740
694.805 .0302493
695.545 .0302247
696.284 .0301999
697.022 .0301754
697.761 .0301515
698.499 .0301281
699.237 .0301052
699.975 .0300827
700.713 .0300602
701.450 .0300389
702.187 .0300180
702.924 .0299984
703.661 .0299801
704.397 .0299634
705.133 .0299485
705.869 .0299351
706.605 .0299236
707.341 .0299127
708.076 .0299016
708.811 .0298900
709.546 .0298774
710.281 .0298633
711.015 .0298479
711.749 .0298315
712.483 .0298148
713.217 .0297981
713.950 .0297813
714.684 .0297642
715.417 .0297467
716.150 .0297286
716.882 .0297091
717.615 .0296881
718.347 .0296662
719.079 .0296433
719.811 .0296201
720.542 .0295974
721.273 .0295753
722.005 .0295539
722.735 .0295333
723.466 .0295137
724.196 .0294941
724.927 .0294745
725.656 .0294552
726.386 .0294364
727.116 .0294186
727.845 .0294016
728.574 .0293857
729.303 .0293715
730.031 .0293586
730.760 .0293465
731.488 .0293347
732.216 .0293239
732.944 .0293138
733.671 .0293047
734.398 .0292969
735.125 .0292907
735.852 .0292865
736.579 .0292843
737.305 .0292834
738.031 .0292834
738.757 .0292832
739.483 .0292827
740.208 .0292816
740.933 .0292796
741.658 .0292770
742.383 .0292741
743.108 .0292714
743.832 .0292689
744.556 .0292665
745.280 .0292642
746.004 .0292620
746.727 .0292591
747.450 .0292553
748.173 .0292499
748.896 .0292431
749.618 .0292349
750.340 .0292255
751.062 .0292152
751.784 .0292039
752.506 .0291919
753.227 .0291796
753.948 .0291669
754.669 .0291536
755.389 .0291393
756.110 .0291246
756.830 .0291087
757.550 .0290918
758.269 .0290740
758.989 .0290559
759.708 .0290375
760.427 .0290191
761.146 .0290007
761.864 .0289826
762.582 .0289649
763.300 .0289476
764.018 .0289306
764.736 .0289140
765.453 .0288971
766.170 .0288803
766.887 .0288634
767.603 .0288466
768.320 .0288300
769.036 .0288135
769.751 .0287970
770.467 .0287803
771.182 .0287628
771.897 .0287448
772.612 .0287263
773.327 .0287076
774.041 .0286885
774.755 .0286695
775.469 .0286513
776.183 .0286339
776.896 .0286176
777.609 .0286027
778.322 .0285887
779.035 .0285762
779.747 .0285645
780.459 .0285537
781.171 .0285442
781.882 .0285356
782.594 .0285275
783.305 .0285198
784.016 .0285125
784.726 .0285048
785.436 .0284968
786.147 .0284884
786.856 .0284793
787.566 .0284696
788.275 .0284591
788.984 .0284482
789.693 .0284370
790.401 .0284254
791.110 .0284129
791.818 .0283998
792.525 .0283865
793.233 .0283726
793.940 .0283587
794.647 .0283452
795.353 .0283328
796.060 .0283212
796.766 .0283108
797.472 .0283014
798.177 .0282930
798.883 .0282849
799.588 .0282771
800.292 .0282695
800.997 .0282619
801.701 .0282540
802.405 .0282457
803.109 .0282374
803.812 .0282294
804.515 .0282206
805.218 .0282107
805.921 .0282001
806.623 .0281885
807.325 .0281758
808.027 .0281624
808.728 .0281489
809.429 .0281350
810.130 .0281211
810.831 .0281072
811.531 .0280932
812.231 .0280792
812.931 .0280652
813.630 .0280507
814.330 .0280364
815.029 .0280224
815.727 .0280086
816.426 .0279957
817.124 .0279841
817.821 .0279733
818.519 .0279633
819.216 .0279544
819.913 .0279463
820.609 .0279392
821.306 .0279334
822.002 .0279288
822.697 .0279252
823.393 .0279231
824.088 .0279216
824.783 .0279206
825.477 .0279198
826.171 .0279187
826.865 .0279175
827.559 .0279164
828.252 .0279151
828.945 .0279143
829.638 .0279138
830.330 .0279141
831.023 .0279144
831.714 .0279148
832.406 .0279149
833.097 .0279151
833.788 .0279147
834.479 .0279144
835.169 .0279145
835.859 .0279156
836.548 .0279175
837.238 .0279207
837.927 .0279250
838.615 .0279298
839.304 .0279349
839.992 .0279400
840.680 .0279443
841.367 .0279481
842.054 .0279509
842.741 .0279527
843.428 .0279537
844.114 .0279539
844.800 .0279528
845.485 .0279502
846.170 .0279460
846.855 .0279400
847.540 .0279315
848.224 .0279213
848.908 .0279095
849.592 .0278960
850.275 .0278815
850.958 .0278656
851.641 .0278491
852.323 .0278321
853.005 .0278144
853.687 .0277961
854.368 .0277778
855.049 .0277589
855.730 .0277394
856.410 .0277193
857.090 .0276994
857.769 .0276790
858.449 .0276584
859.128 .0276377
859.806 .0276171
860.485 .0275969
861.163 .0275769
861.840 .0275570
862.518 .0275379
863.195 .0275184
863.871 .0274988
864.548 .0274786
865.224 .0274588
865.899 .0274387
866.574 .0274188
867.249 .0273993
867.924 .0273804
868.598 .0273617
869.272 .0273432
869.946 .0273249
870.619 .0273068
871.292 .0272883
871.964 .0272695
872.636 .0272508
873.308 .0272327
873.979 .0272148
874.651 .0271978
875.321 .0271814
875.992 .0271661
876.662 .0271509
877.331 .0271360
878.001 .0271216
878.670 .0271078
879.338 .0270944
880.007 .0270818
880.675 .0270704
881.342 .0270602
882.009 .0270510
882.676 .0270428
883.343 .0270356
884.009 .0270291
884.675 .0270225
885.340 .0270154
886.005 .0270080
886.670 .0270005
887.334 .0269927
887.998 .0269850
888.662 .0269776
889.325 .0269702
889.988 .0269632
890.650 .0269564
891.312 .0269497
891.974 .0269429
892.636 .0269361
893.297 .0269286
893.957 .0269208
894.618 .0269130
895.278 .0269052
895.937 .0268976
896.596 .0268909
897.255 .0268848
897.914 .0268792
898.572 .0268739
899.230 .0268687
899.887 .0268636
900.544 .0268584
901.201 .0268525
901.857 .0268458
902.513 .0268386
903.168 .0268304
903.823 .0268214
904.478 .0268117
905.132 .0268014
905.786 .0267902
906.440 .0267784
907.093 .0267660
907.746 .0267530
908.399 .0267393
909.051 .0267253
909.703 .0267110
910.354 .0266967
911.005 .0266822
911.656 .0266680
912.306 .0266544
912.956 .0266419
913.605 .0266298
914.254 .0266184
914.903 .0266073
915.551 .0265966
916.199 .0265862
916.847 .0265759
917.494 .0265656
918.141 .0265553
918.788 .0265454
919.434 .0265362
920.079 .0265269
920.725 .0265174
921.370 .0265080
922.014 .0264982
922.658 .0264875
923.302 .0264756
923.946 .0264626
924.589 .0264486
925.231 .0264340
925.873 .0264192
926.515 .0264042
927.157 .0263897
927.798 .0263755
928.439 .0263617
929.079 .0263483
929.719 .0263352
930.359 .0263218
930.998 .0263086
931.637 .0262960
932.275 .0262834
932.913 .0262715
933.551 .0262608
934.188 .0262511
934.825 .0262423
935.462 .0262344
936.098 .0262277
936.733 .0262221
937.369 .0262181
938.004 .0262148
938.638 .0262121
939.273 .0262102
939.907 .0262088
940.540 .0262073
941.173 .0262064
941.806 .0262063
942.438 .0262064
943.070 .0262071
943.702 .0262084
944.333 .0262096
944.964 .0262113
945.594 .0262132
946.224 .0262148
946.854 .0262163
947.483 .0262176
948.112 .0262182
948.741 .0262185
949.369 .0262183
949.996 .0262174
950.624 .0262155
951.251 .0262132
951.878 .0262098
952.504 .0262058
953.130 .0262016
953.755 .0261971
954.380 .0261924
955.005 .0261877
955.629 .0261826
956.253 .0261774
956.877 .0261724
957.500 .0261674
958.123 .0261623
958.746 .0261569
959.368 .0261511
959.990 .0261447
960.611 .0261374
961.232 .0261292
961.853 .0261198
962.473 .0261099
963.093 .0260994
963.712 .0260885
964.331 .0260773
964.950 .0260664
965.569 .0260563
966.187 .0260470
966.804 .0260383
967.422 .0260305
968.039 .0260236
968.655 .0260174
969.272 .0260118
969.887 .0260061
970.503 .0260008
971.118 .0259959
971.733 .0259914
972.347 .0259877
972.961 .0259848
973.575 .0259825
974.188 .0259804
974.801 .0259782
975.414 .0259754
976.026 .0259710
976.638 .0259655
977.250 .0259579
977.861 .0259488
978.472 .0259379
979.083 .0259255
979.693 .0259124
980.303 .0258990
980.912 .0258847
981.521 .0258695
982.130 .0258534
982.738 .0258359
983.346 .0258171
983.954 .0257971
984.562 .0257757
985.169 .0257532
985.775 .0257301
986.382 .0257064
986.988 .0256823
987.594 .0256583
988.199 .0256342
988.804 .0256105
989.409 .0255872
990.013 .0255645
990.617 .0255424
991.221 .0255219
991.824 .0255033
992.427 .0254867
993.030 .0254726
993.632 .0254604
994.234 .0254504
994.836 .0254425
995.438 .0254362
996.039 .0254310
996.640 .0254262
997.240 .0254224
997.840 .0254191
998.440 .0254163
999.040 .0254135
999.639 .0254109
1000.238 .0254081
1000.836 .0254051
1001.435 .0254012
1002.033 .0253965
1002.630 .0253908
1003.228 .0253841
1003.825 .0253763
1004.422 .0253677
1005.018 .0253586
1005.614 .0253498
1006.210 .0253409
1006.806 .0253324
1007.401 .0253234
1007.996 .0253144
1008.591 .0253055
1009.186 .0252969
1009.780 .0252885
1010.374 .0252803
1010.967 .0252717
1011.561 .0252636
1012.154 .0252553
1012.746 .0252469
1013.339 .0252385
1013.931 .0252302
1014.523 .0252220
1015.115 .0252138
1015.706 .0252060
1016.298 .0251994
1016.888 .0251939
1017.479 .0251898
1018.069 .0251870
1018.660 .0251856
1019.250 .0251852
1019.839 .0251861
1020.429 .0251882
1021.018 .0251919
1021.607 .0251963
1022.195 .0252019
1022.784 .0252083
1023.372 .0252157
1023.960 .0252241
1024.547 .0252324
1025.135 .0252419
1025.722 .0252515
1026.309 .0252608
1026.896 .0252701
1027.483 .0252789
1028.069 .0252872
1028.655 .0252938
1029.241 .0252993
1029.827 .0253038
1030.412 .0253076
1030.997 .0253110
1031.582 .0253148
1032.167 .0253195
1032.752 .0253250
1033.336 .0253310
1033.921 .0253374
1034.505 .0253441
1035.089 .0253506
1035.672 .0253556
1036.256 .0253599
1036.839 .0253627
1037.422 .0253643
1038.005 .0253645
1038.588 .0253652
1039.171 .0253661
1039.753 .0253670
1040.335 .0253677
1040.918 .0253688
1041.500 .0253695
1042.081 .0253699
1042.663 .0253694
1043.244 .0253684
1043.826 .0253664
1044.407 .0253642
1044.988 .0253609
1045.569 .0253584
1046.150 .0253565
1046.730 .0253558
1047.311 .0253554
1047.891 .0253558
1048.471 .0253564
1049.052 .0253569
1049.632 .0253571
1050.211 .0253573
1050.791 .0253566
1051.371 .0253560
1051.950 .0253553
1052.530 .0253551
1053.109 .0253556
1053.688 .0253569
1054.268 .0253589
1054.847 .0253618
1055.426 .0253659
1056.005 .0253716
1056.583 .0253791
1057.162 .0253893
1057.741 .0254023
1058.319 .0254176
1058.898 .0254346
1059.476 .0254520
1060.055 .0254691
1060.633 .0254851
1061.211 .0254985
1061.790 .0255096
1062.368 .0255183
1062.946 .0255260
1063.524 .0255340
1064.102 .0255427
1064.680 .0255523
1065.258 .0255615
1065.836 .0255702
1066.414 .0255778
1066.992 .0255836
1067.570 .0255874
1068.148 .0255906
1068.726 .0255932
1069.304 .0255968
1069.882 .0256016
1070.460 .0256090
1071.038 .0256187
1071.616 .0256306
1072.194 .0256440
1072.772 .0256579
1073.350 .0256711
1073.928 .0256835
1074.506 .0256944
1075.084 .0257055
1075.662 .0257151
1076.240 .0257250
1076.819 .0257347
1077.397 .0257435
1077.976 .0257503
1078.554 .0257552
1079.133 .0257587
1079.711 .0257617
1080.290 .0257643
1080.869 .0257680
1081.448 .0257729
1082.027 .0257811
1082.606 .0257903
1083.185 .0258031
1083.764 .0258189
1084.343 .0258364
1084.923 .0258537
1085.502 .0258708
1086.082 .0258869
1086.662 .0259027
1087.242 .0259185
1087.822 .0259351
1088.402 .0259534
1088.983 .0259736
1089.563 .0259937
1090.144 .0260148
1090.725 .0260365
1091.306 .0260587
1091.887 .0260811
1092.469 .0261056
1093.050 .0261293
1093.632 .0261526
1094.214 .0261770
1094.796 .0262017
1095.379 .0262275
1095.961 .0262534
1096.544 .0262777
1097.127 .0262998
1097.710 .0263191
1098.294 .0263356
1098.877 .0263503
1099.461 .0263666
1100.046 .0263833
1100.630 .0264005
1101.215 .0264194
1101.800 .0264391
1102.385 .0264591
1102.970 .0264810
1103.556 .0265031
1104.142 .0265243
1104.728 .0265453
1105.315 .0265645
1105.902 .0265818
1106.489 .0266006
1107.077 .0266219
1107.664 .0266461
1108.253 .0266741
1108.841 .0267064
1109.430 .0267393
1110.019 .0267741
1110.609 .0268095
1111.198 .0268423
1111.789 .0268729
1112.379 .0269020
1112.970 .0269254
1113.561 .0269462
1114.153 .0269673
1114.745 .0269895
1115.338 .0270157
1115.931 .0270485
1116.524 .0270880
1117.117 .0271351
1117.712 .0271899
1118.306 .0272508
1118.901 .0273138
1119.496 .0273803
1120.092 .0274462
1120.689 .0275082
1121.285 .0275692
1121.882 .0276263
1122.480 .0276811
1123.078 .0277371
1123.677 .0277935
1124.276 .0278502
1124.875 .0279083
1125.476 .0279650
1126.076 .0280190
1126.677 .0280691
1127.279 .0281133
1127.881 .0281509
1128.484 .0281854
1129.087 .0282159
1129.691 .0282443
1130.295 .0282728
1130.900 .0283066
1131.505 .0283440
1132.111 .0283900
1132.718 .0284410
1133.325 .0285006
1133.933 .0285704
1134.541 .0286494
1135.150 .0287372
1135.760 .0288382
1136.370 .0289481
1136.981 .0290665
1137.592 .0291890
1138.204 .0293134
1138.817 .0294389
1139.431 .0295729
1140.045 .0297131
1140.660 .0298579
1141.275 .0300034
1141.891 .0301525
1142.508 .0304290
1143.126 .0306386
1143.744 .0306474
1144.363 .0306228
1144.983 .0307879
