Measurement Sequence started on: 15-12-46-377
Integration time: 28
Scans to Average: 2 
>>>>>Begin Spectral Data<<<<<
432.689 .0000100
433.621 .0000100
434.552 .0000100
435.482 .0000100
436.410 .0000100
437.337 .0000100
438.262 .0286450
439.187 .0605570
440.110 .1001366
441.031 .1446904
441.952 .1877760
442.871 .2214539
443.789 .2396083
444.705 .2401292
445.621 .2257369
446.535 .2021804
447.447 .1757137
448.359 .1354476
449.269 .1156057
450.178 .1030989
451.086 .0942550
451.993 .0875049
452.898 .0821578
453.803 .0777724
454.706 .0741974
455.608 .0712027
456.508 .0686856
457.408 .0665368
458.306 .0646614
459.204 .0629925
460.100 .0614719
460.995 .0600596
461.888 .0587430
462.781 .0575159
463.673 .0563695
464.563 .0553156
465.452 .0543461
466.340 .0534426
467.228 .0526159
468.114 .0518478
468.999 .0511416
469.882 .0504824
470.765 .0498701
471.647 .0493021
472.528 .0487919
473.407 .0483473
474.286 .0479674
475.163 .0476459
476.040 .0473796
476.915 .0471573
477.790 .0469672
478.663 .0468056
479.535 .0466664
480.407 .0465499
481.277 .0464621
482.147 .0463928
483.015 .0463454
483.883 .0463232
484.749 .0463164
485.615 .0463252
486.479 .0463414
487.343 .0463662
488.206 .0463913
489.067 .0464167
489.928 .0464542
490.788 .0465063
491.647 .0465734
492.505 .0466619
493.362 .0467698
494.218 .0469007
495.073 .0470473
495.928 .0472052
496.781 .0473680
497.634 .0475456
498.486 .0477284
499.337 .0479202
500.187 .0481185
501.036 .0483422
501.884 .0485799
502.731 .0488431
503.578 .0491442
504.424 .0494675
505.268 .0498158
506.113 .0501928
506.956 .0505868
507.798 .0510173
508.640 .0514875
509.480 .0520091
510.320 .0526068
511.160 .0533090
511.998 .0541213
512.836 .0550582
513.672 .0561551
514.508 .0574163
515.344 .0588320
516.178 .0604527
517.012 .0622826
517.845 .0643337
518.677 .0666733
519.508 .0693193
520.339 .0723330
521.169 .0757785
521.998 .0796492
522.826 .0840142
523.654 .0889319
524.481 .0943754
525.307 .1004199
526.133 .1070031
526.958 .1141402
527.782 .1216838
528.605 .1294833
529.428 .1374268
530.250 .1449009
531.072 .1516839
531.892 .1573375
532.712 .1615149
533.532 .1640633
534.350 .1647053
535.168 .1634478
535.986 .1603782
536.802 .1557152
537.618 .1497441
538.434 .1427272
539.249 .1352194
540.063 .1273942
540.876 .1195608
541.689 .1120102
542.501 .1049246
543.313 .0984555
544.124 .0926912
544.934 .0875442
545.744 .0829846
546.553 .0789520
547.361 .0753869
548.169 .0722816
548.976 .0695263
549.783 .0670924
550.589 .0648969
551.395 .0628974
552.200 .0610885
553.004 .0594139
553.808 .0578755
554.611 .0564650
555.414 .0551647
556.216 .0539661
557.018 .0528657
557.819 .0518638
558.619 .0509381
559.419 .0500843
560.218 .0492911
561.017 .0485502
561.815 .0478491
562.613 .0471772
563.410 .0465201
564.207 .0458823
565.003 .0452630
565.799 .0446474
566.594 .0440367
567.388 .0434447
568.182 .0428675
568.976 .0423060
569.769 .0417658
570.562 .0412461
571.354 .0407370
572.145 .0402427
572.936 .0397564
573.727 .0392779
574.517 .0388082
575.307 .0383503
576.096 .0379102
576.885 .0374958
577.673 .0371091
578.461 .0367485
579.248 .0364170
580.035 .0361155
580.821 .0358355
581.607 .0355757
582.392 .0353371
583.177 .0351197
583.962 .0349222
584.746 .0347415
585.529 .0345774
586.313 .0344293
587.095 .0342944
587.878 .0341713
588.660 .0340582
589.441 .0339535
590.222 .0338568
591.003 .0337677
591.783 .0336862
592.563 .0336111
593.342 .0335426
594.121 .0334780
594.899 .0334173
595.678 .0333591
596.455 .0333023
597.233 .0332470
598.009 .0331940
598.786 .0331422
599.562 .0330926
600.338 .0330445
601.113 .0329989
601.888 .0329539
602.663 .0329108
603.437 .0328675
604.211 .0328239
604.984 .0327801
605.757 .0327361
606.530 .0326916
607.302 .0326488
608.074 .0326069
608.845 .0325664
609.616 .0325275
610.387 .0324905
611.158 .0324545
611.928 .0324199
612.697 .0323860
613.467 .0323528
614.236 .0323197
615.004 .0322872
615.773 .0322554
616.541 .0322256
617.308 .0321980
618.076 .0321727
618.843 .0321502
619.609 .0321298
620.375 .0321098
621.141 .0320897
621.907 .0320684
622.672 .0320450
623.437 .0320189
624.202 .0319903
624.966 .0319604
625.730 .0319301
626.493 .0319006
627.257 .0318729
628.020 .0318478
628.782 .0318244
629.545 .0318009
630.307 .0317764
631.068 .0317503
631.830 .0317213
632.591 .0316893
633.352 .0316554
634.112 .0316201
634.872 .0315849
635.632 .0315508
636.392 .0315186
637.151 .0314890
637.910 .0314611
638.668 .0314342
639.427 .0314075
640.185 .0313799
640.943 .0313508
641.700 .0313202
642.457 .0312894
643.214 .0312580
643.971 .0312258
644.727 .0311950
645.483 .0311663
646.239 .0311402
646.994 .0311168
647.750 .0310962
648.505 .0310779
649.259 .0310623
650.014 .0310481
650.768 .0310341
651.521 .0310209
652.275 .0310075
653.028 .0309939
653.781 .0309799
654.534 .0309661
655.286 .0309519
656.039 .0309380
656.791 .0309254
657.542 .0309118
658.294 .0308975
659.045 .0308830
659.796 .0308675
660.546 .0308510
661.297 .0308328
662.047 .0308138
662.796 .0307941
663.546 .0307754
664.295 .0307567
665.044 .0307380
665.793 .0307200
666.542 .0307024
667.290 .0306841
668.038 .0306654
668.786 .0306457
669.533 .0306250
670.281 .0306041
671.028 .0305829
671.774 .0305609
672.521 .0305392
673.267 .0305179
674.013 .0304967
674.759 .0304751
675.505 .0304525
676.250 .0304286
676.995 .0304040
677.740 .0303788
678.484 .0303528
679.229 .0303273
679.973 .0303029
680.717 .0302803
681.460 .0302596
682.204 .0302408
682.947 .0302235
683.690 .0302069
684.433 .0301902
685.175 .0301727
685.917 .0301543
686.659 .0301356
687.401 .0301166
688.142 .0300982
688.884 .0300800
689.625 .0300628
690.365 .0300458
691.106 .0300284
691.846 .0300097
692.586 .0299897
693.326 .0299680
694.066 .0299452
694.805 .0299217
695.545 .0298984
696.284 .0298761
697.022 .0298550
697.761 .0298352
698.499 .0298163
699.237 .0297976
699.975 .0297789
700.713 .0297596
701.450 .0297394
702.187 .0297183
702.924 .0296975
703.661 .0296773
704.397 .0296583
705.133 .0296409
705.869 .0296245
706.605 .0296090
707.341 .0295938
708.076 .0295781
708.811 .0295614
709.546 .0295445
710.281 .0295272
711.015 .0295097
711.749 .0294927
712.483 .0294766
713.217 .0294616
713.950 .0294478
714.684 .0294351
715.417 .0294230
716.150 .0294110
716.882 .0293997
717.615 .0293881
718.347 .0293768
719.079 .0293655
719.811 .0293539
720.542 .0293423
721.273 .0293308
722.005 .0293189
722.735 .0293066
723.466 .0292943
724.196 .0292817
724.927 .0292680
725.656 .0292540
726.386 .0292394
727.116 .0292241
727.845 .0292083
728.574 .0291920
729.303 .0291751
730.031 .0291581
730.760 .0291410
731.488 .0291238
732.216 .0291076
732.944 .0290925
733.671 .0290785
734.398 .0290662
735.125 .0290564
735.852 .0290480
736.579 .0290417
737.305 .0290371
738.031 .0290338
738.757 .0290314
739.483 .0290299
740.208 .0290281
740.933 .0290269
741.658 .0290258
742.383 .0290244
743.108 .0290228
743.832 .0290218
744.556 .0290207
745.280 .0290195
746.004 .0290181
746.727 .0290158
747.450 .0290120
748.173 .0290072
748.896 .0290007
749.618 .0289926
750.340 .0289832
751.062 .0289725
751.784 .0289605
752.506 .0289477
753.227 .0289342
753.948 .0289196
754.669 .0289047
755.389 .0288895
756.110 .0288736
756.830 .0288572
757.550 .0288405
758.269 .0288236
758.989 .0288062
759.708 .0287883
760.427 .0287695
761.146 .0287500
761.864 .0287301
762.582 .0287095
763.300 .0286886
764.018 .0286678
764.736 .0286469
765.453 .0286260
766.170 .0286054
766.887 .0285847
767.603 .0285640
768.320 .0285431
769.036 .0285221
769.751 .0285007
770.467 .0284788
771.182 .0284566
771.897 .0284341
772.612 .0284118
773.327 .0283897
774.041 .0283681
774.755 .0283477
775.469 .0283290
776.183 .0283120
776.896 .0282970
777.609 .0282841
778.322 .0282731
779.035 .0282633
779.747 .0282543
780.459 .0282458
781.171 .0282377
781.882 .0282298
782.594 .0282227
783.305 .0282166
784.016 .0282117
784.726 .0282075
785.436 .0282039
786.147 .0282001
786.856 .0281957
787.566 .0281901
788.275 .0281828
788.984 .0281741
789.693 .0281640
790.401 .0281528
791.110 .0281415
791.818 .0281304
792.525 .0281200
793.233 .0281102
793.940 .0281010
794.647 .0280917
795.353 .0280823
796.060 .0280730
796.766 .0280637
797.472 .0280546
798.177 .0280461
798.883 .0280383
799.588 .0280315
800.292 .0280259
800.997 .0280209
801.701 .0280165
802.405 .0280124
803.109 .0280079
803.812 .0280028
804.515 .0279969
805.218 .0279899
805.921 .0279819
806.623 .0279731
807.325 .0279633
808.027 .0279529
808.728 .0279420
809.429 .0279307
810.130 .0279191
810.831 .0279072
811.531 .0278953
812.231 .0278832
812.931 .0278716
813.630 .0278597
814.330 .0278483
815.029 .0278374
815.727 .0278269
816.426 .0278170
817.124 .0278077
817.821 .0277989
818.519 .0277909
819.216 .0277834
819.913 .0277764
820.609 .0277700
821.306 .0277642
822.002 .0277591
822.697 .0277552
823.393 .0277519
824.088 .0277494
824.783 .0277478
825.477 .0277468
826.171 .0277458
826.865 .0277452
827.559 .0277451
828.252 .0277450
828.945 .0277448
829.638 .0277448
830.330 .0277450
831.023 .0277456
831.714 .0277461
832.406 .0277464
833.097 .0277466
833.788 .0277462
834.479 .0277454
835.169 .0277443
835.859 .0277434
836.548 .0277426
837.238 .0277418
837.927 .0277413
838.615 .0277409
839.304 .0277401
839.992 .0277388
840.680 .0277374
841.367 .0277357
842.054 .0277334
842.741 .0277310
843.428 .0277286
844.114 .0277261
844.800 .0277232
845.485 .0277194
846.170 .0277139
846.855 .0277066
847.540 .0276968
848.224 .0276845
848.908 .0276707
849.592 .0276551
850.275 .0276382
850.958 .0276204
851.641 .0276021
852.323 .0275827
853.005 .0275622
853.687 .0275407
854.368 .0275183
855.049 .0274952
855.730 .0274721
856.410 .0274489
857.090 .0274268
857.769 .0274058
858.449 .0273858
859.128 .0273663
859.806 .0273472
860.485 .0273278
861.163 .0273087
861.840 .0272895
862.518 .0272706
863.195 .0272520
863.871 .0272342
864.548 .0272167
865.224 .0271993
865.899 .0271819
866.574 .0271640
867.249 .0271453
867.924 .0271259
868.598 .0271053
869.272 .0270844
869.946 .0270636
870.619 .0270436
871.292 .0270248
871.964 .0270072
872.636 .0269906
873.308 .0269752
873.979 .0269608
874.651 .0269470
875.321 .0269337
875.992 .0269216
876.662 .0269101
877.331 .0268992
878.001 .0268888
878.670 .0268793
879.338 .0268707
880.007 .0268629
880.675 .0268554
881.342 .0268481
882.009 .0268409
882.676 .0268337
883.343 .0268264
884.009 .0268195
884.675 .0268125
885.340 .0268052
886.005 .0267978
886.670 .0267905
887.334 .0267833
887.998 .0267769
888.662 .0267710
889.325 .0267660
889.988 .0267619
890.650 .0267587
891.312 .0267562
891.974 .0267549
892.636 .0267542
893.297 .0267541
893.957 .0267543
894.618 .0267540
895.278 .0267530
895.937 .0267516
896.596 .0267497
897.255 .0267469
897.914 .0267437
898.572 .0267401
899.230 .0267362
899.887 .0267327
900.544 .0267292
901.201 .0267258
901.857 .0267227
902.513 .0267191
903.168 .0267146
903.823 .0267088
904.478 .0267018
905.132 .0266928
905.786 .0266824
906.440 .0266703
907.093 .0266565
907.746 .0266417
908.399 .0266266
909.051 .0266110
909.703 .0265954
910.354 .0265798
911.005 .0265638
911.656 .0265478
912.306 .0265312
912.956 .0265140
913.605 .0264965
914.254 .0264790
914.903 .0264620
915.551 .0264459
916.199 .0264317
916.847 .0264191
917.494 .0264085
918.141 .0264000
918.788 .0263925
919.434 .0263860
920.079 .0263795
920.725 .0263725
921.370 .0263647
922.014 .0263561
922.658 .0263465
923.302 .0263362
923.946 .0263256
924.589 .0263142
925.231 .0263020
925.873 .0262893
926.515 .0262757
927.157 .0262611
927.798 .0262460
928.439 .0262297
929.079 .0262128
929.719 .0261956
930.359 .0261785
930.998 .0261616
931.637 .0261454
932.275 .0261304
932.913 .0261164
933.551 .0261034
934.188 .0260909
934.825 .0260789
935.462 .0260675
936.098 .0260571
936.733 .0260473
937.369 .0260385
938.004 .0260310
938.638 .0260247
939.273 .0260197
939.907 .0260160
940.540 .0260135
941.173 .0260119
941.806 .0260115
942.438 .0260120
943.070 .0260131
943.702 .0260151
944.333 .0260180
944.964 .0260218
945.594 .0260263
946.224 .0260310
946.854 .0260357
947.483 .0260401
948.112 .0260442
948.741 .0260472
949.369 .0260493
949.996 .0260504
950.624 .0260502
951.251 .0260489
951.878 .0260464
952.504 .0260430
953.130 .0260387
953.755 .0260331
954.380 .0260260
955.005 .0260174
955.629 .0260070
956.253 .0259951
956.877 .0259822
957.500 .0259689
958.123 .0259559
958.746 .0259430
959.368 .0259303
959.990 .0259182
960.611 .0259065
961.232 .0258951
961.853 .0258841
962.473 .0258736
963.093 .0258633
963.712 .0258536
964.331 .0258443
964.950 .0258353
965.569 .0258268
966.187 .0258187
966.804 .0258106
967.422 .0258029
968.039 .0257953
968.655 .0257878
969.272 .0257812
969.887 .0257752
970.503 .0257695
971.118 .0257642
971.733 .0257592
972.347 .0257539
972.961 .0257481
973.575 .0257416
974.188 .0257337
974.801 .0257249
975.414 .0257156
976.026 .0257059
976.638 .0256959
977.250 .0256863
977.861 .0256766
978.472 .0256672
979.083 .0256576
979.693 .0256466
980.303 .0256342
980.912 .0256203
981.521 .0256048
982.130 .0255874
982.738 .0255691
983.346 .0255501
983.954 .0255305
984.562 .0255107
985.169 .0254908
985.775 .0254705
986.382 .0254503
986.988 .0254300
987.594 .0254095
988.199 .0253894
988.804 .0253691
989.409 .0253488
990.013 .0253290
990.617 .0253100
991.221 .0252918
991.824 .0252748
992.427 .0252600
993.030 .0252475
993.632 .0252367
994.234 .0252280
994.836 .0252204
995.438 .0252140
996.039 .0252079
996.640 .0252016
997.240 .0251954
997.840 .0251898
998.440 .0251849
999.040 .0251814
999.639 .0251792
1000.238 .0251781
1000.836 .0251775
1001.435 .0251771
1002.033 .0251762
1002.630 .0251741
1003.228 .0251709
1003.825 .0251674
1004.422 .0251634
1005.018 .0251600
1005.614 .0251569
1006.210 .0251552
1006.806 .0251550
1007.401 .0251553
1007.996 .0251555
1008.591 .0251557
1009.186 .0251557
1009.780 .0251556
1010.374 .0251551
1010.967 .0251552
1011.561 .0251556
1012.154 .0251563
1012.746 .0251573
1013.339 .0251576
1013.931 .0251575
1014.523 .0251572
1015.115 .0251565
1015.706 .0251549
1016.298 .0251527
1016.888 .0251500
1017.479 .0251473
1018.069 .0251448
1018.660 .0251424
1019.250 .0251401
1019.839 .0251386
1020.429 .0251381
1021.018 .0251385
1021.607 .0251403
1022.195 .0251443
1022.784 .0251498
1023.372 .0251566
1023.960 .0251645
1024.547 .0251731
1025.135 .0251825
1025.722 .0251932
1026.309 .0252048
1026.896 .0252165
1027.483 .0252293
1028.069 .0252422
1028.655 .0252550
1029.241 .0252671
1029.827 .0252785
1030.412 .0252886
1030.997 .0252981
1031.582 .0253063
1032.167 .0253131
1032.752 .0253197
1033.336 .0253263
1033.921 .0253321
1034.505 .0253379
1035.089 .0253432
1035.672 .0253481
1036.256 .0253527
1036.839 .0253572
1037.422 .0253614
1038.005 .0253659
1038.588 .0253710
1039.171 .0253767
1039.753 .0253823
1040.335 .0253876
1040.918 .0253923
1041.500 .0253971
1042.081 .0254014
1042.663 .0254042
1043.244 .0254075
1043.826 .0254110
1044.407 .0254144
1044.988 .0254180
1045.569 .0254206
1046.150 .0254225
1046.730 .0254240
1047.311 .0254238
1047.891 .0254227
1048.471 .0254216
1049.052 .0254209
1049.632 .0254210
1050.211 .0254232
1050.791 .0254266
1051.371 .0254309
1051.950 .0254367
1052.530 .0254439
1053.109 .0254504
1053.688 .0254570
1054.268 .0254636
1054.847 .0254688
1055.426 .0254741
1056.005 .0254787
1056.583 .0254823
1057.162 .0254862
1057.741 .0254887
1058.319 .0254902
1058.898 .0254909
1059.476 .0254906
1060.055 .0254883
1060.633 .0254849
1061.211 .0254804
1061.790 .0254747
1062.368 .0254683
1062.946 .0254639
1063.524 .0254616
1064.102 .0254634
1064.680 .0254694
1065.258 .0254794
1065.836 .0254932
1066.414 .0255092
1066.992 .0255256
1067.570 .0255413
1068.148 .0255557
1068.726 .0255680
1069.304 .0255786
1069.882 .0255886
1070.460 .0255981
1071.038 .0256077
1071.616 .0256173
1072.194 .0256270
1072.772 .0256340
1073.350 .0256376
1073.928 .0256374
1074.506 .0256336
1075.084 .0256268
1075.662 .0256183
1076.240 .0256103
1076.819 .0256039
1077.397 .0256018
1077.976 .0256033
1078.554 .0256097
1079.133 .0256209
1079.711 .0256356
1080.290 .0256530
1080.869 .0256717
1081.448 .0256910
1082.027 .0257105
1082.606 .0257303
1083.185 .0257513
1083.764 .0257728
1084.343 .0257957
1084.923 .0258199
1085.502 .0258452
1086.082 .0258709
1086.662 .0258969
1087.242 .0259212
1087.822 .0259445
1088.402 .0259629
1088.983 .0259770
1089.563 .0259854
1090.144 .0259898
1090.725 .0259925
1091.306 .0259924
1091.887 .0259930
1092.469 .0259947
1093.050 .0259995
1093.632 .0260075
1094.214 .0260183
1094.796 .0260318
1095.379 .0260468
1095.961 .0260634
1096.544 .0260797
1097.127 .0260954
1097.710 .0261112
1098.294 .0261284
1098.877 .0261473
1099.461 .0261683
1100.046 .0261909
1100.630 .0262153
1101.215 .0262439
1101.800 .0262717
1102.385 .0263003
1102.970 .0263288
1103.556 .0263556
1104.142 .0263822
1104.728 .0264067
1105.315 .0264310
1105.902 .0264541
1106.489 .0264772
1107.077 .0264998
1107.664 .0265211
1108.253 .0265432
1108.841 .0265653
1109.430 .0265896
1110.019 .0266168
1110.609 .0266444
1111.198 .0266731
1111.789 .0267047
1112.379 .0267372
1112.970 .0267655
1113.561 .0267915
1114.153 .0268143
1114.745 .0268368
1115.338 .0268591
1115.931 .0268840
1116.524 .0269136
1117.117 .0269520
1117.712 .0269956
1118.306 .0270426
1118.901 .0270945
1119.496 .0271493
1120.092 .0272037
1120.689 .0272575
1121.285 .0273074
1121.882 .0273536
1122.480 .0273969
1123.078 .0274403
1123.677 .0274824
1124.276 .0275273
1124.875 .0275722
1125.476 .0276162
1126.076 .0276606
1126.677 .0277070
1127.279 .0277527
1127.881 .0278051
1128.484 .0278634
1129.087 .0279262
1129.691 .0279936
1130.295 .0280644
1130.900 .0281368
1131.505 .0282107
1132.111 .0282862
1132.718 .0283609
1133.325 .0284370
1133.933 .0285158
1134.541 .0285915
1135.150 .0286705
1135.760 .0287524
1136.370 .0288334
1136.981 .0289144
1137.592 .0289927
1138.204 .0290628
1138.817 .0291284
1139.431 .0291970
1140.045 .0292616
1140.660 .0293239
1141.275 .0294111
1141.891 .0295130
1142.508 .0296239
1143.126 .0296406
1143.744 .0295495
1144.363 .0303445
1144.983 .0304839
