Measurement Sequence started on: 15-12-46-377
Integration time: 28
Scans to Average: 2 
>>>>>Begin Spectral Data<<<<<
432.689 .0000100
433.621 .0000100
434.552 .0000100
435.482 .0000100
436.410 .0000100
437.337 .0000100
438.262 .0268470
439.187 .0569190
440.110 .0943365
441.031 .1365161
441.952 .1774700
442.871 .2097114
443.789 .2273732
444.705 .2284453
445.621 .2153785
446.535 .1935672
447.447 .1688803
448.359 .1311501
449.269 .1124459
450.178 .1006503
451.086 .0923948
451.993 .0861089
452.898 .0811443
453.803 .0770980
454.706 .0737270
455.608 .0708399
456.508 .0683275
457.408 .0661430
458.306 .0642208
459.204 .0625155
460.100 .0610023
460.995 .0596580
461.888 .0584566
462.781 .0573682
463.673 .0563549
464.563 .0554234
465.452 .0545441
466.340 .0536956
467.228 .0528908
468.114 .0521342
468.999 .0514250
469.882 .0507690
470.765 .0501729
471.647 .0496394
472.528 .0491550
473.407 .0487315
474.286 .0483565
475.163 .0480295
476.040 .0477408
476.915 .0474841
477.790 .0472476
478.663 .0470373
479.535 .0468386
480.407 .0466612
481.277 .0465114
482.147 .0463877
483.015 .0462906
483.883 .0462183
484.749 .0461667
485.615 .0461376
486.479 .0461237
487.343 .0461276
488.206 .0461394
489.067 .0461648
489.928 .0461961
490.788 .0462419
491.647 .0463021
492.505 .0463797
493.362 .0464785
494.218 .0465990
495.073 .0467395
495.928 .0468990
496.781 .0470779
497.634 .0472776
498.486 .0475014
499.337 .0477510
500.187 .0480158
501.036 .0483038
501.884 .0486077
502.731 .0489273
503.578 .0492568
504.424 .0495929
505.268 .0499337
506.113 .0502884
506.956 .0506584
507.798 .0510629
508.640 .0515140
509.480 .0520349
510.320 .0526440
511.160 .0533559
511.998 .0541688
512.836 .0550880
513.672 .0561244
514.508 .0572760
515.344 .0585470
516.178 .0599799
517.012 .0615984
517.845 .0634498
518.677 .0655769
519.508 .0680059
520.339 .0707848
521.169 .0739737
521.998 .0775596
522.826 .0815630
523.654 .0859982
524.481 .0907953
525.307 .0960324
526.133 .1016896
526.958 .1077318
527.782 .1140862
528.605 .1206796
529.428 .1274024
530.250 .1337546
531.072 .1394484
531.892 .1441289
532.712 .1475641
533.532 .1495774
534.350 .1499206
535.168 .1486314
535.986 .1458575
536.802 .1418301
537.618 .1367151
538.434 .1307681
539.249 .1243670
540.063 .1176786
540.876 .1109245
541.689 .1042671
542.501 .0979504
543.313 .0921372
544.124 .0868812
544.934 .0822039
545.744 .0780477
546.553 .0744131
547.361 .0712287
548.169 .0684922
548.976 .0660810
549.783 .0639231
550.589 .0619756
551.395 .0601738
552.200 .0585185
553.004 .0570031
553.808 .0555738
554.611 .0542743
555.414 .0531018
556.216 .0520408
557.018 .0510851
557.819 .0502310
558.619 .0494349
559.419 .0486883
560.218 .0479858
561.017 .0473086
561.815 .0466435
562.613 .0460049
563.410 .0453760
564.207 .0447707
565.003 .0441942
565.799 .0436392
566.594 .0431008
567.388 .0425995
568.182 .0421197
568.976 .0416493
569.769 .0411858
570.562 .0407284
571.354 .0402697
572.145 .0398142
572.936 .0393566
573.727 .0388979
574.517 .0384476
575.307 .0380105
576.096 .0375843
576.885 .0371793
577.673 .0367947
578.461 .0364328
579.248 .0360960
580.035 .0357837
580.821 .0354935
581.607 .0352254
582.392 .0349773
583.177 .0347507
583.962 .0345429
584.746 .0343578
585.529 .0341899
586.313 .0340414
587.095 .0339068
587.878 .0337851
588.660 .0336746
589.441 .0335728
590.222 .0334784
591.003 .0333916
591.783 .0333104
592.563 .0332346
593.342 .0331637
594.121 .0330962
594.899 .0330312
595.678 .0329695
596.455 .0329089
597.233 .0328500
598.009 .0327909
598.786 .0327326
599.562 .0326741
600.338 .0326162
601.113 .0325580
601.888 .0324997
602.663 .0324431
603.437 .0323877
604.211 .0323336
604.984 .0322812
605.757 .0322307
606.530 .0321829
607.302 .0321379
608.074 .0320958
608.845 .0320570
609.616 .0320214
610.387 .0319879
611.158 .0319566
611.928 .0319271
612.697 .0318991
613.467 .0318726
614.236 .0318482
615.004 .0318259
615.773 .0318056
616.541 .0317876
617.308 .0317722
618.076 .0317588
618.843 .0317471
619.609 .0317357
620.375 .0317242
621.141 .0317118
621.907 .0316969
622.672 .0316801
623.437 .0316608
624.202 .0316396
624.966 .0316168
625.730 .0315929
626.493 .0315686
627.257 .0315441
628.020 .0315194
628.782 .0314939
629.545 .0314670
630.307 .0314383
631.068 .0314077
631.830 .0313751
632.591 .0313404
633.352 .0313039
634.112 .0312672
634.872 .0312311
635.632 .0311953
636.392 .0311607
637.151 .0311273
637.910 .0310945
638.668 .0310619
639.427 .0310292
640.185 .0309959
640.943 .0309631
641.700 .0309315
642.457 .0309008
643.214 .0308715
643.971 .0308435
644.727 .0308161
645.483 .0307892
646.239 .0307622
646.994 .0307341
647.750 .0307054
648.505 .0306766
649.259 .0306481
650.014 .0306204
650.768 .0305945
651.521 .0305709
652.275 .0305498
653.028 .0305305
653.781 .0305121
654.534 .0304936
655.286 .0304747
656.039 .0304544
656.791 .0304327
657.542 .0304091
658.294 .0303847
659.045 .0303601
659.796 .0303361
660.546 .0303132
661.297 .0302917
662.047 .0302722
662.796 .0302538
663.546 .0302364
664.295 .0302190
665.044 .0302014
665.793 .0301833
666.542 .0301649
667.290 .0301463
668.038 .0301283
668.786 .0301109
669.533 .0300954
670.281 .0300815
671.028 .0300690
671.774 .0300578
672.521 .0300471
673.267 .0300365
674.013 .0300260
674.759 .0300150
675.505 .0300041
676.250 .0299924
676.995 .0299810
677.740 .0299692
678.484 .0299576
679.229 .0299454
679.973 .0299326
680.717 .0299190
681.460 .0299045
682.204 .0298885
682.947 .0298721
683.690 .0298560
684.433 .0298402
685.175 .0298250
685.917 .0298101
686.659 .0297954
687.401 .0297808
688.142 .0297654
688.884 .0297495
689.625 .0297322
690.365 .0297136
691.106 .0296935
691.846 .0296727
692.586 .0296513
693.326 .0296294
694.066 .0296076
694.805 .0295859
695.545 .0295637
696.284 .0295407
697.022 .0295171
697.761 .0294929
698.499 .0294683
699.237 .0294427
699.975 .0294167
700.713 .0293912
701.450 .0293660
702.187 .0293414
702.924 .0293176
703.661 .0292943
704.397 .0292711
705.133 .0292473
705.869 .0292235
706.605 .0291994
707.341 .0291751
708.076 .0291506
708.811 .0291261
709.546 .0291014
710.281 .0290765
711.015 .0290512
711.749 .0290261
712.483 .0290010
713.217 .0289752
713.950 .0289492
714.684 .0289230
715.417 .0288964
716.150 .0288697
716.882 .0288433
717.615 .0288174
718.347 .0287919
719.079 .0287673
719.811 .0287436
720.542 .0287218
721.273 .0287018
722.005 .0286832
722.735 .0286662
723.466 .0286504
724.196 .0286349
724.927 .0286192
725.656 .0286036
726.386 .0285877
727.116 .0285719
727.845 .0285567
728.574 .0285421
729.303 .0285290
730.031 .0285174
730.760 .0285072
731.488 .0284981
732.216 .0284892
732.944 .0284802
733.671 .0284706
734.398 .0284610
735.125 .0284515
735.852 .0284429
736.579 .0284361
737.305 .0284308
738.031 .0284273
738.757 .0284252
739.483 .0284237
740.208 .0284226
740.933 .0284213
741.658 .0284190
742.383 .0284156
743.108 .0284113
743.832 .0284063
744.556 .0284010
745.280 .0283957
746.004 .0283901
746.727 .0283843
747.450 .0283787
748.173 .0283727
748.896 .0283663
749.618 .0283606
750.340 .0283551
751.062 .0283501
751.784 .0283461
752.506 .0283425
753.227 .0283395
753.948 .0283367
754.669 .0283337
755.389 .0283297
756.110 .0283245
756.830 .0283184
757.550 .0283116
758.269 .0283042
758.989 .0282966
759.708 .0282883
760.427 .0282800
761.146 .0282711
761.864 .0282608
762.582 .0282494
763.300 .0282372
764.018 .0282241
764.736 .0282102
765.453 .0281957
766.170 .0281815
766.887 .0281676
767.603 .0281541
768.320 .0281409
769.036 .0281277
769.751 .0281144
770.467 .0281006
771.182 .0280859
771.897 .0280702
772.612 .0280535
773.327 .0280360
774.041 .0280179
774.755 .0279992
775.469 .0279803
776.183 .0279613
776.896 .0279421
777.609 .0279233
778.322 .0279045
779.035 .0278858
779.747 .0278677
780.459 .0278499
781.171 .0278326
781.882 .0278158
782.594 .0277998
783.305 .0277844
784.016 .0277698
784.726 .0277554
785.436 .0277410
786.147 .0277264
786.856 .0277120
787.566 .0276972
788.275 .0276822
788.984 .0276673
789.693 .0276521
790.401 .0276363
791.110 .0276202
791.818 .0276032
792.525 .0275854
793.233 .0275661
793.940 .0275452
794.647 .0275224
795.353 .0274983
796.060 .0274732
796.766 .0274474
797.472 .0274216
798.177 .0273961
798.883 .0273711
799.588 .0273467
800.292 .0273231
800.997 .0273001
801.701 .0272774
802.405 .0272554
803.109 .0272338
803.812 .0272129
804.515 .0271933
805.218 .0271747
805.921 .0271576
806.623 .0271421
807.325 .0271279
808.027 .0271147
808.728 .0271024
809.429 .0270908
810.130 .0270794
810.831 .0270675
811.531 .0270551
812.231 .0270417
812.931 .0270276
813.630 .0270125
814.330 .0269965
815.029 .0269804
815.727 .0269642
816.426 .0269482
817.124 .0269330
817.821 .0269187
818.519 .0269062
819.216 .0268954
819.913 .0268865
820.609 .0268794
821.306 .0268740
822.002 .0268699
822.697 .0268673
823.393 .0268661
824.088 .0268661
824.783 .0268667
825.477 .0268683
826.171 .0268707
826.865 .0268740
827.559 .0268784
828.252 .0268836
828.945 .0268901
829.638 .0268972
830.330 .0269045
831.023 .0269120
831.714 .0269194
832.406 .0269268
833.097 .0269336
833.788 .0269399
834.479 .0269460
835.169 .0269524
835.859 .0269596
836.548 .0269678
837.238 .0269776
837.927 .0269886
838.615 .0270003
839.304 .0270123
839.992 .0270243
840.680 .0270355
841.367 .0270458
842.054 .0270549
842.741 .0270631
843.428 .0270706
844.114 .0270774
844.800 .0270836
845.485 .0270896
846.170 .0270947
846.855 .0270986
847.540 .0271011
848.224 .0271022
848.908 .0271016
849.592 .0270992
850.275 .0270952
850.958 .0270899
851.641 .0270840
852.323 .0270774
853.005 .0270699
853.687 .0270621
854.368 .0270540
855.049 .0270451
855.730 .0270357
856.410 .0270258
857.090 .0270156
857.769 .0270049
858.449 .0269936
859.128 .0269819
859.806 .0269700
860.485 .0269581
861.163 .0269462
861.840 .0269345
862.518 .0269231
863.195 .0269117
863.871 .0269000
864.548 .0268884
865.224 .0268765
865.899 .0268635
866.574 .0268496
867.249 .0268348
867.924 .0268189
868.598 .0268020
869.272 .0267845
869.946 .0267665
870.619 .0267479
871.292 .0267286
871.964 .0267083
872.636 .0266877
873.308 .0266670
873.979 .0266458
874.651 .0266244
875.321 .0266033
875.992 .0265824
876.662 .0265613
877.331 .0265407
878.001 .0265203
878.670 .0265001
879.338 .0264801
880.007 .0264600
880.675 .0264403
881.342 .0264206
882.009 .0264019
882.676 .0263834
883.343 .0263657
884.009 .0263485
884.675 .0263312
885.340 .0263139
886.005 .0262963
886.670 .0262786
887.334 .0262602
887.998 .0262419
888.662 .0262235
889.325 .0262053
889.988 .0261879
890.650 .0261710
891.312 .0261554
891.974 .0261408
892.636 .0261274
893.297 .0261139
893.957 .0261012
894.618 .0260888
895.278 .0260759
895.937 .0260627
896.596 .0260489
897.255 .0260345
897.914 .0260194
898.572 .0260038
899.230 .0259875
899.887 .0259712
900.544 .0259548
901.201 .0259378
901.857 .0259208
902.513 .0259028
903.168 .0258836
903.823 .0258630
904.478 .0258410
905.132 .0258171
905.786 .0257910
906.440 .0257641
907.093 .0257361
907.746 .0257075
908.399 .0256789
909.051 .0256505
909.703 .0256227
910.354 .0255952
911.005 .0255677
911.656 .0255398
912.306 .0255114
912.956 .0254823
913.605 .0254522
914.254 .0254219
914.903 .0253916
915.551 .0253619
916.199 .0253339
916.847 .0253084
917.494 .0252850
918.141 .0252642
918.788 .0252458
919.434 .0252294
920.079 .0252140
920.725 .0251994
921.370 .0251853
922.014 .0251723
922.658 .0251600
923.302 .0251487
923.946 .0251385
924.589 .0251297
925.231 .0251212
925.873 .0251133
926.515 .0251053
927.157 .0250963
927.798 .0250858
928.439 .0250738
929.079 .0250601
929.719 .0250452
930.359 .0250293
930.998 .0250132
931.637 .0249975
932.275 .0249830
932.913 .0249690
933.551 .0249563
934.188 .0249452
934.825 .0249352
935.462 .0249265
936.098 .0249194
936.733 .0249143
937.369 .0249108
938.004 .0249102
938.638 .0249119
939.273 .0249159
939.907 .0249223
940.540 .0249306
941.173 .0249404
941.806 .0249513
942.438 .0249626
943.070 .0249739
943.702 .0249850
944.333 .0249960
944.964 .0250056
945.594 .0250147
946.224 .0250236
946.854 .0250326
947.483 .0250417
948.112 .0250517
948.741 .0250620
949.369 .0250732
949.996 .0250850
950.624 .0250970
951.251 .0251096
951.878 .0251226
952.504 .0251361
953.130 .0251497
953.755 .0251638
954.380 .0251782
955.005 .0251923
955.629 .0252066
956.253 .0252202
956.877 .0252330
957.500 .0252450
958.123 .0252560
958.746 .0252662
959.368 .0252758
959.990 .0252850
960.611 .0252934
961.232 .0253015
961.853 .0253091
962.473 .0253166
963.093 .0253237
963.712 .0253309
964.331 .0253381
964.950 .0253450
965.569 .0253523
966.187 .0253598
966.804 .0253681
967.422 .0253773
968.039 .0253870
968.655 .0253972
969.272 .0254069
969.887 .0254164
970.503 .0254247
971.118 .0254322
971.733 .0254389
972.347 .0254444
972.961 .0254492
973.575 .0254540
974.188 .0254583
974.801 .0254622
975.414 .0254654
976.026 .0254673
976.638 .0254674
977.250 .0254662
977.861 .0254629
978.472 .0254585
979.083 .0254532
979.693 .0254475
980.303 .0254410
980.912 .0254347
981.521 .0254281
982.130 .0254207
982.738 .0254133
983.346 .0254048
983.954 .0253950
984.562 .0253847
985.169 .0253736
985.775 .0253619
986.382 .0253497
986.988 .0253376
987.594 .0253248
988.199 .0253122
988.804 .0252995
989.409 .0252864
990.013 .0252730
990.617 .0252594
991.221 .0252455
991.824 .0252311
992.427 .0252174
993.030 .0252042
993.632 .0251923
994.234 .0251815
994.836 .0251712
995.438 .0251616
996.039 .0251527
996.640 .0251443
997.240 .0251362
997.840 .0251287
998.440 .0251216
999.040 .0251143
999.639 .0251071
1000.238 .0250989
1000.836 .0250903
1001.435 .0250804
1002.033 .0250691
1002.630 .0250558
1003.228 .0250408
1003.825 .0250243
1004.422 .0250067
1005.018 .0249885
1005.614 .0249698
1006.210 .0249502
1006.806 .0249303
1007.401 .0249096
1007.996 .0248882
1008.591 .0248664
1009.186 .0248449
1009.780 .0248239
1010.374 .0248046
1010.967 .0247864
1011.561 .0247705
1012.154 .0247569
1012.746 .0247453
1013.339 .0247347
1013.931 .0247251
1014.523 .0247158
1015.115 .0247059
1015.706 .0246958
1016.298 .0246860
1016.888 .0246767
1017.479 .0246685
1018.069 .0246609
1018.660 .0246539
1019.250 .0246469
1019.839 .0246395
1020.429 .0246310
1021.018 .0246214
1021.607 .0246103
1022.195 .0245977
1022.784 .0245840
1023.372 .0245701
1023.960 .0245565
1024.547 .0245432
1025.135 .0245306
1025.722 .0245188
1026.309 .0245073
1026.896 .0244958
1027.483 .0244844
1028.069 .0244732
1028.655 .0244622
1029.241 .0244519
1029.827 .0244424
1030.412 .0244341
1030.997 .0244273
1031.582 .0244210
1032.167 .0244157
1032.752 .0244109
1033.336 .0244060
1033.921 .0244000
1034.505 .0243934
1035.089 .0243859
1035.672 .0243773
1036.256 .0243676
1036.839 .0243573
1037.422 .0243463
1038.005 .0243360
1038.588 .0243253
1039.171 .0243150
1039.753 .0243053
1040.335 .0242958
1040.918 .0242864
1041.500 .0242772
1042.081 .0242672
1042.663 .0242565
1043.244 .0242447
1043.826 .0242327
1044.407 .0242201
1044.988 .0242078
1045.569 .0241951
1046.150 .0241826
1046.730 .0241704
1047.311 .0241583
1047.891 .0241454
1048.471 .0241332
1049.052 .0241212
1049.632 .0241098
1050.211 .0240981
1050.791 .0240872
1051.371 .0240777
1051.950 .0240705
1052.530 .0240647
1053.109 .0240599
1053.688 .0240554
1054.268 .0240522
1054.847 .0240500
1055.426 .0240492
1056.005 .0240498
1056.583 .0240517
1057.162 .0240544
1057.741 .0240575
1058.319 .0240605
1058.898 .0240635
1059.476 .0240660
1060.055 .0240686
1060.633 .0240702
1061.211 .0240705
1061.790 .0240704
1062.368 .0240711
1062.946 .0240733
1063.524 .0240751
1064.102 .0240766
1064.680 .0240767
1065.258 .0240751
1065.836 .0240724
1066.414 .0240678
1066.992 .0240628
1067.570 .0240579
1068.148 .0240533
1068.726 .0240485
1069.304 .0240442
1069.882 .0240417
1070.460 .0240396
1071.038 .0240387
1071.616 .0240381
1072.194 .0240379
1072.772 .0240390
1073.350 .0240436
1073.928 .0240505
1074.506 .0240607
1075.084 .0240750
1075.662 .0240925
1076.240 .0241125
1076.819 .0241338
1077.397 .0241556
1077.976 .0241757
1078.554 .0241932
1079.133 .0242070
1079.711 .0242152
1080.290 .0242201
1080.869 .0242219
1081.448 .0242215
1082.027 .0242209
1082.606 .0242209
1083.185 .0242223
1083.764 .0242270
1084.343 .0242344
1084.923 .0242443
1085.502 .0242556
1086.082 .0242691
1086.662 .0242851
1087.242 .0243028
1087.822 .0243233
1088.402 .0243471
1088.983 .0243753
1089.563 .0244077
1090.144 .0244432
1090.725 .0244839
1091.306 .0245267
1091.887 .0245706
1092.469 .0246150
1093.050 .0246588
1093.632 .0247008
1094.214 .0247409
1094.796 .0247775
1095.379 .0248101
1095.961 .0248405
1096.544 .0248668
1097.127 .0248886
1097.710 .0249101
1098.294 .0249313
1098.877 .0249526
1099.461 .0249749
1100.046 .0250003
1100.630 .0250261
1101.215 .0250530
1101.800 .0250797
1102.385 .0251036
1102.970 .0251259
1103.556 .0251478
1104.142 .0251690
1104.728 .0251921
1105.315 .0252191
1105.902 .0252504
1106.489 .0252873
1107.077 .0253330
1107.664 .0253832
1108.253 .0254376
1108.841 .0254934
1109.430 .0255499
1110.019 .0256043
1110.609 .0256560
1111.198 .0257061
1111.789 .0257552
1112.379 .0258047
1112.970 .0258531
1113.561 .0258997
1114.153 .0259473
1114.745 .0259944
1115.338 .0260443
1115.931 .0260928
1116.524 .0261414
1117.117 .0261883
1117.712 .0262323
1118.306 .0262739
1118.901 .0263166
1119.496 .0263593
1120.092 .0264034
1120.689 .0264485
1121.285 .0264967
1121.882 .0265460
1122.480 .0266002
1123.078 .0266576
1123.677 .0267162
1124.276 .0267752
1124.875 .0268330
1125.476 .0268868
1126.076 .0269460
1126.677 .0270114
1127.279 .0270837
1127.881 .0271692
1128.484 .0272684
1129.087 .0273769
1129.691 .0274970
1130.295 .0276258
1130.900 .0277596
1131.505 .0278957
1132.111 .0280317
1132.718 .0281587
1133.325 .0282824
1133.933 .0284079
1134.541 .0285328
1135.150 .0286630
1135.760 .0288016
1136.370 .0289424
1136.981 .0290835
1137.592 .0292252
1138.204 .0293589
1138.817 .0294854
1139.431 .0296079
1140.045 .0297238
1140.660 .0298399
1141.275 .0299568
1141.891 .0300733
1142.508 .0301964
1143.126 .0303531
1143.744 .0305849
1144.363 .0306244
1144.983 .0305689
