Measurement Sequence started on: 15-12-46-377
Integration time: 28
Scans to Average: 2 
>>>>>Begin Spectral Data<<<<<
432.689 .0000100
433.621 .0000100
434.552 .0000100
435.482 .0000100
436.410 .0000100
437.337 .0000100
438.262 .0277583
439.187 .0588788
440.110 .0976796
441.031 .1414375
441.952 .1839857
442.871 .2176149
443.789 .2361803
444.705 .2375985
445.621 .2243790
446.535 .2020528
447.447 .1766570
448.359 .1377074
449.269 .1183124
450.178 .1059625
451.086 .0972662
451.993 .0905754
452.898 .0852154
453.803 .0808267
454.706 .0771330
455.608 .0739313
456.508 .0711240
457.408 .0686471
458.306 .0663951
459.204 .0643736
460.100 .0625242
460.995 .0608406
461.888 .0593355
462.781 .0579867
463.673 .0567739
464.563 .0557003
465.452 .0547346
466.340 .0538467
467.228 .0530430
468.114 .0523189
468.999 .0516567
469.882 .0510584
470.765 .0505255
471.647 .0500541
472.528 .0496436
473.407 .0493009
474.286 .0490052
475.163 .0487552
476.040 .0485352
476.915 .0483285
477.790 .0481288
478.663 .0479326
479.535 .0477447
480.407 .0475699
481.277 .0474047
482.147 .0472557
483.015 .0471149
483.883 .0469855
484.749 .0468658
485.615 .0467569
486.479 .0466619
487.343 .0465820
488.206 .0465223
489.067 .0464838
489.928 .0464674
490.788 .0464820
491.647 .0465188
492.505 .0465823
493.362 .0466664
494.218 .0467657
495.073 .0468760
495.928 .0470107
496.781 .0471633
497.634 .0473533
498.486 .0475725
499.337 .0478259
500.187 .0481098
501.036 .0484252
501.884 .0487720
502.731 .0491498
503.578 .0495571
504.424 .0500024
505.268 .0504770
506.113 .0509961
506.956 .0515464
507.798 .0521526
508.640 .0528055
509.480 .0535196
510.320 .0543046
511.160 .0551706
511.998 .0561244
512.836 .0571941
513.672 .0583745
514.508 .0596805
515.344 .0611172
516.178 .0626961
517.012 .0644304
517.845 .0663434
518.677 .0684674
519.508 .0708076
520.339 .0734397
521.169 .0764251
521.998 .0797679
522.826 .0835919
523.654 .0879141
524.481 .0927476
525.307 .0981503
526.133 .1040491
526.958 .1103888
527.782 .1171436
528.605 .1241128
529.428 .1311841
530.250 .1378984
531.072 .1440725
531.892 .1493072
532.712 .1533697
533.532 .1560937
534.350 .1572041
535.168 .1566309
535.986 .1544452
536.802 .1506617
537.618 .1456170
538.434 .1394379
539.249 .1326351
540.063 .1254069
540.876 .1181155
541.689 .1110030
542.501 .1043037
543.313 .0981902
544.124 .0927214
544.934 .0878059
545.744 .0834219
546.553 .0794647
547.361 .0759364
548.169 .0727646
548.976 .0699149
549.783 .0673587
550.589 .0650930
551.395 .0630335
552.200 .0612045
553.004 .0595533
553.808 .0580420
554.611 .0566690
555.414 .0554177
556.216 .0542487
557.018 .0531777
557.819 .0521945
558.619 .0512769
559.419 .0504208
560.218 .0496308
561.017 .0488804
561.815 .0481621
562.613 .0474733
563.410 .0467895
564.207 .0461118
565.003 .0454596
565.799 .0448214
566.594 .0441997
567.388 .0436242
568.182 .0430760
568.976 .0425531
569.769 .0420628
570.562 .0415861
571.354 .0411154
572.145 .0406580
572.936 .0402081
573.727 .0397683
574.517 .0393404
575.307 .0389310
576.096 .0385383
576.885 .0381708
577.673 .0378279
578.461 .0374977
579.248 .0371842
580.035 .0368857
580.821 .0365921
581.607 .0363024
582.392 .0360158
583.177 .0357328
583.962 .0354620
584.746 .0352035
585.529 .0349622
586.313 .0347420
587.095 .0345442
587.878 .0343675
588.660 .0342083
589.441 .0340641
590.222 .0339323
591.003 .0338103
591.783 .0336980
592.563 .0335926
593.342 .0334961
594.121 .0334067
594.899 .0333269
595.678 .0332568
596.455 .0331951
597.233 .0331404
598.009 .0330923
598.786 .0330488
599.562 .0330080
600.338 .0329685
601.113 .0329289
601.888 .0328892
602.663 .0328493
603.437 .0328094
604.211 .0327700
604.984 .0327308
605.757 .0326931
606.530 .0326558
607.302 .0326196
608.074 .0325845
608.845 .0325498
609.616 .0325160
610.387 .0324818
611.158 .0324474
611.928 .0324118
612.697 .0323760
613.467 .0323397
614.236 .0323039
615.004 .0322687
615.773 .0322355
616.541 .0322050
617.308 .0321768
618.076 .0321511
618.843 .0321285
619.609 .0321085
620.375 .0320902
621.141 .0320733
621.907 .0320577
622.672 .0320424
623.437 .0320281
624.202 .0320143
624.966 .0320010
625.730 .0319879
626.493 .0319753
627.257 .0319620
628.020 .0319485
628.782 .0319336
629.545 .0319154
630.307 .0318949
631.068 .0318721
631.830 .0318456
632.591 .0318158
633.352 .0317847
634.112 .0317528
634.872 .0317198
635.632 .0316870
636.392 .0316538
637.151 .0316206
637.910 .0315872
638.668 .0315538
639.427 .0315204
640.185 .0314884
640.943 .0314577
641.700 .0314281
642.457 .0314015
643.214 .0313769
643.971 .0313539
644.727 .0313323
645.483 .0313119
646.239 .0312912
646.994 .0312690
647.750 .0312472
648.505 .0312251
649.259 .0312040
650.014 .0311842
650.768 .0311651
651.521 .0311475
652.275 .0311306
653.028 .0311133
653.781 .0310945
654.534 .0310751
655.286 .0310539
656.039 .0310309
656.791 .0310069
657.542 .0309819
658.294 .0309563
659.045 .0309312
659.796 .0309060
660.546 .0308800
661.297 .0308537
662.047 .0308262
662.796 .0307975
663.546 .0307686
664.295 .0307389
665.044 .0307091
665.793 .0306798
666.542 .0306511
667.290 .0306222
668.038 .0305936
668.786 .0305649
669.533 .0305359
670.281 .0305070
671.028 .0304779
671.774 .0304491
672.521 .0304218
673.267 .0303963
674.013 .0303721
674.759 .0303497
675.505 .0303286
676.250 .0303074
676.995 .0302858
677.740 .0302632
678.484 .0302393
679.229 .0302150
679.973 .0301905
680.717 .0301663
681.460 .0301433
682.204 .0301218
682.947 .0301014
683.690 .0300824
684.433 .0300638
685.175 .0300447
685.917 .0300251
686.659 .0300049
687.401 .0299834
688.142 .0299612
688.884 .0299387
689.625 .0299155
690.365 .0298919
691.106 .0298680
691.846 .0298435
692.586 .0298188
693.326 .0297940
694.066 .0297691
694.805 .0297442
695.545 .0297200
696.284 .0296962
697.022 .0296731
697.761 .0296510
698.499 .0296292
699.237 .0296078
699.975 .0295873
700.713 .0295674
701.450 .0295482
702.187 .0295301
702.924 .0295139
703.661 .0294993
704.397 .0294863
705.133 .0294750
705.869 .0294648
706.605 .0294556
707.341 .0294470
708.076 .0294386
708.811 .0294303
709.546 .0294216
710.281 .0294121
711.015 .0294019
711.749 .0293908
712.483 .0293788
713.217 .0293660
713.950 .0293531
714.684 .0293399
715.417 .0293262
716.150 .0293127
716.882 .0292998
717.615 .0292871
718.347 .0292745
719.079 .0292619
719.811 .0292491
720.542 .0292360
721.273 .0292228
722.005 .0292091
722.735 .0291958
723.466 .0291827
724.196 .0291701
724.927 .0291575
725.656 .0291457
726.386 .0291342
727.116 .0291228
727.845 .0291117
728.574 .0291003
729.303 .0290881
730.031 .0290757
730.760 .0290625
731.488 .0290489
732.216 .0290352
732.944 .0290217
733.671 .0290081
734.398 .0289949
735.125 .0289816
735.852 .0289684
736.579 .0289549
737.305 .0289413
738.031 .0289273
738.757 .0289127
739.483 .0288978
740.208 .0288824
740.933 .0288671
741.658 .0288521
742.383 .0288370
743.108 .0288227
743.832 .0288087
744.556 .0287951
745.280 .0287816
746.004 .0287683
746.727 .0287549
747.450 .0287413
748.173 .0287270
748.896 .0287120
749.618 .0286962
750.340 .0286798
751.062 .0286630
751.784 .0286461
752.506 .0286292
753.227 .0286124
753.948 .0285953
754.669 .0285781
755.389 .0285599
756.110 .0285408
756.830 .0285203
757.550 .0284981
758.269 .0284741
758.989 .0284486
759.708 .0284221
760.427 .0283952
761.146 .0283685
761.864 .0283426
762.582 .0283173
763.300 .0282931
764.018 .0282694
764.736 .0282458
765.453 .0282222
766.170 .0281986
766.887 .0281743
767.603 .0281499
768.320 .0281252
769.036 .0281006
769.751 .0280769
770.467 .0280543
771.182 .0280326
771.897 .0280117
772.612 .0279912
773.327 .0279713
774.041 .0279513
774.755 .0279315
775.469 .0279114
776.183 .0278917
776.896 .0278724
777.609 .0278535
778.322 .0278352
779.035 .0278180
779.747 .0278021
780.459 .0277878
781.171 .0277748
781.882 .0277633
782.594 .0277534
783.305 .0277452
784.016 .0277384
784.726 .0277330
785.436 .0277285
786.147 .0277244
786.856 .0277208
787.566 .0277170
788.275 .0277125
788.984 .0277079
789.693 .0277028
790.401 .0276974
791.110 .0276913
791.818 .0276846
792.525 .0276772
793.233 .0276696
793.940 .0276615
794.647 .0276528
795.353 .0276439
796.060 .0276349
796.766 .0276258
797.472 .0276167
798.177 .0276081
798.883 .0275995
799.588 .0275915
800.292 .0275839
800.997 .0275766
801.701 .0275697
802.405 .0275632
803.109 .0275568
803.812 .0275510
804.515 .0275453
805.218 .0275393
805.921 .0275329
806.623 .0275260
807.325 .0275184
808.027 .0275103
808.728 .0275015
809.429 .0274921
810.130 .0274825
810.831 .0274729
811.531 .0274628
812.231 .0274528
812.931 .0274424
813.630 .0274317
814.330 .0274207
815.029 .0274094
815.727 .0273979
816.426 .0273869
817.124 .0273763
817.821 .0273661
818.519 .0273572
819.216 .0273493
819.913 .0273427
820.609 .0273377
821.306 .0273341
822.002 .0273319
822.697 .0273310
823.393 .0273317
824.088 .0273336
824.783 .0273367
825.477 .0273408
826.171 .0273455
826.865 .0273514
827.559 .0273581
828.252 .0273652
828.945 .0273728
829.638 .0273809
830.330 .0273886
831.023 .0273956
831.714 .0274019
832.406 .0274071
833.097 .0274109
833.788 .0274131
834.479 .0274141
835.169 .0274140
835.859 .0274132
836.548 .0274118
837.238 .0274099
837.927 .0274075
838.615 .0274044
839.304 .0274003
839.992 .0273952
840.680 .0273889
841.367 .0273814
842.054 .0273729
842.741 .0273642
843.428 .0273554
844.114 .0273471
844.800 .0273395
845.485 .0273325
846.170 .0273253
846.855 .0273178
847.540 .0273093
848.224 .0272996
848.908 .0272882
849.592 .0272757
850.275 .0272618
850.958 .0272470
851.641 .0272315
852.323 .0272155
853.005 .0271993
853.687 .0271825
854.368 .0271649
855.049 .0271469
855.730 .0271277
856.410 .0271073
857.090 .0270855
857.769 .0270627
858.449 .0270386
859.128 .0270136
859.806 .0269875
860.485 .0269610
861.163 .0269344
861.840 .0269079
862.518 .0268818
863.195 .0268568
863.871 .0268322
864.548 .0268083
865.224 .0267850
865.899 .0267621
866.574 .0267389
867.249 .0267162
867.924 .0266940
868.598 .0266727
869.272 .0266523
869.946 .0266335
870.619 .0266157
871.292 .0265993
871.964 .0265833
872.636 .0265672
873.308 .0265510
873.979 .0265341
874.651 .0265162
875.321 .0264977
875.992 .0264791
876.662 .0264606
877.331 .0264426
878.001 .0264255
878.670 .0264094
879.338 .0263937
880.007 .0263782
880.675 .0263626
881.342 .0263466
882.009 .0263305
882.676 .0263142
883.343 .0262979
884.009 .0262822
884.675 .0262670
885.340 .0262527
886.005 .0262389
886.670 .0262265
887.334 .0262147
887.998 .0262034
888.662 .0261925
889.325 .0261811
889.988 .0261689
890.650 .0261563
891.312 .0261434
891.974 .0261305
892.636 .0261183
893.297 .0261072
893.957 .0260974
894.618 .0260894
895.278 .0260829
895.937 .0260774
896.596 .0260725
897.255 .0260673
897.914 .0260606
898.572 .0260521
899.230 .0260417
899.887 .0260296
900.544 .0260162
901.201 .0260021
901.857 .0259878
902.513 .0259730
903.168 .0259583
903.823 .0259430
904.478 .0259274
905.132 .0259107
905.786 .0258923
906.440 .0258725
907.093 .0258512
907.746 .0258286
908.399 .0258055
909.051 .0257824
909.703 .0257599
910.354 .0257381
911.005 .0257169
911.656 .0256964
912.306 .0256763
912.956 .0256565
913.605 .0256365
914.254 .0256167
914.903 .0255967
915.551 .0255766
916.199 .0255571
916.847 .0255384
917.494 .0255203
918.141 .0255035
918.788 .0254878
919.434 .0254737
920.079 .0254607
920.725 .0254488
921.370 .0254379
922.014 .0254282
922.658 .0254191
923.302 .0254102
923.946 .0254013
924.589 .0253925
925.231 .0253829
925.873 .0253727
926.515 .0253615
927.157 .0253496
927.798 .0253372
928.439 .0253243
929.079 .0253110
929.719 .0252970
930.359 .0252819
930.998 .0252666
931.637 .0252509
932.275 .0252348
932.913 .0252186
933.551 .0252032
934.188 .0251887
934.825 .0251756
935.462 .0251641
936.098 .0251543
936.733 .0251467
937.369 .0251409
938.004 .0251366
938.638 .0251339
939.273 .0251330
939.907 .0251339
940.540 .0251372
941.173 .0251425
941.806 .0251498
942.438 .0251586
943.070 .0251686
943.702 .0251789
944.333 .0251894
944.964 .0251993
945.594 .0252085
946.224 .0252171
946.854 .0252254
947.483 .0252335
948.112 .0252421
948.741 .0252512
949.369 .0252606
949.996 .0252698
950.624 .0252786
951.251 .0252861
951.878 .0252926
952.504 .0252979
953.130 .0253023
953.755 .0253060
954.380 .0253093
955.005 .0253124
955.629 .0253154
956.253 .0253186
956.877 .0253221
957.500 .0253256
958.123 .0253295
958.746 .0253334
959.368 .0253373
959.990 .0253415
960.611 .0253457
961.232 .0253500
961.853 .0253538
962.473 .0253572
963.093 .0253599
963.712 .0253616
964.331 .0253626
964.950 .0253629
965.569 .0253630
966.187 .0253630
966.804 .0253628
967.422 .0253626
968.039 .0253628
968.655 .0253634
969.272 .0253643
969.887 .0253652
970.503 .0253663
971.118 .0253675
971.733 .0253685
972.347 .0253699
972.961 .0253716
973.575 .0253733
974.188 .0253746
974.801 .0253754
975.414 .0253753
976.026 .0253740
976.638 .0253719
977.250 .0253687
977.861 .0253648
978.472 .0253605
979.083 .0253552
979.693 .0253492
980.303 .0253422
980.912 .0253339
981.521 .0253237
982.130 .0253121
982.738 .0252991
983.346 .0252852
983.954 .0252718
984.562 .0252592
985.169 .0252476
985.775 .0252380
986.382 .0252297
986.988 .0252227
987.594 .0252165
988.199 .0252105
988.804 .0252038
989.409 .0251967
990.013 .0251886
990.617 .0251801
991.221 .0251714
991.824 .0251635
992.427 .0251567
993.030 .0251514
993.632 .0251479
994.234 .0251457
994.836 .0251443
995.438 .0251436
996.039 .0251419
996.640 .0251392
997.240 .0251344
997.840 .0251284
998.440 .0251210
999.040 .0251125
999.639 .0251040
1000.238 .0250957
1000.836 .0250879
1001.435 .0250805
1002.033 .0250732
1002.630 .0250656
1003.228 .0250570
1003.825 .0250471
1004.422 .0250354
1005.018 .0250230
1005.614 .0250097
1006.210 .0249969
1006.806 .0249848
1007.401 .0249742
1007.996 .0249648
1008.591 .0249569
1009.186 .0249502
1009.780 .0249437
1010.374 .0249378
1010.967 .0249320
1011.561 .0249259
1012.154 .0249199
1012.746 .0249136
1013.339 .0249076
1013.931 .0249016
1014.523 .0248961
1015.115 .0248903
1015.706 .0248850
1016.298 .0248799
1016.888 .0248752
1017.479 .0248712
1018.069 .0248679
1018.660 .0248650
1019.250 .0248619
1019.839 .0248588
1020.429 .0248549
1021.018 .0248503
1021.607 .0248455
1022.195 .0248403
1022.784 .0248353
1023.372 .0248306
1023.960 .0248263
1024.547 .0248228
1025.135 .0248200
1025.722 .0248175
1026.309 .0248147
1026.896 .0248119
1027.483 .0248085
1028.069 .0248048
1028.655 .0248014
1029.241 .0247989
1029.827 .0247979
1030.412 .0247982
1030.997 .0247993
1031.582 .0248006
1032.167 .0248015
1032.752 .0248010
1033.336 .0247986
1033.921 .0247936
1034.505 .0247857
1035.089 .0247753
1035.672 .0247629
1036.256 .0247498
1036.839 .0247360
1037.422 .0247221
1038.005 .0247089
1038.588 .0246952
1039.171 .0246811
1039.753 .0246663
1040.335 .0246505
1040.918 .0246338
1041.500 .0246165
1042.081 .0245994
1042.663 .0245828
1043.244 .0245679
1043.826 .0245550
1044.407 .0245434
1044.988 .0245332
1045.569 .0245238
1046.150 .0245137
1046.730 .0245027
1047.311 .0244902
1047.891 .0244760
1048.471 .0244611
1049.052 .0244458
1049.632 .0244295
1050.211 .0244130
1050.791 .0243968
1051.371 .0243803
1051.950 .0243635
1052.530 .0243466
1053.109 .0243303
1053.688 .0243149
1054.268 .0243014
1054.847 .0242887
1055.426 .0242775
1056.005 .0242677
1056.583 .0242574
1057.162 .0242466
1057.741 .0242356
1058.319 .0242238
1058.898 .0242123
1059.476 .0242009
1060.055 .0241906
1060.633 .0241812
1061.211 .0241739
1061.790 .0241681
1062.368 .0241639
1062.946 .0241602
1063.524 .0241573
1064.102 .0241550
1064.680 .0241544
1065.258 .0241556
1065.836 .0241582
1066.414 .0241636
1066.992 .0241721
1067.570 .0241819
1068.148 .0241916
1068.726 .0242007
1069.304 .0242091
1069.882 .0242157
1070.460 .0242207
1071.038 .0242233
1071.616 .0242247
1072.194 .0242261
1072.772 .0242278
1073.350 .0242286
1073.928 .0242297
1074.506 .0242302
1075.084 .0242276
1075.662 .0242234
1076.240 .0242174
1076.819 .0242098
1077.397 .0242029
1077.976 .0241966
1078.554 .0241919
1079.133 .0241882
1079.711 .0241867
1080.290 .0241858
1080.869 .0241867
1081.448 .0241887
1082.027 .0241897
1082.606 .0241894
1083.185 .0241900
1083.764 .0241903
1084.343 .0241915
1084.923 .0241940
1085.502 .0241987
1086.082 .0242051
1086.662 .0242142
1087.242 .0242232
1087.822 .0242342
1088.402 .0242459
1088.983 .0242598
1089.563 .0242751
1090.144 .0242916
1090.725 .0243088
1091.306 .0243252
1091.887 .0243418
1092.469 .0243592
1093.050 .0243740
1093.632 .0243869
1094.214 .0243979
1094.796 .0244086
1095.379 .0244182
1095.961 .0244271
1096.544 .0244357
1097.127 .0244446
1097.710 .0244539
1098.294 .0244616
1098.877 .0244682
1099.461 .0244744
1100.046 .0244811
1100.630 .0244884
1101.215 .0244980
1101.800 .0245099
1102.385 .0245238
1102.970 .0245427
1103.556 .0245665
1104.142 .0245955
1104.728 .0246314
1105.315 .0246726
1105.902 .0247210
1106.489 .0247720
1107.077 .0248256
1107.664 .0248786
1108.253 .0249316
1108.841 .0249830
1109.430 .0250302
1110.019 .0250751
1110.609 .0251197
1111.198 .0251641
1111.789 .0252110
1112.379 .0252606
1112.970 .0253123
1113.561 .0253656
1114.153 .0254187
1114.745 .0254671
1115.338 .0255129
1115.931 .0255517
1116.524 .0255854
1117.117 .0256136
1117.712 .0256409
1118.306 .0256691
1118.901 .0257005
1119.496 .0257368
1120.092 .0257767
1120.689 .0258198
1121.285 .0258646
1121.882 .0259063
1122.480 .0259467
1123.078 .0259845
1123.677 .0260210
1124.276 .0260570
1124.875 .0260956
1125.476 .0261364
1126.076 .0261856
1126.677 .0262410
1127.279 .0263056
1127.881 .0263771
1128.484 .0264534
1129.087 .0265338
1129.691 .0266168
1130.295 .0267009
1130.900 .0267852
1131.505 .0268678
1132.111 .0269555
1132.718 .0270476
1133.325 .0271491
1133.933 .0272553
1134.541 .0273685
1135.150 .0274886
1135.760 .0276081
1136.370 .0277226
1136.981 .0278339
1137.592 .0279377
1138.204 .0280393
1138.817 .0281359
1139.431 .0282342
1140.045 .0283366
1140.660 .0284316
1141.275 .0285251
1141.891 .0286124
1142.508 .0288330
1143.126 .0289375
1143.744 .0286332
1144.363 .0288566
1144.983 .0289717
