Measurement Sequence started on: 15-12-46-377
Integration time: 28
Scans to Average: 2 
>>>>>Begin Spectral Data<<<<<
432.689 .0000100
433.621 .0000100
434.552 .0000100
435.482 .0000100
436.410 .0000100
437.337 .0000100
438.262 .0282634
439.187 .0599220
440.110 .0992845
441.031 .1437112
441.952 .1868425
442.871 .2208060
443.789 .2394517
444.705 .2406283
445.621 .2269537
446.535 .2040446
447.447 .1780805
448.359 .1383555
449.269 .1186132
450.178 .1061226
451.086 .0972714
451.993 .0904901
452.898 .0850819
453.803 .0806185
454.706 .0768796
455.608 .0736320
456.508 .0708066
457.408 .0683196
458.306 .0661050
459.204 .0641169
460.100 .0623286
460.995 .0607192
461.888 .0592767
462.781 .0579681
463.673 .0567634
464.563 .0556701
465.452 .0546598
466.340 .0537196
467.228 .0528588
468.114 .0520643
468.999 .0513419
469.882 .0506806
470.765 .0500847
471.647 .0495459
472.528 .0490578
473.407 .0486233
474.286 .0482430
475.163 .0479135
476.040 .0476323
476.915 .0473918
477.790 .0471950
478.663 .0470350
479.535 .0469052
480.407 .0468028
481.277 .0467164
482.147 .0466437
483.015 .0465799
483.883 .0465218
484.749 .0464687
485.615 .0464266
486.479 .0463975
487.343 .0463833
488.206 .0463808
489.067 .0463814
489.928 .0463810
490.788 .0463776
491.647 .0463704
492.505 .0463595
493.362 .0463543
494.218 .0463618
495.073 .0463846
495.928 .0464445
496.781 .0465323
497.634 .0466605
498.486 .0468241
499.337 .0470232
500.187 .0472479
501.036 .0474919
501.884 .0477520
502.731 .0480354
503.578 .0483430
504.424 .0486838
505.268 .0490540
506.113 .0494597
506.956 .0498977
507.798 .0503797
508.640 .0509012
509.480 .0514767
510.320 .0521007
511.160 .0527903
511.998 .0535455
512.836 .0543886
513.672 .0553406
514.508 .0564134
515.344 .0576355
516.178 .0590500
517.012 .0606504
517.845 .0624882
518.677 .0645898
519.508 .0669644
520.339 .0696660
521.169 .0727367
521.998 .0761745
522.826 .0800360
523.654 .0843590
524.481 .0891900
525.307 .0946270
526.133 .1006689
526.958 .1072578
527.782 .1143194
528.605 .1216982
529.428 .1292048
530.250 .1363044
531.072 .1427910
531.892 .1482487
532.712 .1524350
533.532 .1551791
534.350 .1562736
535.168 .1557219
535.986 .1535947
536.802 .1499951
537.618 .1451268
538.434 .1391608
539.249 .1325370
540.063 .1253997
540.876 .1181264
541.689 .1109405
542.501 .1040699
543.313 .0977235
544.124 .0919878
544.934 .0868377
545.744 .0822541
546.553 .0781765
547.361 .0745815
548.169 .0714426
548.976 .0686726
549.783 .0662044
550.589 .0640094
551.395 .0620380
552.200 .0602649
553.004 .0586605
553.808 .0572116
554.611 .0558956
555.414 .0547205
556.216 .0536585
557.018 .0526939
557.819 .0518140
558.619 .0509933
559.419 .0502055
560.218 .0494310
561.017 .0486697
561.815 .0479107
562.613 .0471476
563.410 .0464003
564.207 .0456743
565.003 .0449727
565.799 .0442947
566.594 .0436468
567.388 .0430282
568.182 .0424371
568.976 .0418609
569.769 .0412986
570.562 .0407559
571.354 .0402319
572.145 .0397256
572.936 .0392412
573.727 .0387844
574.517 .0383507
575.307 .0379376
576.096 .0375437
576.885 .0371684
577.673 .0368120
578.461 .0364783
579.248 .0361650
580.035 .0358714
580.821 .0355988
581.607 .0353416
582.392 .0350977
583.177 .0348689
583.962 .0346524
584.746 .0344514
585.529 .0342653
586.313 .0340970
587.095 .0339449
587.878 .0338107
588.660 .0336933
589.441 .0335900
590.222 .0334978
591.003 .0334156
591.783 .0333393
592.563 .0332670
593.342 .0331996
594.121 .0331337
594.899 .0330724
595.678 .0330161
596.455 .0329635
597.233 .0329150
598.009 .0328681
598.786 .0328224
599.562 .0327774
600.338 .0327320
601.113 .0326857
601.888 .0326382
602.663 .0325911
603.437 .0325441
604.211 .0324974
604.984 .0324510
605.757 .0324050
606.530 .0323593
607.302 .0323141
608.074 .0322686
608.845 .0322229
609.616 .0321783
610.387 .0321357
611.158 .0320956
611.928 .0320577
612.697 .0320219
613.467 .0319885
614.236 .0319565
615.004 .0319261
615.773 .0318968
616.541 .0318692
617.308 .0318432
618.076 .0318190
618.843 .0317964
619.609 .0317759
620.375 .0317575
621.141 .0317405
621.907 .0317253
622.672 .0317106
623.437 .0316946
624.202 .0316782
624.966 .0316608
625.730 .0316424
626.493 .0316226
627.257 .0316020
628.020 .0315796
628.782 .0315561
629.545 .0315311
630.307 .0315043
631.068 .0314773
631.830 .0314503
632.591 .0314217
633.352 .0313927
634.112 .0313640
634.872 .0313348
635.632 .0313049
636.392 .0312755
637.151 .0312459
637.910 .0312161
638.668 .0311858
639.427 .0311554
640.185 .0311248
640.943 .0310950
641.700 .0310654
642.457 .0310353
643.214 .0310058
643.971 .0309752
644.727 .0309437
645.483 .0309124
646.239 .0308812
646.994 .0308500
647.750 .0308194
648.505 .0307908
649.259 .0307632
650.014 .0307362
650.768 .0307098
651.521 .0306842
652.275 .0306589
653.028 .0306341
653.781 .0306091
654.534 .0305849
655.286 .0305620
656.039 .0305396
656.791 .0305174
657.542 .0304960
658.294 .0304746
659.045 .0304525
659.796 .0304298
660.546 .0304064
661.297 .0303818
662.047 .0303572
662.796 .0303328
663.546 .0303096
664.295 .0302874
665.044 .0302663
665.793 .0302456
666.542 .0302253
667.290 .0302042
668.038 .0301818
668.786 .0301585
669.533 .0301344
670.281 .0301101
671.028 .0300858
671.774 .0300620
672.521 .0300397
673.267 .0300185
674.013 .0299983
674.759 .0299790
675.505 .0299603
676.250 .0299412
676.995 .0299220
677.740 .0299028
678.484 .0298836
679.229 .0298653
679.973 .0298483
680.717 .0298327
681.460 .0298189
682.204 .0298071
682.947 .0297966
683.690 .0297873
684.433 .0297795
685.175 .0297715
685.917 .0297632
686.659 .0297546
687.401 .0297448
688.142 .0297340
688.884 .0297224
689.625 .0297099
690.365 .0296964
691.106 .0296823
691.846 .0296672
692.586 .0296513
693.326 .0296353
694.066 .0296188
694.805 .0296017
695.545 .0295845
696.284 .0295669
697.022 .0295482
697.761 .0295292
698.499 .0295098
699.237 .0294903
699.975 .0294714
700.713 .0294528
701.450 .0294347
702.187 .0294170
702.924 .0294000
703.661 .0293832
704.397 .0293668
705.133 .0293511
705.869 .0293353
706.605 .0293196
707.341 .0293037
708.076 .0292878
708.811 .0292719
709.546 .0292562
710.281 .0292403
711.015 .0292246
711.749 .0292090
712.483 .0291933
713.217 .0291774
713.950 .0291613
714.684 .0291448
715.417 .0291276
716.150 .0291102
716.882 .0290923
717.615 .0290738
718.347 .0290553
719.079 .0290371
719.811 .0290193
720.542 .0290018
721.273 .0289849
722.005 .0289685
722.735 .0289522
723.466 .0289358
724.196 .0289184
724.927 .0288999
725.656 .0288801
726.386 .0288590
727.116 .0288370
727.845 .0288149
728.574 .0287927
729.303 .0287709
730.031 .0287500
730.760 .0287299
731.488 .0287101
732.216 .0286913
732.944 .0286734
733.671 .0286555
734.398 .0286384
735.125 .0286221
735.852 .0286066
736.579 .0285922
737.305 .0285791
738.031 .0285669
738.757 .0285557
739.483 .0285450
740.208 .0285341
740.933 .0285235
741.658 .0285125
742.383 .0285004
743.108 .0284872
743.832 .0284731
744.556 .0284576
745.280 .0284404
746.004 .0284224
746.727 .0284036
747.450 .0283847
748.173 .0283658
748.896 .0283468
749.618 .0283285
750.340 .0283112
751.062 .0282947
751.784 .0282790
752.506 .0282638
753.227 .0282489
753.948 .0282340
754.669 .0282187
755.389 .0282028
756.110 .0281861
756.830 .0281683
757.550 .0281496
758.269 .0281292
758.989 .0281075
759.708 .0280842
760.427 .0280598
761.146 .0280347
761.864 .0280090
762.582 .0279832
763.300 .0279578
764.018 .0279331
764.736 .0279094
765.453 .0278868
766.170 .0278654
766.887 .0278451
767.603 .0278261
768.320 .0278077
769.036 .0277905
769.751 .0277744
770.467 .0277596
771.182 .0277457
771.897 .0277329
772.612 .0277212
773.327 .0277106
774.041 .0277009
774.755 .0276912
775.469 .0276817
776.183 .0276723
776.896 .0276624
777.609 .0276521
778.322 .0276414
779.035 .0276309
779.747 .0276202
780.459 .0276101
781.171 .0276004
781.882 .0275918
782.594 .0275845
783.305 .0275785
784.016 .0275737
784.726 .0275698
785.436 .0275666
786.147 .0275638
786.856 .0275616
787.566 .0275597
788.275 .0275581
788.984 .0275571
789.693 .0275563
790.401 .0275562
791.110 .0275566
791.818 .0275575
792.525 .0275590
793.233 .0275606
793.940 .0275617
794.647 .0275618
795.353 .0275611
796.060 .0275589
796.766 .0275551
797.472 .0275496
798.177 .0275426
798.883 .0275340
799.588 .0275242
800.292 .0275139
800.997 .0275036
801.701 .0274938
802.405 .0274845
803.109 .0274758
803.812 .0274674
804.515 .0274595
805.218 .0274515
805.921 .0274433
806.623 .0274350
807.325 .0274263
808.027 .0274176
808.728 .0274091
809.429 .0274007
810.130 .0273925
810.831 .0273845
811.531 .0273766
812.231 .0273684
812.931 .0273594
813.630 .0273493
814.330 .0273384
815.029 .0273266
815.727 .0273142
816.426 .0273014
817.124 .0272888
817.821 .0272767
818.519 .0272653
819.216 .0272550
819.913 .0272455
820.609 .0272372
821.306 .0272303
822.002 .0272245
822.697 .0272201
823.393 .0272173
824.088 .0272157
824.783 .0272151
825.477 .0272157
826.171 .0272169
826.865 .0272189
827.559 .0272213
828.252 .0272239
828.945 .0272264
829.638 .0272290
830.330 .0272317
831.023 .0272345
831.714 .0272372
832.406 .0272402
833.097 .0272427
833.788 .0272447
834.479 .0272460
835.169 .0272467
835.859 .0272464
836.548 .0272451
837.238 .0272423
837.927 .0272379
838.615 .0272320
839.304 .0272253
839.992 .0272173
840.680 .0272089
841.367 .0271998
842.054 .0271901
842.741 .0271796
843.428 .0271691
844.114 .0271580
844.800 .0271472
845.485 .0271364
846.170 .0271259
846.855 .0271154
847.540 .0271053
848.224 .0270957
848.908 .0270863
849.592 .0270768
850.275 .0270669
850.958 .0270557
851.641 .0270442
852.323 .0270314
853.005 .0270179
853.687 .0270034
854.368 .0269879
855.049 .0269706
855.730 .0269518
856.410 .0269308
857.090 .0269079
857.769 .0268831
858.449 .0268568
859.128 .0268292
859.806 .0268014
860.485 .0267742
861.163 .0267476
861.840 .0267226
862.518 .0266988
863.195 .0266756
863.871 .0266532
864.548 .0266314
865.224 .0266098
865.899 .0265886
866.574 .0265684
867.249 .0265487
867.924 .0265300
868.598 .0265124
869.272 .0264956
869.946 .0264798
870.619 .0264643
871.292 .0264487
871.964 .0264326
872.636 .0264165
873.308 .0263997
873.979 .0263825
874.651 .0263651
875.321 .0263472
875.992 .0263290
876.662 .0263108
877.331 .0262927
878.001 .0262747
878.670 .0262572
879.338 .0262397
880.007 .0262225
880.675 .0262056
881.342 .0261888
882.009 .0261725
882.676 .0261567
883.343 .0261413
884.009 .0261261
884.675 .0261116
885.340 .0260979
886.005 .0260846
886.670 .0260723
887.334 .0260604
887.998 .0260491
888.662 .0260383
889.325 .0260278
889.988 .0260179
890.650 .0260089
891.312 .0260005
891.974 .0259929
892.636 .0259862
893.297 .0259802
893.957 .0259744
894.618 .0259688
895.278 .0259632
895.937 .0259573
896.596 .0259510
897.255 .0259442
897.914 .0259367
898.572 .0259286
899.230 .0259194
899.887 .0259093
900.544 .0258984
901.201 .0258866
901.857 .0258738
902.513 .0258602
903.168 .0258459
903.823 .0258303
904.478 .0258139
905.132 .0257964
905.786 .0257780
906.440 .0257585
907.093 .0257377
907.746 .0257159
908.399 .0256933
909.051 .0256705
909.703 .0256474
910.354 .0256243
911.005 .0256015
911.656 .0255785
912.306 .0255555
912.956 .0255324
913.605 .0255087
914.254 .0254850
914.903 .0254615
915.551 .0254379
916.199 .0254149
916.847 .0253931
917.494 .0253728
918.141 .0253545
918.788 .0253381
919.434 .0253239
920.079 .0253112
920.725 .0252996
921.370 .0252890
922.014 .0252782
922.658 .0252674
923.302 .0252560
923.946 .0252438
924.589 .0252308
925.231 .0252168
925.873 .0252022
926.515 .0251869
927.157 .0251713
927.798 .0251551
928.439 .0251381
929.079 .0251205
929.719 .0251019
930.359 .0250822
930.998 .0250618
931.637 .0250409
932.275 .0250202
932.913 .0249998
933.551 .0249800
934.188 .0249617
934.825 .0249447
935.462 .0249296
936.098 .0249162
936.733 .0249049
937.369 .0248958
938.004 .0248889
938.638 .0248832
939.273 .0248791
939.907 .0248762
940.540 .0248743
941.173 .0248729
941.806 .0248723
942.438 .0248725
943.070 .0248737
943.702 .0248762
944.333 .0248799
944.964 .0248846
945.594 .0248906
946.224 .0248968
946.854 .0249037
947.483 .0249099
948.112 .0249153
948.741 .0249196
949.369 .0249230
949.996 .0249252
950.624 .0249263
951.251 .0249271
951.878 .0249282
952.504 .0249293
953.130 .0249308
953.755 .0249322
954.380 .0249342
955.005 .0249359
955.629 .0249368
956.253 .0249369
956.877 .0249366
957.500 .0249354
958.123 .0249339
958.746 .0249320
959.368 .0249308
959.990 .0249300
960.611 .0249299
961.232 .0249309
961.853 .0249329
962.473 .0249363
963.093 .0249404
963.712 .0249451
964.331 .0249508
964.950 .0249563
965.569 .0249623
966.187 .0249689
966.804 .0249765
967.422 .0249852
968.039 .0249950
968.655 .0250059
969.272 .0250173
969.887 .0250286
970.503 .0250395
971.118 .0250494
971.733 .0250583
972.347 .0250654
972.961 .0250706
973.575 .0250741
974.188 .0250762
974.801 .0250764
975.414 .0250753
976.026 .0250731
976.638 .0250703
977.250 .0250666
977.861 .0250619
978.472 .0250566
979.083 .0250510
979.693 .0250448
980.303 .0250382
980.912 .0250310
981.521 .0250238
982.130 .0250167
982.738 .0250101
983.346 .0250045
983.954 .0250000
984.562 .0249969
985.169 .0249950
985.775 .0249939
986.382 .0249937
986.988 .0249936
987.594 .0249939
988.199 .0249942
988.804 .0249942
989.409 .0249940
990.013 .0249939
990.617 .0249942
991.221 .0249951
991.824 .0249967
992.427 .0249992
993.030 .0250025
993.632 .0250069
994.234 .0250120
994.836 .0250174
995.438 .0250228
996.039 .0250282
996.640 .0250328
997.240 .0250373
997.840 .0250415
998.440 .0250458
999.040 .0250507
999.639 .0250559
1000.238 .0250613
1000.836 .0250666
1001.435 .0250716
1002.033 .0250761
1002.630 .0250791
1003.228 .0250812
1003.825 .0250821
1004.422 .0250825
1005.018 .0250824
1005.614 .0250829
1006.210 .0250837
1006.806 .0250850
1007.401 .0250862
1007.996 .0250874
1008.591 .0250888
1009.186 .0250906
1009.780 .0250927
1010.374 .0250955
1010.967 .0250992
1011.561 .0251040
1012.154 .0251092
1012.746 .0251151
1013.339 .0251211
1013.931 .0251268
1014.523 .0251315
1015.115 .0251347
1015.706 .0251368
1016.298 .0251376
1016.888 .0251381
1017.479 .0251385
1018.069 .0251390
1018.660 .0251396
1019.250 .0251408
1019.839 .0251422
1020.429 .0251430
1021.018 .0251434
1021.607 .0251432
1022.195 .0251424
1022.784 .0251415
1023.372 .0251411
1023.960 .0251414
1024.547 .0251434
1025.135 .0251472
1025.722 .0251521
1026.309 .0251585
1026.896 .0251652
1027.483 .0251720
1028.069 .0251781
1028.655 .0251831
1029.241 .0251871
1029.827 .0251903
1030.412 .0251945
1030.997 .0251992
1031.582 .0252049
1032.167 .0252110
1032.752 .0252181
1033.336 .0252248
1033.921 .0252310
1034.505 .0252355
1035.089 .0252382
1035.672 .0252388
1036.256 .0252381
1036.839 .0252362
1037.422 .0252344
1038.005 .0252330
1038.588 .0252330
1039.171 .0252329
1039.753 .0252332
1040.335 .0252322
1040.918 .0252308
1041.500 .0252273
1042.081 .0252229
1042.663 .0252162
1043.244 .0252092
1043.826 .0252019
1044.407 .0251949
1044.988 .0251889
1045.569 .0251836
1046.150 .0251785
1046.730 .0251732
1047.311 .0251662
1047.891 .0251583
1048.471 .0251476
1049.052 .0251359
1049.632 .0251231
1050.211 .0251100
1050.791 .0250970
1051.371 .0250853
1051.950 .0250756
1052.530 .0250679
1053.109 .0250605
1053.688 .0250531
1054.268 .0250449
1054.847 .0250353
1055.426 .0250236
1056.005 .0250102
1056.583 .0249969
1057.162 .0249837
1057.741 .0249707
1058.319 .0249599
1058.898 .0249499
1059.476 .0249409
1060.055 .0249315
1060.633 .0249206
1061.211 .0249078
1061.790 .0248927
1062.368 .0248758
1062.946 .0248578
1063.524 .0248396
1064.102 .0248216
1064.680 .0248050
1065.258 .0247914
1065.836 .0247792
1066.414 .0247680
1066.992 .0247590
1067.570 .0247512
1068.148 .0247442
1068.726 .0247381
1069.304 .0247331
1069.882 .0247307
1070.460 .0247300
1071.038 .0247302
1071.616 .0247319
1072.194 .0247345
1072.772 .0247367
1073.350 .0247374
1073.928 .0247373
1074.506 .0247360
1075.084 .0247331
1075.662 .0247291
1076.240 .0247237
1076.819 .0247168
1077.397 .0247083
1077.976 .0246983
1078.554 .0246865
1079.133 .0246728
1079.711 .0246570
1080.290 .0246399
1080.869 .0246219
1081.448 .0246033
1082.027 .0245839
1082.606 .0245653
1083.185 .0245475
1083.764 .0245324
1084.343 .0245172
1084.923 .0245049
1085.502 .0244953
1086.082 .0244886
1086.662 .0244853
1087.242 .0244855
1087.822 .0244877
1088.402 .0244924
1088.983 .0244979
1089.563 .0245031
1090.144 .0245059
1090.725 .0245087
1091.306 .0245087
1091.887 .0245076
1092.469 .0245056
1093.050 .0245053
1093.632 .0245051
1094.214 .0245088
1094.796 .0245141
1095.379 .0245217
1095.961 .0245306
1096.544 .0245400
1097.127 .0245485
1097.710 .0245559
1098.294 .0245612
1098.877 .0245635
1099.461 .0245637
1100.046 .0245640
1100.630 .0245617
1101.215 .0245601
1101.800 .0245596
1102.385 .0245626
1102.970 .0245690
1103.556 .0245803
1104.142 .0245957
1104.728 .0246139
1105.315 .0246344
1105.902 .0246525
1106.489 .0246672
1107.077 .0246786
1107.664 .0246868
1108.253 .0246933
1108.841 .0247020
1109.430 .0247145
1110.019 .0247321
1110.609 .0247583
1111.198 .0247915
1111.789 .0248301
1112.379 .0248716
1112.970 .0249119
1113.561 .0249501
1114.153 .0249854
1114.745 .0250196
1115.338 .0250527
1115.931 .0250909
1116.524 .0251347
1117.117 .0251833
1117.712 .0252383
1118.306 .0252976
1118.901 .0253603
1119.496 .0254224
1120.092 .0254792
1120.689 .0255296
1121.285 .0255727
1121.882 .0256097
1122.480 .0256405
1123.078 .0256719
1123.677 .0257031
1124.276 .0257358
1124.875 .0257725
1125.476 .0258126
1126.076 .0258562
1126.677 .0259021
1127.279 .0259492
1127.881 .0259980
1128.484 .0260467
1129.087 .0260981
1129.691 .0261526
1130.295 .0262182
1130.900 .0262927
1131.505 .0263777
1132.111 .0264727
1132.718 .0265773
1133.325 .0266822
1133.933 .0267853
1134.541 .0268860
1135.150 .0269787
1135.760 .0270618
1136.370 .0271348
1136.981 .0272031
1137.592 .0272685
1138.204 .0273319
1138.817 .0273900
1139.431 .0274443
1140.045 .0274973
1140.660 .0275491
1141.275 .0275806
1141.891 .0276027
1142.508 .0276409
1143.126 .0276812
1143.744 .0278596
1144.363 .0274672
1144.983 .0274399
