Measurement Sequence started on: 15-12-46-377
Integration time: 28
Scans to Average: 2 
>>>>>Begin Spectral Data<<<<<
432.689 .0000100
433.621 .0000100
434.552 .0000100
435.482 .0000100
436.410 .0000100
437.337 .0000100
438.262 .0276168
439.187 .0585213
440.110 .0970124
441.031 .1403879
441.952 .1825054
442.871 .2156473
443.789 .2337983
444.705 .2348744
445.621 .2213919
446.535 .1988882
447.447 .1733948
448.359 .1344873
449.269 .1151709
450.178 .1029386
451.086 .0943854
451.993 .0878805
452.898 .0827602
453.803 .0785697
454.706 .0750694
455.608 .0720538
456.508 .0694071
457.408 .0670767
458.306 .0649975
459.204 .0631483
460.100 .0615176
460.995 .0600788
461.888 .0588085
462.781 .0576710
463.673 .0566229
464.563 .0556513
465.452 .0547248
466.340 .0538292
467.228 .0529847
468.114 .0521824
468.999 .0514514
469.882 .0507890
470.765 .0502039
471.647 .0496898
472.528 .0492338
473.407 .0488329
474.286 .0484740
475.163 .0481410
476.040 .0478325
476.915 .0475426
477.790 .0472838
478.663 .0470526
479.535 .0468586
480.407 .0467140
481.277 .0466099
482.147 .0465496
483.015 .0465244
483.883 .0465223
484.749 .0465410
485.615 .0465713
486.479 .0466123
487.343 .0466625
488.206 .0467261
489.067 .0467960
489.928 .0468688
490.788 .0469578
491.647 .0470610
492.505 .0471783
493.362 .0473140
494.218 .0474621
495.073 .0476177
495.928 .0477921
496.781 .0479733
497.634 .0481711
498.486 .0483903
499.337 .0486262
500.187 .0488797
501.036 .0491528
501.884 .0494494
502.731 .0497643
503.578 .0501061
504.424 .0504815
505.268 .0508688
506.113 .0512857
506.956 .0517323
507.798 .0522216
508.640 .0527642
509.480 .0533726
510.320 .0540535
511.160 .0548328
511.998 .0557085
512.836 .0566716
513.672 .0577456
514.508 .0589328
515.344 .0602400
516.178 .0616991
517.012 .0633373
517.845 .0652135
518.677 .0673679
519.508 .0698453
520.339 .0726749
521.169 .0759132
521.998 .0795669
522.826 .0836793
523.654 .0882537
524.481 .0932622
525.307 .0987258
526.133 .1046597
526.958 .1110309
527.782 .1177712
528.605 .1247766
529.428 .1319231
530.250 .1387424
531.072 .1449723
531.892 .1502443
532.712 .1542713
533.532 .1568309
534.350 .1576481
535.168 .1566773
535.986 .1540207
536.802 .1498581
537.618 .1444387
538.434 .1380771
539.249 .1311976
540.063 .1240555
540.876 .1169435
541.689 .1101017
542.501 .1037208
543.313 .0979191
544.124 .0926831
544.934 .0879686
545.744 .0837007
546.553 .0798286
547.361 .0762948
548.169 .0731431
548.976 .0702822
549.783 .0676991
550.589 .0653916
551.395 .0633059
552.200 .0614477
553.004 .0597658
553.808 .0582097
554.611 .0567923
555.414 .0554844
556.216 .0542644
557.018 .0531349
557.819 .0521053
558.619 .0511482
559.419 .0502642
560.218 .0494434
561.017 .0486735
561.815 .0479342
562.613 .0472247
563.410 .0465265
564.207 .0458451
565.003 .0451864
565.799 .0445449
566.594 .0439260
567.388 .0433468
568.182 .0427946
568.976 .0422633
569.769 .0417484
570.562 .0412546
571.354 .0407725
572.145 .0403081
572.936 .0398513
573.727 .0394104
574.517 .0389866
575.307 .0385798
576.096 .0381872
576.885 .0378099
577.673 .0374475
578.461 .0370982
579.248 .0367560
580.035 .0364269
580.821 .0361087
581.607 .0358062
582.392 .0355194
583.177 .0352515
583.962 .0350045
584.746 .0347809
585.529 .0345778
586.313 .0343981
587.095 .0342370
587.878 .0340931
588.660 .0339633
589.441 .0338472
590.222 .0337441
591.003 .0336541
591.783 .0335745
592.563 .0335044
593.342 .0334427
594.121 .0333872
594.899 .0333366
595.678 .0332900
596.455 .0332462
597.233 .0332028
598.009 .0331590
598.786 .0331162
599.562 .0330725
600.338 .0330295
601.113 .0329875
601.888 .0329469
602.663 .0329070
603.437 .0328682
604.211 .0328299
604.984 .0327927
605.757 .0327565
606.530 .0327202
607.302 .0326824
608.074 .0326450
608.845 .0326069
609.616 .0325692
610.387 .0325333
611.158 .0324996
611.928 .0324681
612.697 .0324395
613.467 .0324130
614.236 .0323884
615.004 .0323651
615.773 .0323422
616.541 .0323185
617.308 .0322942
618.076 .0322687
618.843 .0322424
619.609 .0322173
620.375 .0321946
621.141 .0321732
621.907 .0321539
622.672 .0321362
623.437 .0321184
624.202 .0320997
624.966 .0320793
625.730 .0320572
626.493 .0320332
627.257 .0320086
628.020 .0319830
628.782 .0319583
629.545 .0319348
630.307 .0319121
631.068 .0318893
631.830 .0318666
632.591 .0318410
633.352 .0318123
634.112 .0317801
634.872 .0317459
635.632 .0317095
636.392 .0316724
637.151 .0316350
637.910 .0315990
638.668 .0315641
639.427 .0315305
640.185 .0314967
640.943 .0314640
641.700 .0314308
642.457 .0313982
643.214 .0313657
643.971 .0313346
644.727 .0313052
645.483 .0312787
646.239 .0312542
646.994 .0312317
647.750 .0312108
648.505 .0311914
649.259 .0311732
650.014 .0311563
650.768 .0311386
651.521 .0311213
652.275 .0311040
653.028 .0310867
653.781 .0310668
654.534 .0310458
655.286 .0310227
656.039 .0309976
656.791 .0309706
657.542 .0309422
658.294 .0309128
659.045 .0308841
659.796 .0308564
660.546 .0308290
661.297 .0308022
662.047 .0307757
662.796 .0307483
663.546 .0307209
664.295 .0306928
665.044 .0306636
665.793 .0306337
666.542 .0306050
667.290 .0305771
668.038 .0305498
668.786 .0305239
669.533 .0304996
670.281 .0304761
671.028 .0304533
671.774 .0304306
672.521 .0304090
673.267 .0303890
674.013 .0303701
674.759 .0303522
675.505 .0303359
676.250 .0303210
676.995 .0303065
677.740 .0302922
678.484 .0302783
679.229 .0302641
679.973 .0302496
680.717 .0302351
681.460 .0302204
682.204 .0302054
682.947 .0301900
683.690 .0301741
684.433 .0301572
685.175 .0301387
685.917 .0301180
686.659 .0300958
687.401 .0300725
688.142 .0300482
688.884 .0300235
689.625 .0299989
690.365 .0299752
691.106 .0299522
691.846 .0299301
692.586 .0299085
693.326 .0298870
694.066 .0298659
694.805 .0298439
695.545 .0298212
696.284 .0297978
697.022 .0297740
697.761 .0297500
698.499 .0297262
699.237 .0297033
699.975 .0296813
700.713 .0296612
701.450 .0296430
702.187 .0296263
702.924 .0296114
703.661 .0295972
704.397 .0295837
705.133 .0295704
705.869 .0295574
706.605 .0295440
707.341 .0295305
708.076 .0295178
708.811 .0295053
709.546 .0294933
710.281 .0294820
711.015 .0294710
711.749 .0294597
712.483 .0294476
713.217 .0294340
713.950 .0294187
714.684 .0294017
715.417 .0293824
716.150 .0293614
716.882 .0293393
717.615 .0293167
718.347 .0292940
719.079 .0292719
719.811 .0292516
720.542 .0292326
721.273 .0292153
722.005 .0291992
722.735 .0291842
723.466 .0291699
724.196 .0291552
724.927 .0291400
725.656 .0291236
726.386 .0291061
727.116 .0290873
727.845 .0290676
728.574 .0290473
729.303 .0290263
730.031 .0290050
730.760 .0289838
731.488 .0289628
732.216 .0289421
732.944 .0289216
733.671 .0289021
734.398 .0288832
735.125 .0288651
735.852 .0288480
736.579 .0288322
737.305 .0288181
738.031 .0288058
738.757 .0287947
739.483 .0287851
740.208 .0287767
740.933 .0287694
741.658 .0287627
742.383 .0287563
743.108 .0287496
743.832 .0287424
744.556 .0287343
745.280 .0287253
746.004 .0287149
746.727 .0287036
747.450 .0286912
748.173 .0286777
748.896 .0286635
749.618 .0286485
750.340 .0286331
751.062 .0286175
751.784 .0286018
752.506 .0285860
753.227 .0285701
753.948 .0285547
754.669 .0285399
755.389 .0285263
756.110 .0285134
756.830 .0285012
757.550 .0284896
758.269 .0284777
758.989 .0284649
759.708 .0284506
760.427 .0284348
761.146 .0284170
761.864 .0283976
762.582 .0283767
763.300 .0283553
764.018 .0283343
764.736 .0283141
765.453 .0282952
766.170 .0282776
766.887 .0282612
767.603 .0282450
768.320 .0282290
769.036 .0282128
769.751 .0281957
770.467 .0281784
771.182 .0281611
771.897 .0281446
772.612 .0281289
773.327 .0281149
774.041 .0281027
774.755 .0280919
775.469 .0280826
776.183 .0280735
776.896 .0280645
777.609 .0280551
778.322 .0280447
779.035 .0280335
779.747 .0280219
780.459 .0280105
781.171 .0279996
781.882 .0279903
782.594 .0279829
783.305 .0279775
784.016 .0279739
784.726 .0279717
785.436 .0279702
786.147 .0279684
786.856 .0279661
787.566 .0279630
788.275 .0279591
788.984 .0279548
789.693 .0279504
790.401 .0279463
791.110 .0279421
791.818 .0279378
792.525 .0279327
793.233 .0279262
793.940 .0279175
794.647 .0279066
795.353 .0278932
796.060 .0278778
796.766 .0278611
797.472 .0278434
798.177 .0278257
798.883 .0278080
799.588 .0277905
800.292 .0277734
800.997 .0277565
801.701 .0277396
802.405 .0277223
803.109 .0277053
803.812 .0276884
804.515 .0276715
805.218 .0276549
805.921 .0276383
806.623 .0276220
807.325 .0276060
808.027 .0275899
808.728 .0275733
809.429 .0275565
810.130 .0275392
810.831 .0275211
811.531 .0275022
812.231 .0274824
812.931 .0274615
813.630 .0274396
814.330 .0274165
815.029 .0273927
815.727 .0273685
816.426 .0273449
817.124 .0273223
817.821 .0273011
818.519 .0272813
819.216 .0272635
819.913 .0272474
820.609 .0272329
821.306 .0272200
822.002 .0272084
822.697 .0271981
823.393 .0271893
824.088 .0271817
824.783 .0271753
825.477 .0271702
826.171 .0271663
826.865 .0271632
827.559 .0271610
828.252 .0271594
828.945 .0271582
829.638 .0271573
830.330 .0271564
831.023 .0271551
831.714 .0271530
832.406 .0271499
833.097 .0271455
833.788 .0271399
834.479 .0271335
835.169 .0271266
835.859 .0271204
836.548 .0271150
837.238 .0271103
837.927 .0271065
838.615 .0271032
839.304 .0271000
839.992 .0270963
840.680 .0270921
841.367 .0270869
842.054 .0270814
842.741 .0270756
843.428 .0270703
844.114 .0270660
844.800 .0270630
845.485 .0270609
846.170 .0270590
846.855 .0270565
847.540 .0270525
848.224 .0270472
848.908 .0270403
849.592 .0270321
850.275 .0270227
850.958 .0270123
851.641 .0270017
852.323 .0269906
853.005 .0269792
853.687 .0269670
854.368 .0269541
855.049 .0269397
855.730 .0269242
856.410 .0269077
857.090 .0268903
857.769 .0268726
858.449 .0268549
859.128 .0268372
859.806 .0268195
860.485 .0268020
861.163 .0267847
861.840 .0267677
862.518 .0267512
863.195 .0267345
863.871 .0267183
864.548 .0267028
865.224 .0266881
865.899 .0266741
866.574 .0266612
867.249 .0266492
867.924 .0266381
868.598 .0266281
869.272 .0266192
869.946 .0266115
870.619 .0266051
871.292 .0265997
871.964 .0265949
872.636 .0265907
873.308 .0265868
873.979 .0265830
874.651 .0265793
875.321 .0265752
875.992 .0265712
876.662 .0265672
877.331 .0265636
878.001 .0265605
878.670 .0265583
879.338 .0265567
880.007 .0265559
880.675 .0265555
881.342 .0265554
882.009 .0265551
882.676 .0265546
883.343 .0265535
884.009 .0265518
884.675 .0265495
885.340 .0265463
886.005 .0265428
886.670 .0265399
887.334 .0265370
887.998 .0265348
888.662 .0265333
889.325 .0265321
889.988 .0265308
890.650 .0265296
891.312 .0265283
891.974 .0265271
892.636 .0265261
893.297 .0265253
893.957 .0265244
894.618 .0265242
895.278 .0265242
895.937 .0265244
896.596 .0265250
897.255 .0265255
897.914 .0265251
898.572 .0265235
899.230 .0265208
899.887 .0265169
900.544 .0265117
901.201 .0265055
901.857 .0264980
902.513 .0264892
903.168 .0264792
903.823 .0264676
904.478 .0264546
905.132 .0264403
905.786 .0264245
906.440 .0264077
907.093 .0263901
907.746 .0263718
908.399 .0263537
909.051 .0263358
909.703 .0263180
910.354 .0262996
911.005 .0262805
911.656 .0262604
912.306 .0262389
912.956 .0262164
913.605 .0261924
914.254 .0261679
914.903 .0261435
915.551 .0261194
916.199 .0260966
916.847 .0260753
917.494 .0260556
918.141 .0260373
918.788 .0260201
919.434 .0260037
920.079 .0259869
920.725 .0259702
921.370 .0259534
922.014 .0259367
922.658 .0259201
923.302 .0259036
923.946 .0258877
924.589 .0258725
925.231 .0258569
925.873 .0258407
926.515 .0258232
927.157 .0258043
927.798 .0257836
928.439 .0257607
929.079 .0257360
929.719 .0257097
930.359 .0256822
930.998 .0256542
931.637 .0256259
932.275 .0255978
932.913 .0255701
933.551 .0255429
934.188 .0255165
934.825 .0254904
935.462 .0254649
936.098 .0254402
936.733 .0254171
937.369 .0253952
938.004 .0253745
938.638 .0253553
939.273 .0253374
939.907 .0253211
940.540 .0253061
941.173 .0252921
941.806 .0252792
942.438 .0252674
943.070 .0252567
943.702 .0252465
944.333 .0252371
944.964 .0252282
945.594 .0252198
946.224 .0252117
946.854 .0252037
947.483 .0251958
948.112 .0251884
948.741 .0251812
949.369 .0251740
949.996 .0251668
950.624 .0251591
951.251 .0251514
951.878 .0251431
952.504 .0251345
953.130 .0251256
953.755 .0251165
954.380 .0251072
955.005 .0250976
955.629 .0250878
956.253 .0250773
956.877 .0250660
957.500 .0250546
958.123 .0250422
958.746 .0250293
959.368 .0250160
959.990 .0250025
960.611 .0249894
961.232 .0249768
961.853 .0249645
962.473 .0249533
963.093 .0249423
963.712 .0249316
964.331 .0249206
964.950 .0249093
965.569 .0248978
966.187 .0248858
966.804 .0248742
967.422 .0248629
968.039 .0248521
968.655 .0248420
969.272 .0248325
969.887 .0248239
970.503 .0248155
971.118 .0248077
971.733 .0247999
972.347 .0247924
972.961 .0247846
973.575 .0247767
974.188 .0247683
974.801 .0247594
975.414 .0247496
976.026 .0247391
976.638 .0247279
977.250 .0247164
977.861 .0247052
978.472 .0246945
979.083 .0246846
979.693 .0246747
980.303 .0246645
980.912 .0246539
981.521 .0246424
982.130 .0246299
982.738 .0246164
983.346 .0246023
983.954 .0245884
984.562 .0245752
985.169 .0245627
985.775 .0245514
986.382 .0245419
986.988 .0245333
987.594 .0245254
988.199 .0245178
988.804 .0245103
989.409 .0245027
990.013 .0244952
990.617 .0244878
991.221 .0244807
991.824 .0244741
992.427 .0244686
993.030 .0244645
993.632 .0244618
994.234 .0244605
994.836 .0244605
995.438 .0244617
996.039 .0244639
996.640 .0244661
997.240 .0244685
997.840 .0244712
998.440 .0244746
999.040 .0244777
999.639 .0244811
1000.238 .0244848
1000.836 .0244888
1001.435 .0244930
1002.033 .0244973
1002.630 .0245012
1003.228 .0245052
1003.825 .0245089
1004.422 .0245120
1005.018 .0245152
1005.614 .0245190
1006.210 .0245234
1006.806 .0245289
1007.401 .0245350
1007.996 .0245413
1008.591 .0245482
1009.186 .0245557
1009.780 .0245629
1010.374 .0245702
1010.967 .0245778
1011.561 .0245849
1012.154 .0245918
1012.746 .0245982
1013.339 .0246037
1013.931 .0246088
1014.523 .0246141
1015.115 .0246183
1015.706 .0246222
1016.298 .0246261
1016.888 .0246299
1017.479 .0246337
1018.069 .0246378
1018.660 .0246408
1019.250 .0246442
1019.839 .0246476
1020.429 .0246512
1021.018 .0246547
1021.607 .0246597
1022.195 .0246665
1022.784 .0246747
1023.372 .0246847
1023.960 .0246965
1024.547 .0247103
1025.135 .0247261
1025.722 .0247427
1026.309 .0247597
1026.896 .0247772
1027.483 .0247947
1028.069 .0248112
1028.655 .0248268
1029.241 .0248408
1029.827 .0248541
1030.412 .0248670
1030.997 .0248799
1031.582 .0248934
1032.167 .0249070
1032.752 .0249217
1033.336 .0249363
1033.921 .0249504
1034.505 .0249633
1035.089 .0249745
1035.672 .0249842
1036.256 .0249920
1036.839 .0249986
1037.422 .0250044
1038.005 .0250113
1038.588 .0250202
1039.171 .0250312
1039.753 .0250432
1040.335 .0250563
1040.918 .0250694
1041.500 .0250815
1042.081 .0250928
1042.663 .0251016
1043.244 .0251098
1043.826 .0251175
1044.407 .0251242
1044.988 .0251313
1045.569 .0251389
1046.150 .0251474
1046.730 .0251549
1047.311 .0251623
1047.891 .0251684
1048.471 .0251728
1049.052 .0251760
1049.632 .0251779
1050.211 .0251796
1050.791 .0251810
1051.371 .0251823
1051.950 .0251836
1052.530 .0251860
1053.109 .0251894
1053.688 .0251926
1054.268 .0251966
1054.847 .0252007
1055.426 .0252053
1056.005 .0252091
1056.583 .0252136
1057.162 .0252178
1057.741 .0252218
1058.319 .0252257
1058.898 .0252293
1059.476 .0252332
1060.055 .0252373
1060.633 .0252427
1061.211 .0252486
1061.790 .0252556
1062.368 .0252633
1062.946 .0252698
1063.524 .0252754
1064.102 .0252782
1064.680 .0252782
1065.258 .0252754
1065.836 .0252717
1066.414 .0252670
1066.992 .0252638
1067.570 .0252638
1068.148 .0252671
1068.726 .0252739
1069.304 .0252836
1069.882 .0252946
1070.460 .0253056
1071.038 .0253158
1071.616 .0253234
1072.194 .0253292
1072.772 .0253342
1073.350 .0253396
1073.928 .0253474
1074.506 .0253576
1075.084 .0253707
1075.662 .0253855
1076.240 .0254033
1076.819 .0254205
1077.397 .0254369
1077.976 .0254515
1078.554 .0254626
1079.133 .0254707
1079.711 .0254746
1080.290 .0254762
1080.869 .0254763
1081.448 .0254752
1082.027 .0254731
1082.606 .0254693
1083.185 .0254661
1083.764 .0254621
1084.343 .0254584
1084.923 .0254542
1085.502 .0254508
1086.082 .0254463
1086.662 .0254418
1087.242 .0254370
1087.822 .0254327
1088.402 .0254296
1088.983 .0254293
1089.563 .0254308
1090.144 .0254339
1090.725 .0254391
1091.306 .0254465
1091.887 .0254551
1092.469 .0254675
1093.050 .0254811
1093.632 .0254968
1094.214 .0255151
1094.796 .0255347
1095.379 .0255543
1095.961 .0255746
1096.544 .0255953
1097.127 .0256152
1097.710 .0256339
1098.294 .0256546
1098.877 .0256759
1099.461 .0257005
1100.046 .0257291
1100.630 .0257603
1101.215 .0257933
1101.800 .0258254
1102.385 .0258531
1102.970 .0258748
1103.556 .0258899
1104.142 .0258972
1104.728 .0258991
1105.315 .0258985
1105.902 .0258995
1106.489 .0259030
1107.077 .0259094
1107.664 .0259217
1108.253 .0259344
1108.841 .0259455
1109.430 .0259514
1110.019 .0259502
1110.609 .0259425
1111.198 .0259292
1111.789 .0259145
1112.379 .0259027
1112.970 .0258959
1113.561 .0258982
1114.153 .0259090
1114.745 .0259263
1115.338 .0259480
1115.931 .0259688
1116.524 .0259859
1117.117 .0259996
1117.712 .0260069
1118.306 .0260122
1118.901 .0260179
1119.496 .0260276
1120.092 .0260441
1120.689 .0260693
1121.285 .0261042
1121.882 .0261460
1122.480 .0261898
1123.078 .0262367
1123.677 .0262824
1124.276 .0263252
1124.875 .0263682
1125.476 .0264093
1126.076 .0264558
1126.677 .0265074
1127.279 .0265632
1127.881 .0266265
1128.484 .0266912
1129.087 .0267607
1129.691 .0268323
1130.295 .0269034
1130.900 .0269777
1131.505 .0270551
1132.111 .0271401
1132.718 .0272310
1133.325 .0273288
1133.933 .0274352
1134.541 .0275493
1135.150 .0276709
1135.760 .0277986
1136.370 .0279269
1136.981 .0280610
1137.592 .0281957
1138.204 .0283346
1138.817 .0284747
1139.431 .0286184
1140.045 .0287609
1140.660 .0289076
1141.275 .0290554
1141.891 .0292078
1142.508 .0294031
1143.126 .0294148
1143.744 .0296715
1144.363 .0298399
1144.983 .0300562
