Measurement Sequence started on: 15-12-46-377
Integration time: 28
Scans to Average: 2 
>>>>>Begin Spectral Data<<<<<
432.689 .0000100
433.621 .0000100
434.552 .0000100
435.482 .0000100
436.410 .0000100
437.337 .0000100
438.262 .0285604
439.187 .0603756
440.110 .0999172
441.031 .1445242
441.952 .1878110
442.871 .2218194
443.789 .2403874
444.705 .2413995
445.621 .2275051
446.535 .2043724
447.447 .1781922
448.359 .1381065
449.269 .1182882
450.178 .1056976
451.086 .0967359
451.993 .0898683
452.898 .0844484
453.803 .0800214
454.706 .0763700
455.608 .0732502
456.508 .0705628
457.408 .0682219
458.306 .0661465
459.204 .0642793
460.100 .0625926
460.995 .0610804
461.888 .0597322
462.781 .0585305
463.673 .0574472
464.563 .0564727
465.452 .0555801
466.340 .0547467
467.228 .0539717
468.114 .0532405
468.999 .0525639
469.882 .0519309
470.765 .0513526
471.647 .0508279
472.528 .0503518
473.407 .0499207
474.286 .0495265
475.163 .0491689
476.040 .0488391
476.915 .0485366
477.790 .0482644
478.663 .0480265
479.535 .0478169
480.407 .0476444
481.277 .0475062
482.147 .0473977
483.015 .0473098
483.883 .0472354
484.749 .0471680
485.615 .0471076
486.479 .0470411
487.343 .0469792
488.206 .0469191
489.067 .0468669
489.928 .0468189
490.788 .0467866
491.647 .0467745
492.505 .0467834
493.362 .0468165
494.218 .0468821
495.073 .0469703
495.928 .0470876
496.781 .0472306
497.634 .0474091
498.486 .0476241
499.337 .0478817
500.187 .0481751
501.036 .0485164
501.884 .0489008
502.731 .0493280
503.578 .0497964
504.424 .0503034
505.268 .0508339
506.113 .0513824
506.956 .0519498
507.798 .0525401
508.640 .0531555
509.480 .0538198
510.320 .0545497
511.160 .0553659
511.998 .0562844
512.836 .0573115
513.672 .0584527
514.508 .0597325
515.344 .0611457
516.178 .0627244
517.012 .0645065
517.845 .0665177
518.677 .0688156
519.508 .0714319
520.339 .0743802
521.169 .0777265
521.998 .0814834
522.826 .0857200
523.654 .0904283
524.481 .0956399
525.307 .1013690
526.133 .1076035
526.958 .1143238
527.782 .1214193
528.605 .1286931
529.428 .1360307
530.250 .1428757
531.072 .1489755
531.892 .1539660
532.712 .1576343
533.532 .1598145
534.350 .1604217
535.168 .1593083
535.986 .1566489
536.802 .1525696
537.618 .1473347
538.434 .1410864
539.249 .1342655
540.063 .1270447
540.876 .1197180
541.689 .1125570
542.501 .1058074
543.313 .0996141
544.124 .0941637
544.934 .0893107
545.744 .0850211
546.553 .0811963
547.361 .0777945
548.169 .0747478
548.976 .0720023
549.783 .0695042
550.589 .0672076
551.395 .0650777
552.200 .0631274
553.004 .0613316
553.808 .0596671
554.611 .0581434
555.414 .0567456
556.216 .0554481
557.018 .0542637
557.819 .0531675
558.619 .0521539
559.419 .0512176
560.218 .0503516
561.017 .0495267
561.815 .0487384
562.613 .0479827
563.410 .0472427
564.207 .0465267
565.003 .0458401
565.799 .0451671
566.594 .0445153
567.388 .0438963
568.182 .0433046
568.976 .0427410
569.769 .0422151
570.562 .0417183
571.354 .0412468
572.145 .0408025
572.936 .0403712
573.727 .0399479
574.517 .0395341
575.307 .0391268
576.096 .0387324
576.885 .0383527
577.673 .0379920
578.461 .0376539
579.248 .0373369
580.035 .0370412
580.821 .0367603
581.607 .0364930
582.392 .0362387
583.177 .0359951
583.962 .0357624
584.746 .0355411
585.529 .0353335
586.313 .0351419
587.095 .0349664
587.878 .0348060
588.660 .0346603
589.441 .0345254
590.222 .0343995
591.003 .0342822
591.783 .0341709
592.563 .0340654
593.342 .0339658
594.121 .0338720
594.899 .0337840
595.678 .0337025
596.455 .0336262
597.233 .0335546
598.009 .0334861
598.786 .0334207
599.562 .0333573
600.338 .0332960
601.113 .0332380
601.888 .0331834
602.663 .0331323
603.437 .0330849
604.211 .0330400
604.984 .0329991
605.757 .0329606
606.530 .0329243
607.302 .0328906
608.074 .0328582
608.845 .0328271
609.616 .0327973
610.387 .0327682
611.158 .0327403
611.928 .0327129
612.697 .0326862
613.467 .0326606
614.236 .0326359
615.004 .0326117
615.773 .0325876
616.541 .0325646
617.308 .0325426
618.076 .0325208
618.843 .0324998
619.609 .0324798
620.375 .0324602
621.141 .0324409
621.907 .0324215
622.672 .0324014
623.437 .0323808
624.202 .0323591
624.966 .0323358
625.730 .0323107
626.493 .0322837
627.257 .0322556
628.020 .0322260
628.782 .0321964
629.545 .0321664
630.307 .0321361
631.068 .0321063
631.830 .0320768
632.591 .0320464
633.352 .0320157
634.112 .0319844
634.872 .0319516
635.632 .0319179
636.392 .0318830
637.151 .0318474
637.910 .0318116
638.668 .0317767
639.427 .0317419
640.185 .0317074
640.943 .0316744
641.700 .0316421
642.457 .0316100
643.214 .0315796
643.971 .0315496
644.727 .0315206
645.483 .0314929
646.239 .0314665
646.994 .0314411
647.750 .0314180
648.505 .0313964
649.259 .0313764
650.014 .0313582
650.768 .0313412
651.521 .0313239
652.275 .0313071
653.028 .0312894
653.781 .0312701
654.534 .0312488
655.286 .0312258
656.039 .0312009
656.791 .0311749
657.542 .0311476
658.294 .0311197
659.045 .0310924
659.796 .0310654
660.546 .0310383
661.297 .0310110
662.047 .0309834
662.796 .0309553
663.546 .0309262
664.295 .0308965
665.044 .0308665
665.793 .0308372
666.542 .0308089
667.290 .0307820
668.038 .0307566
668.786 .0307324
669.533 .0307091
670.281 .0306862
671.028 .0306634
671.774 .0306402
672.521 .0306176
673.267 .0305960
674.013 .0305762
674.759 .0305583
675.505 .0305422
676.250 .0305284
676.995 .0305163
677.740 .0305048
678.484 .0304926
679.229 .0304795
679.973 .0304652
680.717 .0304501
681.460 .0304337
682.204 .0304163
682.947 .0303987
683.690 .0303816
684.433 .0303641
685.175 .0303465
685.917 .0303288
686.659 .0303111
687.401 .0302929
688.142 .0302747
688.884 .0302561
689.625 .0302385
690.365 .0302217
691.106 .0302056
691.846 .0301902
692.586 .0301760
693.326 .0301621
694.066 .0301486
694.805 .0301355
695.545 .0301222
696.284 .0301076
697.022 .0300920
697.761 .0300747
698.499 .0300560
699.237 .0300360
699.975 .0300155
700.713 .0299946
701.450 .0299747
702.187 .0299546
702.924 .0299353
703.661 .0299167
704.397 .0298986
705.133 .0298803
705.869 .0298619
706.605 .0298432
707.341 .0298243
708.076 .0298055
708.811 .0297870
709.546 .0297685
710.281 .0297510
711.015 .0297333
711.749 .0297154
712.483 .0296970
713.217 .0296778
713.950 .0296574
714.684 .0296362
715.417 .0296139
716.150 .0295913
716.882 .0295684
717.615 .0295456
718.347 .0295228
719.079 .0295006
719.811 .0294784
720.542 .0294568
721.273 .0294352
722.005 .0294144
722.735 .0293939
723.466 .0293743
724.196 .0293552
724.927 .0293364
725.656 .0293179
726.386 .0292995
727.116 .0292808
727.845 .0292623
728.574 .0292438
729.303 .0292258
730.031 .0292083
730.760 .0291916
731.488 .0291749
732.216 .0291588
732.944 .0291428
733.671 .0291267
734.398 .0291103
735.125 .0290937
735.852 .0290769
736.579 .0290599
737.305 .0290430
738.031 .0290261
738.757 .0290092
739.483 .0289924
740.208 .0289755
740.933 .0289587
741.658 .0289417
742.383 .0289249
743.108 .0289081
743.832 .0288916
744.556 .0288753
745.280 .0288591
746.004 .0288433
746.727 .0288280
747.450 .0288133
748.173 .0287990
748.896 .0287852
749.618 .0287721
750.340 .0287596
751.062 .0287475
751.784 .0287358
752.506 .0287239
753.227 .0287114
753.948 .0286981
754.669 .0286838
755.389 .0286685
756.110 .0286524
756.830 .0286360
757.550 .0286194
758.269 .0286029
758.989 .0285862
759.708 .0285691
760.427 .0285515
761.146 .0285334
761.864 .0285144
762.582 .0284954
763.300 .0284764
764.018 .0284579
764.736 .0284405
765.453 .0284245
766.170 .0284103
766.887 .0283976
767.603 .0283861
768.320 .0283761
769.036 .0283669
769.751 .0283586
770.467 .0283509
771.182 .0283441
771.897 .0283373
772.612 .0283310
773.327 .0283248
774.041 .0283189
774.755 .0283128
775.469 .0283068
776.183 .0283008
776.896 .0282954
777.609 .0282900
778.322 .0282844
779.035 .0282783
779.747 .0282720
780.459 .0282651
781.171 .0282581
781.882 .0282510
782.594 .0282443
783.305 .0282386
784.016 .0282343
784.726 .0282311
785.436 .0282293
786.147 .0282289
786.856 .0282293
787.566 .0282301
788.275 .0282307
788.984 .0282312
789.693 .0282316
790.401 .0282323
791.110 .0282330
791.818 .0282335
792.525 .0282338
793.233 .0282335
793.940 .0282324
794.647 .0282300
795.353 .0282258
796.060 .0282203
796.766 .0282134
797.472 .0282052
798.177 .0281956
798.883 .0281855
799.588 .0281752
800.292 .0281651
800.997 .0281549
801.701 .0281441
802.405 .0281336
803.109 .0281231
803.812 .0281127
804.515 .0281023
805.218 .0280914
805.921 .0280803
806.623 .0280685
807.325 .0280564
808.027 .0280436
808.728 .0280304
809.429 .0280171
810.130 .0280033
810.831 .0279887
811.531 .0279731
812.231 .0279561
812.931 .0279377
813.630 .0279179
814.330 .0278966
815.029 .0278741
815.727 .0278513
816.426 .0278289
817.124 .0278076
817.821 .0277878
818.519 .0277702
819.216 .0277544
819.913 .0277407
820.609 .0277291
821.306 .0277183
822.002 .0277087
822.697 .0277004
823.393 .0276931
824.088 .0276865
824.783 .0276804
825.477 .0276750
826.171 .0276697
826.865 .0276652
827.559 .0276605
828.252 .0276554
828.945 .0276504
829.638 .0276449
830.330 .0276384
831.023 .0276317
831.714 .0276246
832.406 .0276168
833.097 .0276081
833.788 .0275987
834.479 .0275880
835.169 .0275764
835.859 .0275647
836.548 .0275531
837.238 .0275414
837.927 .0275306
838.615 .0275199
839.304 .0275099
839.992 .0275007
840.680 .0274914
841.367 .0274820
842.054 .0274724
842.741 .0274622
843.428 .0274509
844.114 .0274389
844.800 .0274272
845.485 .0274147
846.170 .0274018
846.855 .0273885
847.540 .0273743
848.224 .0273595
848.908 .0273443
849.592 .0273282
850.275 .0273112
850.958 .0272934
851.641 .0272743
852.323 .0272540
853.005 .0272329
853.687 .0272109
854.368 .0271880
855.049 .0271649
855.730 .0271415
856.410 .0271174
857.090 .0270940
857.769 .0270708
858.449 .0270477
859.128 .0270247
859.806 .0270013
860.485 .0269776
861.163 .0269537
861.840 .0269296
862.518 .0269056
863.195 .0268822
863.871 .0268598
864.548 .0268376
865.224 .0268162
865.899 .0267954
866.574 .0267749
867.249 .0267548
867.924 .0267348
868.598 .0267150
869.272 .0266959
869.946 .0266774
870.619 .0266600
871.292 .0266441
871.964 .0266297
872.636 .0266162
873.308 .0266040
873.979 .0265925
874.651 .0265815
875.321 .0265707
875.992 .0265606
876.662 .0265507
877.331 .0265411
878.001 .0265320
878.670 .0265233
879.338 .0265156
880.007 .0265091
880.675 .0265032
881.342 .0264984
882.009 .0264943
882.676 .0264911
883.343 .0264880
884.009 .0264861
884.675 .0264840
885.340 .0264818
886.005 .0264792
886.670 .0264765
887.334 .0264735
887.998 .0264708
888.662 .0264687
889.325 .0264675
889.988 .0264674
890.650 .0264685
891.312 .0264702
891.974 .0264731
892.636 .0264769
893.297 .0264811
893.957 .0264855
894.618 .0264904
895.278 .0264955
895.937 .0265015
896.596 .0265084
897.255 .0265162
897.914 .0265246
898.572 .0265332
899.230 .0265418
899.887 .0265495
900.544 .0265561
901.201 .0265616
901.857 .0265655
902.513 .0265680
903.168 .0265686
903.823 .0265680
904.478 .0265664
905.132 .0265634
905.786 .0265591
906.440 .0265528
907.093 .0265448
907.746 .0265348
908.399 .0265232
909.051 .0265104
909.703 .0264973
910.354 .0264836
911.005 .0264702
911.656 .0264567
912.306 .0264436
912.956 .0264306
913.605 .0264174
914.254 .0264041
914.903 .0263907
915.551 .0263775
916.199 .0263650
916.847 .0263537
917.494 .0263444
918.141 .0263362
918.788 .0263301
919.434 .0263253
920.079 .0263213
920.725 .0263180
921.370 .0263152
922.014 .0263120
922.658 .0263086
923.302 .0263048
923.946 .0263002
924.589 .0262947
925.231 .0262887
925.873 .0262812
926.515 .0262726
927.157 .0262630
927.798 .0262521
928.439 .0262395
929.079 .0262261
929.719 .0262111
930.359 .0261949
930.998 .0261773
931.637 .0261587
932.275 .0261393
932.913 .0261196
933.551 .0261001
934.188 .0260809
934.825 .0260630
935.462 .0260467
936.098 .0260321
936.733 .0260192
937.369 .0260083
938.004 .0259987
938.638 .0259902
939.273 .0259828
939.907 .0259768
940.540 .0259724
941.173 .0259702
941.806 .0259702
942.438 .0259727
943.070 .0259771
943.702 .0259832
944.333 .0259902
944.964 .0259973
945.594 .0260032
946.224 .0260076
946.854 .0260105
947.483 .0260122
948.112 .0260124
948.741 .0260118
949.369 .0260110
949.996 .0260102
950.624 .0260089
951.251 .0260071
951.878 .0260046
952.504 .0260012
953.130 .0259960
953.755 .0259892
954.380 .0259808
955.005 .0259713
955.629 .0259610
956.253 .0259504
956.877 .0259402
957.500 .0259303
958.123 .0259207
958.746 .0259114
959.368 .0259016
959.990 .0258910
960.611 .0258792
961.232 .0258663
961.853 .0258526
962.473 .0258378
963.093 .0258224
963.712 .0258068
964.331 .0257911
964.950 .0257757
965.569 .0257609
966.187 .0257468
966.804 .0257338
967.422 .0257222
968.039 .0257118
968.655 .0257024
969.272 .0256941
969.887 .0256861
970.503 .0256783
971.118 .0256703
971.733 .0256620
972.347 .0256531
972.961 .0256444
973.575 .0256354
974.188 .0256260
974.801 .0256162
975.414 .0256052
976.026 .0255924
976.638 .0255784
977.250 .0255626
977.861 .0255448
978.472 .0255252
979.083 .0255047
979.693 .0254826
980.303 .0254602
980.912 .0254369
981.521 .0254132
982.130 .0253891
982.738 .0253641
983.346 .0253380
983.954 .0253113
984.562 .0252844
985.169 .0252572
985.775 .0252302
986.382 .0252046
986.988 .0251797
987.594 .0251560
988.199 .0251338
988.804 .0251129
989.409 .0250929
990.013 .0250735
990.617 .0250544
991.221 .0250354
991.824 .0250170
992.427 .0249990
993.030 .0249820
993.632 .0249666
994.234 .0249527
994.836 .0249404
995.438 .0249296
996.039 .0249197
996.640 .0249102
997.240 .0249003
997.840 .0248902
998.440 .0248789
999.040 .0248667
999.639 .0248536
1000.238 .0248403
1000.836 .0248270
1001.435 .0248143
1002.033 .0248017
1002.630 .0247893
1003.228 .0247771
1003.825 .0247650
1004.422 .0247524
1005.018 .0247397
1005.614 .0247274
1006.210 .0247161
1006.806 .0247061
1007.401 .0246979
1007.996 .0246908
1008.591 .0246857
1009.186 .0246822
1009.780 .0246796
1010.374 .0246772
1010.967 .0246748
1011.561 .0246725
1012.154 .0246698
1012.746 .0246669
1013.339 .0246636
1013.931 .0246598
1014.523 .0246561
1015.115 .0246518
1015.706 .0246468
1016.298 .0246410
1016.888 .0246348
1017.479 .0246277
1018.069 .0246203
1018.660 .0246124
1019.250 .0246048
1019.839 .0245976
1020.429 .0245916
1021.018 .0245863
1021.607 .0245821
1022.195 .0245790
1022.784 .0245767
1023.372 .0245751
1023.960 .0245740
1024.547 .0245734
1025.135 .0245734
1025.722 .0245735
1026.309 .0245745
1026.896 .0245758
1027.483 .0245778
1028.069 .0245801
1028.655 .0245829
1029.241 .0245856
1029.827 .0245889
1030.412 .0245934
1030.997 .0245993
1031.582 .0246067
1032.167 .0246157
1032.752 .0246263
1033.336 .0246382
1033.921 .0246512
1034.505 .0246646
1035.089 .0246776
1035.672 .0246901
1036.256 .0247006
1036.839 .0247095
1037.422 .0247167
1038.005 .0247230
1038.588 .0247282
1039.171 .0247323
1039.753 .0247360
1040.335 .0247380
1040.918 .0247389
1041.500 .0247385
1042.081 .0247368
1042.663 .0247335
1043.244 .0247290
1043.826 .0247235
1044.407 .0247178
1044.988 .0247126
1045.569 .0247086
1046.150 .0247056
1046.730 .0247033
1047.311 .0247015
1047.891 .0246996
1048.471 .0246977
1049.052 .0246959
1049.632 .0246930
1050.211 .0246907
1050.791 .0246880
1051.371 .0246853
1051.950 .0246841
1052.530 .0246840
1053.109 .0246861
1053.688 .0246900
1054.268 .0246955
1054.847 .0247026
1055.426 .0247106
1056.005 .0247202
1056.583 .0247301
1057.162 .0247407
1057.741 .0247518
1058.319 .0247627
1058.898 .0247741
1059.476 .0247858
1060.055 .0247968
1060.633 .0248080
1061.211 .0248177
1061.790 .0248270
1062.368 .0248357
1062.946 .0248431
1063.524 .0248489
1064.102 .0248541
1064.680 .0248580
1065.258 .0248622
1065.836 .0248661
1066.414 .0248714
1066.992 .0248773
1067.570 .0248855
1068.148 .0248947
1068.726 .0249053
1069.304 .0249178
1069.882 .0249324
1070.460 .0249476
1071.038 .0249659
1071.616 .0249847
1072.194 .0250047
1072.772 .0250252
1073.350 .0250464
1073.928 .0250669
1074.506 .0250864
1075.084 .0251029
1075.662 .0251176
1076.240 .0251308
1076.819 .0251441
1077.397 .0251563
1077.976 .0251710
1078.554 .0251859
1079.133 .0252020
1079.711 .0252169
1080.290 .0252307
1080.869 .0252420
1081.448 .0252511
1082.027 .0252572
1082.606 .0252611
1083.185 .0252638
1083.764 .0252675
1084.343 .0252727
1084.923 .0252808
1085.502 .0252903
1086.082 .0253012
1086.662 .0253123
1087.242 .0253244
1087.822 .0253355
1088.402 .0253480
1088.983 .0253607
1089.563 .0253749
1090.144 .0253909
1090.725 .0254079
1091.306 .0254249
1091.887 .0254423
1092.469 .0254596
1093.050 .0254778
1093.632 .0254953
1094.214 .0255139
1094.796 .0255333
1095.379 .0255550
1095.961 .0255774
1096.544 .0255996
1097.127 .0256220
1097.710 .0256440
1098.294 .0256641
1098.877 .0256848
1099.461 .0257067
1100.046 .0257331
1100.630 .0257624
1101.215 .0257964
1101.800 .0258354
1102.385 .0258783
1102.970 .0259219
1103.556 .0259648
1104.142 .0260067
1104.728 .0260478
1105.315 .0260852
1105.902 .0261200
1106.489 .0261533
1107.077 .0261870
1107.664 .0262195
1108.253 .0262511
1108.841 .0262811
1109.430 .0263102
1110.019 .0263360
1110.609 .0263613
1111.198 .0263844
1111.789 .0264070
1112.379 .0264299
1112.970 .0264537
1113.561 .0264808
1114.153 .0265096
1114.745 .0265428
1115.338 .0265845
1115.931 .0266338
1116.524 .0266913
1117.117 .0267549
1117.712 .0268247
1118.306 .0269012
1118.901 .0269795
1119.496 .0270567
1120.092 .0271320
1120.689 .0272048
1121.285 .0272752
1121.882 .0273409
1122.480 .0274059
1123.078 .0274733
1123.677 .0275419
1124.276 .0276140
1124.875 .0276839
1125.476 .0277509
1126.076 .0278171
1126.677 .0278775
1127.279 .0279324
1127.881 .0279811
1128.484 .0280254
1129.087 .0280683
1129.691 .0281099
1130.295 .0281525
1130.900 .0281995
1131.505 .0282508
1132.111 .0283090
1132.718 .0283684
1133.325 .0284293
1133.933 .0284895
1134.541 .0285509
1135.150 .0286135
1135.760 .0286776
1136.370 .0287420
1136.981 .0288124
1137.592 .0288836
1138.204 .0289602
1138.817 .0290391
1139.431 .0291200
1140.045 .0292057
1140.660 .0293045
1141.275 .0294116
1141.891 .0295210
1142.508 .0295232
1143.126 .0296906
1143.744 .0300585
1144.363 .0302177
1144.983 .0300448
