Measurement Sequence started on: 15-12-46-377
Integration time: 28
Scans to Average: 2 
>>>>>Begin Spectral Data<<<<<
432.689 .0000100
433.621 .0000100
434.552 .0000100
435.482 .0000100
436.410 .0000100
437.337 .0000100
438.262 .0287582
439.187 .0610113
440.110 .1010642
441.031 .1462804
441.952 .1901670
442.871 .2247157
443.789 .2436334
444.705 .2447931
445.621 .2308432
446.535 .2075120
447.447 .1811069
448.359 .1407117
449.269 .1206335
450.178 .1079674
451.086 .0989572
451.993 .0920371
452.898 .0865089
453.803 .0819478
454.706 .0781088
455.608 .0748249
456.508 .0720061
457.408 .0695503
458.306 .0674095
459.204 .0655150
460.100 .0638216
460.995 .0623136
461.888 .0609780
462.781 .0597814
463.673 .0587131
464.563 .0577657
465.452 .0568919
466.340 .0560824
467.228 .0553347
468.114 .0546174
468.999 .0539460
469.882 .0533222
470.765 .0527489
471.647 .0522312
472.528 .0517803
473.407 .0513944
474.286 .0510629
475.163 .0507772
476.040 .0505275
476.915 .0502887
477.790 .0500601
478.663 .0498337
479.535 .0496100
480.407 .0494039
481.277 .0492200
482.147 .0490676
483.015 .0489541
483.883 .0488771
484.749 .0488339
485.615 .0488144
486.479 .0488120
487.343 .0488197
488.206 .0488309
489.067 .0488405
489.928 .0488542
490.788 .0488743
491.647 .0489092
492.505 .0489678
493.362 .0490572
494.218 .0491750
495.073 .0493205
495.928 .0494946
496.781 .0496818
497.634 .0498941
498.486 .0501222
499.337 .0503601
500.187 .0506104
501.036 .0508787
501.884 .0511668
502.731 .0514640
503.578 .0517839
504.424 .0521210
505.268 .0524641
506.113 .0528255
506.956 .0531989
507.798 .0536032
508.640 .0540561
509.480 .0545641
510.320 .0551355
511.160 .0557914
511.998 .0565337
512.836 .0573784
513.672 .0583430
514.508 .0594524
515.344 .0607012
516.178 .0621433
517.012 .0638363
517.845 .0658098
518.677 .0680906
519.508 .0707092
520.339 .0736810
521.169 .0770617
521.998 .0808650
522.826 .0851125
523.654 .0898679
524.481 .0951684
525.307 .1010659
526.133 .1075159
526.958 .1144996
527.782 .1219068
528.605 .1295863
529.428 .1373638
530.250 .1446113
531.072 .1511204
531.892 .1564867
532.712 .1604560
533.532 .1628702
534.350 .1635607
535.168 .1625125
535.986 .1598280
536.802 .1556770
537.618 .1502588
538.434 .1438083
539.249 .1368048
540.063 .1293746
540.876 .1218774
541.689 .1145343
542.501 .1075650
543.313 .1011700
544.124 .0954412
544.934 .0903057
545.744 .0857163
546.553 .0816203
547.361 .0779854
548.169 .0748030
548.976 .0719735
549.783 .0694697
550.589 .0672420
551.395 .0652415
552.200 .0634283
553.004 .0617661
553.808 .0602386
554.611 .0588382
555.414 .0575478
556.216 .0563668
557.018 .0552867
557.819 .0543053
558.619 .0534004
559.419 .0525540
560.218 .0517624
561.017 .0510054
561.815 .0502708
562.613 .0495541
563.410 .0488368
564.207 .0481292
565.003 .0474295
565.799 .0467358
566.594 .0460620
567.388 .0454209
568.182 .0447997
568.976 .0441996
569.769 .0436171
570.562 .0430535
571.354 .0425010
572.145 .0419642
572.936 .0414401
573.727 .0409306
574.517 .0404383
575.307 .0399650
576.096 .0395119
576.885 .0390886
577.673 .0386899
578.461 .0383179
579.248 .0379728
580.035 .0376495
580.821 .0373481
581.607 .0370638
582.392 .0367964
583.177 .0365487
583.962 .0363145
584.746 .0360982
585.529 .0358964
586.313 .0357116
587.095 .0355438
587.878 .0353922
588.660 .0352552
589.441 .0351315
590.222 .0350186
591.003 .0349173
591.783 .0348221
592.563 .0347340
593.342 .0346499
594.121 .0345684
594.899 .0344896
595.678 .0344127
596.455 .0343374
597.233 .0342657
598.009 .0341971
598.786 .0341320
599.562 .0340698
600.338 .0340100
601.113 .0339517
601.888 .0338947
602.663 .0338386
603.437 .0337834
604.211 .0337281
604.984 .0336750
605.757 .0336240
606.530 .0335754
607.302 .0335304
608.074 .0334892
608.845 .0334524
609.616 .0334197
610.387 .0333896
611.158 .0333622
611.928 .0333365
612.697 .0333120
613.467 .0332873
614.236 .0332629
615.004 .0332390
615.773 .0332154
616.541 .0331925
617.308 .0331714
618.076 .0331519
618.843 .0331335
619.609 .0331164
620.375 .0331000
621.141 .0330838
621.907 .0330670
622.672 .0330489
623.437 .0330297
624.202 .0330090
624.966 .0329870
625.730 .0329638
626.493 .0329410
627.257 .0329182
628.020 .0328945
628.782 .0328702
629.545 .0328450
630.307 .0328178
631.068 .0327876
631.830 .0327544
632.591 .0327185
633.352 .0326803
634.112 .0326398
634.872 .0325975
635.632 .0325553
636.392 .0325136
637.151 .0324724
637.910 .0324313
638.668 .0323916
639.427 .0323523
640.185 .0323137
640.943 .0322760
641.700 .0322391
642.457 .0322038
643.214 .0321692
643.971 .0321355
644.727 .0321033
645.483 .0320716
646.239 .0320407
646.994 .0320102
647.750 .0319806
648.505 .0319508
649.259 .0319216
650.014 .0318928
650.768 .0318653
651.521 .0318387
652.275 .0318123
653.028 .0317865
653.781 .0317614
654.534 .0317364
655.286 .0317104
656.039 .0316846
656.791 .0316594
657.542 .0316333
658.294 .0316088
659.045 .0315852
659.796 .0315627
660.546 .0315415
661.297 .0315199
662.047 .0314976
662.796 .0314749
663.546 .0314511
664.295 .0314257
665.044 .0314001
665.793 .0313746
666.542 .0313487
667.290 .0313238
668.038 .0313011
668.786 .0312790
669.533 .0312577
670.281 .0312369
671.028 .0312151
671.774 .0311930
672.521 .0311708
673.267 .0311487
674.013 .0311281
674.759 .0311091
675.505 .0310911
676.250 .0310744
676.995 .0310589
677.740 .0310436
678.484 .0310278
679.229 .0310112
679.973 .0309939
680.717 .0309757
681.460 .0309576
682.204 .0309406
682.947 .0309260
683.690 .0309138
684.433 .0309031
685.175 .0308936
685.917 .0308849
686.659 .0308760
687.401 .0308664
688.142 .0308557
688.884 .0308437
689.625 .0308303
690.365 .0308153
691.106 .0307990
691.846 .0307824
692.586 .0307648
693.326 .0307463
694.066 .0307267
694.805 .0307057
695.545 .0306831
696.284 .0306590
697.022 .0306332
697.761 .0306059
698.499 .0305767
699.237 .0305460
699.975 .0305141
700.713 .0304821
701.450 .0304508
702.187 .0304201
702.924 .0303913
703.661 .0303646
704.397 .0303394
705.133 .0303162
705.869 .0302938
706.605 .0302720
707.341 .0302505
708.076 .0302283
708.811 .0302048
709.546 .0301805
710.281 .0301555
711.015 .0301300
711.749 .0301040
712.483 .0300780
713.217 .0300513
713.950 .0300245
714.684 .0299975
715.417 .0299696
716.150 .0299413
716.882 .0299127
717.615 .0298829
718.347 .0298529
719.079 .0298228
719.811 .0297929
720.542 .0297637
721.273 .0297360
722.005 .0297093
722.735 .0296839
723.466 .0296602
724.196 .0296378
724.927 .0296159
725.656 .0295949
726.386 .0295735
727.116 .0295519
727.845 .0295307
728.574 .0295093
729.303 .0294885
730.031 .0294691
730.760 .0294508
731.488 .0294334
732.216 .0294172
732.944 .0294023
733.671 .0293881
734.398 .0293749
735.125 .0293628
735.852 .0293513
736.579 .0293417
737.305 .0293338
738.031 .0293276
738.757 .0293235
739.483 .0293210
740.208 .0293194
740.933 .0293185
741.658 .0293176
742.383 .0293162
743.108 .0293141
743.832 .0293116
744.556 .0293086
745.280 .0293051
746.004 .0293017
746.727 .0292986
747.450 .0292957
748.173 .0292927
748.896 .0292896
749.618 .0292860
750.340 .0292816
751.062 .0292765
751.784 .0292705
752.506 .0292636
753.227 .0292560
753.948 .0292478
754.669 .0292387
755.389 .0292295
756.110 .0292199
756.830 .0292095
757.550 .0291988
758.269 .0291877
758.989 .0291758
759.708 .0291626
760.427 .0291489
761.146 .0291341
761.864 .0291184
762.582 .0291023
763.300 .0290859
764.018 .0290697
764.736 .0290542
765.453 .0290391
766.170 .0290246
766.887 .0290106
767.603 .0289971
768.320 .0289839
769.036 .0289713
769.751 .0289588
770.467 .0289462
771.182 .0289336
771.897 .0289214
772.612 .0289087
773.327 .0288961
774.041 .0288836
774.755 .0288711
775.469 .0288585
776.183 .0288461
776.896 .0288338
777.609 .0288222
778.322 .0288108
779.035 .0287996
779.747 .0287888
780.459 .0287782
781.171 .0287676
781.882 .0287570
782.594 .0287467
783.305 .0287364
784.016 .0287259
784.726 .0287158
785.436 .0287059
786.147 .0286960
786.856 .0286861
787.566 .0286757
788.275 .0286650
788.984 .0286538
789.693 .0286414
790.401 .0286280
791.110 .0286137
791.818 .0285986
792.525 .0285826
793.233 .0285655
793.940 .0285478
794.647 .0285293
795.353 .0285096
796.060 .0284890
796.766 .0284673
797.472 .0284445
798.177 .0284208
798.883 .0283963
799.588 .0283715
800.292 .0283459
800.997 .0283201
801.701 .0282940
802.405 .0282680
803.109 .0282422
803.812 .0282160
804.515 .0281896
805.218 .0281630
805.921 .0281357
806.623 .0281081
807.325 .0280805
808.027 .0280533
808.728 .0280267
809.429 .0280008
810.130 .0279758
810.831 .0279521
811.531 .0279295
812.231 .0279072
812.931 .0278852
813.630 .0278631
814.330 .0278408
815.029 .0278182
815.727 .0277961
816.426 .0277746
817.124 .0277544
817.821 .0277355
818.519 .0277178
819.216 .0277020
819.913 .0276874
820.609 .0276739
821.306 .0276611
822.002 .0276495
822.697 .0276387
823.393 .0276292
824.088 .0276215
824.783 .0276153
825.477 .0276111
826.171 .0276089
826.865 .0276082
827.559 .0276092
828.252 .0276115
828.945 .0276148
829.638 .0276188
830.330 .0276233
831.023 .0276277
831.714 .0276323
832.406 .0276373
833.097 .0276421
833.788 .0276464
834.479 .0276503
835.169 .0276534
835.859 .0276565
836.548 .0276594
837.238 .0276621
837.927 .0276648
838.615 .0276669
839.304 .0276683
839.992 .0276696
840.680 .0276707
841.367 .0276721
842.054 .0276742
842.741 .0276773
843.428 .0276809
844.114 .0276852
844.800 .0276903
845.485 .0276953
846.170 .0276999
846.855 .0277032
847.540 .0277049
848.224 .0277056
848.908 .0277057
849.592 .0277052
850.275 .0277054
850.958 .0277059
851.641 .0277066
852.323 .0277068
853.005 .0277065
853.687 .0277046
854.368 .0277009
855.049 .0276955
855.730 .0276881
856.410 .0276792
857.090 .0276694
857.769 .0276588
858.449 .0276486
859.128 .0276387
859.806 .0276287
860.485 .0276185
861.163 .0276084
861.840 .0275979
862.518 .0275868
863.195 .0275748
863.871 .0275622
864.548 .0275492
865.224 .0275360
865.899 .0275228
866.574 .0275100
867.249 .0274982
867.924 .0274873
868.598 .0274769
869.272 .0274671
869.946 .0274576
870.619 .0274480
871.292 .0274378
871.964 .0274269
872.636 .0274153
873.308 .0274035
873.979 .0273918
874.651 .0273799
875.321 .0273683
875.992 .0273568
876.662 .0273452
877.331 .0273332
878.001 .0273209
878.670 .0273082
879.338 .0272952
880.007 .0272825
880.675 .0272702
881.342 .0272580
882.009 .0272466
882.676 .0272361
883.343 .0272259
884.009 .0272157
884.675 .0272050
885.340 .0271937
886.005 .0271822
886.670 .0271703
887.334 .0271583
887.998 .0271465
888.662 .0271354
889.325 .0271245
889.988 .0271136
890.650 .0271027
891.312 .0270917
891.974 .0270808
892.636 .0270699
893.297 .0270587
893.957 .0270475
894.618 .0270364
895.278 .0270252
895.937 .0270140
896.596 .0270025
897.255 .0269901
897.914 .0269767
898.572 .0269613
899.230 .0269443
899.887 .0269254
900.544 .0269049
901.201 .0268830
901.857 .0268596
902.513 .0268349
903.168 .0268088
903.823 .0267813
904.478 .0267528
905.132 .0267227
905.786 .0266915
906.440 .0266588
907.093 .0266250
907.746 .0265902
908.399 .0265556
909.051 .0265216
909.703 .0264889
910.354 .0264576
911.005 .0264280
911.656 .0263995
912.306 .0263718
912.956 .0263447
913.605 .0263178
914.254 .0262914
914.903 .0262656
915.551 .0262402
916.199 .0262161
916.847 .0261931
917.494 .0261717
918.141 .0261516
918.788 .0261321
919.434 .0261127
920.079 .0260927
920.725 .0260720
921.370 .0260506
922.014 .0260287
922.658 .0260067
923.302 .0259846
923.946 .0259628
924.589 .0259405
925.231 .0259176
925.873 .0258939
926.515 .0258689
927.157 .0258432
927.798 .0258164
928.439 .0257883
929.079 .0257603
929.719 .0257324
930.359 .0257051
930.998 .0256784
931.637 .0256527
932.275 .0256280
932.913 .0256042
933.551 .0255814
934.188 .0255597
934.825 .0255396
935.462 .0255212
936.098 .0255045
936.733 .0254901
937.369 .0254783
938.004 .0254686
938.638 .0254611
939.273 .0254560
939.907 .0254525
940.540 .0254506
941.173 .0254503
941.806 .0254516
942.438 .0254545
943.070 .0254584
943.702 .0254630
944.333 .0254680
944.964 .0254731
945.594 .0254777
946.224 .0254819
946.854 .0254861
947.483 .0254901
948.112 .0254942
948.741 .0254982
949.369 .0255031
949.996 .0255083
950.624 .0255136
951.251 .0255190
951.878 .0255241
952.504 .0255288
953.130 .0255324
953.755 .0255358
954.380 .0255395
955.005 .0255437
955.629 .0255490
956.253 .0255557
956.877 .0255639
957.500 .0255733
958.123 .0255838
958.746 .0255944
959.368 .0256046
959.990 .0256138
960.611 .0256215
961.232 .0256284
961.853 .0256352
962.473 .0256423
963.093 .0256501
963.712 .0256594
964.331 .0256695
964.950 .0256800
965.569 .0256906
966.187 .0257007
966.804 .0257098
967.422 .0257180
968.039 .0257256
968.655 .0257324
969.272 .0257391
969.887 .0257461
970.503 .0257534
971.118 .0257615
971.733 .0257695
972.347 .0257774
972.961 .0257853
973.575 .0257921
974.188 .0257981
974.801 .0258025
975.414 .0258059
976.026 .0258078
976.638 .0258085
977.250 .0258086
977.861 .0258081
978.472 .0258075
979.083 .0258066
979.693 .0258057
980.303 .0258047
980.912 .0258031
981.521 .0258008
982.130 .0257973
982.738 .0257928
983.346 .0257869
983.954 .0257803
984.562 .0257730
985.169 .0257660
985.775 .0257592
986.382 .0257528
986.988 .0257469
987.594 .0257411
988.199 .0257348
988.804 .0257279
989.409 .0257205
990.013 .0257125
990.617 .0257038
991.221 .0256953
991.824 .0256875
992.427 .0256808
993.030 .0256753
993.632 .0256710
994.234 .0256676
994.836 .0256652
995.438 .0256628
996.039 .0256596
996.640 .0256564
997.240 .0256536
997.840 .0256514
998.440 .0256498
999.040 .0256489
999.639 .0256488
1000.238 .0256487
1000.836 .0256481
1001.435 .0256465
1002.033 .0256439
1002.630 .0256406
1003.228 .0256361
1003.825 .0256313
1004.422 .0256269
1005.018 .0256225
1005.614 .0256185
1006.210 .0256151
1006.806 .0256111
1007.401 .0256059
1007.996 .0255990
1008.591 .0255917
1009.186 .0255840
1009.780 .0255762
1010.374 .0255693
1010.967 .0255638
1011.561 .0255601
1012.154 .0255572
1012.746 .0255546
1013.339 .0255524
1013.931 .0255498
1014.523 .0255465
1015.115 .0255422
1015.706 .0255372
1016.298 .0255320
1016.888 .0255270
1017.479 .0255226
1018.069 .0255184
1018.660 .0255130
1019.250 .0255064
1019.839 .0254981
1020.429 .0254878
1021.018 .0254758
1021.607 .0254627
1022.195 .0254496
1022.784 .0254372
1023.372 .0254255
1023.960 .0254156
1024.547 .0254074
1025.135 .0254008
1025.722 .0253954
1026.309 .0253909
1026.896 .0253866
1027.483 .0253827
1028.069 .0253793
1028.655 .0253770
1029.241 .0253752
1029.827 .0253741
1030.412 .0253732
1030.997 .0253728
1031.582 .0253722
1032.167 .0253698
1032.752 .0253665
1033.336 .0253621
1033.921 .0253558
1034.505 .0253474
1035.089 .0253377
1035.672 .0253264
1036.256 .0253139
1036.839 .0253008
1037.422 .0252869
1038.005 .0252730
1038.588 .0252594
1039.171 .0252460
1039.753 .0252330
1040.335 .0252198
1040.918 .0252062
1041.500 .0251918
1042.081 .0251774
1042.663 .0251619
1043.244 .0251456
1043.826 .0251294
1044.407 .0251131
1044.988 .0250969
1045.569 .0250813
1046.150 .0250660
1046.730 .0250505
1047.311 .0250350
1047.891 .0250185
1048.471 .0250017
1049.052 .0249847
1049.632 .0249676
1050.211 .0249510
1050.791 .0249357
1051.371 .0249209
1051.950 .0249074
1052.530 .0248950
1053.109 .0248840
1053.688 .0248737
1054.268 .0248642
1054.847 .0248544
1055.426 .0248447
1056.005 .0248349
1056.583 .0248250
1057.162 .0248134
1057.741 .0248016
1058.319 .0247880
1058.898 .0247742
1059.476 .0247595
1060.055 .0247458
1060.633 .0247329
1061.211 .0247211
1061.790 .0247108
1062.368 .0247022
1062.946 .0246943
1063.524 .0246875
1064.102 .0246802
1064.680 .0246728
1065.258 .0246639
1065.836 .0246542
1066.414 .0246433
1066.992 .0246337
1067.570 .0246249
1068.148 .0246169
1068.726 .0246094
1069.304 .0246037
1069.882 .0245983
1070.460 .0245919
1071.038 .0245846
1071.616 .0245755
1072.194 .0245646
1072.772 .0245517
1073.350 .0245378
1073.928 .0245245
1074.506 .0245129
1075.084 .0245041
1075.662 .0244988
1076.240 .0244986
1076.819 .0245028
1077.397 .0245111
1077.976 .0245230
1078.554 .0245373
1079.133 .0245531
1079.711 .0245695
1080.290 .0245867
1080.869 .0246043
1081.448 .0246227
1082.027 .0246422
1082.606 .0246635
1083.185 .0246860
1083.764 .0247095
1084.343 .0247336
1084.923 .0247582
1085.502 .0247820
1086.082 .0248050
1086.662 .0248277
1087.242 .0248493
1087.822 .0248698
1088.402 .0248892
1088.983 .0249073
1089.563 .0249236
1090.144 .0249377
1090.725 .0249513
1091.306 .0249630
1091.887 .0249749
1092.469 .0249849
1093.050 .0249949
1093.632 .0250053
1094.214 .0250154
1094.796 .0250250
1095.379 .0250353
1095.961 .0250465
1096.544 .0250576
1097.127 .0250684
1097.710 .0250807
1098.294 .0250944
1098.877 .0251096
1099.461 .0251247
1100.046 .0251425
1100.630 .0251624
1101.215 .0251841
1101.800 .0252065
1102.385 .0252319
1102.970 .0252575
1103.556 .0252827
1104.142 .0253073
1104.728 .0253306
1105.315 .0253523
1105.902 .0253718
1106.489 .0253899
1107.077 .0254097
1107.664 .0254317
1108.253 .0254569
1108.841 .0254851
1109.430 .0255199
1110.019 .0255586
1110.609 .0256003
1111.198 .0256464
1111.789 .0256962
1112.379 .0257490
1112.970 .0258041
1113.561 .0258633
1114.153 .0259273
1114.745 .0259961
1115.338 .0260708
1115.931 .0261505
1116.524 .0262348
1117.117 .0263236
1117.712 .0264146
1118.306 .0265067
1118.901 .0266002
1119.496 .0266935
1120.092 .0267857
1120.689 .0268779
1121.285 .0269682
1121.882 .0270537
1122.480 .0271351
1123.078 .0272135
1123.677 .0272836
1124.276 .0273494
1124.875 .0274111
1125.476 .0274683
1126.076 .0275210
1126.677 .0275727
1127.279 .0276203
1127.881 .0276662
1128.484 .0277104
1129.087 .0277535
1129.691 .0277972
1130.295 .0278462
1130.900 .0278994
1131.505 .0279600
1132.111 .0280332
1132.718 .0281234
1133.325 .0282222
1133.933 .0283344
1134.541 .0284568
1135.150 .0285900
1135.760 .0287299
1136.370 .0288764
1136.981 .0290258
1137.592 .0291785
1138.204 .0293411
1138.817 .0295054
1139.431 .0296700
1140.045 .0298425
1140.660 .0300179
1141.275 .0302059
1141.891 .0303762
1142.508 .0305014
1143.126 .0306970
1143.744 .0308845
1144.363 .0314027
1144.983 .0309069
