Measurement Sequence started on: 15-12-46-377
Integration time: 28
Scans to Average: 2 
>>>>>Begin Spectral Data<<<<<
432.689 .0000100
433.621 .0000100
434.552 .0000100
435.482 .0000100
436.410 .0000100
437.337 .0000100
438.262 .0293721
439.187 .0621625
440.110 .1029189
441.031 .1488333
441.952 .1932989
442.871 .2281873
443.789 .2471069
444.705 .2479049
445.621 .2333293
446.535 .2093017
447.447 .1822386
448.359 .1410009
449.269 .1207046
450.178 .1079682
451.086 .0990488
451.993 .0922609
452.898 .0868436
453.803 .0823658
454.706 .0785840
455.608 .0752848
456.508 .0723845
457.408 .0698495
458.306 .0676041
459.204 .0656027
460.100 .0638115
460.995 .0622133
461.888 .0607793
462.781 .0594704
463.673 .0582692
464.563 .0571693
465.452 .0561571
466.340 .0552092
467.228 .0543372
468.114 .0535367
468.999 .0527988
469.882 .0521196
470.765 .0515025
471.647 .0509477
472.528 .0504478
473.407 .0500137
474.286 .0496443
475.163 .0493364
476.040 .0490848
476.915 .0488826
477.790 .0487224
478.663 .0485955
479.535 .0484910
480.407 .0484071
481.277 .0483407
482.147 .0482872
483.015 .0482475
483.883 .0482214
484.749 .0482027
485.615 .0481932
486.479 .0481829
487.343 .0481785
488.206 .0481692
489.067 .0481503
489.928 .0481231
490.788 .0480841
491.647 .0480406
492.505 .0479929
493.362 .0479503
494.218 .0479184
495.073 .0478987
495.928 .0479050
496.781 .0479314
497.634 .0479905
498.486 .0480880
499.337 .0482248
500.187 .0484079
501.036 .0486382
501.884 .0489100
502.731 .0492348
503.578 .0496168
504.424 .0500519
505.268 .0505388
506.113 .0510807
506.956 .0516759
507.798 .0523228
508.640 .0530312
509.480 .0538080
510.320 .0546646
511.160 .0556244
511.998 .0566816
512.836 .0578501
513.672 .0591448
514.508 .0605653
515.344 .0620993
516.178 .0637784
517.012 .0655984
517.845 .0675988
518.677 .0698138
519.508 .0722936
520.339 .0750684
521.169 .0782672
521.998 .0818762
522.826 .0859584
523.654 .0905350
524.481 .0955675
525.307 .1010723
526.133 .1070303
526.958 .1133941
527.782 .1201230
528.605 .1270531
529.428 .1341762
530.250 .1409333
531.072 .1472416
531.892 .1526122
532.712 .1567904
533.532 .1595627
534.350 .1606978
535.168 .1600235
535.986 .1576578
536.802 .1536838
537.618 .1484046
538.434 .1419851
539.249 .1349673
540.063 .1275360
540.876 .1200939
541.689 .1128616
542.501 .1060719
543.313 .0998556
544.124 .0943475
544.934 .0893726
545.744 .0849456
546.553 .0809529
547.361 .0773715
548.169 .0741784
548.976 .0713028
549.783 .0687565
550.589 .0665067
551.395 .0644914
552.200 .0627032
553.004 .0611087
553.808 .0596791
554.611 .0583749
555.414 .0571792
556.216 .0560733
557.018 .0550412
557.819 .0540782
558.619 .0531731
559.419 .0523071
560.218 .0514983
561.017 .0507248
561.815 .0499674
562.613 .0492324
563.410 .0485034
564.207 .0477836
565.003 .0470735
565.799 .0463805
566.594 .0456971
567.388 .0450400
568.182 .0444070
568.976 .0438027
569.769 .0432215
570.562 .0426668
571.354 .0421320
572.145 .0416117
572.936 .0411058
573.727 .0406151
574.517 .0401351
575.307 .0396750
576.096 .0392302
576.885 .0388058
577.673 .0384035
578.461 .0380289
579.248 .0376779
580.035 .0373495
580.821 .0370406
581.607 .0367479
582.392 .0364643
583.177 .0361956
583.962 .0359353
584.746 .0356885
585.529 .0354595
586.313 .0352476
587.095 .0350519
587.878 .0348731
588.660 .0347103
589.441 .0345624
590.222 .0344283
591.003 .0343066
591.783 .0341956
592.563 .0340966
593.342 .0340069
594.121 .0339245
594.899 .0338512
595.678 .0337844
596.455 .0337207
597.233 .0336605
598.009 .0336033
598.786 .0335476
599.562 .0334950
600.338 .0334443
601.113 .0333965
601.888 .0333495
602.663 .0333036
603.437 .0332579
604.211 .0332120
604.984 .0331655
605.757 .0331179
606.530 .0330701
607.302 .0330224
608.074 .0329744
608.845 .0329282
609.616 .0328847
610.387 .0328452
611.158 .0328089
611.928 .0327753
612.697 .0327447
613.467 .0327171
614.236 .0326920
615.004 .0326698
615.773 .0326507
616.541 .0326348
617.308 .0326223
618.076 .0326134
618.843 .0326082
619.609 .0326062
620.375 .0326075
621.141 .0326104
621.907 .0326142
622.672 .0326169
623.437 .0326179
624.202 .0326163
624.966 .0326136
625.730 .0326079
626.493 .0325996
627.257 .0325882
628.020 .0325748
628.782 .0325587
629.545 .0325397
630.307 .0325171
631.068 .0324916
631.830 .0324617
632.591 .0324274
633.352 .0323883
634.112 .0323462
634.872 .0323010
635.632 .0322547
636.392 .0322073
637.151 .0321602
637.910 .0321142
638.668 .0320707
639.427 .0320296
640.185 .0319912
640.943 .0319546
641.700 .0319193
642.457 .0318851
643.214 .0318517
643.971 .0318179
644.727 .0317848
645.483 .0317528
646.239 .0317224
646.994 .0316933
647.750 .0316657
648.505 .0316397
649.259 .0316146
650.014 .0315898
650.768 .0315640
651.521 .0315372
652.275 .0315086
653.028 .0314780
653.781 .0314456
654.534 .0314111
655.286 .0313757
656.039 .0313396
656.791 .0313032
657.542 .0312667
658.294 .0312296
659.045 .0311924
659.796 .0311552
660.546 .0311186
661.297 .0310823
662.047 .0310470
662.796 .0310125
663.546 .0309791
664.295 .0309468
665.044 .0309158
665.793 .0308865
666.542 .0308586
667.290 .0308319
668.038 .0308054
668.786 .0307790
669.533 .0307525
670.281 .0307254
671.028 .0306985
671.774 .0306713
672.521 .0306446
673.267 .0306184
674.013 .0305929
674.759 .0305684
675.505 .0305448
676.250 .0305221
676.995 .0304998
677.740 .0304777
678.484 .0304560
679.229 .0304347
679.973 .0304142
680.717 .0303948
681.460 .0303767
682.204 .0303601
682.947 .0303451
683.690 .0303315
684.433 .0303192
685.175 .0303078
685.917 .0302973
686.659 .0302871
687.401 .0302771
688.142 .0302670
688.884 .0302569
689.625 .0302466
690.365 .0302364
691.106 .0302258
691.846 .0302150
692.586 .0302041
693.326 .0301935
694.066 .0301829
694.805 .0301724
695.545 .0301615
696.284 .0301507
697.022 .0301398
697.761 .0301283
698.499 .0301166
699.237 .0301048
699.975 .0300933
700.713 .0300824
701.450 .0300721
702.187 .0300626
702.924 .0300543
703.661 .0300469
704.397 .0300398
705.133 .0300332
705.869 .0300263
706.605 .0300188
707.341 .0300110
708.076 .0300030
708.811 .0299947
709.546 .0299861
710.281 .0299773
711.015 .0299680
711.749 .0299578
712.483 .0299464
713.217 .0299333
713.950 .0299188
714.684 .0299021
715.417 .0298833
716.150 .0298626
716.882 .0298409
717.615 .0298184
718.347 .0297958
719.079 .0297731
719.811 .0297505
720.542 .0297279
721.273 .0297054
722.005 .0296824
722.735 .0296592
723.466 .0296354
724.196 .0296111
724.927 .0295863
725.656 .0295616
726.386 .0295365
727.116 .0295121
727.845 .0294884
728.574 .0294655
729.303 .0294431
730.031 .0294215
730.760 .0294004
731.488 .0293800
732.216 .0293598
732.944 .0293396
733.671 .0293198
734.398 .0293003
735.125 .0292806
735.852 .0292614
736.579 .0292427
737.305 .0292246
738.031 .0292069
738.757 .0291895
739.483 .0291717
740.208 .0291534
740.933 .0291343
741.658 .0291142
742.383 .0290933
743.108 .0290715
743.832 .0290491
744.556 .0290266
745.280 .0290041
746.004 .0289812
746.727 .0289579
747.450 .0289347
748.173 .0289111
748.896 .0288870
749.618 .0288625
750.340 .0288381
751.062 .0288144
751.784 .0287909
752.506 .0287677
753.227 .0287448
753.948 .0287223
754.669 .0286995
755.389 .0286762
756.110 .0286524
756.830 .0286281
757.550 .0286036
758.269 .0285793
758.989 .0285554
759.708 .0285317
760.427 .0285082
761.146 .0284850
761.864 .0284619
762.582 .0284383
763.300 .0284143
764.018 .0283902
764.736 .0283667
765.453 .0283439
766.170 .0283222
766.887 .0283019
767.603 .0282835
768.320 .0282666
769.036 .0282513
769.751 .0282368
770.467 .0282229
771.182 .0282095
771.897 .0281967
772.612 .0281846
773.327 .0281734
774.041 .0281631
774.755 .0281543
775.469 .0281470
776.183 .0281411
776.896 .0281360
777.609 .0281319
778.322 .0281282
779.035 .0281247
779.747 .0281215
780.459 .0281186
781.171 .0281164
781.882 .0281159
782.594 .0281170
783.305 .0281195
784.016 .0281239
784.726 .0281300
785.436 .0281369
786.147 .0281444
786.856 .0281515
787.566 .0281577
788.275 .0281631
788.984 .0281683
789.693 .0281726
790.401 .0281765
791.110 .0281803
791.818 .0281835
792.525 .0281861
793.233 .0281878
793.940 .0281885
794.647 .0281882
795.353 .0281873
796.060 .0281854
796.766 .0281826
797.472 .0281796
798.177 .0281767
798.883 .0281743
799.588 .0281724
800.292 .0281713
800.997 .0281706
801.701 .0281701
802.405 .0281698
803.109 .0281693
803.812 .0281688
804.515 .0281674
805.218 .0281653
805.921 .0281621
806.623 .0281575
807.325 .0281517
808.027 .0281451
808.728 .0281375
809.429 .0281290
810.130 .0281195
810.831 .0281095
811.531 .0280988
812.231 .0280876
812.931 .0280759
813.630 .0280638
814.330 .0280516
815.029 .0280395
815.727 .0280276
816.426 .0280168
817.124 .0280069
817.821 .0279978
818.519 .0279895
819.216 .0279823
819.913 .0279753
820.609 .0279686
821.306 .0279618
822.002 .0279555
822.697 .0279493
823.393 .0279437
824.088 .0279388
824.783 .0279346
825.477 .0279307
826.171 .0279270
826.865 .0279234
827.559 .0279205
828.252 .0279175
828.945 .0279147
829.638 .0279117
830.330 .0279087
831.023 .0279053
831.714 .0279017
832.406 .0278977
833.097 .0278937
833.788 .0278885
834.479 .0278825
835.169 .0278757
835.859 .0278682
836.548 .0278600
837.238 .0278512
837.927 .0278414
838.615 .0278308
839.304 .0278190
839.992 .0278067
840.680 .0277932
841.367 .0277791
842.054 .0277642
842.741 .0277487
843.428 .0277330
844.114 .0277171
844.800 .0277007
845.485 .0276843
846.170 .0276670
846.855 .0276485
847.540 .0276285
848.224 .0276072
848.908 .0275847
849.592 .0275612
850.275 .0275372
850.958 .0275125
851.641 .0274872
852.323 .0274615
853.005 .0274351
853.687 .0274081
854.368 .0273798
855.049 .0273502
855.730 .0273193
856.410 .0272874
857.090 .0272544
857.769 .0272207
858.449 .0271869
859.128 .0271533
859.806 .0271197
860.485 .0270868
861.163 .0270544
861.840 .0270226
862.518 .0269913
863.195 .0269602
863.871 .0269292
864.548 .0268985
865.224 .0268678
865.899 .0268380
866.574 .0268087
867.249 .0267807
867.924 .0267535
868.598 .0267277
869.272 .0267030
869.946 .0266791
870.619 .0266554
871.292 .0266321
871.964 .0266088
872.636 .0265857
873.308 .0265625
873.979 .0265394
874.651 .0265167
875.321 .0264943
875.992 .0264725
876.662 .0264515
877.331 .0264308
878.001 .0264108
878.670 .0263910
879.338 .0263717
880.007 .0263529
880.675 .0263351
881.342 .0263185
882.009 .0263035
882.676 .0262898
883.343 .0262773
884.009 .0262658
884.675 .0262553
885.340 .0262460
886.005 .0262374
886.670 .0262300
887.334 .0262238
887.998 .0262188
888.662 .0262156
889.325 .0262135
889.988 .0262125
890.650 .0262122
891.312 .0262123
891.974 .0262121
892.636 .0262117
893.297 .0262113
893.957 .0262110
894.618 .0262111
895.278 .0262119
895.937 .0262130
896.596 .0262148
897.255 .0262169
897.914 .0262189
898.572 .0262205
899.230 .0262214
899.887 .0262214
900.544 .0262206
901.201 .0262194
901.857 .0262181
902.513 .0262163
903.168 .0262148
903.823 .0262126
904.478 .0262095
905.132 .0262055
905.786 .0261995
906.440 .0261915
907.093 .0261814
907.746 .0261692
908.399 .0261550
909.051 .0261394
909.703 .0261232
910.354 .0261062
911.005 .0260895
911.656 .0260731
912.306 .0260571
912.956 .0260421
913.605 .0260280
914.254 .0260148
914.903 .0260024
915.551 .0259911
916.199 .0259808
916.847 .0259721
917.494 .0259654
918.141 .0259610
918.788 .0259589
919.434 .0259591
920.079 .0259610
920.725 .0259643
921.370 .0259687
922.014 .0259730
922.658 .0259772
923.302 .0259810
923.946 .0259841
924.589 .0259866
925.231 .0259883
925.873 .0259898
926.515 .0259909
927.157 .0259913
927.798 .0259908
928.439 .0259891
929.079 .0259861
929.719 .0259814
930.359 .0259756
930.998 .0259691
931.637 .0259623
932.275 .0259558
932.913 .0259504
933.551 .0259460
934.188 .0259431
934.825 .0259409
935.462 .0259393
936.098 .0259382
936.733 .0259377
937.369 .0259371
938.004 .0259374
938.638 .0259383
939.273 .0259402
939.907 .0259428
940.540 .0259465
941.173 .0259510
941.806 .0259565
942.438 .0259626
943.070 .0259691
943.702 .0259756
944.333 .0259819
944.964 .0259875
945.594 .0259932
946.224 .0259984
946.854 .0260039
947.483 .0260094
948.112 .0260160
948.741 .0260228
949.369 .0260302
949.996 .0260379
950.624 .0260453
951.251 .0260521
951.878 .0260578
952.504 .0260623
953.130 .0260662
953.755 .0260691
954.380 .0260722
955.005 .0260747
955.629 .0260776
956.253 .0260800
956.877 .0260826
957.500 .0260849
958.123 .0260865
958.746 .0260870
959.368 .0260865
959.990 .0260848
960.611 .0260818
961.232 .0260781
961.853 .0260739
962.473 .0260695
963.093 .0260645
963.712 .0260584
964.331 .0260514
964.950 .0260430
965.569 .0260342
966.187 .0260247
966.804 .0260151
967.422 .0260059
968.039 .0259971
968.655 .0259892
969.272 .0259819
969.887 .0259753
970.503 .0259686
971.118 .0259623
971.733 .0259561
972.347 .0259499
972.961 .0259446
973.575 .0259396
974.188 .0259347
974.801 .0259295
975.414 .0259235
976.026 .0259159
976.638 .0259065
977.250 .0258959
977.861 .0258836
978.472 .0258704
979.083 .0258560
979.693 .0258409
980.303 .0258251
980.912 .0258090
981.521 .0257917
982.130 .0257736
982.738 .0257549
983.346 .0257353
983.954 .0257153
984.562 .0256955
985.169 .0256756
985.775 .0256559
986.382 .0256364
986.988 .0256170
987.594 .0255968
988.199 .0255758
988.804 .0255542
989.409 .0255322
990.013 .0255102
990.617 .0254878
991.221 .0254654
991.824 .0254433
992.427 .0254216
993.030 .0253998
993.632 .0253781
994.234 .0253566
994.836 .0253349
995.438 .0253132
996.039 .0252920
996.640 .0252711
997.240 .0252509
997.840 .0252318
998.440 .0252134
999.040 .0251951
999.639 .0251768
1000.238 .0251583
1000.836 .0251397
1001.435 .0251214
1002.033 .0251030
1002.630 .0250844
1003.228 .0250670
1003.825 .0250497
1004.422 .0250333
1005.018 .0250186
1005.614 .0250050
1006.210 .0249921
1006.806 .0249804
1007.401 .0249696
1007.996 .0249588
1008.591 .0249485
1009.186 .0249383
1009.780 .0249278
1010.374 .0249171
1010.967 .0249055
1011.561 .0248934
1012.154 .0248812
1012.746 .0248694
1013.339 .0248565
1013.931 .0248437
1014.523 .0248309
1015.115 .0248172
1015.706 .0248030
1016.298 .0247888
1016.888 .0247741
1017.479 .0247588
1018.069 .0247435
1018.660 .0247290
1019.250 .0247151
1019.839 .0247028
1020.429 .0246916
1021.018 .0246818
1021.607 .0246735
1022.195 .0246661
1022.784 .0246593
1023.372 .0246535
1023.960 .0246486
1024.547 .0246437
1025.135 .0246393
1025.722 .0246356
1026.309 .0246324
1026.896 .0246297
1027.483 .0246278
1028.069 .0246264
1028.655 .0246249
1029.241 .0246231
1029.827 .0246212
1030.412 .0246195
1030.997 .0246182
1031.582 .0246171
1032.167 .0246164
1032.752 .0246153
1033.336 .0246143
1033.921 .0246130
1034.505 .0246108
1035.089 .0246070
1035.672 .0246015
1036.256 .0245946
1036.839 .0245857
1037.422 .0245756
1038.005 .0245648
1038.588 .0245545
1039.171 .0245452
1039.753 .0245360
1040.335 .0245269
1040.918 .0245182
1041.500 .0245094
1042.081 .0245002
1042.663 .0244906
1043.244 .0244819
1043.826 .0244736
1044.407 .0244668
1044.988 .0244615
1045.569 .0244579
1046.150 .0244550
1046.730 .0244531
1047.311 .0244509
1047.891 .0244480
1048.471 .0244442
1049.052 .0244396
1049.632 .0244342
1050.211 .0244293
1050.791 .0244235
1051.371 .0244176
1051.950 .0244117
1052.530 .0244064
1053.109 .0243994
1053.688 .0243920
1054.268 .0243843
1054.847 .0243761
1055.426 .0243684
1056.005 .0243618
1056.583 .0243570
1057.162 .0243537
1057.741 .0243520
1058.319 .0243516
1058.898 .0243519
1059.476 .0243542
1060.055 .0243564
1060.633 .0243593
1061.211 .0243634
1061.790 .0243678
1062.368 .0243731
1062.946 .0243787
1063.524 .0243854
1064.102 .0243920
1064.680 .0243989
1065.258 .0244050
1065.836 .0244100
1066.414 .0244143
1066.992 .0244182
1067.570 .0244219
1068.148 .0244248
1068.726 .0244266
1069.304 .0244270
1069.882 .0244265
1070.460 .0244242
1071.038 .0244195
1071.616 .0244147
1072.194 .0244092
1072.772 .0244060
1073.350 .0244042
1073.928 .0244054
1074.506 .0244109
1075.084 .0244204
1075.662 .0244329
1076.240 .0244463
1076.819 .0244594
1077.397 .0244727
1077.976 .0244850
1078.554 .0244963
1079.133 .0245073
1079.711 .0245191
1080.290 .0245326
1080.869 .0245479
1081.448 .0245639
1082.027 .0245799
1082.606 .0245947
1083.185 .0246086
1083.764 .0246201
1084.343 .0246290
1084.923 .0246376
1085.502 .0246463
1086.082 .0246570
1086.662 .0246727
1087.242 .0246918
1087.822 .0247152
1088.402 .0247427
1088.983 .0247727
1089.563 .0248026
1090.144 .0248314
1090.725 .0248605
1091.306 .0248871
1091.887 .0249137
1092.469 .0249413
1093.050 .0249687
1093.632 .0249980
1094.214 .0250309
1094.796 .0250645
1095.379 .0250982
1095.961 .0251316
1096.544 .0251628
1097.127 .0251906
1097.710 .0252171
1098.294 .0252421
1098.877 .0252659
1099.461 .0252923
1100.046 .0253226
1100.630 .0253554
1101.215 .0253943
1101.800 .0254354
1102.385 .0254768
1102.970 .0255187
1103.556 .0255574
1104.142 .0255910
1104.728 .0256210
1105.315 .0256495
1105.902 .0256758
1106.489 .0257026
1107.077 .0257303
1107.664 .0257607
1108.253 .0257958
1108.841 .0258341
1109.430 .0258738
1110.019 .0259144
1110.609 .0259551
1111.198 .0259920
1111.789 .0260284
1112.379 .0260639
1112.970 .0260976
1113.561 .0261335
1114.153 .0261712
1114.745 .0262099
1115.338 .0262515
1115.931 .0262952
1116.524 .0263417
1117.117 .0263912
1117.712 .0264422
1118.306 .0264915
1118.901 .0265433
1119.496 .0265958
1120.092 .0266498
1120.689 .0267014
1121.285 .0267555
1121.882 .0268111
1122.480 .0268709
1123.078 .0269354
1123.677 .0270052
1124.276 .0270790
1124.875 .0271601
1125.476 .0272446
1126.076 .0273335
1126.677 .0274223
1127.279 .0275119
1127.881 .0276002
1128.484 .0276877
1129.087 .0277752
1129.691 .0278652
1130.295 .0279555
1130.900 .0280532
1131.505 .0281543
1132.111 .0282577
1132.718 .0283655
1133.325 .0284764
1133.933 .0285866
1134.541 .0286975
1135.150 .0288065
1135.760 .0289126
1136.370 .0290154
1136.981 .0291161
1137.592 .0292107
1138.204 .0292996
1138.817 .0293833
1139.431 .0294668
1140.045 .0295514
1140.660 .0296313
1141.275 .0297018
1141.891 .0297344
1142.508 .0300031
1143.126 .0301050
1143.744 .0299220
1144.363 .0298406
1144.983 .0289789
