Measurement Sequence started on: 15-12-46-377
Integration time: 28
Scans to Average: 2 
>>>>>Begin Spectral Data<<<<<
432.689 .0000100
433.621 .0000100
434.552 .0000100
435.482 .0000100
436.410 .0000100
437.337 .0000100
438.262 .0289915
439.187 .0613014
440.110 .1015053
441.031 .1468441
441.952 .1908343
442.871 .2254498
443.789 .2444385
444.705 .2456286
445.621 .2317085
446.535 .2084648
447.447 .1821627
448.359 .1417537
449.269 .1219028
450.178 .1093172
451.086 .1003895
451.993 .0935122
452.898 .0879979
453.803 .0834240
454.706 .0796211
455.608 .0763703
456.508 .0735621
457.408 .0711536
458.306 .0690602
459.204 .0672028
460.100 .0655430
460.995 .0640453
461.888 .0626865
462.781 .0614427
463.673 .0602988
464.563 .0592475
465.452 .0582768
466.340 .0573765
467.228 .0565508
468.114 .0557888
468.999 .0550886
469.882 .0544343
470.765 .0538227
471.647 .0532520
472.528 .0527087
473.407 .0521963
474.286 .0517198
475.163 .0512812
476.040 .0508874
476.915 .0505327
477.790 .0502177
478.663 .0499431
479.535 .0497010
480.407 .0494897
481.277 .0493018
482.147 .0491371
483.015 .0489900
483.883 .0488642
484.749 .0487627
485.615 .0486861
486.479 .0486339
487.343 .0486157
488.206 .0486208
489.067 .0486407
489.928 .0486723
490.788 .0487145
491.647 .0487674
492.505 .0488347
493.362 .0489193
494.218 .0490297
495.073 .0491675
495.928 .0493369
496.781 .0495212
497.634 .0497335
498.486 .0499633
499.337 .0502019
500.187 .0504548
501.036 .0507275
501.884 .0510188
502.731 .0513360
503.578 .0516829
504.424 .0520568
505.268 .0524499
506.113 .0528617
506.956 .0532851
507.798 .0537374
508.640 .0542192
509.480 .0547457
510.320 .0553470
511.160 .0560577
511.998 .0568765
512.836 .0578245
513.672 .0589180
514.508 .0601539
515.344 .0615433
516.178 .0630976
517.012 .0648495
517.845 .0668645
518.677 .0691807
519.508 .0718216
520.339 .0748483
521.169 .0783411
521.998 .0822946
522.826 .0867535
523.654 .0917154
524.481 .0971849
525.307 .1031828
526.133 .1096416
526.958 .1165213
527.782 .1237727
528.605 .1312614
529.428 .1388612
530.250 .1460455
531.072 .1525854
531.892 .1580727
532.712 .1622956
533.532 .1650170
534.350 .1660661
535.168 .1653561
535.986 .1629130
536.802 .1588914
537.618 .1535260
538.434 .1470166
539.249 .1398233
540.063 .1321991
540.876 .1244836
541.689 .1169164
542.501 .1097967
543.313 .1032863
544.124 .0974967
544.934 .0923580
545.744 .0877358
546.553 .0835546
547.361 .0797968
548.169 .0764235
548.976 .0733443
549.783 .0705763
550.589 .0680846
551.395 .0658231
552.200 .0638011
553.004 .0619817
553.808 .0603313
554.611 .0588588
555.414 .0575420
556.216 .0563327
557.018 .0552449
557.819 .0542560
558.619 .0533440
559.419 .0525085
560.218 .0517347
561.017 .0509940
561.815 .0502832
562.613 .0495949
563.410 .0489059
564.207 .0482188
565.003 .0475493
565.799 .0468874
566.594 .0462398
567.388 .0456247
568.182 .0450389
568.976 .0444779
569.769 .0439444
570.562 .0434224
571.354 .0429060
572.145 .0423968
572.936 .0418867
573.727 .0413720
574.517 .0408655
575.307 .0403691
576.096 .0398849
576.885 .0394212
577.673 .0389826
578.461 .0385662
579.248 .0381721
580.035 .0378012
580.821 .0374498
581.607 .0371187
582.392 .0368087
583.177 .0365183
583.962 .0362481
584.746 .0360040
585.529 .0357817
586.313 .0355866
587.095 .0354161
587.878 .0352676
588.660 .0351385
589.441 .0350267
590.222 .0349277
591.003 .0348409
591.783 .0347644
592.563 .0346966
593.342 .0346354
594.121 .0345775
594.899 .0345199
595.678 .0344634
596.455 .0344091
597.233 .0343545
598.009 .0342999
598.786 .0342462
599.562 .0341918
600.338 .0341387
601.113 .0340867
601.888 .0340352
602.663 .0339840
603.437 .0339332
604.211 .0338815
604.984 .0338277
605.757 .0337731
606.530 .0337175
607.302 .0336631
608.074 .0336104
608.845 .0335591
609.616 .0335097
610.387 .0334644
611.158 .0334225
611.928 .0333832
612.697 .0333466
613.467 .0333117
614.236 .0332776
615.004 .0332435
615.773 .0332095
616.541 .0331760
617.308 .0331436
618.076 .0331131
618.843 .0330846
619.609 .0330582
620.375 .0330337
621.141 .0330109
621.907 .0329894
622.672 .0329669
623.437 .0329425
624.202 .0329145
624.966 .0328837
625.730 .0328494
626.493 .0328120
627.257 .0327723
628.020 .0327316
628.782 .0326902
629.545 .0326483
630.307 .0326062
631.068 .0325645
631.830 .0325219
632.591 .0324784
633.352 .0324337
634.112 .0323875
634.872 .0323406
635.632 .0322944
636.392 .0322488
637.151 .0322053
637.910 .0321642
638.668 .0321255
639.427 .0320897
640.185 .0320563
640.943 .0320245
641.700 .0319937
642.457 .0319639
643.214 .0319338
643.971 .0319032
644.727 .0318733
645.483 .0318435
646.239 .0318135
646.994 .0317843
647.750 .0317556
648.505 .0317282
649.259 .0317028
650.014 .0316791
650.768 .0316568
651.521 .0316363
652.275 .0316168
653.028 .0315975
653.781 .0315784
654.534 .0315595
655.286 .0315401
656.039 .0315205
656.791 .0315013
657.542 .0314818
658.294 .0314634
659.045 .0314467
659.796 .0314306
660.546 .0314150
661.297 .0313991
662.047 .0313829
662.796 .0313657
663.546 .0313481
664.295 .0313300
665.044 .0313111
665.793 .0312928
666.542 .0312747
667.290 .0312564
668.038 .0312384
668.786 .0312201
669.533 .0312010
670.281 .0311813
671.028 .0311613
671.774 .0311409
672.521 .0311208
673.267 .0311023
674.013 .0310846
674.759 .0310674
675.505 .0310510
676.250 .0310344
676.995 .0310171
677.740 .0309994
678.484 .0309802
679.229 .0309602
679.973 .0309402
680.717 .0309207
681.460 .0309016
682.204 .0308830
682.947 .0308652
683.690 .0308475
684.433 .0308295
685.175 .0308109
685.917 .0307905
686.659 .0307697
687.401 .0307482
688.142 .0307260
688.884 .0307039
689.625 .0306822
690.365 .0306601
691.106 .0306376
691.846 .0306147
692.586 .0305910
693.326 .0305658
694.066 .0305401
694.805 .0305134
695.545 .0304854
696.284 .0304565
697.022 .0304267
697.761 .0303953
698.499 .0303635
699.237 .0303304
699.975 .0302968
700.713 .0302632
701.450 .0302302
702.187 .0301975
702.924 .0301658
703.661 .0301355
704.397 .0301063
705.133 .0300778
705.869 .0300510
706.605 .0300252
707.341 .0300009
708.076 .0299777
708.811 .0299557
709.546 .0299345
710.281 .0299145
711.015 .0298944
711.749 .0298741
712.483 .0298530
713.217 .0298313
713.950 .0298082
714.684 .0297842
715.417 .0297595
716.150 .0297345
716.882 .0297093
717.615 .0296841
718.347 .0296587
719.079 .0296335
719.811 .0296081
720.542 .0295829
721.273 .0295575
722.005 .0295324
722.735 .0295073
723.466 .0294825
724.196 .0294580
724.927 .0294338
725.656 .0294093
726.386 .0293845
727.116 .0293597
727.845 .0293354
728.574 .0293112
729.303 .0292879
730.031 .0292660
730.760 .0292457
731.488 .0292268
732.216 .0292099
732.944 .0291947
733.671 .0291814
734.398 .0291698
735.125 .0291606
735.852 .0291531
736.579 .0291480
737.305 .0291444
738.031 .0291425
738.757 .0291421
739.483 .0291424
740.208 .0291427
740.933 .0291435
741.658 .0291442
742.383 .0291445
743.108 .0291441
743.832 .0291434
744.556 .0291421
745.280 .0291404
746.004 .0291378
746.727 .0291341
747.450 .0291293
748.173 .0291234
748.896 .0291163
749.618 .0291086
750.340 .0291009
751.062 .0290935
751.784 .0290868
752.506 .0290808
753.227 .0290752
753.948 .0290699
754.669 .0290646
755.389 .0290589
756.110 .0290524
756.830 .0290451
757.550 .0290372
758.269 .0290286
758.989 .0290199
759.708 .0290110
760.427 .0290018
761.146 .0289923
761.864 .0289827
762.582 .0289725
763.300 .0289620
764.018 .0289516
764.736 .0289415
765.453 .0289318
766.170 .0289227
766.887 .0289139
767.603 .0289052
768.320 .0288965
769.036 .0288875
769.751 .0288778
770.467 .0288680
771.182 .0288575
771.897 .0288466
772.612 .0288359
773.327 .0288255
774.041 .0288155
774.755 .0288057
775.469 .0287959
776.183 .0287858
776.896 .0287748
777.609 .0287628
778.322 .0287497
779.035 .0287362
779.747 .0287221
780.459 .0287078
781.171 .0286937
781.882 .0286801
782.594 .0286673
783.305 .0286557
784.016 .0286454
784.726 .0286358
785.436 .0286269
786.147 .0286178
786.856 .0286085
787.566 .0285989
788.275 .0285890
788.984 .0285788
789.693 .0285685
790.401 .0285580
791.110 .0285472
791.818 .0285364
792.525 .0285258
793.233 .0285149
793.940 .0285035
794.647 .0284911
795.353 .0284779
796.060 .0284633
796.766 .0284477
797.472 .0284308
798.177 .0284130
798.883 .0283941
799.588 .0283737
800.292 .0283521
800.997 .0283297
801.701 .0283061
802.405 .0282818
803.109 .0282571
803.812 .0282322
804.515 .0282065
805.218 .0281801
805.921 .0281528
806.623 .0281248
807.325 .0280956
808.027 .0280654
808.728 .0280342
809.429 .0280029
810.130 .0279716
810.831 .0279406
811.531 .0279101
812.231 .0278805
812.931 .0278508
813.630 .0278211
814.330 .0277913
815.029 .0277616
815.727 .0277319
816.426 .0277032
817.124 .0276753
817.821 .0276487
818.519 .0276238
819.216 .0276008
819.913 .0275792
820.609 .0275596
821.306 .0275413
822.002 .0275244
822.697 .0275092
823.393 .0274960
824.088 .0274840
824.783 .0274737
825.477 .0274651
826.171 .0274576
826.865 .0274511
827.559 .0274457
828.252 .0274407
828.945 .0274367
829.638 .0274334
830.330 .0274305
831.023 .0274280
831.714 .0274262
832.406 .0274247
833.097 .0274233
833.788 .0274219
834.479 .0274205
835.169 .0274189
835.859 .0274176
836.548 .0274167
837.238 .0274164
837.927 .0274164
838.615 .0274168
839.304 .0274175
839.992 .0274183
840.680 .0274191
841.367 .0274199
842.054 .0274207
842.741 .0274219
843.428 .0274237
844.114 .0274259
844.800 .0274288
845.485 .0274321
846.170 .0274351
846.855 .0274375
847.540 .0274391
848.224 .0274395
848.908 .0274391
849.592 .0274385
850.275 .0274377
850.958 .0274366
851.641 .0274356
852.323 .0274344
853.005 .0274328
853.687 .0274304
854.368 .0274265
855.049 .0274212
855.730 .0274146
856.410 .0274064
857.090 .0273973
857.769 .0273876
858.449 .0273781
859.128 .0273684
859.806 .0273595
860.485 .0273510
861.163 .0273429
861.840 .0273357
862.518 .0273288
863.195 .0273226
863.871 .0273169
864.548 .0273118
865.224 .0273075
865.899 .0273046
866.574 .0273024
867.249 .0273007
867.924 .0272995
868.598 .0272987
869.272 .0272980
869.946 .0272975
870.619 .0272967
871.292 .0272960
871.964 .0272951
872.636 .0272941
873.308 .0272924
873.979 .0272906
874.651 .0272880
875.321 .0272850
875.992 .0272817
876.662 .0272783
877.331 .0272746
878.001 .0272716
878.670 .0272690
879.338 .0272671
880.007 .0272658
880.675 .0272653
881.342 .0272654
882.009 .0272670
882.676 .0272692
883.343 .0272719
884.009 .0272752
884.675 .0272787
885.340 .0272818
886.005 .0272849
886.670 .0272874
887.334 .0272896
887.998 .0272911
888.662 .0272924
889.325 .0272931
889.988 .0272939
890.650 .0272947
891.312 .0272955
891.974 .0272965
892.636 .0272977
893.297 .0272985
893.957 .0272991
894.618 .0272991
895.278 .0272986
895.937 .0272977
896.596 .0272968
897.255 .0272958
897.914 .0272953
898.572 .0272949
899.230 .0272948
899.887 .0272941
900.544 .0272926
901.201 .0272895
901.857 .0272845
902.513 .0272770
903.168 .0272666
903.823 .0272532
904.478 .0272373
905.132 .0272188
905.786 .0271984
906.440 .0271763
907.093 .0271523
907.746 .0271269
908.399 .0271000
909.051 .0270711
909.703 .0270402
910.354 .0270073
911.005 .0269731
911.656 .0269378
912.306 .0269016
912.956 .0268650
913.605 .0268288
914.254 .0267934
914.903 .0267584
915.551 .0267243
916.199 .0266913
916.847 .0266594
917.494 .0266284
918.141 .0265984
918.788 .0265688
919.434 .0265397
920.079 .0265107
920.725 .0264817
921.370 .0264522
922.014 .0264223
922.658 .0263920
923.302 .0263617
923.946 .0263311
924.589 .0263002
925.231 .0262687
925.873 .0262364
926.515 .0262027
927.157 .0261678
927.798 .0261313
928.439 .0260937
929.079 .0260553
929.719 .0260165
930.359 .0259775
930.998 .0259392
931.637 .0259018
932.275 .0258654
932.913 .0258304
933.551 .0257967
934.188 .0257642
934.825 .0257334
935.462 .0257044
936.098 .0256772
936.733 .0256523
937.369 .0256298
938.004 .0256095
938.638 .0255914
939.273 .0255752
939.907 .0255600
940.540 .0255461
941.173 .0255332
941.806 .0255210
942.438 .0255092
943.070 .0254978
943.702 .0254859
944.333 .0254732
944.964 .0254595
945.594 .0254445
946.224 .0254285
946.854 .0254116
947.483 .0253942
948.112 .0253765
948.741 .0253589
949.369 .0253414
949.996 .0253237
950.624 .0253066
951.251 .0252894
951.878 .0252723
952.504 .0252554
953.130 .0252389
953.755 .0252235
954.380 .0252094
955.005 .0251963
955.629 .0251841
956.253 .0251724
956.877 .0251611
957.500 .0251502
958.123 .0251399
958.746 .0251302
959.368 .0251213
959.990 .0251133
960.611 .0251056
961.232 .0250983
961.853 .0250911
962.473 .0250840
963.093 .0250768
963.712 .0250695
964.331 .0250619
964.950 .0250545
965.569 .0250479
966.187 .0250419
966.804 .0250370
967.422 .0250333
968.039 .0250301
968.655 .0250277
969.272 .0250256
969.887 .0250231
970.503 .0250201
971.118 .0250170
971.733 .0250133
972.347 .0250091
972.961 .0250047
973.575 .0250003
974.188 .0249962
974.801 .0249923
975.414 .0249883
976.026 .0249841
976.638 .0249805
977.250 .0249766
977.861 .0249723
978.472 .0249678
979.083 .0249627
979.693 .0249569
980.303 .0249505
980.912 .0249439
981.521 .0249374
982.130 .0249320
982.738 .0249279
983.346 .0249249
983.954 .0249238
984.562 .0249238
985.169 .0249247
985.775 .0249256
986.382 .0249268
986.988 .0249277
987.594 .0249292
988.199 .0249315
988.804 .0249352
989.409 .0249410
990.013 .0249491
990.617 .0249591
991.221 .0249707
991.824 .0249830
992.427 .0249958
993.030 .0250088
993.632 .0250219
994.234 .0250351
994.836 .0250488
995.438 .0250632
996.039 .0250794
996.640 .0250965
997.240 .0251147
997.840 .0251336
998.440 .0251526
999.040 .0251705
999.639 .0251867
1000.238 .0252008
1000.836 .0252129
1001.435 .0252236
1002.033 .0252332
1002.630 .0252419
1003.228 .0252506
1003.825 .0252593
1004.422 .0252684
1005.018 .0252774
1005.614 .0252866
1006.210 .0252954
1006.806 .0253048
1007.401 .0253139
1007.996 .0253232
1008.591 .0253327
1009.186 .0253435
1009.780 .0253554
1010.374 .0253684
1010.967 .0253820
1011.561 .0253965
1012.154 .0254117
1012.746 .0254274
1013.339 .0254429
1013.931 .0254590
1014.523 .0254751
1015.115 .0254909
1015.706 .0255063
1016.298 .0255214
1016.888 .0255358
1017.479 .0255500
1018.069 .0255643
1018.660 .0255788
1019.250 .0255935
1019.839 .0256092
1020.429 .0256266
1021.018 .0256457
1021.607 .0256660
1022.195 .0256867
1022.784 .0257078
1023.372 .0257291
1023.960 .0257494
1024.547 .0257687
1025.135 .0257878
1025.722 .0258067
1026.309 .0258257
1026.896 .0258450
1027.483 .0258652
1028.069 .0258857
1028.655 .0259062
1029.241 .0259262
1029.827 .0259454
1030.412 .0259631
1030.997 .0259797
1031.582 .0259953
1032.167 .0260104
1032.752 .0260247
1033.336 .0260381
1033.921 .0260515
1034.505 .0260650
1035.089 .0260779
1035.672 .0260905
1036.256 .0261024
1036.839 .0261138
1037.422 .0261237
1038.005 .0261328
1038.588 .0261408
1039.171 .0261480
1039.753 .0261543
1040.335 .0261599
1040.918 .0261652
1041.500 .0261700
1042.081 .0261742
1042.663 .0261778
1043.244 .0261804
1043.826 .0261814
1044.407 .0261801
1044.988 .0261773
1045.569 .0261724
1046.150 .0261662
1046.730 .0261584
1047.311 .0261505
1047.891 .0261427
1048.471 .0261350
1049.052 .0261276
1049.632 .0261202
1050.211 .0261127
1050.791 .0261043
1051.371 .0260951
1051.950 .0260855
1052.530 .0260749
1053.109 .0260649
1053.688 .0260547
1054.268 .0260451
1054.847 .0260356
1055.426 .0260267
1056.005 .0260167
1056.583 .0260061
1057.162 .0259933
1057.741 .0259788
1058.319 .0259634
1058.898 .0259479
1059.476 .0259316
1060.055 .0259156
1060.633 .0258989
1061.211 .0258815
1061.790 .0258631
1062.368 .0258447
1062.946 .0258247
1063.524 .0258048
1064.102 .0257853
1064.680 .0257667
1065.258 .0257493
1065.836 .0257358
1066.414 .0257260
1066.992 .0257197
1067.570 .0257159
1068.148 .0257129
1068.726 .0257099
1069.304 .0257076
1069.882 .0257049
1070.460 .0257025
1071.038 .0256998
1071.616 .0256979
1072.194 .0256966
1072.772 .0256972
1073.350 .0256985
1073.928 .0257002
1074.506 .0257017
1075.084 .0257019
1075.662 .0256987
1076.240 .0256939
1076.819 .0256885
1077.397 .0256836
1077.976 .0256788
1078.554 .0256738
1079.133 .0256680
1079.711 .0256613
1080.290 .0256529
1080.869 .0256432
1081.448 .0256312
1082.027 .0256179
1082.606 .0256025
1083.185 .0255880
1083.764 .0255746
1084.343 .0255643
1084.923 .0255556
1085.502 .0255486
1086.082 .0255416
1086.662 .0255331
1087.242 .0255209
1087.822 .0255062
1088.402 .0254879
1088.983 .0254676
1089.563 .0254453
1090.144 .0254238
1090.725 .0254040
1091.306 .0253876
1091.887 .0253742
1092.469 .0253645
1093.050 .0253557
1093.632 .0253485
1094.214 .0253407
1094.796 .0253329
1095.379 .0253260
1095.961 .0253216
1096.544 .0253207
1097.127 .0253261
1097.710 .0253395
1098.294 .0253596
1098.877 .0253850
1099.461 .0254144
1100.046 .0254454
1100.630 .0254750
1101.215 .0255025
1101.800 .0255267
1102.385 .0255473
1102.970 .0255678
1103.556 .0255848
1104.142 .0256008
1104.728 .0256200
1105.315 .0256400
1105.902 .0256594
1106.489 .0256784
1107.077 .0256943
1107.664 .0257062
1108.253 .0257177
1108.841 .0257263
1109.430 .0257338
1110.019 .0257414
1110.609 .0257481
1111.198 .0257516
1111.789 .0257556
1112.379 .0257588
1112.970 .0257575
1113.561 .0257592
1114.153 .0257590
1114.745 .0257555
1115.338 .0257535
1115.931 .0257523
1116.524 .0257528
1117.117 .0257588
1117.712 .0257700
1118.306 .0257840
1118.901 .0258072
1119.496 .0258384
1120.092 .0258741
1120.689 .0259185
1121.285 .0259677
1121.882 .0260165
1122.480 .0260671
1123.078 .0261197
1123.677 .0261721
1124.276 .0262303
1124.875 .0262974
1125.476 .0263709
1126.076 .0264489
1126.677 .0265317
1127.279 .0266150
1127.881 .0266973
1128.484 .0267763
1129.087 .0268466
1129.691 .0269105
1130.295 .0269703
1130.900 .0270282
1131.505 .0270888
1132.111 .0271589
1132.718 .0272382
1133.325 .0273275
1133.933 .0274232
1134.541 .0275223
1135.150 .0276197
1135.760 .0277145
1136.370 .0278047
1136.981 .0278884
1137.592 .0279648
1138.204 .0280396
1138.817 .0281157
1139.431 .0282014
1140.045 .0282929
1140.660 .0283940
1141.275 .0285056
1141.891 .0286193
1142.508 .0287814
1143.126 .0288974
1143.744 .0289905
1144.363 .0291699
1144.983 .0290975
