Measurement Sequence started on: 15-12-46-377
Integration time: 28
Scans to Average: 2 
>>>>>Begin Spectral Data<<<<<
432.689 .0000100
433.621 .0000100
434.552 .0000100
435.482 .0000100
436.410 .0000100
437.337 .0000100
438.262 .0301241
439.187 .0637603
440.110 .1055292
441.031 .1525986
441.952 .1982563
442.871 .2340590
443.789 .2535118
444.705 .2543908
445.621 .2395046
446.535 .2148931
447.447 .1871323
448.359 .1447758
449.269 .1238680
450.178 .1107096
451.086 .1014473
451.993 .0943849
452.898 .0888400
453.803 .0842954
454.706 .0805042
455.608 .0772440
456.508 .0744022
457.408 .0719090
458.306 .0696981
459.204 .0676862
460.100 .0658662
460.995 .0642159
461.888 .0627057
462.781 .0613241
463.673 .0600511
464.563 .0588786
465.452 .0577833
466.340 .0567569
467.228 .0558048
468.114 .0549256
468.999 .0541210
469.882 .0533799
470.765 .0527023
471.647 .0520872
472.528 .0515299
473.407 .0510336
474.286 .0506060
475.163 .0502337
476.040 .0499140
476.915 .0496410
477.790 .0494047
478.663 .0492036
479.535 .0490294
480.407 .0488736
481.277 .0487392
482.147 .0486211
483.015 .0485113
483.883 .0484124
484.749 .0483345
485.615 .0482770
486.479 .0482337
487.343 .0482092
488.206 .0482002
489.067 .0482055
489.928 .0482261
490.788 .0482591
491.647 .0483139
492.505 .0483990
493.362 .0485078
494.218 .0486387
495.073 .0488038
495.928 .0489982
496.781 .0492158
497.634 .0494683
498.486 .0497552
499.337 .0500792
500.187 .0504312
501.036 .0508186
501.884 .0512398
502.731 .0516953
503.578 .0521731
504.424 .0526654
505.268 .0531710
506.113 .0536843
506.956 .0542041
507.798 .0547617
508.640 .0553695
509.480 .0560403
510.320 .0567958
511.160 .0576424
511.998 .0585883
512.836 .0596316
513.672 .0607644
514.508 .0620156
515.344 .0633927
516.178 .0649209
517.012 .0666316
517.845 .0685819
518.677 .0708365
519.508 .0734213
520.339 .0763838
521.169 .0797687
521.998 .0835553
522.826 .0878243
523.654 .0925815
524.481 .0978410
525.307 .1036994
526.133 .1100987
526.958 .1170343
527.782 .1244274
528.605 .1321086
529.428 .1399236
530.250 .1473184
531.072 .1540475
531.892 .1596580
532.712 .1638620
533.532 .1664867
534.350 .1673129
535.168 .1663486
535.986 .1636895
536.802 .1594773
537.618 .1539995
538.434 .1474731
539.249 .1403402
540.063 .1328116
540.876 .1252041
541.689 .1177680
542.501 .1107058
543.313 .1041862
544.124 .0982825
544.934 .0929482
545.744 .0881636
546.553 .0838479
547.361 .0799737
548.169 .0765353
548.976 .0734226
549.783 .0706301
550.589 .0681321
551.395 .0658802
552.200 .0638478
553.004 .0620144
553.808 .0603364
554.611 .0588226
555.414 .0574627
556.216 .0562408
557.018 .0551402
557.819 .0541545
558.619 .0532474
559.419 .0524042
560.218 .0516133
561.017 .0508640
561.815 .0501399
562.613 .0494472
563.410 .0487779
564.207 .0481335
565.003 .0475167
565.799 .0469242
566.594 .0463509
567.388 .0457978
568.182 .0452507
568.976 .0447074
569.769 .0441720
570.562 .0436395
571.354 .0431130
572.145 .0425958
572.936 .0420935
573.727 .0416081
574.517 .0411340
575.307 .0406695
576.096 .0402158
576.885 .0397708
577.673 .0393352
578.461 .0389103
579.248 .0384988
580.035 .0381033
580.821 .0377307
581.607 .0373815
582.392 .0370539
583.177 .0367523
583.962 .0364782
584.746 .0362307
585.529 .0360075
586.313 .0358070
587.095 .0356256
587.878 .0354637
588.660 .0353188
589.441 .0351877
590.222 .0350701
591.003 .0349674
591.783 .0348747
592.563 .0347926
593.342 .0347205
594.121 .0346547
594.899 .0345948
595.678 .0345397
596.455 .0344869
597.233 .0344361
598.009 .0343862
598.786 .0343373
599.562 .0342892
600.338 .0342434
601.113 .0341983
601.888 .0341540
602.663 .0341109
603.437 .0340676
604.211 .0340229
604.984 .0339778
605.757 .0339322
606.530 .0338854
607.302 .0338385
608.074 .0337921
608.845 .0337471
609.616 .0337032
610.387 .0336613
611.158 .0336212
611.928 .0335824
612.697 .0335449
613.467 .0335084
614.236 .0334732
615.004 .0334401
615.773 .0334089
616.541 .0333802
617.308 .0333547
618.076 .0333321
618.843 .0333111
619.609 .0332931
620.375 .0332770
621.141 .0332615
621.907 .0332455
622.672 .0332289
623.437 .0332105
624.202 .0331899
624.966 .0331670
625.730 .0331415
626.493 .0331141
627.257 .0330849
628.020 .0330533
628.782 .0330205
629.545 .0329863
630.307 .0329502
631.068 .0329125
631.830 .0328740
632.591 .0328332
633.352 .0327910
634.112 .0327485
634.872 .0327060
635.632 .0326641
636.392 .0326227
637.151 .0325824
637.910 .0325435
638.668 .0325058
639.427 .0324684
640.185 .0324307
640.943 .0323940
641.700 .0323577
642.457 .0323219
643.214 .0322873
643.971 .0322547
644.727 .0322243
645.483 .0321969
646.239 .0321724
646.994 .0321494
647.750 .0321285
648.505 .0321086
649.259 .0320894
650.014 .0320706
650.768 .0320516
651.521 .0320327
652.275 .0320135
653.028 .0319948
653.781 .0319754
654.534 .0319551
655.286 .0319353
656.039 .0319149
656.791 .0318946
657.542 .0318731
658.294 .0318510
659.045 .0318281
659.796 .0318046
660.546 .0317801
661.297 .0317546
662.047 .0317290
662.796 .0317037
663.546 .0316790
664.295 .0316551
665.044 .0316319
665.793 .0316103
666.542 .0315891
667.290 .0315692
668.038 .0315489
668.786 .0315278
669.533 .0315054
670.281 .0314822
671.028 .0314575
671.774 .0314320
672.521 .0314064
673.267 .0313813
674.013 .0313575
674.759 .0313355
675.505 .0313146
676.250 .0312953
676.995 .0312768
677.740 .0312590
678.484 .0312403
679.229 .0312215
679.973 .0312013
680.717 .0311805
681.460 .0311596
682.204 .0311385
682.947 .0311173
683.690 .0310971
684.433 .0310770
685.175 .0310576
685.917 .0310382
686.659 .0310189
687.401 .0309987
688.142 .0309780
688.884 .0309560
689.625 .0309323
690.365 .0309074
691.106 .0308816
691.846 .0308546
692.586 .0308281
693.326 .0308021
694.066 .0307774
694.805 .0307538
695.545 .0307317
696.284 .0307107
697.022 .0306906
697.761 .0306709
698.499 .0306511
699.237 .0306304
699.975 .0306093
700.713 .0305872
701.450 .0305641
702.187 .0305409
702.924 .0305184
703.661 .0304965
704.397 .0304757
705.133 .0304555
705.869 .0304356
706.605 .0304155
707.341 .0303954
708.076 .0303740
708.811 .0303512
709.546 .0303273
710.281 .0303019
711.015 .0302759
711.749 .0302495
712.483 .0302234
713.217 .0301980
713.950 .0301740
714.684 .0301515
715.417 .0301293
716.150 .0301083
716.882 .0300883
717.615 .0300688
718.347 .0300498
719.079 .0300311
719.811 .0300125
720.542 .0299946
721.273 .0299772
722.005 .0299598
722.735 .0299429
723.466 .0299264
724.196 .0299102
724.927 .0298938
725.656 .0298775
726.386 .0298610
727.116 .0298439
727.845 .0298268
728.574 .0298089
729.303 .0297905
730.031 .0297718
730.760 .0297531
731.488 .0297349
732.216 .0297170
732.944 .0297004
733.671 .0296851
734.398 .0296712
735.125 .0296585
735.852 .0296469
736.579 .0296365
737.305 .0296273
738.031 .0296189
738.757 .0296115
739.483 .0296053
740.208 .0296001
740.933 .0295961
741.658 .0295931
742.383 .0295908
743.108 .0295892
743.832 .0295870
744.556 .0295845
745.280 .0295813
746.004 .0295766
746.727 .0295705
747.450 .0295635
748.173 .0295559
748.896 .0295477
749.618 .0295394
750.340 .0295311
751.062 .0295228
751.784 .0295142
752.506 .0295050
753.227 .0294949
753.948 .0294842
754.669 .0294722
755.389 .0294594
756.110 .0294460
756.830 .0294323
757.550 .0294183
758.269 .0294046
758.989 .0293908
759.708 .0293768
760.427 .0293620
761.146 .0293466
761.864 .0293305
762.582 .0293133
763.300 .0292953
764.018 .0292774
764.736 .0292594
765.453 .0292422
766.170 .0292249
766.887 .0292080
767.603 .0291906
768.320 .0291725
769.036 .0291530
769.751 .0291320
770.467 .0291101
771.182 .0290878
771.897 .0290656
772.612 .0290440
773.327 .0290227
774.041 .0290023
774.755 .0289823
775.469 .0289626
776.183 .0289427
776.896 .0289229
777.609 .0289032
778.322 .0288844
779.035 .0288666
779.747 .0288508
780.459 .0288375
781.171 .0288264
781.882 .0288173
782.594 .0288099
783.305 .0288032
784.016 .0287968
784.726 .0287904
785.436 .0287839
786.147 .0287763
786.856 .0287683
787.566 .0287596
788.275 .0287505
788.984 .0287408
789.693 .0287301
790.401 .0287182
791.110 .0287051
791.818 .0286905
792.525 .0286738
793.233 .0286561
793.940 .0286376
794.647 .0286181
795.353 .0285987
796.060 .0285793
796.766 .0285599
797.472 .0285405
798.177 .0285214
798.883 .0285021
799.588 .0284824
800.292 .0284626
800.997 .0284424
801.701 .0284220
802.405 .0284020
803.109 .0283824
803.812 .0283634
804.515 .0283454
805.218 .0283275
805.921 .0283094
806.623 .0282912
807.325 .0282723
808.027 .0282525
808.728 .0282320
809.429 .0282116
810.130 .0281912
810.831 .0281717
811.531 .0281537
812.231 .0281367
812.931 .0281211
813.630 .0281062
814.330 .0280914
815.029 .0280766
815.727 .0280616
816.426 .0280464
817.124 .0280310
817.821 .0280162
818.519 .0280020
819.216 .0279889
819.913 .0279772
820.609 .0279667
821.306 .0279572
822.002 .0279489
822.697 .0279412
823.393 .0279343
824.088 .0279284
824.783 .0279236
825.477 .0279196
826.171 .0279171
826.865 .0279159
827.559 .0279160
828.252 .0279177
828.945 .0279212
829.638 .0279264
830.330 .0279334
831.023 .0279422
831.714 .0279523
832.406 .0279635
833.097 .0279750
833.788 .0279855
834.479 .0279949
835.169 .0280027
835.859 .0280083
836.548 .0280122
837.238 .0280153
837.927 .0280178
838.615 .0280201
839.304 .0280233
839.992 .0280268
840.680 .0280306
841.367 .0280346
842.054 .0280381
842.741 .0280407
843.428 .0280427
844.114 .0280438
844.800 .0280438
845.485 .0280437
846.170 .0280434
846.855 .0280429
847.540 .0280428
848.224 .0280428
848.908 .0280428
849.592 .0280421
850.275 .0280402
850.958 .0280368
851.641 .0280318
852.323 .0280249
853.005 .0280157
853.687 .0280045
854.368 .0279913
855.049 .0279761
855.730 .0279593
856.410 .0279414
857.090 .0279227
857.769 .0279034
858.449 .0278833
859.128 .0278628
859.806 .0278413
860.485 .0278191
861.163 .0277963
861.840 .0277732
862.518 .0277497
863.195 .0277262
863.871 .0277028
864.548 .0276802
865.224 .0276585
865.899 .0276378
866.574 .0276177
867.249 .0275991
867.924 .0275813
868.598 .0275641
869.272 .0275481
869.946 .0275333
870.619 .0275194
871.292 .0275061
871.964 .0274932
872.636 .0274803
873.308 .0274670
873.979 .0274535
874.651 .0274390
875.321 .0274240
875.992 .0274085
876.662 .0273924
877.331 .0273761
878.001 .0273598
878.670 .0273433
879.338 .0273265
880.007 .0273096
880.675 .0272929
881.342 .0272759
882.009 .0272593
882.676 .0272430
883.343 .0272272
884.009 .0272119
884.675 .0271970
885.340 .0271823
886.005 .0271682
886.670 .0271546
887.334 .0271414
887.998 .0271289
888.662 .0271175
889.325 .0271071
889.988 .0270977
890.650 .0270893
891.312 .0270814
891.974 .0270738
892.636 .0270664
893.297 .0270587
893.957 .0270510
894.618 .0270433
895.278 .0270358
895.937 .0270277
896.596 .0270196
897.255 .0270110
897.914 .0270013
898.572 .0269903
899.230 .0269777
899.887 .0269634
900.544 .0269479
901.201 .0269312
901.857 .0269136
902.513 .0268953
903.168 .0268760
903.823 .0268552
904.478 .0268329
905.132 .0268089
905.786 .0267827
906.440 .0267549
907.093 .0267260
907.746 .0266963
908.399 .0266662
909.051 .0266367
909.703 .0266077
910.354 .0265795
911.005 .0265518
911.656 .0265242
912.306 .0264969
912.956 .0264700
913.605 .0264432
914.254 .0264169
914.903 .0263918
915.551 .0263677
916.199 .0263453
916.847 .0263246
917.494 .0263052
918.141 .0262874
918.788 .0262709
919.434 .0262556
920.079 .0262411
920.725 .0262276
921.370 .0262149
922.014 .0262029
922.658 .0261912
923.302 .0261794
923.946 .0261672
924.589 .0261549
925.231 .0261414
925.873 .0261270
926.515 .0261121
927.157 .0260965
927.798 .0260805
928.439 .0260644
929.079 .0260486
929.719 .0260331
930.359 .0260173
930.998 .0260013
931.637 .0259853
932.275 .0259689
932.913 .0259527
933.551 .0259364
934.188 .0259210
934.825 .0259070
935.462 .0258939
936.098 .0258825
936.733 .0258727
937.369 .0258641
938.004 .0258564
938.638 .0258490
939.273 .0258428
939.907 .0258372
940.540 .0258325
941.173 .0258295
941.806 .0258284
942.438 .0258293
943.070 .0258318
943.702 .0258354
944.333 .0258399
944.964 .0258444
945.594 .0258484
946.224 .0258521
946.854 .0258559
947.483 .0258599
948.112 .0258644
948.741 .0258697
949.369 .0258768
949.996 .0258847
950.624 .0258931
951.251 .0259020
951.878 .0259103
952.504 .0259177
953.130 .0259238
953.755 .0259285
954.380 .0259327
955.005 .0259370
955.629 .0259414
956.253 .0259464
956.877 .0259525
957.500 .0259596
958.123 .0259669
958.746 .0259744
959.368 .0259812
959.990 .0259869
960.611 .0259912
961.232 .0259942
961.853 .0259966
962.473 .0259989
963.093 .0260014
963.712 .0260045
964.331 .0260082
964.950 .0260121
965.569 .0260159
966.187 .0260193
966.804 .0260223
967.422 .0260251
968.039 .0260272
968.655 .0260292
969.272 .0260321
969.887 .0260357
970.503 .0260397
971.118 .0260445
971.733 .0260496
972.347 .0260540
972.961 .0260580
973.575 .0260610
974.188 .0260626
974.801 .0260631
975.414 .0260622
976.026 .0260592
976.638 .0260555
977.250 .0260509
977.861 .0260447
978.472 .0260380
979.083 .0260313
979.693 .0260233
980.303 .0260144
980.912 .0260050
981.521 .0259949
982.130 .0259838
982.738 .0259718
983.346 .0259587
983.954 .0259453
984.562 .0259317
985.169 .0259170
985.775 .0259015
986.382 .0258859
986.988 .0258692
987.594 .0258517
988.199 .0258340
988.804 .0258169
989.409 .0257999
990.013 .0257843
990.617 .0257696
991.221 .0257558
991.824 .0257434
992.427 .0257322
993.030 .0257219
993.632 .0257127
994.234 .0257039
994.836 .0256955
995.438 .0256878
996.039 .0256816
996.640 .0256759
997.240 .0256714
997.840 .0256684
998.440 .0256664
999.040 .0256647
999.639 .0256631
1000.238 .0256604
1000.836 .0256570
1001.435 .0256522
1002.033 .0256451
1002.630 .0256358
1003.228 .0256257
1003.825 .0256149
1004.422 .0256037
1005.018 .0255932
1005.614 .0255840
1006.210 .0255759
1006.806 .0255692
1007.401 .0255627
1007.996 .0255559
1008.591 .0255491
1009.186 .0255418
1009.780 .0255334
1010.374 .0255248
1010.967 .0255161
1011.561 .0255075
1012.154 .0254999
1012.746 .0254935
1013.339 .0254873
1013.931 .0254812
1014.523 .0254752
1015.115 .0254679
1015.706 .0254593
1016.298 .0254497
1016.888 .0254399
1017.479 .0254302
1018.069 .0254208
1018.660 .0254112
1019.250 .0254020
1019.839 .0253932
1020.429 .0253846
1021.018 .0253750
1021.607 .0253650
1022.195 .0253539
1022.784 .0253421
1023.372 .0253302
1023.960 .0253189
1024.547 .0253086
1025.135 .0253002
1025.722 .0252933
1026.309 .0252879
1026.896 .0252832
1027.483 .0252791
1028.069 .0252750
1028.655 .0252709
1029.241 .0252659
1029.827 .0252607
1030.412 .0252558
1030.997 .0252516
1031.582 .0252484
1032.167 .0252467
1032.752 .0252457
1033.336 .0252449
1033.921 .0252436
1034.505 .0252418
1035.089 .0252391
1035.672 .0252358
1036.256 .0252314
1036.839 .0252262
1037.422 .0252209
1038.005 .0252151
1038.588 .0252093
1039.171 .0252036
1039.753 .0251977
1040.335 .0251910
1040.918 .0251832
1041.500 .0251736
1042.081 .0251630
1042.663 .0251511
1043.244 .0251389
1043.826 .0251260
1044.407 .0251129
1044.988 .0250994
1045.569 .0250859
1046.150 .0250726
1046.730 .0250588
1047.311 .0250444
1047.891 .0250300
1048.471 .0250149
1049.052 .0249998
1049.632 .0249853
1050.211 .0249722
1050.791 .0249609
1051.371 .0249518
1051.950 .0249440
1052.530 .0249378
1053.109 .0249323
1053.688 .0249265
1054.268 .0249203
1054.847 .0249137
1055.426 .0249060
1056.005 .0248977
1056.583 .0248898
1057.162 .0248823
1057.741 .0248755
1058.319 .0248699
1058.898 .0248652
1059.476 .0248612
1060.055 .0248572
1060.633 .0248530
1061.211 .0248491
1061.790 .0248468
1062.368 .0248453
1062.946 .0248459
1063.524 .0248491
1064.102 .0248542
1064.680 .0248609
1065.258 .0248689
1065.836 .0248781
1066.414 .0248879
1066.992 .0248978
1067.570 .0249074
1068.148 .0249168
1068.726 .0249253
1069.304 .0249331
1069.882 .0249407
1070.460 .0249478
1071.038 .0249550
1071.616 .0249616
1072.194 .0249687
1072.772 .0249759
1073.350 .0249841
1073.928 .0249924
1074.506 .0250006
1075.084 .0250085
1075.662 .0250149
1076.240 .0250204
1076.819 .0250261
1077.397 .0250321
1077.976 .0250395
1078.554 .0250498
1079.133 .0250619
1079.711 .0250750
1080.290 .0250892
1080.869 .0251016
1081.448 .0251117
1082.027 .0251174
1082.606 .0251187
1083.185 .0251162
1083.764 .0251125
1084.343 .0251092
1084.923 .0251086
1085.502 .0251121
1086.082 .0251196
1086.662 .0251304
1087.242 .0251444
1087.822 .0251593
1088.402 .0251743
1088.983 .0251906
1089.563 .0252060
1090.144 .0252222
1090.725 .0252413
1091.306 .0252617
1091.887 .0252868
1092.469 .0253156
1093.050 .0253479
1093.632 .0253823
1094.214 .0254188
1094.796 .0254558
1095.379 .0254929
1095.961 .0255302
1096.544 .0255665
1097.127 .0256012
1097.710 .0256381
1098.294 .0256756
1098.877 .0257140
1099.461 .0257537
1100.046 .0257941
1100.630 .0258334
1101.215 .0258732
1101.800 .0259107
1102.385 .0259468
1102.970 .0259814
1103.556 .0260145
1104.142 .0260443
1104.728 .0260731
1105.315 .0261005
1105.902 .0261268
1106.489 .0261540
1107.077 .0261824
1107.664 .0262083
1108.253 .0262351
1108.841 .0262632
1109.430 .0262943
1110.019 .0263273
1110.609 .0263623
1111.198 .0263972
1111.789 .0264335
1112.379 .0264686
1112.970 .0265011
1113.561 .0265334
1114.153 .0265679
1114.745 .0266035
1115.338 .0266416
1115.931 .0266842
1116.524 .0267319
1117.117 .0267836
1117.712 .0268380
1118.306 .0268912
1118.901 .0269438
1119.496 .0269914
1120.092 .0270359
1120.689 .0270784
1121.285 .0271194
1121.882 .0271610
1122.480 .0272054
1123.078 .0272560
1123.677 .0273121
1124.276 .0273731
1124.875 .0274390
1125.476 .0275059
1126.076 .0275767
1126.677 .0276444
1127.279 .0277101
1127.881 .0277754
1128.484 .0278396
1129.087 .0279029
1129.691 .0279723
1130.295 .0280493
1130.900 .0281377
1131.505 .0282382
1132.111 .0283493
1132.718 .0284671
1133.325 .0285930
1133.933 .0287173
1134.541 .0288430
1135.150 .0289660
1135.760 .0290907
1136.370 .0292108
1136.981 .0293334
1137.592 .0294570
1138.204 .0295859
1138.817 .0297174
1139.431 .0298522
1140.045 .0299978
1140.660 .0301466
1141.275 .0303003
1141.891 .0304437
1142.508 .0305322
1143.126 .0309747
1143.744 .0309256
1144.363 .0311696
1144.983 .0308165
