Measurement Sequence started on: 15-12-46-377
Integration time: 28
Scans to Average: 2 
>>>>>Begin Spectral Data<<<<<
432.689 .0000100
433.621 .0000100
434.552 .0000100
435.482 .0000100
436.410 .0000100
437.337 .0000100
438.262 .0276575
439.187 .0585669
440.110 .0969395
441.031 .1401533
441.952 .1820419
442.871 .2149207
443.789 .2327801
444.705 .2336465
445.621 .2200902
446.535 .1976601
447.447 .1724057
448.359 .1338336
449.269 .1149450
450.178 .1032053
451.086 .0950382
451.993 .0888477
452.898 .0839685
453.803 .0800045
454.706 .0766877
455.608 .0738487
456.508 .0713824
457.408 .0692064
458.306 .0672508
459.204 .0654997
460.100 .0638880
460.995 .0624248
461.888 .0610914
462.781 .0598641
463.673 .0587213
464.563 .0576686
465.452 .0566915
466.340 .0557714
467.228 .0549166
468.114 .0541219
468.999 .0533858
469.882 .0527222
470.765 .0521240
471.647 .0515896
472.528 .0511239
473.407 .0507191
474.286 .0503668
475.163 .0500595
476.040 .0498014
476.915 .0495738
477.790 .0493691
478.663 .0491904
479.535 .0490365
480.407 .0489001
481.277 .0487834
482.147 .0486863
483.015 .0486087
483.883 .0485502
484.749 .0485052
485.615 .0484711
486.479 .0484523
487.343 .0484452
488.206 .0484469
489.067 .0484510
489.928 .0484611
490.788 .0484703
491.647 .0484830
492.505 .0485134
493.362 .0485625
494.218 .0486331
495.073 .0487342
495.928 .0488727
496.781 .0490439
497.634 .0492496
498.486 .0494846
499.337 .0497468
500.187 .0500333
501.036 .0503446
501.884 .0506820
502.731 .0510564
503.578 .0514826
504.424 .0519565
505.268 .0524780
506.113 .0530494
506.956 .0536617
507.798 .0543194
508.640 .0550273
509.480 .0557902
510.320 .0566198
511.160 .0575267
511.998 .0585215
512.836 .0596251
513.672 .0608623
514.508 .0622396
515.344 .0637538
516.178 .0654353
517.012 .0673065
517.845 .0693854
518.677 .0717255
519.508 .0743593
520.339 .0773673
521.169 .0808055
521.998 .0846792
522.826 .0890415
523.654 .0939140
524.481 .0992926
525.307 .1052437
526.133 .1117215
526.958 .1187333
527.782 .1261949
528.605 .1339207
529.428 .1418666
530.250 .1494073
531.072 .1563254
531.892 .1621643
532.712 .1666277
533.532 .1694426
534.350 .1703321
535.168 .1692416
535.986 .1662817
536.802 .1616206
537.618 .1555811
538.434 .1483640
539.249 .1405967
540.063 .1324693
540.876 .1243542
541.689 .1165082
542.501 .1091931
543.313 .1025148
544.124 .0965585
544.934 .0912133
545.744 .0864556
546.553 .0822071
547.361 .0784289
548.169 .0751175
548.976 .0721677
549.783 .0695558
550.589 .0672285
551.395 .0651228
552.200 .0632449
553.004 .0615264
553.808 .0599394
554.611 .0584682
555.414 .0571036
556.216 .0558202
557.018 .0546242
557.819 .0535308
558.619 .0525239
559.419 .0515990
560.218 .0507544
561.017 .0499725
561.815 .0492256
562.613 .0485132
563.410 .0478142
564.207 .0471265
565.003 .0464599
565.799 .0458103
566.594 .0451828
567.388 .0446015
568.182 .0440574
568.976 .0435450
569.769 .0430625
570.562 .0426015
571.354 .0421461
572.145 .0416937
572.936 .0412382
573.727 .0407819
574.517 .0403268
575.307 .0398828
576.096 .0394477
576.885 .0390345
577.673 .0386448
578.461 .0382720
579.248 .0379203
580.035 .0375865
580.821 .0372688
581.607 .0369652
582.392 .0366785
583.177 .0364134
583.962 .0361713
584.746 .0359544
585.529 .0357622
586.313 .0355945
587.095 .0354476
587.878 .0353181
588.660 .0352015
589.441 .0350979
590.222 .0350005
591.003 .0349086
591.783 .0348228
592.563 .0347402
593.342 .0346624
594.121 .0345874
594.899 .0345166
595.678 .0344485
596.455 .0343813
597.233 .0343142
598.009 .0342460
598.786 .0341774
599.562 .0341071
600.338 .0340369
601.113 .0339684
601.888 .0339016
602.663 .0338368
603.437 .0337754
604.211 .0337171
604.984 .0336618
605.757 .0336085
606.530 .0335558
607.302 .0335037
608.074 .0334519
608.845 .0334004
609.616 .0333507
610.387 .0333027
611.158 .0332573
611.928 .0332137
612.697 .0331729
613.467 .0331342
614.236 .0330976
615.004 .0330630
615.773 .0330303
616.541 .0329986
617.308 .0329692
618.076 .0329407
618.843 .0329133
619.609 .0328873
620.375 .0328624
621.141 .0328389
621.907 .0328161
622.672 .0327941
623.437 .0327731
624.202 .0327526
624.966 .0327330
625.730 .0327127
626.493 .0326917
627.257 .0326695
628.020 .0326457
628.782 .0326203
629.545 .0325937
630.307 .0325658
631.068 .0325379
631.830 .0325109
632.591 .0324840
633.352 .0324573
634.112 .0324300
634.872 .0324021
635.632 .0323732
636.392 .0323434
637.151 .0323133
637.910 .0322824
638.668 .0322528
639.427 .0322241
640.185 .0321973
640.943 .0321721
641.700 .0321481
642.457 .0321255
643.214 .0321038
643.971 .0320823
644.727 .0320608
645.483 .0320403
646.239 .0320221
646.994 .0320046
647.750 .0319884
648.505 .0319726
649.259 .0319579
650.014 .0319426
650.768 .0319267
651.521 .0319097
652.275 .0318910
653.028 .0318708
653.781 .0318486
654.534 .0318248
655.286 .0317999
656.039 .0317737
656.791 .0317459
657.542 .0317162
658.294 .0316850
659.045 .0316516
659.796 .0316174
660.546 .0315823
661.297 .0315469
662.047 .0315113
662.796 .0314750
663.546 .0314389
664.295 .0314031
665.044 .0313679
665.793 .0313331
666.542 .0313000
667.290 .0312682
668.038 .0312375
668.786 .0312082
669.533 .0311801
670.281 .0311528
671.028 .0311261
671.774 .0310994
672.521 .0310728
673.267 .0310471
674.013 .0310223
674.759 .0309977
675.505 .0309748
676.250 .0309526
676.995 .0309306
677.740 .0309083
678.484 .0308855
679.229 .0308612
679.973 .0308357
680.717 .0308089
681.460 .0307808
682.204 .0307517
682.947 .0307228
683.690 .0306939
684.433 .0306655
685.175 .0306380
685.917 .0306114
686.659 .0305858
687.401 .0305615
688.142 .0305375
688.884 .0305144
689.625 .0304914
690.365 .0304689
691.106 .0304460
691.846 .0304234
692.586 .0304010
693.326 .0303788
694.066 .0303571
694.805 .0303368
695.545 .0303173
696.284 .0302987
697.022 .0302808
697.761 .0302640
698.499 .0302472
699.237 .0302308
699.975 .0302142
700.713 .0301985
701.450 .0301835
702.187 .0301700
702.924 .0301576
703.661 .0301470
704.397 .0301380
705.133 .0301299
705.869 .0301223
706.605 .0301155
707.341 .0301084
708.076 .0301015
708.811 .0300941
709.546 .0300864
710.281 .0300777
711.015 .0300681
711.749 .0300572
712.483 .0300450
713.217 .0300306
713.950 .0300144
714.684 .0299965
715.417 .0299776
716.150 .0299580
716.882 .0299378
717.615 .0299179
718.347 .0298986
719.079 .0298799
719.811 .0298617
720.542 .0298440
721.273 .0298269
722.005 .0298102
722.735 .0297933
723.466 .0297765
724.196 .0297596
724.927 .0297429
725.656 .0297265
726.386 .0297105
727.116 .0296948
727.845 .0296796
728.574 .0296642
729.303 .0296490
730.031 .0296333
730.760 .0296172
731.488 .0296005
732.216 .0295838
732.944 .0295673
733.671 .0295511
734.398 .0295351
735.125 .0295202
735.852 .0295056
736.579 .0294920
737.305 .0294784
738.031 .0294648
738.757 .0294509
739.483 .0294368
740.208 .0294218
740.933 .0294065
741.658 .0293905
742.383 .0293745
743.108 .0293582
743.832 .0293419
744.556 .0293253
745.280 .0293086
746.004 .0292917
746.727 .0292745
747.450 .0292569
748.173 .0292388
748.896 .0292201
749.618 .0292011
750.340 .0291816
751.062 .0291617
751.784 .0291417
752.506 .0291216
753.227 .0291012
753.948 .0290810
754.669 .0290604
755.389 .0290392
756.110 .0290180
756.830 .0289964
757.550 .0289739
758.269 .0289505
758.989 .0289260
759.708 .0289005
760.427 .0288746
761.146 .0288482
761.864 .0288218
762.582 .0287959
763.300 .0287712
764.018 .0287471
764.736 .0287243
765.453 .0287030
766.170 .0286828
766.887 .0286635
767.603 .0286448
768.320 .0286256
769.036 .0286068
769.751 .0285878
770.467 .0285688
771.182 .0285501
771.897 .0285322
772.612 .0285152
773.327 .0284993
774.041 .0284848
774.755 .0284714
775.469 .0284585
776.183 .0284465
776.896 .0284345
777.609 .0284229
778.322 .0284112
779.035 .0283997
779.747 .0283890
780.459 .0283799
781.171 .0283721
781.882 .0283660
782.594 .0283618
783.305 .0283597
784.016 .0283588
784.726 .0283591
785.436 .0283598
786.147 .0283610
786.856 .0283625
787.566 .0283639
788.275 .0283650
788.984 .0283666
789.693 .0283676
790.401 .0283684
791.110 .0283688
791.818 .0283687
792.525 .0283675
793.233 .0283655
793.940 .0283622
794.647 .0283578
795.353 .0283526
796.060 .0283468
796.766 .0283407
797.472 .0283347
798.177 .0283282
798.883 .0283215
799.588 .0283147
800.292 .0283080
800.997 .0283009
801.701 .0282936
802.405 .0282861
803.109 .0282787
803.812 .0282717
804.515 .0282654
805.218 .0282594
805.921 .0282538
806.623 .0282482
807.325 .0282419
808.027 .0282350
808.728 .0282271
809.429 .0282180
810.130 .0282081
810.831 .0281973
811.531 .0281861
812.231 .0281741
812.931 .0281624
813.630 .0281508
814.330 .0281396
815.029 .0281287
815.727 .0281178
816.426 .0281071
817.124 .0280964
817.821 .0280857
818.519 .0280749
819.216 .0280643
819.913 .0280543
820.609 .0280447
821.306 .0280357
822.002 .0280275
822.697 .0280208
823.393 .0280147
824.088 .0280095
824.783 .0280047
825.477 .0280002
826.171 .0279955
826.865 .0279912
827.559 .0279866
828.252 .0279823
828.945 .0279783
829.638 .0279748
830.330 .0279717
831.023 .0279690
831.714 .0279661
832.406 .0279628
833.097 .0279588
833.788 .0279535
834.479 .0279464
835.169 .0279384
835.859 .0279297
836.548 .0279205
837.238 .0279112
837.927 .0279020
838.615 .0278929
839.304 .0278839
839.992 .0278739
840.680 .0278628
841.367 .0278505
842.054 .0278367
842.741 .0278217
843.428 .0278061
844.114 .0277905
844.800 .0277756
845.485 .0277611
846.170 .0277468
846.855 .0277319
847.540 .0277161
848.224 .0276989
848.908 .0276795
849.592 .0276579
850.275 .0276344
850.958 .0276092
851.641 .0275836
852.323 .0275577
853.005 .0275321
853.687 .0275071
854.368 .0274825
855.049 .0274577
855.730 .0274323
856.410 .0274058
857.090 .0273787
857.769 .0273508
858.449 .0273226
859.128 .0272943
859.806 .0272663
860.485 .0272393
861.163 .0272134
861.840 .0271885
862.518 .0271641
863.195 .0271395
863.871 .0271147
864.548 .0270885
865.224 .0270614
865.899 .0270334
866.574 .0270049
867.249 .0269764
867.924 .0269483
868.598 .0269208
869.272 .0268945
869.946 .0268693
870.619 .0268449
871.292 .0268215
871.964 .0267985
872.636 .0267759
873.308 .0267537
873.979 .0267326
874.651 .0267125
875.321 .0266935
875.992 .0266764
876.662 .0266609
877.331 .0266473
878.001 .0266351
878.670 .0266243
879.338 .0266150
880.007 .0266071
880.675 .0265999
881.342 .0265937
882.009 .0265886
882.676 .0265838
883.343 .0265795
884.009 .0265759
884.675 .0265728
885.340 .0265700
886.005 .0265677
886.670 .0265664
887.334 .0265662
887.998 .0265670
888.662 .0265688
889.325 .0265717
889.988 .0265755
890.650 .0265798
891.312 .0265840
891.974 .0265887
892.636 .0265935
893.297 .0265987
893.957 .0266045
894.618 .0266105
895.278 .0266171
895.937 .0266235
896.596 .0266296
897.255 .0266348
897.914 .0266385
898.572 .0266406
899.230 .0266410
899.887 .0266402
900.544 .0266380
901.201 .0266349
901.857 .0266311
902.513 .0266268
903.168 .0266217
903.823 .0266157
904.478 .0266083
905.132 .0265995
905.786 .0265897
906.440 .0265786
907.093 .0265666
907.746 .0265543
908.399 .0265422
909.051 .0265310
909.703 .0265207
910.354 .0265116
911.005 .0265037
911.656 .0264972
912.306 .0264910
912.956 .0264849
913.605 .0264786
914.254 .0264722
914.903 .0264655
915.551 .0264591
916.199 .0264536
916.847 .0264495
917.494 .0264467
918.141 .0264457
918.788 .0264455
919.434 .0264463
920.079 .0264468
920.725 .0264469
921.370 .0264460
922.014 .0264440
922.658 .0264409
923.302 .0264370
923.946 .0264329
924.589 .0264284
925.231 .0264232
925.873 .0264178
926.515 .0264113
927.157 .0264035
927.798 .0263937
928.439 .0263822
929.079 .0263690
929.719 .0263547
930.359 .0263393
930.998 .0263232
931.637 .0263073
932.275 .0262919
932.913 .0262767
933.551 .0262617
934.188 .0262472
934.825 .0262329
935.462 .0262191
936.098 .0262060
936.733 .0261943
937.369 .0261845
938.004 .0261767
938.638 .0261712
939.273 .0261677
939.907 .0261665
940.540 .0261669
941.173 .0261686
941.806 .0261716
942.438 .0261747
943.070 .0261778
943.702 .0261804
944.333 .0261821
944.964 .0261829
945.594 .0261824
946.224 .0261813
946.854 .0261797
947.483 .0261779
948.112 .0261755
948.741 .0261729
949.369 .0261700
949.996 .0261662
950.624 .0261613
951.251 .0261557
951.878 .0261492
952.504 .0261423
953.130 .0261351
953.755 .0261283
954.380 .0261220
955.005 .0261161
955.629 .0261101
956.253 .0261039
956.877 .0260968
957.500 .0260887
958.123 .0260792
958.746 .0260687
959.368 .0260571
959.990 .0260446
960.611 .0260312
961.232 .0260176
961.853 .0260034
962.473 .0259892
963.093 .0259744
963.712 .0259590
964.331 .0259425
964.950 .0259251
965.569 .0259065
966.187 .0258877
966.804 .0258688
967.422 .0258506
968.039 .0258328
968.655 .0258153
969.272 .0257979
969.887 .0257804
970.503 .0257619
971.118 .0257425
971.733 .0257216
972.347 .0256996
972.961 .0256758
973.575 .0256515
974.188 .0256269
974.801 .0256025
975.414 .0255789
976.026 .0255559
976.638 .0255336
977.250 .0255121
977.861 .0254911
978.472 .0254707
979.083 .0254502
979.693 .0254298
980.303 .0254089
980.912 .0253874
981.521 .0253654
982.130 .0253430
982.738 .0253204
983.346 .0252976
983.954 .0252741
984.562 .0252498
985.169 .0252246
985.775 .0251983
986.382 .0251710
986.988 .0251427
987.594 .0251137
988.199 .0250842
988.804 .0250549
989.409 .0250260
990.013 .0249979
990.617 .0249709
991.221 .0249455
991.824 .0249220
992.427 .0249003
993.030 .0248803
993.632 .0248625
994.234 .0248462
994.836 .0248312
995.438 .0248168
996.039 .0248031
996.640 .0247901
997.240 .0247779
997.840 .0247664
998.440 .0247557
999.040 .0247465
999.639 .0247383
1000.238 .0247309
1000.836 .0247237
1001.435 .0247162
1002.033 .0247080
1002.630 .0246985
1003.228 .0246877
1003.825 .0246753
1004.422 .0246624
1005.018 .0246496
1005.614 .0246370
1006.210 .0246254
1006.806 .0246148
1007.401 .0246052
1007.996 .0245961
1008.591 .0245874
1009.186 .0245781
1009.780 .0245682
1010.374 .0245579
1010.967 .0245470
1011.561 .0245355
1012.154 .0245240
1012.746 .0245130
1013.339 .0245026
1013.931 .0244935
1014.523 .0244858
1015.115 .0244790
1015.706 .0244736
1016.298 .0244686
1016.888 .0244638
1017.479 .0244588
1018.069 .0244541
1018.660 .0244489
1019.250 .0244435
1019.839 .0244382
1020.429 .0244335
1021.018 .0244302
1021.607 .0244298
1022.195 .0244321
1022.784 .0244375
1023.372 .0244455
1023.960 .0244560
1024.547 .0244677
1025.135 .0244808
1025.722 .0244938
1026.309 .0245066
1026.896 .0245192
1027.483 .0245318
1028.069 .0245437
1028.655 .0245567
1029.241 .0245713
1029.827 .0245871
1030.412 .0246036
1030.997 .0246208
1031.582 .0246378
1032.167 .0246549
1032.752 .0246714
1033.336 .0246871
1033.921 .0247015
1034.505 .0247152
1035.089 .0247270
1035.672 .0247379
1036.256 .0247484
1036.839 .0247591
1037.422 .0247697
1038.005 .0247811
1038.588 .0247924
1039.171 .0248038
1039.753 .0248152
1040.335 .0248268
1040.918 .0248377
1041.500 .0248477
1042.081 .0248559
1042.663 .0248633
1043.244 .0248706
1043.826 .0248780
1044.407 .0248871
1044.988 .0248994
1045.569 .0249137
1046.150 .0249306
1046.730 .0249484
1047.311 .0249663
1047.891 .0249832
1048.471 .0249978
1049.052 .0250089
1049.632 .0250172
1050.211 .0250243
1050.791 .0250307
1051.371 .0250375
1051.950 .0250474
1052.530 .0250587
1053.109 .0250710
1053.688 .0250837
1054.268 .0250944
1054.847 .0251029
1055.426 .0251095
1056.005 .0251136
1056.583 .0251171
1057.162 .0251217
1057.741 .0251276
1058.319 .0251360
1058.898 .0251476
1059.476 .0251618
1060.055 .0251767
1060.633 .0251923
1061.211 .0252067
1061.790 .0252186
1062.368 .0252281
1062.946 .0252358
1063.524 .0252427
1064.102 .0252504
1064.680 .0252591
1065.258 .0252695
1065.836 .0252813
1066.414 .0252937
1066.992 .0253062
1067.570 .0253191
1068.148 .0253313
1068.726 .0253432
1069.304 .0253556
1069.882 .0253695
1070.460 .0253859
1071.038 .0254059
1071.616 .0254288
1072.194 .0254542
1072.772 .0254810
1073.350 .0255069
1073.928 .0255316
1074.506 .0255537
1075.084 .0255742
1075.662 .0255933
1076.240 .0256125
1076.819 .0256315
1077.397 .0256513
1077.976 .0256731
1078.554 .0256968
1079.133 .0257191
1079.711 .0257393
1080.290 .0257555
1080.869 .0257682
1081.448 .0257753
1082.027 .0257793
1082.606 .0257799
1083.185 .0257813
1083.764 .0257832
1084.343 .0257881
1084.923 .0257947
1085.502 .0258046
1086.082 .0258162
1086.662 .0258306
1087.242 .0258465
1087.822 .0258637
1088.402 .0258815
1088.983 .0259037
1089.563 .0259267
1090.144 .0259518
1090.725 .0259786
1091.306 .0260070
1091.887 .0260363
1092.469 .0260673
1093.050 .0260964
1093.632 .0261241
1094.214 .0261516
1094.796 .0261785
1095.379 .0262030
1095.961 .0262274
1096.544 .0262491
1097.127 .0262680
1097.710 .0262846
1098.294 .0262976
1098.877 .0263062
1099.461 .0263148
1100.046 .0263240
1100.630 .0263320
1101.215 .0263429
1101.800 .0263557
1102.385 .0263692
1102.970 .0263854
1103.556 .0264029
1104.142 .0264199
1104.728 .0264391
1105.315 .0264605
1105.902 .0264846
1106.489 .0265137
1107.077 .0265502
1107.664 .0265920
1108.253 .0266392
1108.841 .0266891
1109.430 .0267377
1110.019 .0267843
1110.609 .0268295
1111.198 .0268705
1111.789 .0269108
1112.379 .0269508
1112.970 .0269894
1113.561 .0270284
1114.153 .0270675
1114.745 .0271063
1115.338 .0271461
1115.931 .0271832
1116.524 .0272161
1117.117 .0272455
1117.712 .0272757
1118.306 .0273060
1118.901 .0273406
1119.496 .0273822
1120.092 .0274278
1120.689 .0274782
1121.285 .0275330
1121.882 .0275876
1122.480 .0276431
1123.078 .0277001
1123.677 .0277553
1124.276 .0278084
1124.875 .0278623
1125.476 .0279142
1126.076 .0279651
1126.677 .0280204
1127.279 .0280746
1127.881 .0281241
1128.484 .0281726
1129.087 .0282176
1129.691 .0282600
1130.295 .0283008
1130.900 .0283414
1131.505 .0283817
1132.111 .0284303
1132.718 .0284870
1133.325 .0285508
1133.933 .0286283
1134.541 .0287190
1135.150 .0288159
1135.760 .0289168
1136.370 .0290215
1136.981 .0291240
1137.592 .0292241
1138.204 .0293231
1138.817 .0294243
1139.431 .0295347
1140.045 .0296476
1140.660 .0297624
1141.275 .0298790
1141.891 .0300176
1142.508 .0303372
1143.126 .0302438
1143.744 .0302337
1144.363 .0303397
1144.983 .0311022
