Measurement Sequence started on: 15-12-46-377
Integration time: 28
Scans to Average: 2 
>>>>>Begin Spectral Data<<<<<
432.689 .0000100
433.621 .0000100
434.552 .0000100
435.482 .0000100
436.410 .0000100
437.337 .0000100
438.262 .0265944
439.187 .0562940
440.110 .0931621
441.031 .1347481
441.952 .1750990
442.871 .2067797
443.789 .2240617
444.705 .2249737
445.621 .2119630
446.535 .1903614
447.447 .1659249
448.359 .1285721
449.269 .1101012
450.178 .0984528
451.086 .0901895
451.993 .0838675
452.898 .0788895
453.803 .0747936
454.706 .0713907
455.608 .0684723
456.508 .0659256
457.408 .0637159
458.306 .0617471
459.204 .0599750
460.100 .0583875
460.995 .0569761
461.888 .0557123
462.781 .0545778
463.673 .0535535
464.563 .0526118
465.452 .0517491
466.340 .0509449
467.228 .0501962
468.114 .0495063
468.999 .0488825
469.882 .0483159
470.765 .0478122
471.647 .0473691
472.528 .0469746
473.407 .0466293
474.286 .0463223
475.163 .0460374
476.040 .0457702
476.915 .0455242
477.790 .0452977
478.663 .0450960
479.535 .0449372
480.407 .0448227
481.277 .0447464
482.147 .0447059
483.015 .0446871
483.883 .0446797
484.749 .0446728
485.615 .0446640
486.479 .0446472
487.343 .0446280
488.206 .0446126
489.067 .0446037
489.928 .0446091
490.788 .0446295
491.647 .0446657
492.505 .0447162
493.362 .0447816
494.218 .0448444
495.073 .0449081
495.928 .0449792
496.781 .0450548
497.634 .0451457
498.486 .0452608
499.337 .0454061
500.187 .0455887
501.036 .0458062
501.884 .0460648
502.731 .0463647
503.578 .0467192
504.424 .0471181
505.268 .0475693
506.113 .0480722
506.956 .0486212
507.798 .0492108
508.640 .0498529
509.480 .0505429
510.320 .0512920
511.160 .0520971
511.998 .0529661
512.836 .0539026
513.672 .0549213
514.508 .0560297
515.344 .0572358
516.178 .0585699
517.012 .0600564
517.845 .0617262
518.677 .0636341
519.508 .0658123
520.339 .0683029
521.169 .0711745
521.998 .0744689
522.826 .0782435
523.654 .0825014
524.481 .0872464
525.307 .0925675
526.133 .0983908
526.958 .1046631
527.782 .1113529
528.605 .1183043
529.428 .1254382
530.250 .1322222
531.072 .1383849
531.892 .1435553
532.712 .1474896
533.532 .1499202
534.350 .1506033
535.168 .1495429
535.986 .1468697
536.802 .1426977
537.618 .1373731
538.434 .1311281
539.249 .1244500
540.063 .1175533
540.876 .1106808
541.689 .1040240
542.501 .0977896
543.313 .0920759
544.124 .0869625
544.934 .0823607
545.744 .0782458
546.553 .0745350
547.361 .0712347
548.169 .0683359
548.976 .0657633
549.783 .0634933
550.589 .0614951
551.395 .0597038
552.200 .0581038
553.004 .0566276
553.808 .0552631
554.611 .0540231
555.414 .0528827
556.216 .0518017
557.018 .0508131
557.819 .0499077
558.619 .0490862
559.419 .0483315
560.218 .0476467
561.017 .0469931
561.815 .0463609
562.613 .0457272
563.410 .0450697
564.207 .0443993
565.003 .0437318
565.799 .0430506
566.594 .0423862
567.388 .0417548
568.182 .0411539
568.976 .0405942
569.769 .0400853
570.562 .0396111
571.354 .0391584
572.145 .0387217
572.936 .0382917
573.727 .0378634
574.517 .0374497
575.307 .0370480
576.096 .0366682
576.885 .0363176
577.673 .0359930
578.461 .0356893
579.248 .0354113
580.035 .0351547
580.821 .0349102
581.607 .0346791
582.392 .0344588
583.177 .0342479
583.962 .0340513
584.746 .0338690
585.529 .0336996
586.313 .0335431
587.095 .0333996
587.878 .0332655
588.660 .0331414
589.441 .0330255
590.222 .0329155
591.003 .0328133
591.783 .0327177
592.563 .0326259
593.342 .0325386
594.121 .0324540
594.899 .0323713
595.678 .0322892
596.455 .0322086
597.233 .0321290
598.009 .0320520
598.786 .0319784
599.562 .0319089
600.338 .0318419
601.113 .0317787
601.888 .0317167
602.663 .0316564
603.437 .0315983
604.211 .0315414
604.984 .0314864
605.757 .0314349
606.530 .0313866
607.302 .0313426
608.074 .0313024
608.845 .0312671
609.616 .0312351
610.387 .0312070
611.158 .0311816
611.928 .0311579
612.697 .0311355
613.467 .0311145
614.236 .0310945
615.004 .0310766
615.773 .0310599
616.541 .0310444
617.308 .0310304
618.076 .0310180
618.843 .0310051
619.609 .0309925
620.375 .0309800
621.141 .0309675
621.907 .0309544
622.672 .0309405
623.437 .0309257
624.202 .0309108
624.966 .0308958
625.730 .0308801
626.493 .0308639
627.257 .0308470
628.020 .0308285
628.782 .0308085
629.545 .0307866
630.307 .0307632
631.068 .0307383
631.830 .0307136
632.591 .0306885
633.352 .0306633
634.112 .0306386
634.872 .0306140
635.632 .0305907
636.392 .0305668
637.151 .0305424
637.910 .0305183
638.668 .0304945
639.427 .0304717
640.185 .0304496
640.943 .0304293
641.700 .0304115
642.457 .0303950
643.214 .0303790
643.971 .0303629
644.727 .0303468
645.483 .0303308
646.239 .0303147
646.994 .0302991
647.750 .0302849
648.505 .0302716
649.259 .0302604
650.014 .0302504
650.768 .0302401
651.521 .0302289
652.275 .0302152
653.028 .0301985
653.781 .0301790
654.534 .0301565
655.286 .0301321
656.039 .0301078
656.791 .0300838
657.542 .0300590
658.294 .0300348
659.045 .0300110
659.796 .0299860
660.546 .0299594
661.297 .0299304
662.047 .0298991
662.796 .0298666
663.546 .0298337
664.295 .0298008
665.044 .0297691
665.793 .0297391
666.542 .0297096
667.290 .0296811
668.038 .0296534
668.786 .0296254
669.533 .0295971
670.281 .0295691
671.028 .0295409
671.774 .0295127
672.521 .0294855
673.267 .0294596
674.013 .0294357
674.759 .0294131
675.505 .0293910
676.250 .0293692
676.995 .0293479
677.740 .0293268
678.484 .0293057
679.229 .0292854
679.973 .0292660
680.717 .0292478
681.460 .0292313
682.204 .0292167
682.947 .0292041
683.690 .0291931
684.433 .0291834
685.175 .0291745
685.917 .0291656
686.659 .0291564
687.401 .0291472
688.142 .0291376
688.884 .0291273
689.625 .0291164
690.365 .0291051
691.106 .0290935
691.846 .0290818
692.586 .0290703
693.326 .0290585
694.066 .0290467
694.805 .0290343
695.545 .0290209
696.284 .0290069
697.022 .0289924
697.761 .0289772
698.499 .0289620
699.237 .0289472
699.975 .0289331
700.713 .0289203
701.450 .0289095
702.187 .0289003
702.924 .0288925
703.661 .0288852
704.397 .0288785
705.133 .0288719
705.869 .0288650
706.605 .0288577
707.341 .0288506
708.076 .0288435
708.811 .0288359
709.546 .0288279
710.281 .0288193
711.015 .0288103
711.749 .0288003
712.483 .0287889
713.217 .0287770
713.950 .0287648
714.684 .0287525
715.417 .0287405
716.150 .0287291
716.882 .0287186
717.615 .0287083
718.347 .0286985
719.079 .0286880
719.811 .0286768
720.542 .0286648
721.273 .0286520
722.005 .0286386
722.735 .0286244
723.466 .0286094
724.196 .0285942
724.927 .0285782
725.656 .0285614
726.386 .0285433
727.116 .0285241
727.845 .0285041
728.574 .0284827
729.303 .0284600
730.031 .0284368
730.760 .0284134
731.488 .0283908
732.216 .0283685
732.944 .0283472
733.671 .0283270
734.398 .0283080
735.125 .0282899
735.852 .0282725
736.579 .0282554
737.305 .0282392
738.031 .0282226
738.757 .0282061
739.483 .0281888
740.208 .0281710
740.933 .0281532
741.658 .0281351
742.383 .0281163
743.108 .0280971
743.832 .0280772
744.556 .0280572
745.280 .0280363
746.004 .0280150
746.727 .0279927
747.450 .0279701
748.173 .0279474
748.896 .0279244
749.618 .0279014
750.340 .0278791
751.062 .0278577
751.784 .0278377
752.506 .0278185
753.227 .0278005
753.948 .0277839
754.669 .0277677
755.389 .0277519
756.110 .0277359
756.830 .0277195
757.550 .0277027
758.269 .0276853
758.989 .0276676
759.708 .0276494
760.427 .0276309
761.146 .0276127
761.864 .0275947
762.582 .0275773
763.300 .0275599
764.018 .0275427
764.736 .0275258
765.453 .0275087
766.170 .0274914
766.887 .0274745
767.603 .0274583
768.320 .0274429
769.036 .0274285
769.751 .0274157
770.467 .0274043
771.182 .0273943
771.897 .0273857
772.612 .0273783
773.327 .0273715
774.041 .0273650
774.755 .0273589
775.469 .0273535
776.183 .0273489
776.896 .0273450
777.609 .0273423
778.322 .0273408
779.035 .0273406
779.747 .0273412
780.459 .0273430
781.171 .0273458
781.882 .0273491
782.594 .0273528
783.305 .0273570
784.016 .0273618
784.726 .0273668
785.436 .0273719
786.147 .0273775
786.856 .0273828
787.566 .0273882
788.275 .0273932
788.984 .0273980
789.693 .0274026
790.401 .0274068
791.110 .0274105
791.818 .0274137
792.525 .0274166
793.233 .0274188
793.940 .0274201
794.647 .0274210
795.353 .0274209
796.060 .0274205
796.766 .0274199
797.472 .0274193
798.177 .0274185
798.883 .0274179
799.588 .0274175
800.292 .0274171
800.997 .0274164
801.701 .0274151
802.405 .0274128
803.109 .0274098
803.812 .0274058
804.515 .0274006
805.218 .0273945
805.921 .0273877
806.623 .0273801
807.325 .0273720
808.027 .0273636
808.728 .0273545
809.429 .0273445
810.130 .0273338
810.831 .0273224
811.531 .0273098
812.231 .0272968
812.931 .0272835
813.630 .0272702
814.330 .0272571
815.029 .0272440
815.727 .0272311
816.426 .0272183
817.124 .0272049
817.821 .0271910
818.519 .0271764
819.216 .0271616
819.913 .0271462
820.609 .0271309
821.306 .0271159
822.002 .0271016
822.697 .0270876
823.393 .0270745
824.088 .0270616
824.783 .0270487
825.477 .0270350
826.171 .0270207
826.865 .0270063
827.559 .0269916
828.252 .0269769
828.945 .0269628
829.638 .0269494
830.330 .0269369
831.023 .0269249
831.714 .0269136
832.406 .0269025
833.097 .0268911
833.788 .0268790
834.479 .0268664
835.169 .0268531
835.859 .0268394
836.548 .0268255
837.238 .0268120
837.927 .0267987
838.615 .0267854
839.304 .0267720
839.992 .0267588
840.680 .0267454
841.367 .0267314
842.054 .0267168
842.741 .0267017
843.428 .0266864
844.114 .0266709
844.800 .0266554
845.485 .0266397
846.170 .0266237
846.855 .0266065
847.540 .0265882
848.224 .0265685
848.908 .0265474
849.592 .0265250
850.275 .0265020
850.958 .0264782
851.641 .0264536
852.323 .0264287
853.005 .0264034
853.687 .0263773
854.368 .0263508
855.049 .0263236
855.730 .0262960
856.410 .0262687
857.090 .0262417
857.769 .0262151
858.449 .0261891
859.128 .0261643
859.806 .0261404
860.485 .0261177
861.163 .0260961
861.840 .0260757
862.518 .0260563
863.195 .0260382
863.871 .0260210
864.548 .0260052
865.224 .0259902
865.899 .0259762
866.574 .0259627
867.249 .0259501
867.924 .0259381
868.598 .0259269
869.272 .0259168
869.946 .0259081
870.619 .0259003
871.292 .0258938
871.964 .0258881
872.636 .0258833
873.308 .0258786
873.979 .0258737
874.651 .0258685
875.321 .0258633
875.992 .0258579
876.662 .0258531
877.331 .0258487
878.001 .0258452
878.670 .0258422
879.338 .0258398
880.007 .0258376
880.675 .0258352
881.342 .0258329
882.009 .0258305
882.676 .0258279
883.343 .0258259
884.009 .0258244
884.675 .0258240
885.340 .0258253
886.005 .0258281
886.670 .0258325
887.334 .0258382
887.998 .0258451
888.662 .0258529
889.325 .0258610
889.988 .0258701
890.650 .0258796
891.312 .0258899
891.974 .0259012
892.636 .0259131
893.297 .0259258
893.957 .0259390
894.618 .0259521
895.278 .0259643
895.937 .0259756
896.596 .0259859
897.255 .0259950
897.914 .0260033
898.572 .0260113
899.230 .0260192
899.887 .0260273
900.544 .0260356
901.201 .0260439
901.857 .0260521
902.513 .0260599
903.168 .0260664
903.823 .0260713
904.478 .0260745
905.132 .0260758
905.786 .0260753
906.440 .0260736
907.093 .0260708
907.746 .0260673
908.399 .0260634
909.051 .0260591
909.703 .0260540
910.354 .0260484
911.005 .0260417
911.656 .0260337
912.306 .0260243
912.956 .0260136
913.605 .0260014
914.254 .0259887
914.903 .0259760
915.551 .0259636
916.199 .0259521
916.847 .0259418
917.494 .0259328
918.141 .0259249
918.788 .0259174
919.434 .0259105
920.079 .0259034
920.725 .0258964
921.370 .0258890
922.014 .0258812
922.658 .0258733
923.302 .0258649
923.946 .0258560
924.589 .0258464
925.231 .0258359
925.873 .0258246
926.515 .0258120
927.157 .0257983
927.798 .0257835
928.439 .0257675
929.079 .0257505
929.719 .0257326
930.359 .0257141
930.998 .0256948
931.637 .0256748
932.275 .0256547
932.913 .0256343
933.551 .0256140
934.188 .0255943
934.825 .0255754
935.462 .0255579
936.098 .0255422
936.733 .0255283
937.369 .0255165
938.004 .0255067
938.638 .0254980
939.273 .0254903
939.907 .0254833
940.540 .0254767
941.173 .0254701
941.806 .0254642
942.438 .0254584
943.070 .0254527
943.702 .0254474
944.333 .0254421
944.964 .0254364
945.594 .0254305
946.224 .0254235
946.854 .0254156
947.483 .0254063
948.112 .0253958
948.741 .0253839
949.369 .0253715
949.996 .0253584
950.624 .0253449
951.251 .0253309
951.878 .0253167
952.504 .0253016
953.130 .0252862
953.755 .0252700
954.380 .0252533
955.005 .0252359
955.629 .0252178
956.253 .0251990
956.877 .0251800
957.500 .0251605
958.123 .0251411
958.746 .0251215
959.368 .0251018
959.990 .0250816
960.611 .0250616
961.232 .0250416
961.853 .0250221
962.473 .0250029
963.093 .0249837
963.712 .0249645
964.331 .0249449
964.950 .0249246
965.569 .0249039
966.187 .0248835
966.804 .0248637
967.422 .0248443
968.039 .0248261
968.655 .0248091
969.272 .0247931
969.887 .0247783
970.503 .0247641
971.118 .0247502
971.733 .0247359
972.347 .0247210
972.961 .0247052
973.575 .0246892
974.188 .0246728
974.801 .0246561
975.414 .0246394
976.026 .0246226
976.638 .0246051
977.250 .0245870
977.861 .0245685
978.472 .0245491
979.083 .0245286
979.693 .0245069
980.303 .0244839
980.912 .0244601
981.521 .0244353
982.130 .0244098
982.738 .0243840
983.346 .0243586
983.954 .0243334
984.562 .0243084
985.169 .0242841
985.775 .0242603
986.382 .0242371
986.988 .0242144
987.594 .0241921
988.199 .0241705
988.804 .0241496
989.409 .0241295
990.013 .0241105
990.617 .0240931
991.221 .0240778
991.824 .0240646
992.427 .0240541
993.030 .0240456
993.632 .0240392
994.234 .0240349
994.836 .0240323
995.438 .0240307
996.039 .0240304
996.640 .0240309
997.240 .0240321
997.840 .0240341
998.440 .0240368
999.040 .0240397
999.639 .0240428
1000.238 .0240458
1000.836 .0240476
1001.435 .0240481
1002.033 .0240477
1002.630 .0240458
1003.228 .0240425
1003.825 .0240384
1004.422 .0240335
1005.018 .0240282
1005.614 .0240231
1006.210 .0240175
1006.806 .0240118
1007.401 .0240061
1007.996 .0240002
1008.591 .0239946
1009.186 .0239900
1009.780 .0239865
1010.374 .0239839
1010.967 .0239830
1011.561 .0239831
1012.154 .0239841
1012.746 .0239862
1013.339 .0239890
1013.931 .0239923
1014.523 .0239967
1015.115 .0240020
1015.706 .0240081
1016.298 .0240157
1016.888 .0240243
1017.479 .0240333
1018.069 .0240426
1018.660 .0240509
1019.250 .0240584
1019.839 .0240657
1020.429 .0240731
1021.018 .0240806
1021.607 .0240890
1022.195 .0240984
1022.784 .0241085
1023.372 .0241204
1023.960 .0241333
1024.547 .0241472
1025.135 .0241621
1025.722 .0241781
1026.309 .0241946
1026.896 .0242128
1027.483 .0242327
1028.069 .0242542
1028.655 .0242774
1029.241 .0243013
1029.827 .0243254
1030.412 .0243496
1030.997 .0243739
1031.582 .0243981
1032.167 .0244214
1032.752 .0244448
1033.336 .0244675
1033.921 .0244904
1034.505 .0245126
1035.089 .0245355
1035.672 .0245586
1036.256 .0245821
1036.839 .0246045
1037.422 .0246253
1038.005 .0246450
1038.588 .0246632
1039.171 .0246797
1039.753 .0246946
1040.335 .0247086
1040.918 .0247225
1041.500 .0247357
1042.081 .0247496
1042.663 .0247636
1043.244 .0247783
1043.826 .0247922
1044.407 .0248045
1044.988 .0248147
1045.569 .0248228
1046.150 .0248286
1046.730 .0248333
1047.311 .0248381
1047.891 .0248430
1048.471 .0248495
1049.052 .0248571
1049.632 .0248661
1050.211 .0248762
1050.791 .0248859
1051.371 .0248950
1051.950 .0249039
1052.530 .0249123
1053.109 .0249206
1053.688 .0249298
1054.268 .0249420
1054.847 .0249571
1055.426 .0249761
1056.005 .0249979
1056.583 .0250225
1057.162 .0250480
1057.741 .0250736
1058.319 .0250972
1058.898 .0251195
1059.476 .0251392
1060.055 .0251567
1060.633 .0251720
1061.211 .0251856
1061.790 .0251977
1062.368 .0252097
1062.946 .0252201
1063.524 .0252291
1064.102 .0252358
1064.680 .0252391
1065.258 .0252392
1065.836 .0252369
1066.414 .0252317
1066.992 .0252259
1067.570 .0252215
1068.148 .0252189
1068.726 .0252195
1069.304 .0252247
1069.882 .0252330
1070.460 .0252442
1071.038 .0252566
1071.616 .0252693
1072.194 .0252810
1072.772 .0252927
1073.350 .0253044
1073.928 .0253156
1074.506 .0253281
1075.084 .0253392
1075.662 .0253497
1076.240 .0253610
1076.819 .0253708
1077.397 .0253789
1077.976 .0253857
1078.554 .0253918
1079.133 .0253970
1079.711 .0254024
1080.290 .0254084
1080.869 .0254160
1081.448 .0254245
1082.027 .0254328
1082.606 .0254402
1083.185 .0254474
1083.764 .0254554
1084.343 .0254623
1084.923 .0254706
1085.502 .0254808
1086.082 .0254919
1086.662 .0255049
1087.242 .0255184
1087.822 .0255340
1088.402 .0255490
1088.983 .0255633
1089.563 .0255751
1090.144 .0255854
1090.725 .0255942
1091.306 .0256007
1091.887 .0256041
1092.469 .0256068
1093.050 .0256082
1093.632 .0256079
1094.214 .0256060
1094.796 .0256043
1095.379 .0256010
1095.961 .0255967
1096.544 .0255919
1097.127 .0255870
1097.710 .0255809
1098.294 .0255762
1098.877 .0255714
1099.461 .0255685
1100.046 .0255681
1100.630 .0255707
1101.215 .0255792
1101.800 .0255945
1102.385 .0256144
1102.970 .0256374
1103.556 .0256631
1104.142 .0256916
1104.728 .0257204
1105.315 .0257491
1105.902 .0257768
1106.489 .0258029
1107.077 .0258292
1107.664 .0258548
1108.253 .0258812
1108.841 .0259097
1109.430 .0259399
1110.019 .0259680
1110.609 .0259951
1111.198 .0260177
1111.789 .0260368
1112.379 .0260531
1112.970 .0260658
1113.561 .0260775
1114.153 .0260894
1114.745 .0261026
1115.338 .0261204
1115.931 .0261420
1116.524 .0261693
1117.117 .0262005
1117.712 .0262347
1118.306 .0262692
1118.901 .0263017
1119.496 .0263329
1120.092 .0263643
1120.689 .0263954
1121.285 .0264304
1121.882 .0264694
1122.480 .0265123
1123.078 .0265632
1123.677 .0266174
1124.276 .0266739
1124.875 .0267315
1125.476 .0267879
1126.076 .0268426
1126.677 .0268933
1127.279 .0269424
1127.881 .0269904
1128.484 .0270398
1129.087 .0270935
1129.691 .0271489
1130.295 .0272073
1130.900 .0272686
1131.505 .0273298
1132.111 .0273912
1132.718 .0274530
1133.325 .0275155
1133.933 .0275806
1134.541 .0276462
1135.150 .0277135
1135.760 .0277822
1136.370 .0278517
1136.981 .0279238
1137.592 .0279941
1138.204 .0280635
1138.817 .0281328
1139.431 .0282059
1140.045 .0282825
1140.660 .0283590
1141.275 .0284469
1141.891 .0285390
1142.508 .0287095
1143.126 .0287632
1143.744 .0286808
1144.363 .0290186
1144.983 .0290766
