Measurement Sequence started on: 15-12-46-377
Integration time: 28
Scans to Average: 2 
>>>>>Begin Spectral Data<<<<<
432.689 .0000100
433.621 .0000100
434.552 .0000100
435.482 .0000100
436.410 .0000100
437.337 .0000100
438.262 .0269709
439.187 .0571366
440.110 .0946600
441.031 .1369947
441.952 .1781657
442.871 .2106620
443.789 .2285953
444.705 .2299827
445.621 .2172520
446.535 .1957757
447.447 .1713773
448.359 .1338203
449.269 .1152851
450.178 .1035646
451.086 .0952644
451.993 .0888559
452.898 .0837625
453.803 .0796088
454.706 .0761536
455.608 .0732377
456.508 .0707391
457.408 .0685917
458.306 .0666951
459.204 .0650145
460.100 .0634928
460.995 .0621052
461.888 .0608391
462.781 .0596626
463.673 .0585591
464.563 .0575337
465.452 .0565595
466.340 .0556248
467.228 .0547435
468.114 .0538981
468.999 .0530958
469.882 .0523398
470.765 .0516403
471.647 .0509927
472.528 .0504066
473.407 .0498851
474.286 .0494199
475.163 .0490068
476.040 .0486408
476.915 .0483106
477.790 .0480200
478.663 .0477680
479.535 .0475432
480.407 .0473614
481.277 .0472160
482.147 .0471010
483.015 .0470217
483.883 .0469709
484.749 .0469488
485.615 .0469447
486.479 .0469614
487.343 .0469939
488.206 .0470400
489.067 .0471018
489.928 .0471724
490.788 .0472637
491.647 .0473730
492.505 .0474978
493.362 .0476339
494.218 .0477957
495.073 .0479720
495.928 .0481692
496.781 .0483857
497.634 .0486236
498.486 .0488860
499.337 .0491640
500.187 .0494543
501.036 .0497587
501.884 .0500715
502.731 .0503984
503.578 .0507317
504.424 .0510919
505.268 .0514756
506.113 .0518928
506.956 .0523507
507.798 .0528525
508.640 .0534059
509.480 .0540186
510.320 .0546868
511.160 .0554367
511.998 .0562684
512.836 .0571921
513.672 .0582130
514.508 .0593540
515.344 .0606222
516.178 .0620591
517.012 .0636753
517.845 .0655224
518.677 .0676225
519.508 .0699924
520.339 .0726746
521.169 .0757185
521.998 .0791544
522.826 .0830072
523.654 .0872927
524.481 .0921128
525.307 .0974325
526.133 .1032557
526.958 .1095353
527.782 .1162417
528.605 .1232249
529.428 .1303420
530.250 .1370541
531.072 .1432000
531.892 .1483381
532.712 .1521817
533.532 .1544587
534.350 .1550403
535.168 .1538639
535.986 .1510515
536.802 .1467639
537.618 .1413461
538.434 .1350115
539.249 .1283014
540.063 .1212983
540.876 .1143820
541.689 .1077089
542.501 .1014336
543.313 .0956688
544.124 .0904574
544.934 .0857353
545.744 .0814904
546.553 .0776633
547.361 .0742809
548.169 .0712841
548.976 .0686412
549.783 .0663234
550.589 .0642917
551.395 .0624833
552.200 .0608742
553.004 .0594037
553.808 .0580521
554.611 .0568020
555.414 .0556525
556.216 .0545936
557.018 .0536379
557.819 .0527777
558.619 .0519859
559.419 .0512558
560.218 .0505801
561.017 .0499340
561.815 .0493145
562.613 .0487016
563.410 .0480914
564.207 .0474837
565.003 .0468791
565.799 .0462673
566.594 .0456559
567.388 .0450519
568.182 .0444510
568.976 .0438549
569.769 .0432647
570.562 .0426754
571.354 .0420926
572.145 .0415171
572.936 .0409488
573.727 .0403922
574.517 .0398504
575.307 .0393209
576.096 .0388159
576.885 .0383395
577.673 .0378930
578.461 .0374771
579.248 .0370934
580.035 .0367393
580.821 .0364142
581.607 .0361092
582.392 .0358265
583.177 .0355667
583.962 .0353300
584.746 .0351158
585.529 .0349255
586.313 .0347588
587.095 .0346111
587.878 .0344810
588.660 .0343668
589.441 .0342613
590.222 .0341622
591.003 .0340677
591.783 .0339773
592.563 .0338919
593.342 .0338110
594.121 .0337340
594.899 .0336638
595.678 .0335975
596.455 .0335330
597.233 .0334699
598.009 .0334074
598.786 .0333441
599.562 .0332808
600.338 .0332180
601.113 .0331565
601.888 .0330974
602.663 .0330426
603.437 .0329919
604.211 .0329461
604.984 .0329043
605.757 .0328654
606.530 .0328291
607.302 .0327936
608.074 .0327583
608.845 .0327240
609.616 .0326911
610.387 .0326599
611.158 .0326306
611.928 .0326034
612.697 .0325779
613.467 .0325550
614.236 .0325329
615.004 .0325108
615.773 .0324879
616.541 .0324645
617.308 .0324393
618.076 .0324134
618.843 .0323869
619.609 .0323600
620.375 .0323340
621.141 .0323091
621.907 .0322849
622.672 .0322617
623.437 .0322385
624.202 .0322153
624.966 .0321912
625.730 .0321666
626.493 .0321396
627.257 .0321122
628.020 .0320849
628.782 .0320574
629.545 .0320296
630.307 .0320015
631.068 .0319726
631.830 .0319428
632.591 .0319104
633.352 .0318758
634.112 .0318392
634.872 .0318015
635.632 .0317632
636.392 .0317258
637.151 .0316906
637.910 .0316573
638.668 .0316265
639.427 .0315986
640.185 .0315719
640.943 .0315462
641.700 .0315219
642.457 .0314982
643.214 .0314757
643.971 .0314536
644.727 .0314323
645.483 .0314120
646.239 .0313924
646.994 .0313722
647.750 .0313518
648.505 .0313303
649.259 .0313079
650.014 .0312838
650.768 .0312589
651.521 .0312334
652.275 .0312074
653.028 .0311814
653.781 .0311550
654.534 .0311280
655.286 .0311006
656.039 .0310718
656.791 .0310431
657.542 .0310137
658.294 .0309850
659.045 .0309577
659.796 .0309313
660.546 .0309064
661.297 .0308826
662.047 .0308599
662.796 .0308377
663.546 .0308158
664.295 .0307938
665.044 .0307711
665.793 .0307486
666.542 .0307256
667.290 .0307027
668.038 .0306801
668.786 .0306573
669.533 .0306339
670.281 .0306103
671.028 .0305864
671.774 .0305618
672.521 .0305378
673.267 .0305148
674.013 .0304920
674.759 .0304701
675.505 .0304489
676.250 .0304281
676.995 .0304075
677.740 .0303871
678.484 .0303662
679.229 .0303452
679.973 .0303239
680.717 .0303022
681.460 .0302807
682.204 .0302599
682.947 .0302399
683.690 .0302206
684.433 .0302019
685.175 .0301833
685.917 .0301643
686.659 .0301451
687.401 .0301254
688.142 .0301057
688.884 .0300858
689.625 .0300655
690.365 .0300456
691.106 .0300257
691.846 .0300063
692.586 .0299871
693.326 .0299676
694.066 .0299480
694.805 .0299280
695.545 .0299074
696.284 .0298861
697.022 .0298644
697.761 .0298427
698.499 .0298202
699.237 .0297972
699.975 .0297734
700.713 .0297489
701.450 .0297241
702.187 .0296992
702.924 .0296748
703.661 .0296509
704.397 .0296277
705.133 .0296057
705.869 .0295849
706.605 .0295650
707.341 .0295459
708.076 .0295271
708.811 .0295087
709.546 .0294904
710.281 .0294717
711.015 .0294536
711.749 .0294356
712.483 .0294180
713.217 .0294002
713.950 .0293822
714.684 .0293639
715.417 .0293450
716.150 .0293256
716.882 .0293058
717.615 .0292857
718.347 .0292661
719.079 .0292466
719.811 .0292277
720.542 .0292093
721.273 .0291913
722.005 .0291734
722.735 .0291560
723.466 .0291389
724.196 .0291220
724.927 .0291053
725.656 .0290892
726.386 .0290738
727.116 .0290586
727.845 .0290440
728.574 .0290297
729.303 .0290154
730.031 .0290010
730.760 .0289866
731.488 .0289722
732.216 .0289580
732.944 .0289439
733.671 .0289297
734.398 .0289157
735.125 .0289021
735.852 .0288885
736.579 .0288750
737.305 .0288620
738.031 .0288496
738.757 .0288370
739.483 .0288246
740.208 .0288123
740.933 .0288001
741.658 .0287882
742.383 .0287764
743.108 .0287645
743.832 .0287529
744.556 .0287419
745.280 .0287316
746.004 .0287220
746.727 .0287134
747.450 .0287047
748.173 .0286959
748.896 .0286868
749.618 .0286768
750.340 .0286657
751.062 .0286542
751.784 .0286422
752.506 .0286297
753.227 .0286169
753.948 .0286043
754.669 .0285919
755.389 .0285798
756.110 .0285673
756.830 .0285544
757.550 .0285412
758.269 .0285278
758.989 .0285140
759.708 .0285001
760.427 .0284865
761.146 .0284735
761.864 .0284609
762.582 .0284489
763.300 .0284372
764.018 .0284255
764.736 .0284132
765.453 .0284000
766.170 .0283853
766.887 .0283695
767.603 .0283524
768.320 .0283347
769.036 .0283167
769.751 .0282988
770.467 .0282812
771.182 .0282637
771.897 .0282463
772.612 .0282286
773.327 .0282102
774.041 .0281916
774.755 .0281725
775.469 .0281540
776.183 .0281364
776.896 .0281206
777.609 .0281072
778.322 .0280961
779.035 .0280872
779.747 .0280796
780.459 .0280732
781.171 .0280668
781.882 .0280596
782.594 .0280519
783.305 .0280438
784.016 .0280359
784.726 .0280289
785.436 .0280235
786.147 .0280199
786.856 .0280177
787.566 .0280165
788.275 .0280149
788.984 .0280124
789.693 .0280084
790.401 .0280025
791.110 .0279943
791.818 .0279848
792.525 .0279746
793.233 .0279642
793.940 .0279537
794.647 .0279434
795.353 .0279326
796.060 .0279212
796.766 .0279085
797.472 .0278942
798.177 .0278784
798.883 .0278616
799.588 .0278442
800.292 .0278268
800.997 .0278100
801.701 .0277941
802.405 .0277793
803.109 .0277659
803.812 .0277535
804.515 .0277414
805.218 .0277294
805.921 .0277174
806.623 .0277050
807.325 .0276925
808.027 .0276796
808.728 .0276666
809.429 .0276533
810.130 .0276391
810.831 .0276239
811.531 .0276076
812.231 .0275906
812.931 .0275720
813.630 .0275517
814.330 .0275302
815.029 .0275073
815.727 .0274835
816.426 .0274593
817.124 .0274348
817.821 .0274107
818.519 .0273873
819.216 .0273650
819.913 .0273443
820.609 .0273254
821.306 .0273088
822.002 .0272942
822.697 .0272818
823.393 .0272713
824.088 .0272625
824.783 .0272557
825.477 .0272510
826.171 .0272478
826.865 .0272461
827.559 .0272459
828.252 .0272467
828.945 .0272478
829.638 .0272489
830.330 .0272496
831.023 .0272493
831.714 .0272476
832.406 .0272442
833.097 .0272388
833.788 .0272318
834.479 .0272232
835.169 .0272130
835.859 .0272021
836.548 .0271906
837.238 .0271787
837.927 .0271664
838.615 .0271544
839.304 .0271428
839.992 .0271316
840.680 .0271211
841.367 .0271112
842.054 .0271020
842.741 .0270938
843.428 .0270862
844.114 .0270797
844.800 .0270742
845.485 .0270697
846.170 .0270656
846.855 .0270624
847.540 .0270596
848.224 .0270566
848.908 .0270537
849.592 .0270503
850.275 .0270456
850.958 .0270397
851.641 .0270322
852.323 .0270234
853.005 .0270133
853.687 .0270023
854.368 .0269902
855.049 .0269775
855.730 .0269640
856.410 .0269496
857.090 .0269342
857.769 .0269183
858.449 .0269013
859.128 .0268829
859.806 .0268638
860.485 .0268441
861.163 .0268243
861.840 .0268049
862.518 .0267859
863.195 .0267678
863.871 .0267508
864.548 .0267350
865.224 .0267204
865.899 .0267074
866.574 .0266962
867.249 .0266867
867.924 .0266790
868.598 .0266730
869.272 .0266682
869.946 .0266648
870.619 .0266622
871.292 .0266599
871.964 .0266571
872.636 .0266542
873.308 .0266510
873.979 .0266477
874.651 .0266438
875.321 .0266400
875.992 .0266364
876.662 .0266331
877.331 .0266297
878.001 .0266260
878.670 .0266222
879.338 .0266185
880.007 .0266147
880.675 .0266110
881.342 .0266073
882.009 .0266044
882.676 .0266023
883.343 .0266010
884.009 .0266005
884.675 .0266005
885.340 .0266014
886.005 .0266028
886.670 .0266044
887.334 .0266060
887.998 .0266079
888.662 .0266103
889.325 .0266129
889.988 .0266154
890.650 .0266179
891.312 .0266203
891.974 .0266229
892.636 .0266252
893.297 .0266274
893.957 .0266298
894.618 .0266323
895.278 .0266346
895.937 .0266371
896.596 .0266396
897.255 .0266422
897.914 .0266448
898.572 .0266471
899.230 .0266490
899.887 .0266501
900.544 .0266505
901.201 .0266500
901.857 .0266483
902.513 .0266451
903.168 .0266398
903.823 .0266327
904.478 .0266236
905.132 .0266126
905.786 .0266003
906.440 .0265865
907.093 .0265716
907.746 .0265557
908.399 .0265391
909.051 .0265215
909.703 .0265030
910.354 .0264833
911.005 .0264627
911.656 .0264414
912.306 .0264199
912.956 .0263982
913.605 .0263768
914.254 .0263563
914.903 .0263366
915.551 .0263178
916.199 .0263002
916.847 .0262832
917.494 .0262672
918.141 .0262511
918.788 .0262351
919.434 .0262191
920.079 .0262030
920.725 .0261872
921.370 .0261713
922.014 .0261550
922.658 .0261387
923.302 .0261219
923.946 .0261045
924.589 .0260861
925.231 .0260669
925.873 .0260469
926.515 .0260263
927.157 .0260050
927.798 .0259833
928.439 .0259612
929.079 .0259392
929.719 .0259163
930.359 .0258921
930.998 .0258668
931.637 .0258400
932.275 .0258127
932.913 .0257848
933.551 .0257566
934.188 .0257295
934.825 .0257035
935.462 .0256792
936.098 .0256565
936.733 .0256352
937.369 .0256149
938.004 .0255952
938.638 .0255757
939.273 .0255560
939.907 .0255369
940.540 .0255189
941.173 .0255027
941.806 .0254888
942.438 .0254775
943.070 .0254680
943.702 .0254607
944.333 .0254547
944.964 .0254484
945.594 .0254421
946.224 .0254356
946.854 .0254288
947.483 .0254220
948.112 .0254154
948.741 .0254090
949.369 .0254034
949.996 .0253979
950.624 .0253918
951.251 .0253851
951.878 .0253772
952.504 .0253674
953.130 .0253556
953.755 .0253424
954.380 .0253280
955.005 .0253124
955.629 .0252967
956.253 .0252803
956.877 .0252641
957.500 .0252477
958.123 .0252312
958.746 .0252146
959.368 .0251983
959.990 .0251822
960.611 .0251667
961.232 .0251522
961.853 .0251389
962.473 .0251270
963.093 .0251164
963.712 .0251068
964.331 .0250972
964.950 .0250878
965.569 .0250784
966.187 .0250682
966.804 .0250579
967.422 .0250473
968.039 .0250369
968.655 .0250266
969.272 .0250161
969.887 .0250049
970.503 .0249929
971.118 .0249805
971.733 .0249665
972.347 .0249513
972.961 .0249354
973.575 .0249191
974.188 .0249024
974.801 .0248856
975.414 .0248690
976.026 .0248524
976.638 .0248363
977.250 .0248202
977.861 .0248042
978.472 .0247883
979.083 .0247727
979.693 .0247570
980.303 .0247416
980.912 .0247260
981.521 .0247106
982.130 .0246951
982.738 .0246802
983.346 .0246651
983.954 .0246501
984.562 .0246356
985.169 .0246214
985.775 .0246075
986.382 .0245937
986.988 .0245794
987.594 .0245658
988.199 .0245523
988.804 .0245400
989.409 .0245286
990.013 .0245185
990.617 .0245099
991.221 .0245020
991.824 .0244947
992.427 .0244886
993.030 .0244826
993.632 .0244776
994.234 .0244731
994.836 .0244686
995.438 .0244647
996.039 .0244610
996.640 .0244578
997.240 .0244549
997.840 .0244519
998.440 .0244488
999.040 .0244445
999.639 .0244399
1000.238 .0244346
1000.836 .0244284
1001.435 .0244221
1002.033 .0244157
1002.630 .0244095
1003.228 .0244043
1003.825 .0244000
1004.422 .0243980
1005.018 .0243982
1005.614 .0244009
1006.210 .0244057
1006.806 .0244127
1007.401 .0244213
1007.996 .0244309
1008.591 .0244408
1009.186 .0244509
1009.780 .0244607
1010.374 .0244704
1010.967 .0244797
1011.561 .0244894
1012.154 .0244995
1012.746 .0245095
1013.339 .0245189
1013.931 .0245278
1014.523 .0245353
1015.115 .0245415
1015.706 .0245462
1016.298 .0245498
1016.888 .0245520
1017.479 .0245539
1018.069 .0245561
1018.660 .0245587
1019.250 .0245627
1019.839 .0245673
1020.429 .0245734
1021.018 .0245806
1021.607 .0245884
1022.195 .0245964
1022.784 .0246053
1023.372 .0246148
1023.960 .0246246
1024.547 .0246349
1025.135 .0246465
1025.722 .0246589
1026.309 .0246730
1026.896 .0246884
1027.483 .0247056
1028.069 .0247236
1028.655 .0247428
1029.241 .0247615
1029.827 .0247809
1030.412 .0247996
1030.997 .0248181
1031.582 .0248367
1032.167 .0248555
1032.752 .0248742
1033.336 .0248934
1033.921 .0249126
1034.505 .0249319
1035.089 .0249500
1035.672 .0249666
1036.256 .0249807
1036.839 .0249923
1037.422 .0250013
1038.005 .0250090
1038.588 .0250163
1039.171 .0250247
1039.753 .0250342
1040.335 .0250461
1040.918 .0250597
1041.500 .0250745
1042.081 .0250895
1042.663 .0251032
1043.244 .0251155
1043.826 .0251266
1044.407 .0251355
1044.988 .0251437
1045.569 .0251520
1046.150 .0251607
1046.730 .0251695
1047.311 .0251791
1047.891 .0251884
1048.471 .0251966
1049.052 .0252040
1049.632 .0252087
1050.211 .0252111
1050.791 .0252122
1051.371 .0252120
1051.950 .0252119
1052.530 .0252132
1053.109 .0252161
1053.688 .0252211
1054.268 .0252289
1054.847 .0252398
1055.426 .0252534
1056.005 .0252687
1056.583 .0252858
1057.162 .0253038
1057.741 .0253215
1058.319 .0253385
1058.898 .0253538
1059.476 .0253692
1060.055 .0253828
1060.633 .0253951
1061.211 .0254055
1061.790 .0254148
1062.368 .0254234
1062.946 .0254301
1063.524 .0254347
1064.102 .0254371
1064.680 .0254367
1065.258 .0254341
1065.836 .0254284
1066.414 .0254215
1066.992 .0254135
1067.570 .0254052
1068.148 .0253963
1068.726 .0253890
1069.304 .0253831
1069.882 .0253798
1070.460 .0253791
1071.038 .0253819
1071.616 .0253862
1072.194 .0253929
1072.772 .0254016
1073.350 .0254122
1073.928 .0254236
1074.506 .0254361
1075.084 .0254477
1075.662 .0254610
1076.240 .0254750
1076.819 .0254891
1077.397 .0255032
1077.976 .0255195
1078.554 .0255347
1079.133 .0255489
1079.711 .0255609
1080.290 .0255713
1080.869 .0255789
1081.448 .0255848
1082.027 .0255864
1082.606 .0255864
1083.185 .0255862
1083.764 .0255861
1084.343 .0255862
1084.923 .0255884
1085.502 .0255908
1086.082 .0255937
1086.662 .0255967
1087.242 .0255987
1087.822 .0255991
1088.402 .0255993
1088.983 .0255982
1089.563 .0255976
1090.144 .0255987
1090.725 .0256032
1091.306 .0256107
1091.887 .0256224
1092.469 .0256361
1093.050 .0256495
1093.632 .0256628
1094.214 .0256734
1094.796 .0256818
1095.379 .0256899
1095.961 .0256980
1096.544 .0257093
1097.127 .0257255
1097.710 .0257487
1098.294 .0257785
1098.877 .0258124
1099.461 .0258483
1100.046 .0258822
1100.630 .0259121
1101.215 .0259360
1101.800 .0259541
1102.385 .0259672
1102.970 .0259786
1103.556 .0259902
1104.142 .0260040
1104.728 .0260196
1105.315 .0260381
1105.902 .0260576
1106.489 .0260760
1107.077 .0260929
1107.664 .0261047
1108.253 .0261118
1108.841 .0261172
1109.430 .0261194
1110.019 .0261224
1110.609 .0261275
1111.198 .0261372
1111.789 .0261525
1112.379 .0261738
1112.970 .0262004
1113.561 .0262277
1114.153 .0262594
1114.745 .0262919
1115.338 .0263245
1115.931 .0263557
1116.524 .0263850
1117.117 .0264127
1117.712 .0264411
1118.306 .0264686
1118.901 .0264973
1119.496 .0265279
1120.092 .0265615
1120.689 .0265969
1121.285 .0266364
1121.882 .0266768
1122.480 .0267236
1123.078 .0267727
1123.677 .0268294
1124.276 .0268881
1124.875 .0269527
1125.476 .0270200
1126.076 .0270912
1126.677 .0271634
1127.279 .0272345
1127.881 .0273013
1128.484 .0273666
1129.087 .0274256
1129.691 .0274867
1130.295 .0275467
1130.900 .0276138
1131.505 .0276869
1132.111 .0277722
1132.718 .0278585
1133.325 .0279494
1133.933 .0280364
1134.541 .0281228
1135.150 .0282039
1135.760 .0282814
1136.370 .0283574
1136.981 .0284405
1137.592 .0285315
1138.204 .0286379
1138.817 .0287574
1139.431 .0288923
1140.045 .0290285
1140.660 .0291801
1141.275 .0293445
1141.891 .0295256
1142.508 .0296042
1143.126 .0295838
1143.744 .0300717
1144.363 .0305095
1144.983 .0308174
