Measurement Sequence started on: 15-12-46-377
Integration time: 28
Scans to Average: 2 
>>>>>Begin Spectral Data<<<<<
432.689 .0000100
433.621 .0000100
434.552 .0000100
435.482 .0000100
436.410 .0000100
437.337 .0000100
438.262 .0269688
439.187 .0570819
440.110 .0945325
441.031 .1367355
441.952 .1776405
442.871 .2097616
443.789 .2272342
444.705 .2280876
445.621 .2148458
446.535 .1929011
447.447 .1681467
448.359 .1303443
449.269 .1117333
450.178 .1000145
451.086 .0917890
451.993 .0855187
452.898 .0805368
453.803 .0764481
454.706 .0730420
455.608 .0701262
456.508 .0676358
457.408 .0655045
458.306 .0636552
459.204 .0620216
460.100 .0605734
460.995 .0592839
461.888 .0581367
462.781 .0571002
463.673 .0561619
464.563 .0553062
465.452 .0545244
466.340 .0537916
467.228 .0531192
468.114 .0524966
468.999 .0519259
469.882 .0513950
470.765 .0509071
471.647 .0504560
472.528 .0500346
473.407 .0496426
474.286 .0492770
475.163 .0489333
476.040 .0486183
476.915 .0483192
477.790 .0480525
478.663 .0478150
479.535 .0476153
480.407 .0474494
481.277 .0473191
482.147 .0472188
483.015 .0471401
483.883 .0470757
484.749 .0470304
485.615 .0470014
486.479 .0469931
487.343 .0470121
488.206 .0470622
489.067 .0471405
489.928 .0472415
490.788 .0473608
491.647 .0474927
492.505 .0476319
493.362 .0477812
494.218 .0479265
495.073 .0480794
495.928 .0482471
496.781 .0484279
497.634 .0486354
498.486 .0488690
499.337 .0491249
500.187 .0494021
501.036 .0497001
501.884 .0500164
502.731 .0503475
503.578 .0507043
504.424 .0510927
505.268 .0515046
506.113 .0519556
506.956 .0524356
507.798 .0529694
508.640 .0535658
509.480 .0542272
510.320 .0549689
511.160 .0558101
511.998 .0567440
512.836 .0577933
513.672 .0589541
514.508 .0602542
515.344 .0616739
516.178 .0632445
517.012 .0649647
517.845 .0668898
518.677 .0690656
519.508 .0715312
520.339 .0743204
521.169 .0775212
521.998 .0810807
522.826 .0850859
523.654 .0895532
524.481 .0945208
525.307 .0999998
526.133 .1060267
526.958 .1125597
527.782 .1195528
528.605 .1267510
529.428 .1341094
530.250 .1411134
531.072 .1475623
531.892 .1529547
532.712 .1570624
533.532 .1596747
534.350 .1606064
535.168 .1597517
535.986 .1572103
536.802 .1531133
537.618 .1478191
538.434 .1414354
539.249 .1344664
540.063 .1271710
540.876 .1199152
541.689 .1128352
542.501 .1061626
543.313 .1000016
544.124 .0944165
544.934 .0893542
545.744 .0847892
546.553 .0806371
547.361 .0769002
548.169 .0735734
548.976 .0705757
549.783 .0679013
550.589 .0655301
551.395 .0633719
552.200 .0614476
553.004 .0597034
553.808 .0581102
554.611 .0566532
555.414 .0553479
556.216 .0541667
557.018 .0530891
557.819 .0521185
558.619 .0512345
559.419 .0504251
560.218 .0496852
561.017 .0489849
561.815 .0483051
562.613 .0476473
563.410 .0470026
564.207 .0463702
565.003 .0457546
565.799 .0451530
566.594 .0445671
567.388 .0440017
568.182 .0434521
568.976 .0429092
569.769 .0423782
570.562 .0418644
571.354 .0413565
572.145 .0408667
572.936 .0403883
573.727 .0399302
574.517 .0394905
575.307 .0390682
576.096 .0386665
576.885 .0382824
577.673 .0379158
578.461 .0375659
579.248 .0372309
580.035 .0369117
580.821 .0366026
581.607 .0363058
582.392 .0360245
583.177 .0357567
583.962 .0355039
584.746 .0352702
585.529 .0350531
586.313 .0348567
587.095 .0346778
587.878 .0345163
588.660 .0343705
589.441 .0342358
590.222 .0341106
591.003 .0339933
591.783 .0338847
592.563 .0337848
593.342 .0336953
594.121 .0336164
594.899 .0335496
595.678 .0334931
596.455 .0334455
597.233 .0334040
598.009 .0333657
598.786 .0333291
599.562 .0332925
600.338 .0332539
601.113 .0332144
601.888 .0331729
602.663 .0331311
603.437 .0330886
604.211 .0330453
604.984 .0330010
605.757 .0329556
606.530 .0329080
607.302 .0328589
608.074 .0328076
608.845 .0327557
609.616 .0327044
610.387 .0326547
611.158 .0326067
611.928 .0325602
612.697 .0325160
613.467 .0324735
614.236 .0324315
615.004 .0323913
615.773 .0323521
616.541 .0323154
617.308 .0322819
618.076 .0322519
618.843 .0322258
619.609 .0322042
620.375 .0321853
621.141 .0321681
621.907 .0321510
622.672 .0321331
623.437 .0321134
624.202 .0320930
624.966 .0320723
625.730 .0320516
626.493 .0320318
627.257 .0320139
628.020 .0319976
628.782 .0319825
629.545 .0319671
630.307 .0319511
631.068 .0319341
631.830 .0319153
632.591 .0318944
633.352 .0318727
634.112 .0318505
634.872 .0318282
635.632 .0318054
636.392 .0317831
637.151 .0317603
637.910 .0317369
638.668 .0317131
639.427 .0316889
640.185 .0316644
640.943 .0316386
641.700 .0316125
642.457 .0315864
643.214 .0315602
643.971 .0315339
644.727 .0315078
645.483 .0314824
646.239 .0314576
646.994 .0314331
647.750 .0314097
648.505 .0313873
649.259 .0313657
650.014 .0313445
650.768 .0313235
651.521 .0313017
652.275 .0312796
653.028 .0312563
653.781 .0312328
654.534 .0312087
655.286 .0311845
656.039 .0311603
656.791 .0311359
657.542 .0311110
658.294 .0310849
659.045 .0310578
659.796 .0310296
660.546 .0309993
661.297 .0309676
662.047 .0309353
662.796 .0309027
663.546 .0308710
664.295 .0308411
665.044 .0308130
665.793 .0307868
666.542 .0307622
667.290 .0307386
668.038 .0307153
668.786 .0306914
669.533 .0306669
670.281 .0306414
671.028 .0306155
671.774 .0305888
672.521 .0305619
673.267 .0305362
674.013 .0305114
674.759 .0304868
675.505 .0304629
676.250 .0304387
676.995 .0304137
677.740 .0303876
678.484 .0303600
679.229 .0303313
679.973 .0303019
680.717 .0302724
681.460 .0302431
682.204 .0302147
682.947 .0301876
683.690 .0301619
684.433 .0301376
685.175 .0301145
685.917 .0300920
686.659 .0300700
687.401 .0300482
688.142 .0300268
688.884 .0300059
689.625 .0299850
690.365 .0299645
691.106 .0299446
691.846 .0299252
692.586 .0299059
693.326 .0298870
694.066 .0298681
694.805 .0298493
695.545 .0298308
696.284 .0298122
697.022 .0297940
697.761 .0297767
698.499 .0297596
699.237 .0297433
699.975 .0297269
700.713 .0297112
701.450 .0296952
702.187 .0296792
702.924 .0296638
703.661 .0296487
704.397 .0296343
705.133 .0296215
705.869 .0296097
706.605 .0295991
707.341 .0295893
708.076 .0295800
708.811 .0295703
709.546 .0295599
710.281 .0295487
711.015 .0295367
711.749 .0295241
712.483 .0295113
713.217 .0294976
713.950 .0294841
714.684 .0294710
715.417 .0294577
716.150 .0294449
716.882 .0294326
717.615 .0294203
718.347 .0294080
719.079 .0293960
719.811 .0293836
720.542 .0293709
721.273 .0293581
722.005 .0293451
722.735 .0293315
723.466 .0293178
724.196 .0293033
724.927 .0292887
725.656 .0292737
726.386 .0292579
727.116 .0292412
727.845 .0292237
728.574 .0292045
729.303 .0291840
730.031 .0291626
730.760 .0291403
731.488 .0291177
732.216 .0290959
732.944 .0290749
733.671 .0290556
734.398 .0290381
735.125 .0290226
735.852 .0290092
736.579 .0289979
737.305 .0289880
738.031 .0289796
738.757 .0289726
739.483 .0289665
740.208 .0289608
740.933 .0289557
741.658 .0289503
742.383 .0289439
743.108 .0289368
743.832 .0289284
744.556 .0289186
745.280 .0289079
746.004 .0288958
746.727 .0288828
747.450 .0288689
748.173 .0288544
748.896 .0288391
749.618 .0288236
750.340 .0288077
751.062 .0287914
751.784 .0287751
752.506 .0287590
753.227 .0287433
753.948 .0287280
754.669 .0287132
755.389 .0286987
756.110 .0286841
756.830 .0286688
757.550 .0286518
758.269 .0286330
758.989 .0286120
759.708 .0285887
760.427 .0285631
761.146 .0285362
761.864 .0285083
762.582 .0284802
763.300 .0284518
764.018 .0284239
764.736 .0283963
765.453 .0283691
766.170 .0283426
766.887 .0283165
767.603 .0282914
768.320 .0282667
769.036 .0282428
769.751 .0282205
770.467 .0281988
771.182 .0281781
771.897 .0281581
772.612 .0281393
773.327 .0281213
774.041 .0281044
774.755 .0280883
775.469 .0280732
776.183 .0280591
776.896 .0280454
777.609 .0280317
778.322 .0280181
779.035 .0280045
779.747 .0279906
780.459 .0279772
781.171 .0279644
781.882 .0279525
782.594 .0279423
783.305 .0279334
784.016 .0279260
784.726 .0279194
785.436 .0279128
786.147 .0279059
786.856 .0278983
787.566 .0278898
788.275 .0278799
788.984 .0278695
789.693 .0278587
790.401 .0278477
791.110 .0278365
791.818 .0278249
792.525 .0278129
793.233 .0278005
793.940 .0277871
794.647 .0277730
795.353 .0277586
796.060 .0277437
796.766 .0277284
797.472 .0277129
798.177 .0276974
798.883 .0276820
799.588 .0276669
800.292 .0276522
800.997 .0276380
801.701 .0276245
802.405 .0276119
803.109 .0276005
803.812 .0275908
804.515 .0275825
805.218 .0275752
805.921 .0275688
806.623 .0275628
807.325 .0275571
808.027 .0275517
808.728 .0275462
809.429 .0275407
810.130 .0275352
810.831 .0275296
811.531 .0275241
812.231 .0275187
812.931 .0275130
813.630 .0275068
814.330 .0274999
815.029 .0274922
815.727 .0274837
816.426 .0274748
817.124 .0274659
817.821 .0274574
818.519 .0274499
819.216 .0274434
819.913 .0274377
820.609 .0274337
821.306 .0274309
822.002 .0274290
822.697 .0274281
823.393 .0274284
824.088 .0274300
824.783 .0274325
825.477 .0274359
826.171 .0274402
826.865 .0274452
827.559 .0274506
828.252 .0274562
828.945 .0274618
829.638 .0274674
830.330 .0274728
831.023 .0274778
831.714 .0274831
832.406 .0274882
833.097 .0274928
833.788 .0274967
834.479 .0274998
835.169 .0275016
835.859 .0275019
836.548 .0275015
837.238 .0275003
837.927 .0274984
838.615 .0274962
839.304 .0274939
839.992 .0274917
840.680 .0274897
841.367 .0274878
842.054 .0274857
842.741 .0274833
843.428 .0274810
844.114 .0274782
844.800 .0274751
845.485 .0274716
846.170 .0274674
846.855 .0274623
847.540 .0274566
848.224 .0274496
848.908 .0274418
849.592 .0274334
850.275 .0274246
850.958 .0274150
851.641 .0274049
852.323 .0273941
853.005 .0273820
853.687 .0273688
854.368 .0273540
855.049 .0273368
855.730 .0273181
856.410 .0272977
857.090 .0272759
857.769 .0272528
858.449 .0272292
859.128 .0272049
859.806 .0271803
860.485 .0271558
861.163 .0271313
861.840 .0271073
862.518 .0270838
863.195 .0270604
863.871 .0270374
864.548 .0270149
865.224 .0269927
865.899 .0269702
866.574 .0269481
867.249 .0269259
867.924 .0269038
868.598 .0268824
869.272 .0268622
869.946 .0268432
870.619 .0268258
871.292 .0268096
871.964 .0267940
872.636 .0267786
873.308 .0267629
873.979 .0267467
874.651 .0267300
875.321 .0267124
875.992 .0266942
876.662 .0266758
877.331 .0266580
878.001 .0266405
878.670 .0266234
879.338 .0266069
880.007 .0265906
880.675 .0265745
881.342 .0265582
882.009 .0265415
882.676 .0265247
883.343 .0265074
884.009 .0264896
884.675 .0264713
885.340 .0264526
886.005 .0264339
886.670 .0264157
887.334 .0263982
887.998 .0263813
888.662 .0263650
889.325 .0263498
889.988 .0263353
890.650 .0263216
891.312 .0263084
891.974 .0262955
892.636 .0262826
893.297 .0262703
893.957 .0262579
894.618 .0262462
895.278 .0262350
895.937 .0262244
896.596 .0262143
897.255 .0262045
897.914 .0261950
898.572 .0261854
899.230 .0261755
899.887 .0261655
900.544 .0261543
901.201 .0261424
901.857 .0261294
902.513 .0261153
903.168 .0260996
903.823 .0260826
904.478 .0260641
905.132 .0260442
905.786 .0260236
906.440 .0260020
907.093 .0259796
907.746 .0259569
908.399 .0259340
909.051 .0259107
909.703 .0258873
910.354 .0258639
911.005 .0258405
911.656 .0258169
912.306 .0257930
912.956 .0257690
913.605 .0257452
914.254 .0257221
914.903 .0256998
915.551 .0256785
916.199 .0256587
916.847 .0256400
917.494 .0256227
918.141 .0256065
918.788 .0255911
919.434 .0255760
920.079 .0255610
920.725 .0255463
921.370 .0255316
922.014 .0255171
922.658 .0255036
923.302 .0254908
923.946 .0254784
924.589 .0254656
925.231 .0254522
925.873 .0254379
926.515 .0254221
927.157 .0254051
927.798 .0253865
928.439 .0253668
929.079 .0253465
929.719 .0253255
930.359 .0253051
930.998 .0252852
931.637 .0252659
932.275 .0252475
932.913 .0252300
933.551 .0252131
934.188 .0251972
934.825 .0251828
935.462 .0251701
936.098 .0251592
936.733 .0251506
937.369 .0251440
938.004 .0251397
938.638 .0251377
939.273 .0251374
939.907 .0251387
940.540 .0251418
941.173 .0251457
941.806 .0251507
942.438 .0251565
943.070 .0251631
943.702 .0251703
944.333 .0251774
944.964 .0251843
945.594 .0251906
946.224 .0251965
946.854 .0252021
947.483 .0252074
948.112 .0252128
948.741 .0252184
949.369 .0252247
949.996 .0252319
950.624 .0252395
951.251 .0252476
951.878 .0252562
952.504 .0252642
953.130 .0252720
953.755 .0252791
954.380 .0252850
955.005 .0252908
955.629 .0252966
956.253 .0253020
956.877 .0253075
957.500 .0253137
958.123 .0253200
958.746 .0253260
959.368 .0253315
959.990 .0253356
960.611 .0253387
961.232 .0253411
961.853 .0253426
962.473 .0253439
963.093 .0253459
963.712 .0253484
964.331 .0253512
964.950 .0253551
965.569 .0253595
966.187 .0253643
966.804 .0253695
967.422 .0253751
968.039 .0253812
968.655 .0253878
969.272 .0253951
969.887 .0254033
970.503 .0254118
971.118 .0254206
971.733 .0254287
972.347 .0254363
972.961 .0254421
973.575 .0254461
974.188 .0254479
974.801 .0254472
975.414 .0254441
976.026 .0254385
976.638 .0254312
977.250 .0254234
977.861 .0254155
978.472 .0254077
979.083 .0254002
979.693 .0253932
980.303 .0253854
980.912 .0253772
981.521 .0253679
982.130 .0253574
982.738 .0253460
983.346 .0253343
983.954 .0253223
984.562 .0253112
985.169 .0253014
985.775 .0252929
986.382 .0252861
986.988 .0252806
987.594 .0252755
988.199 .0252708
988.804 .0252663
989.409 .0252620
990.013 .0252580
990.617 .0252548
991.221 .0252522
991.824 .0252507
992.427 .0252503
993.030 .0252508
993.632 .0252521
994.234 .0252541
994.836 .0252565
995.438 .0252595
996.039 .0252629
996.640 .0252663
997.240 .0252696
997.840 .0252732
998.440 .0252761
999.040 .0252775
999.639 .0252774
1000.238 .0252749
1000.836 .0252704
1001.435 .0252641
1002.033 .0252555
1002.630 .0252459
1003.228 .0252356
1003.825 .0252259
1004.422 .0252166
1005.018 .0252085
1005.614 .0252017
1006.210 .0251958
1006.806 .0251911
1007.401 .0251866
1007.996 .0251814
1008.591 .0251761
1009.186 .0251705
1009.780 .0251650
1010.374 .0251598
1010.967 .0251555
1011.561 .0251517
1012.154 .0251487
1012.746 .0251453
1013.339 .0251411
1013.931 .0251353
1014.523 .0251282
1015.115 .0251186
1015.706 .0251073
1016.298 .0250949
1016.888 .0250819
1017.479 .0250695
1018.069 .0250587
1018.660 .0250489
1019.250 .0250408
1019.839 .0250334
1020.429 .0250268
1021.018 .0250204
1021.607 .0250145
1022.195 .0250092
1022.784 .0250051
1023.372 .0250027
1023.960 .0250022
1024.547 .0250035
1025.135 .0250071
1025.722 .0250114
1026.309 .0250159
1026.896 .0250198
1027.483 .0250225
1028.069 .0250236
1028.655 .0250230
1029.241 .0250206
1029.827 .0250175
1030.412 .0250137
1030.997 .0250093
1031.582 .0250044
1032.167 .0249990
1032.752 .0249934
1033.336 .0249872
1033.921 .0249806
1034.505 .0249736
1035.089 .0249660
1035.672 .0249587
1036.256 .0249512
1036.839 .0249438
1037.422 .0249365
1038.005 .0249291
1038.588 .0249225
1039.171 .0249158
1039.753 .0249094
1040.335 .0249032
1040.918 .0248980
1041.500 .0248932
1042.081 .0248886
1042.663 .0248842
1043.244 .0248798
1043.826 .0248738
1044.407 .0248659
1044.988 .0248555
1045.569 .0248423
1046.150 .0248265
1046.730 .0248084
1047.311 .0247882
1047.891 .0247676
1048.471 .0247466
1049.052 .0247252
1049.632 .0247031
1050.211 .0246816
1050.791 .0246593
1051.371 .0246366
1051.950 .0246139
1052.530 .0245911
1053.109 .0245685
1053.688 .0245467
1054.268 .0245262
1054.847 .0245076
1055.426 .0244913
1056.005 .0244772
1056.583 .0244645
1057.162 .0244540
1057.741 .0244456
1058.319 .0244389
1058.898 .0244347
1059.476 .0244325
1060.055 .0244318
1060.633 .0244313
1061.211 .0244310
1061.790 .0244306
1062.368 .0244293
1062.946 .0244270
1063.524 .0244240
1064.102 .0244200
1064.680 .0244152
1065.258 .0244095
1065.836 .0244041
1066.414 .0243992
1066.992 .0243946
1067.570 .0243893
1068.148 .0243836
1068.726 .0243779
1069.304 .0243731
1069.882 .0243679
1070.460 .0243638
1071.038 .0243608
1071.616 .0243576
1072.194 .0243542
1072.772 .0243505
1073.350 .0243471
1073.928 .0243441
1074.506 .0243406
1075.084 .0243377
1075.662 .0243346
1076.240 .0243334
1076.819 .0243328
1077.397 .0243322
1077.976 .0243319
1078.554 .0243308
1079.133 .0243280
1079.711 .0243241
1080.290 .0243191
1080.869 .0243134
1081.448 .0243079
1082.027 .0243030
1082.606 .0243000
1083.185 .0243004
1083.764 .0243046
1084.343 .0243115
1084.923 .0243190
1085.502 .0243273
1086.082 .0243332
1086.662 .0243376
1087.242 .0243409
1087.822 .0243428
1088.402 .0243449
1088.983 .0243487
1089.563 .0243538
1090.144 .0243607
1090.725 .0243705
1091.306 .0243822
1091.887 .0243940
1092.469 .0244050
1093.050 .0244134
1093.632 .0244195
1094.214 .0244254
1094.796 .0244328
1095.379 .0244419
1095.961 .0244556
1096.544 .0244736
1097.127 .0244951
1097.710 .0245193
1098.294 .0245436
1098.877 .0245679
1099.461 .0245906
1100.046 .0246127
1100.630 .0246339
1101.215 .0246561
1101.800 .0246825
1102.385 .0247125
1102.970 .0247455
1103.556 .0247791
1104.142 .0248143
1104.728 .0248482
1105.315 .0248784
1105.902 .0249054
1106.489 .0249290
1107.077 .0249496
1107.664 .0249706
1108.253 .0249915
1108.841 .0250130
1109.430 .0250377
1110.019 .0250643
1110.609 .0250929
1111.198 .0251260
1111.789 .0251638
1112.379 .0252049
1112.970 .0252503
1113.561 .0253013
1114.153 .0253529
1114.745 .0254059
1115.338 .0254615
1115.931 .0255164
1116.524 .0255740
1117.117 .0256354
1117.712 .0257006
1118.306 .0257739
1118.901 .0258577
1119.496 .0259453
1120.092 .0260378
1120.689 .0261289
1121.285 .0262128
1121.882 .0262849
1122.480 .0263468
1123.078 .0263966
1123.677 .0264394
1124.276 .0264790
1124.875 .0265218
1125.476 .0265687
1126.076 .0266241
1126.677 .0266815
1127.279 .0267422
1127.881 .0268012
1128.484 .0268544
1129.087 .0268992
1129.691 .0269438
1130.295 .0269863
1130.900 .0270348
1131.505 .0270889
1132.111 .0271541
1132.718 .0272301
1133.325 .0273159
1133.933 .0274078
1134.541 .0275067
1135.150 .0276103
1135.760 .0277194
1136.370 .0278329
1136.981 .0279566
1137.592 .0280860
1138.204 .0282269
1138.817 .0283760
1139.431 .0285310
1140.045 .0286908
1140.660 .0288591
1141.275 .0290397
1141.891 .0292177
1142.508 .0293417
1143.126 .0295230
1143.744 .0298208
1144.363 .0302232
1144.983 .0300082
