Measurement Sequence started on: 15-12-46-377
Integration time: 28
Scans to Average: 2 
>>>>>Begin Spectral Data<<<<<
432.689 .0000100
433.621 .0000100
434.552 .0000100
435.482 .0000100
436.410 .0000100
437.337 .0000100
438.262 .0256989
439.187 .0545620
440.110 .0904720
441.031 .1310135
441.952 .1704460
442.871 .2015728
443.789 .2187449
444.705 .2199954
445.621 .2076432
446.535 .1867956
447.447 .1630765
448.359 .1267580
449.269 .1084979
450.178 .0968278
451.086 .0885110
451.993 .0821127
452.898 .0770613
453.803 .0729722
454.706 .0696244
455.608 .0668236
456.508 .0644601
457.408 .0624303
458.306 .0606595
459.204 .0591011
460.100 .0576948
460.995 .0564131
461.888 .0552518
462.781 .0541859
463.673 .0532109
464.563 .0523260
465.452 .0515002
466.340 .0507173
467.228 .0499867
468.114 .0492961
468.999 .0486469
469.882 .0480358
470.765 .0474623
471.647 .0469212
472.528 .0464149
473.407 .0459449
474.286 .0455087
475.163 .0451138
476.040 .0447651
476.915 .0444537
477.790 .0441804
478.663 .0439431
479.535 .0437473
480.407 .0435937
481.277 .0434814
482.147 .0434021
483.015 .0433525
483.883 .0433294
484.749 .0433283
485.615 .0433491
486.479 .0433874
487.343 .0434423
488.206 .0435054
489.067 .0435661
489.928 .0436270
490.788 .0436829
491.647 .0437457
492.505 .0438167
493.362 .0439016
494.218 .0439972
495.073 .0441068
495.928 .0442394
496.781 .0443899
497.634 .0445647
498.486 .0447602
499.337 .0449789
500.187 .0452200
501.036 .0454901
501.884 .0457984
502.731 .0461430
503.578 .0465380
504.424 .0469701
505.268 .0474374
506.113 .0479397
506.956 .0484826
507.798 .0490837
508.640 .0497463
509.480 .0504804
510.320 .0512822
511.160 .0521716
511.998 .0531443
512.836 .0541958
513.672 .0553298
514.508 .0565441
515.344 .0578506
516.178 .0592632
517.012 .0608182
517.845 .0625700
518.677 .0645683
519.508 .0668590
520.339 .0694458
521.169 .0723733
521.998 .0756334
522.826 .0792878
523.654 .0833948
524.481 .0879569
525.307 .0930205
526.133 .0985640
526.958 .1045683
527.782 .1109344
528.605 .1174965
529.428 .1241838
530.250 .1305185
531.072 .1363035
531.892 .1411861
532.712 .1449523
533.532 .1474448
534.350 .1484864
535.168 .1479798
535.986 .1459300
536.802 .1424209
537.618 .1376411
538.434 .1317457
539.249 .1252238
540.063 .1182978
540.876 .1113068
541.689 .1045013
542.501 .0981376
543.313 .0923496
544.124 .0872100
544.934 .0826408
545.744 .0785749
546.553 .0748947
547.361 .0715572
548.169 .0685248
548.976 .0657558
549.783 .0632641
550.589 .0610498
551.395 .0590646
552.200 .0573196
553.004 .0557725
553.808 .0543967
554.611 .0531632
555.414 .0520654
556.216 .0510563
557.018 .0501258
557.819 .0492675
558.619 .0484672
559.419 .0477161
560.218 .0470309
561.017 .0463853
561.815 .0457686
562.613 .0451756
563.410 .0445923
564.207 .0440010
565.003 .0434199
565.799 .0428421
566.594 .0422730
567.388 .0417194
568.182 .0411819
568.976 .0406553
569.769 .0401518
570.562 .0396643
571.354 .0391900
572.145 .0387305
572.936 .0382781
573.727 .0378278
574.517 .0373840
575.307 .0369481
576.096 .0365266
576.885 .0361212
577.673 .0357389
578.461 .0353748
579.248 .0350335
580.035 .0347153
580.821 .0344177
581.607 .0341425
582.392 .0338868
583.177 .0336482
583.962 .0334280
584.746 .0332270
585.529 .0330426
586.313 .0328772
587.095 .0327302
587.878 .0325991
588.660 .0324805
589.441 .0323725
590.222 .0322729
591.003 .0321820
591.783 .0321003
592.563 .0320270
593.342 .0319607
594.121 .0319018
594.899 .0318489
595.678 .0318002
596.455 .0317568
597.233 .0317162
598.009 .0316766
598.786 .0316386
599.562 .0316000
600.338 .0315607
601.113 .0315209
601.888 .0314820
602.663 .0314433
603.437 .0314062
604.211 .0313696
604.984 .0313337
605.757 .0312994
606.530 .0312659
607.302 .0312326
608.074 .0311989
608.845 .0311658
609.616 .0311319
610.387 .0310991
611.158 .0310683
611.928 .0310390
612.697 .0310123
613.467 .0309879
614.236 .0309655
615.004 .0309453
615.773 .0309267
616.541 .0309091
617.308 .0308927
618.076 .0308769
618.843 .0308600
619.609 .0308430
620.375 .0308248
621.141 .0308062
621.907 .0307861
622.672 .0307651
623.437 .0307426
624.202 .0307193
624.966 .0306962
625.730 .0306730
626.493 .0306508
627.257 .0306293
628.020 .0306079
628.782 .0305860
629.545 .0305632
630.307 .0305394
631.068 .0305144
631.830 .0304889
632.591 .0304627
633.352 .0304372
634.112 .0304125
634.872 .0303890
635.632 .0303668
636.392 .0303451
637.151 .0303237
637.910 .0303011
638.668 .0302771
639.427 .0302511
640.185 .0302232
640.943 .0301942
641.700 .0301653
642.457 .0301372
643.214 .0301103
643.971 .0300853
644.727 .0300623
645.483 .0300412
646.239 .0300219
646.994 .0300037
647.750 .0299867
648.505 .0299705
649.259 .0299549
650.014 .0299393
650.768 .0299243
651.521 .0299103
652.275 .0298965
653.028 .0298830
653.781 .0298698
654.534 .0298567
655.286 .0298435
656.039 .0298297
656.791 .0298154
657.542 .0297998
658.294 .0297838
659.045 .0297667
659.796 .0297489
660.546 .0297304
661.297 .0297115
662.047 .0296924
662.796 .0296727
663.546 .0296535
664.295 .0296345
665.044 .0296159
665.793 .0295978
666.542 .0295795
667.290 .0295611
668.038 .0295425
668.786 .0295230
669.533 .0295027
670.281 .0294819
671.028 .0294608
671.774 .0294397
672.521 .0294193
673.267 .0294000
674.013 .0293822
674.759 .0293659
675.505 .0293507
676.250 .0293351
676.995 .0293192
677.740 .0293027
678.484 .0292849
679.229 .0292663
679.973 .0292466
680.717 .0292265
681.460 .0292071
682.204 .0291883
682.947 .0291702
683.690 .0291529
684.433 .0291362
685.175 .0291194
685.917 .0291022
686.659 .0290845
687.401 .0290662
688.142 .0290481
688.884 .0290300
689.625 .0290124
690.365 .0289954
691.106 .0289794
691.846 .0289638
692.586 .0289491
693.326 .0289346
694.066 .0289202
694.805 .0289061
695.545 .0288919
696.284 .0288771
697.022 .0288622
697.761 .0288467
698.499 .0288310
699.237 .0288141
699.975 .0287968
700.713 .0287789
701.450 .0287609
702.187 .0287428
702.924 .0287251
703.661 .0287082
704.397 .0286923
705.133 .0286776
705.869 .0286639
706.605 .0286511
707.341 .0286389
708.076 .0286268
708.811 .0286147
709.546 .0286025
710.281 .0285903
711.015 .0285780
711.749 .0285660
712.483 .0285536
713.217 .0285410
713.950 .0285282
714.684 .0285147
715.417 .0285007
716.150 .0284859
716.882 .0284702
717.615 .0284538
718.347 .0284367
719.079 .0284191
719.811 .0284014
720.542 .0283840
721.273 .0283664
722.005 .0283489
722.735 .0283318
723.466 .0283150
724.196 .0282985
724.927 .0282826
725.656 .0282667
726.386 .0282512
727.116 .0282357
727.845 .0282199
728.574 .0282039
729.303 .0281879
730.031 .0281717
730.760 .0281557
731.488 .0281396
732.216 .0281239
732.944 .0281089
733.671 .0280947
734.398 .0280814
735.125 .0280688
735.852 .0280569
736.579 .0280454
737.305 .0280350
738.031 .0280260
738.757 .0280180
739.483 .0280116
740.208 .0280065
740.933 .0280026
741.658 .0279996
742.383 .0279968
743.108 .0279937
743.832 .0279903
744.556 .0279858
745.280 .0279799
746.004 .0279728
746.727 .0279646
747.450 .0279555
748.173 .0279459
748.896 .0279359
749.618 .0279252
750.340 .0279138
751.062 .0279022
751.784 .0278899
752.506 .0278770
753.227 .0278634
753.948 .0278496
754.669 .0278362
755.389 .0278232
756.110 .0278101
756.830 .0277975
757.550 .0277852
758.269 .0277731
758.989 .0277607
759.708 .0277478
760.427 .0277343
761.146 .0277207
761.864 .0277064
762.582 .0276918
763.300 .0276765
764.018 .0276611
764.736 .0276450
765.453 .0276283
766.170 .0276104
766.887 .0275913
767.603 .0275713
768.320 .0275507
769.036 .0275297
769.751 .0275090
770.467 .0274886
771.182 .0274693
771.897 .0274508
772.612 .0274329
773.327 .0274154
774.041 .0273986
774.755 .0273822
775.469 .0273661
776.183 .0273509
776.896 .0273370
777.609 .0273246
778.322 .0273142
779.035 .0273055
779.747 .0272986
780.459 .0272931
781.171 .0272885
781.882 .0272849
782.594 .0272817
783.305 .0272785
784.016 .0272755
784.726 .0272728
785.436 .0272698
786.147 .0272663
786.856 .0272620
787.566 .0272565
788.275 .0272496
788.984 .0272410
789.693 .0272307
790.401 .0272193
791.110 .0272068
791.818 .0271936
792.525 .0271806
793.233 .0271685
793.940 .0271567
794.647 .0271456
795.353 .0271355
796.060 .0271257
796.766 .0271158
797.472 .0271061
798.177 .0270967
798.883 .0270875
799.588 .0270786
800.292 .0270700
800.997 .0270616
801.701 .0270537
802.405 .0270455
803.109 .0270364
803.812 .0270265
804.515 .0270153
805.218 .0270020
805.921 .0269869
806.623 .0269704
807.325 .0269521
808.027 .0269328
808.728 .0269129
809.429 .0268927
810.130 .0268723
810.831 .0268522
811.531 .0268325
812.231 .0268129
812.931 .0267937
813.630 .0267748
814.330 .0267567
815.029 .0267400
815.727 .0267243
816.426 .0267095
817.124 .0266956
817.821 .0266826
818.519 .0266702
819.216 .0266588
819.913 .0266488
820.609 .0266397
821.306 .0266322
822.002 .0266265
822.697 .0266227
823.393 .0266209
824.088 .0266210
824.783 .0266220
825.477 .0266232
826.171 .0266243
826.865 .0266250
827.559 .0266253
828.252 .0266257
828.945 .0266258
829.638 .0266259
830.330 .0266259
831.023 .0266255
831.714 .0266251
832.406 .0266243
833.097 .0266226
833.788 .0266191
834.479 .0266143
835.169 .0266083
835.859 .0266019
836.548 .0265957
837.238 .0265905
837.927 .0265865
838.615 .0265841
839.304 .0265826
839.992 .0265824
840.680 .0265833
841.367 .0265846
842.054 .0265858
842.741 .0265867
843.428 .0265866
844.114 .0265858
844.800 .0265842
845.485 .0265821
846.170 .0265787
846.855 .0265746
847.540 .0265693
848.224 .0265627
848.908 .0265554
849.592 .0265469
850.275 .0265374
850.958 .0265271
851.641 .0265158
852.323 .0265033
853.005 .0264900
853.687 .0264764
854.368 .0264622
855.049 .0264472
855.730 .0264319
856.410 .0264158
857.090 .0263998
857.769 .0263837
858.449 .0263676
859.128 .0263514
859.806 .0263353
860.485 .0263193
861.163 .0263033
861.840 .0262874
862.518 .0262718
863.195 .0262561
863.871 .0262406
864.548 .0262252
865.224 .0262098
865.899 .0261945
866.574 .0261796
867.249 .0261649
867.924 .0261504
868.598 .0261360
869.272 .0261221
869.946 .0261088
870.619 .0260961
871.292 .0260837
871.964 .0260710
872.636 .0260584
873.308 .0260456
873.979 .0260324
874.651 .0260193
875.321 .0260062
875.992 .0259934
876.662 .0259815
877.331 .0259709
878.001 .0259614
878.670 .0259531
879.338 .0259461
880.007 .0259400
880.675 .0259344
881.342 .0259289
882.009 .0259235
882.676 .0259183
883.343 .0259131
884.009 .0259073
884.675 .0259011
885.340 .0258945
886.005 .0258876
886.670 .0258803
887.334 .0258730
887.998 .0258655
888.662 .0258580
889.325 .0258509
889.988 .0258445
890.650 .0258384
891.312 .0258330
891.974 .0258276
892.636 .0258224
893.297 .0258173
893.957 .0258122
894.618 .0258071
895.278 .0258024
895.937 .0257980
896.596 .0257937
897.255 .0257895
897.914 .0257854
898.572 .0257810
899.230 .0257765
899.887 .0257712
900.544 .0257648
901.201 .0257574
901.857 .0257490
902.513 .0257393
903.168 .0257287
903.823 .0257169
904.478 .0257040
905.132 .0256896
905.786 .0256741
906.440 .0256574
907.093 .0256396
907.746 .0256206
908.399 .0256008
909.051 .0255800
909.703 .0255589
910.354 .0255371
911.005 .0255153
911.656 .0254935
912.306 .0254715
912.956 .0254497
913.605 .0254280
914.254 .0254071
914.903 .0253868
915.551 .0253671
916.199 .0253489
916.847 .0253318
917.494 .0253161
918.141 .0253021
918.788 .0252897
919.434 .0252790
920.079 .0252690
920.725 .0252598
921.370 .0252510
922.014 .0252419
922.658 .0252326
923.302 .0252223
923.946 .0252106
924.589 .0251974
925.231 .0251825
925.873 .0251661
926.515 .0251485
927.157 .0251295
927.798 .0251092
928.439 .0250882
929.079 .0250667
929.719 .0250444
930.359 .0250217
930.998 .0249995
931.637 .0249772
932.275 .0249550
932.913 .0249334
933.551 .0249127
934.188 .0248933
934.825 .0248754
935.462 .0248592
936.098 .0248446
936.733 .0248320
937.369 .0248215
938.004 .0248126
938.638 .0248054
939.273 .0247995
939.907 .0247949
940.540 .0247916
941.173 .0247895
941.806 .0247882
942.438 .0247875
943.070 .0247876
943.702 .0247875
944.333 .0247868
944.964 .0247859
945.594 .0247842
946.224 .0247815
946.854 .0247780
947.483 .0247736
948.112 .0247685
948.741 .0247627
949.369 .0247565
949.996 .0247499
950.624 .0247431
951.251 .0247355
951.878 .0247275
952.504 .0247195
953.130 .0247114
953.755 .0247035
954.380 .0246965
955.005 .0246904
955.629 .0246851
956.253 .0246805
956.877 .0246773
957.500 .0246752
958.123 .0246742
958.746 .0246740
959.368 .0246749
959.990 .0246759
960.611 .0246770
961.232 .0246775
961.853 .0246778
962.473 .0246777
963.093 .0246766
963.712 .0246743
964.331 .0246711
964.950 .0246675
965.569 .0246637
966.187 .0246602
966.804 .0246581
967.422 .0246575
968.039 .0246587
968.655 .0246613
969.272 .0246651
969.887 .0246694
970.503 .0246743
971.118 .0246788
971.733 .0246826
972.347 .0246861
972.961 .0246894
973.575 .0246929
974.188 .0246970
974.801 .0247016
975.414 .0247060
976.026 .0247096
976.638 .0247121
977.250 .0247123
977.861 .0247103
978.472 .0247058
979.083 .0246993
979.693 .0246913
980.303 .0246820
980.912 .0246718
981.521 .0246611
982.130 .0246505
982.738 .0246394
983.346 .0246276
983.954 .0246155
984.562 .0246026
985.169 .0245895
985.775 .0245761
986.382 .0245630
986.988 .0245504
987.594 .0245384
988.199 .0245270
988.804 .0245155
989.409 .0245041
990.013 .0244925
990.617 .0244807
991.221 .0244686
991.824 .0244572
992.427 .0244472
993.030 .0244385
993.632 .0244324
994.234 .0244287
994.836 .0244274
995.438 .0244279
996.039 .0244295
996.640 .0244322
997.240 .0244358
997.840 .0244409
998.440 .0244463
999.040 .0244526
999.639 .0244602
1000.238 .0244680
1000.836 .0244756
1001.435 .0244832
1002.033 .0244904
1002.630 .0244962
1003.228 .0245011
1003.825 .0245046
1004.422 .0245068
1005.018 .0245081
1005.614 .0245079
1006.210 .0245062
1006.806 .0245029
1007.401 .0244977
1007.996 .0244903
1008.591 .0244821
1009.186 .0244743
1009.780 .0244666
1010.374 .0244603
1010.967 .0244558
1011.561 .0244529
1012.154 .0244508
1012.746 .0244496
1013.339 .0244482
1013.931 .0244467
1014.523 .0244444
1015.115 .0244414
1015.706 .0244384
1016.298 .0244363
1016.888 .0244353
1017.479 .0244354
1018.069 .0244369
1018.660 .0244388
1019.250 .0244402
1019.839 .0244415
1020.429 .0244420
1021.018 .0244424
1021.607 .0244428
1022.195 .0244433
1022.784 .0244445
1023.372 .0244474
1023.960 .0244516
1024.547 .0244573
1025.135 .0244645
1025.722 .0244724
1026.309 .0244806
1026.896 .0244889
1027.483 .0244972
1028.069 .0245052
1028.655 .0245136
1029.241 .0245218
1029.827 .0245295
1030.412 .0245373
1030.997 .0245446
1031.582 .0245511
1032.167 .0245573
1032.752 .0245625
1033.336 .0245663
1033.921 .0245690
1034.505 .0245703
1035.089 .0245705
1035.672 .0245697
1036.256 .0245681
1036.839 .0245658
1037.422 .0245630
1038.005 .0245598
1038.588 .0245563
1039.171 .0245530
1039.753 .0245504
1040.335 .0245480
1040.918 .0245452
1041.500 .0245423
1042.081 .0245395
1042.663 .0245370
1043.244 .0245336
1043.826 .0245294
1044.407 .0245254
1044.988 .0245201
1045.569 .0245148
1046.150 .0245088
1046.730 .0245027
1047.311 .0244968
1047.891 .0244899
1048.471 .0244824
1049.052 .0244740
1049.632 .0244654
1050.211 .0244571
1050.791 .0244493
1051.371 .0244421
1051.950 .0244351
1052.530 .0244279
1053.109 .0244212
1053.688 .0244144
1054.268 .0244074
1054.847 .0244011
1055.426 .0243963
1056.005 .0243939
1056.583 .0243931
1057.162 .0243940
1057.741 .0243976
1058.319 .0244024
1058.898 .0244079
1059.476 .0244120
1060.055 .0244154
1060.633 .0244177
1061.211 .0244192
1061.790 .0244200
1062.368 .0244218
1062.946 .0244253
1063.524 .0244304
1064.102 .0244365
1064.680 .0244434
1065.258 .0244489
1065.836 .0244529
1066.414 .0244547
1066.992 .0244543
1067.570 .0244503
1068.148 .0244443
1068.726 .0244368
1069.304 .0244295
1069.882 .0244219
1070.460 .0244149
1071.038 .0244081
1071.616 .0244026
1072.194 .0243960
1072.772 .0243884
1073.350 .0243806
1073.928 .0243725
1074.506 .0243640
1075.084 .0243555
1075.662 .0243473
1076.240 .0243416
1076.819 .0243374
1077.397 .0243374
1077.976 .0243407
1078.554 .0243475
1079.133 .0243572
1079.711 .0243675
1080.290 .0243787
1080.869 .0243885
1081.448 .0243955
1082.027 .0244004
1082.606 .0244028
1083.185 .0244032
1083.764 .0244023
1084.343 .0244014
1084.923 .0244020
1085.502 .0244044
1086.082 .0244087
1086.662 .0244138
1087.242 .0244189
1087.822 .0244236
1088.402 .0244261
1088.983 .0244258
1089.563 .0244240
1090.144 .0244212
1090.725 .0244203
1091.306 .0244212
1091.887 .0244260
1092.469 .0244355
1093.050 .0244500
1093.632 .0244669
1094.214 .0244850
1094.796 .0245035
1095.379 .0245202
1095.961 .0245348
1096.544 .0245483
1097.127 .0245607
1097.710 .0245740
1098.294 .0245890
1098.877 .0246060
1099.461 .0246254
1100.046 .0246491
1100.630 .0246749
1101.215 .0247042
1101.800 .0247359
1102.385 .0247683
1102.970 .0248004
1103.556 .0248322
1104.142 .0248637
1104.728 .0248948
1105.315 .0249262
1105.902 .0249563
1106.489 .0249852
1107.077 .0250144
1107.664 .0250444
1108.253 .0250748
1108.841 .0251079
1109.430 .0251432
1110.019 .0251780
1110.609 .0252125
1111.198 .0252448
1111.789 .0252747
1112.379 .0253035
1112.970 .0253293
1113.561 .0253525
1114.153 .0253752
1114.745 .0253984
1115.338 .0254215
1115.931 .0254464
1116.524 .0254751
1117.117 .0255053
1117.712 .0255345
1118.306 .0255633
1118.901 .0255868
1119.496 .0256054
1120.092 .0256213
1120.689 .0256325
1121.285 .0256440
1121.882 .0256568
1122.480 .0256748
1123.078 .0257009
1123.677 .0257394
1124.276 .0257879
1124.875 .0258449
1125.476 .0259087
1126.076 .0259764
1126.677 .0260447
1127.279 .0261135
1127.881 .0261842
1128.484 .0262565
1129.087 .0263323
1129.691 .0264160
1130.295 .0265024
1130.900 .0265967
1131.505 .0266943
1132.111 .0267915
1132.718 .0268829
1133.325 .0269705
1133.933 .0270532
1134.541 .0271305
1135.150 .0272071
1135.760 .0272857
1136.370 .0273671
1136.981 .0274564
1137.592 .0275508
1138.204 .0276488
1138.817 .0277426
1139.431 .0278349
1140.045 .0279304
1140.660 .0280211
1141.275 .0281166
1141.891 .0282289
1142.508 .0282068
1143.126 .0286189
1143.744 .0284824
1144.363 .0287160
1144.983 .0291405
