Measurement Sequence started on: 15-12-46-377
Integration time: 28
Scans to Average: 2 
>>>>>Begin Spectral Data<<<<<
432.689 .0000100
433.621 .0000100
434.552 .0000100
435.482 .0000100
436.410 .0000100
437.337 .0000100
438.262 .0268659
439.187 .0570209
440.110 .0945672
441.031 .1369233
441.952 .1781372
442.871 .2106634
443.789 .2286146
444.705 .2298941
445.621 .2170094
446.535 .1952759
447.447 .1705632
448.359 .1327374
449.269 .1138567
450.178 .1018916
451.086 .0934615
451.993 .0869923
452.898 .0818831
453.803 .0776900
454.706 .0742044
455.608 .0711445
456.508 .0684585
457.408 .0660777
458.306 .0639213
459.204 .0619830
460.100 .0602390
460.995 .0586921
461.888 .0573137
462.781 .0560937
463.673 .0550074
464.563 .0540369
465.452 .0531473
466.340 .0523203
467.228 .0515436
468.114 .0508103
468.999 .0501226
469.882 .0494781
470.765 .0488916
471.647 .0483685
472.528 .0478918
473.407 .0474744
474.286 .0471023
475.163 .0467817
476.040 .0464960
476.915 .0462547
477.790 .0460427
478.663 .0458596
479.535 .0457027
480.407 .0455799
481.277 .0454782
482.147 .0453997
483.015 .0453361
483.883 .0452851
484.749 .0452338
485.615 .0451919
486.479 .0451509
487.343 .0451282
488.206 .0451169
489.067 .0451268
489.928 .0451439
490.788 .0451785
491.647 .0452181
492.505 .0452692
493.362 .0453298
494.218 .0453958
495.073 .0454656
495.928 .0455593
496.781 .0456729
497.634 .0458329
498.486 .0460391
499.337 .0463056
500.187 .0466160
501.036 .0469723
501.884 .0473643
502.731 .0477934
503.578 .0482410
504.424 .0487082
505.268 .0491837
506.113 .0496826
506.956 .0501857
507.798 .0507036
508.640 .0512514
509.480 .0518342
510.320 .0524545
511.160 .0531378
511.998 .0538685
512.836 .0546827
513.672 .0555738
514.508 .0565803
515.344 .0577016
516.178 .0589485
517.012 .0603232
517.845 .0618852
518.677 .0636709
519.508 .0657049
520.339 .0680386
521.169 .0708012
521.998 .0740118
522.826 .0777707
523.654 .0820989
524.481 .0869807
525.307 .0924302
526.133 .0984132
526.958 .1048256
527.782 .1116251
528.605 .1185665
529.428 .1256095
530.250 .1322290
531.072 .1382774
531.892 .1433295
532.712 .1471188
533.532 .1494073
534.350 .1499818
535.168 .1487082
535.986 .1457289
536.802 .1411725
537.618 .1354280
538.434 .1286902
539.249 .1215409
540.063 .1141584
540.876 .1069286
541.689 .1000489
542.501 .0937231
543.313 .0879943
544.124 .0829347
544.934 .0784235
545.744 .0744536
546.553 .0709557
547.361 .0678991
548.169 .0652479
548.976 .0629645
549.783 .0609780
550.589 .0592464
551.395 .0576915
552.200 .0563000
553.004 .0550140
553.808 .0538211
554.611 .0527198
555.414 .0517047
556.216 .0507761
557.018 .0499527
557.819 .0492155
558.619 .0485589
559.419 .0479567
560.218 .0473983
561.017 .0468558
561.815 .0463159
562.613 .0457724
563.410 .0452122
564.207 .0446372
565.003 .0440595
565.799 .0434794
566.594 .0429116
567.388 .0423659
568.182 .0418337
568.976 .0413157
569.769 .0408138
570.562 .0403191
571.354 .0398277
572.145 .0393378
572.936 .0388530
573.727 .0383643
574.517 .0378863
575.307 .0374217
576.096 .0369725
576.885 .0365514
577.673 .0361582
578.461 .0357908
579.248 .0354506
580.035 .0351343
580.821 .0348401
581.607 .0345640
582.392 .0343071
583.177 .0340659
583.962 .0338404
584.746 .0336345
585.529 .0334457
586.313 .0332747
587.095 .0331271
587.878 .0329961
588.660 .0328814
589.441 .0327820
590.222 .0326941
591.003 .0326175
591.783 .0325476
592.563 .0324846
593.342 .0324265
594.121 .0323726
594.899 .0323220
595.678 .0322736
596.455 .0322274
597.233 .0321836
598.009 .0321407
598.786 .0320997
599.562 .0320597
600.338 .0320203
601.113 .0319813
601.888 .0319434
602.663 .0319055
603.437 .0318672
604.211 .0318281
604.984 .0317897
605.757 .0317511
606.530 .0317124
607.302 .0316733
608.074 .0316353
608.845 .0315992
609.616 .0315647
610.387 .0315313
611.158 .0314988
611.928 .0314668
612.697 .0314339
613.467 .0313995
614.236 .0313639
615.004 .0313274
615.773 .0312905
616.541 .0312545
617.308 .0312194
618.076 .0311862
618.843 .0311555
619.609 .0311274
620.375 .0311015
621.141 .0310773
621.907 .0310533
622.672 .0310299
623.437 .0310069
624.202 .0309844
624.966 .0309617
625.730 .0309403
626.493 .0309203
627.257 .0309014
628.020 .0308836
628.782 .0308667
629.545 .0308502
630.307 .0308335
631.068 .0308161
631.830 .0307974
632.591 .0307774
633.352 .0307566
634.112 .0307346
634.872 .0307122
635.632 .0306900
636.392 .0306678
637.151 .0306458
637.910 .0306251
638.668 .0306041
639.427 .0305826
640.185 .0305604
640.943 .0305369
641.700 .0305122
642.457 .0304873
643.214 .0304621
643.971 .0304370
644.727 .0304124
645.483 .0303888
646.239 .0303652
646.994 .0303432
647.750 .0303214
648.505 .0302997
649.259 .0302793
650.014 .0302600
650.768 .0302413
651.521 .0302242
652.275 .0302085
653.028 .0301944
653.781 .0301811
654.534 .0301683
655.286 .0301552
656.039 .0301422
656.791 .0301294
657.542 .0301157
658.294 .0301010
659.045 .0300864
659.796 .0300704
660.546 .0300530
661.297 .0300343
662.047 .0300135
662.796 .0299907
663.546 .0299664
664.295 .0299409
665.044 .0299149
665.793 .0298886
666.542 .0298631
667.290 .0298384
668.038 .0298145
668.786 .0297911
669.533 .0297674
670.281 .0297441
671.028 .0297204
671.774 .0296962
672.521 .0296719
673.267 .0296484
674.013 .0296262
674.759 .0296054
675.505 .0295864
676.250 .0295695
676.995 .0295540
677.740 .0295396
678.484 .0295257
679.229 .0295121
679.973 .0294984
680.717 .0294845
681.460 .0294697
682.204 .0294541
682.947 .0294381
683.690 .0294214
684.433 .0294036
685.175 .0293854
685.917 .0293662
686.659 .0293460
687.401 .0293247
688.142 .0293027
688.884 .0292795
689.625 .0292561
690.365 .0292323
691.106 .0292086
691.846 .0291848
692.586 .0291613
693.326 .0291380
694.066 .0291159
694.805 .0290949
695.545 .0290746
696.284 .0290556
697.022 .0290385
697.761 .0290226
698.499 .0290080
699.237 .0289942
699.975 .0289815
700.713 .0289689
701.450 .0289565
702.187 .0289438
702.924 .0289315
703.661 .0289194
704.397 .0289079
705.133 .0288970
705.869 .0288861
706.605 .0288749
707.341 .0288634
708.076 .0288515
708.811 .0288384
709.546 .0288244
710.281 .0288094
711.015 .0287939
711.749 .0287786
712.483 .0287632
713.217 .0287488
713.950 .0287351
714.684 .0287225
715.417 .0287099
716.150 .0286976
716.882 .0286853
717.615 .0286727
718.347 .0286602
719.079 .0286480
719.811 .0286362
720.542 .0286252
721.273 .0286151
722.005 .0286060
722.735 .0285967
723.466 .0285874
724.196 .0285774
724.927 .0285666
725.656 .0285538
726.386 .0285402
727.116 .0285253
727.845 .0285098
728.574 .0284939
729.303 .0284778
730.031 .0284619
730.760 .0284463
731.488 .0284306
732.216 .0284148
732.944 .0283989
733.671 .0283836
734.398 .0283678
735.125 .0283530
735.852 .0283390
736.579 .0283256
737.305 .0283135
738.031 .0283032
738.757 .0282938
739.483 .0282852
740.208 .0282769
740.933 .0282686
741.658 .0282599
742.383 .0282508
743.108 .0282411
743.832 .0282309
744.556 .0282212
745.280 .0282114
746.004 .0282013
746.727 .0281916
747.450 .0281819
748.173 .0281721
748.896 .0281620
749.618 .0281504
750.340 .0281380
751.062 .0281250
751.784 .0281114
752.506 .0280970
753.227 .0280822
753.948 .0280669
754.669 .0280515
755.389 .0280352
756.110 .0280188
756.830 .0280016
757.550 .0279845
758.269 .0279668
758.989 .0279487
759.708 .0279303
760.427 .0279116
761.146 .0278925
761.864 .0278733
762.582 .0278531
763.300 .0278320
764.018 .0278104
764.736 .0277893
765.453 .0277684
766.170 .0277478
766.887 .0277277
767.603 .0277081
768.320 .0276884
769.036 .0276685
769.751 .0276478
770.467 .0276268
771.182 .0276055
771.897 .0275839
772.612 .0275623
773.327 .0275419
774.041 .0275229
774.755 .0275055
775.469 .0274896
776.183 .0274749
776.896 .0274611
777.609 .0274483
778.322 .0274360
779.035 .0274243
779.747 .0274133
780.459 .0274035
781.171 .0273948
781.882 .0273874
782.594 .0273816
783.305 .0273772
784.016 .0273740
784.726 .0273715
785.436 .0273691
786.147 .0273666
786.856 .0273637
787.566 .0273598
788.275 .0273555
788.984 .0273506
789.693 .0273448
790.401 .0273387
791.110 .0273320
791.818 .0273246
792.525 .0273163
793.233 .0273078
793.940 .0272988
794.647 .0272894
795.353 .0272800
796.060 .0272707
796.766 .0272619
797.472 .0272533
798.177 .0272445
798.883 .0272359
799.588 .0272273
800.292 .0272185
800.997 .0272090
801.701 .0271997
802.405 .0271908
803.109 .0271825
803.812 .0271753
804.515 .0271693
805.218 .0271637
805.921 .0271579
806.623 .0271515
807.325 .0271437
808.027 .0271346
808.728 .0271243
809.429 .0271129
810.130 .0271012
810.831 .0270896
811.531 .0270782
812.231 .0270673
812.931 .0270569
813.630 .0270460
814.330 .0270344
815.029 .0270221
815.727 .0270090
816.426 .0269956
817.124 .0269831
817.821 .0269712
818.519 .0269602
819.216 .0269506
819.913 .0269420
820.609 .0269338
821.306 .0269261
822.002 .0269184
822.697 .0269110
823.393 .0269044
824.088 .0268987
824.783 .0268943
825.477 .0268917
826.171 .0268912
826.865 .0268921
827.559 .0268946
828.252 .0268978
828.945 .0269010
829.638 .0269046
830.330 .0269082
831.023 .0269115
831.714 .0269149
832.406 .0269183
833.097 .0269218
833.788 .0269246
834.479 .0269264
835.169 .0269270
835.859 .0269268
836.548 .0269258
837.238 .0269239
837.927 .0269215
838.615 .0269188
839.304 .0269158
839.992 .0269126
840.680 .0269088
841.367 .0269042
842.054 .0268990
842.741 .0268932
843.428 .0268869
844.114 .0268806
844.800 .0268748
845.485 .0268693
846.170 .0268645
846.855 .0268598
847.540 .0268545
848.224 .0268485
848.908 .0268417
849.592 .0268334
850.275 .0268237
850.958 .0268124
851.641 .0268000
852.323 .0267868
853.005 .0267730
853.687 .0267585
854.368 .0267439
855.049 .0267289
855.730 .0267133
856.410 .0266963
857.090 .0266787
857.769 .0266598
858.449 .0266400
859.128 .0266192
859.806 .0265973
860.485 .0265754
861.163 .0265539
861.840 .0265328
862.518 .0265124
863.195 .0264924
863.871 .0264728
864.548 .0264531
865.224 .0264333
865.899 .0264130
866.574 .0263927
867.249 .0263727
867.924 .0263532
868.598 .0263345
869.272 .0263170
869.946 .0263010
870.619 .0262862
871.292 .0262723
871.964 .0262584
872.636 .0262440
873.308 .0262294
873.979 .0262141
874.651 .0261986
875.321 .0261828
875.992 .0261673
876.662 .0261522
877.331 .0261377
878.001 .0261235
878.670 .0261093
879.338 .0260950
880.007 .0260808
880.675 .0260664
881.342 .0260515
882.009 .0260369
882.676 .0260226
883.343 .0260089
884.009 .0259958
884.675 .0259828
885.340 .0259698
886.005 .0259569
886.670 .0259441
887.334 .0259312
887.998 .0259187
888.662 .0259070
889.325 .0258962
889.988 .0258869
890.650 .0258787
891.312 .0258715
891.974 .0258650
892.636 .0258590
893.297 .0258531
893.957 .0258472
894.618 .0258415
895.278 .0258363
895.937 .0258322
896.596 .0258289
897.255 .0258262
897.914 .0258243
898.572 .0258227
899.230 .0258209
899.887 .0258181
900.544 .0258141
901.201 .0258086
901.857 .0258017
902.513 .0257932
903.168 .0257832
903.823 .0257721
904.478 .0257598
905.132 .0257463
905.786 .0257312
906.440 .0257145
907.093 .0256961
907.746 .0256762
908.399 .0256549
909.051 .0256326
909.703 .0256093
910.354 .0255856
911.005 .0255619
911.656 .0255383
912.306 .0255144
912.956 .0254912
913.605 .0254685
914.254 .0254463
914.903 .0254245
915.551 .0254035
916.199 .0253836
916.847 .0253652
917.494 .0253479
918.141 .0253318
918.788 .0253166
919.434 .0253027
920.079 .0252887
920.725 .0252749
921.370 .0252612
922.014 .0252472
922.658 .0252328
923.302 .0252182
923.946 .0252032
924.589 .0251883
925.231 .0251733
925.873 .0251586
926.515 .0251437
927.157 .0251290
927.798 .0251135
928.439 .0250973
929.079 .0250805
929.719 .0250634
930.359 .0250457
930.998 .0250287
931.637 .0250129
932.275 .0249986
932.913 .0249861
933.551 .0249759
934.188 .0249678
934.825 .0249617
935.462 .0249568
936.098 .0249528
936.733 .0249494
937.369 .0249466
938.004 .0249439
938.638 .0249417
939.273 .0249404
939.907 .0249401
940.540 .0249408
941.173 .0249430
941.806 .0249466
942.438 .0249509
943.070 .0249553
943.702 .0249595
944.333 .0249626
944.964 .0249644
945.594 .0249646
946.224 .0249637
946.854 .0249622
947.483 .0249609
948.112 .0249599
948.741 .0249597
949.369 .0249610
949.996 .0249631
950.624 .0249654
951.251 .0249680
951.878 .0249701
952.504 .0249712
953.130 .0249715
953.755 .0249711
954.380 .0249699
955.005 .0249686
955.629 .0249674
956.253 .0249660
956.877 .0249653
957.500 .0249648
958.123 .0249643
958.746 .0249641
959.368 .0249643
959.990 .0249640
960.611 .0249637
961.232 .0249639
961.853 .0249638
962.473 .0249641
963.093 .0249647
963.712 .0249654
964.331 .0249665
964.950 .0249680
965.569 .0249696
966.187 .0249721
966.804 .0249757
967.422 .0249798
968.039 .0249846
968.655 .0249900
969.272 .0249955
969.887 .0250004
970.503 .0250046
971.118 .0250084
971.733 .0250116
972.347 .0250140
972.961 .0250156
973.575 .0250165
974.188 .0250165
974.801 .0250151
975.414 .0250126
976.026 .0250090
976.638 .0250043
977.250 .0249985
977.861 .0249925
978.472 .0249864
979.083 .0249805
979.693 .0249741
980.303 .0249674
980.912 .0249603
981.521 .0249517
982.130 .0249418
982.738 .0249313
983.346 .0249207
983.954 .0249103
984.562 .0249008
985.169 .0248925
985.775 .0248853
986.382 .0248790
986.988 .0248729
987.594 .0248666
988.199 .0248598
988.804 .0248526
989.409 .0248446
990.013 .0248370
990.617 .0248296
991.221 .0248229
991.824 .0248171
992.427 .0248122
993.030 .0248081
993.632 .0248046
994.234 .0248018
994.836 .0247995
995.438 .0247974
996.039 .0247963
996.640 .0247951
997.240 .0247946
997.840 .0247944
998.440 .0247944
999.040 .0247939
999.639 .0247929
1000.238 .0247917
1000.836 .0247903
1001.435 .0247887
1002.033 .0247875
1002.630 .0247860
1003.228 .0247844
1003.825 .0247822
1004.422 .0247792
1005.018 .0247753
1005.614 .0247710
1006.210 .0247660
1006.806 .0247608
1007.401 .0247553
1007.996 .0247502
1008.591 .0247454
1009.186 .0247418
1009.780 .0247395
1010.374 .0247374
1010.967 .0247355
1011.561 .0247339
1012.154 .0247318
1012.746 .0247295
1013.339 .0247270
1013.931 .0247244
1014.523 .0247216
1015.115 .0247190
1015.706 .0247166
1016.298 .0247147
1016.888 .0247137
1017.479 .0247139
1018.069 .0247141
1018.660 .0247141
1019.250 .0247134
1019.839 .0247113
1020.429 .0247083
1021.018 .0247041
1021.607 .0246988
1022.195 .0246940
1022.784 .0246900
1023.372 .0246868
1023.960 .0246848
1024.547 .0246841
1025.135 .0246843
1025.722 .0246839
1026.309 .0246821
1026.896 .0246786
1027.483 .0246731
1028.069 .0246665
1028.655 .0246592
1029.241 .0246523
1029.827 .0246470
1030.412 .0246434
1030.997 .0246417
1031.582 .0246418
1032.167 .0246421
1032.752 .0246426
1033.336 .0246423
1033.921 .0246416
1034.505 .0246398
1035.089 .0246372
1035.672 .0246350
1036.256 .0246338
1036.839 .0246334
1037.422 .0246345
1038.005 .0246362
1038.588 .0246397
1039.171 .0246435
1039.753 .0246471
1040.335 .0246496
1040.918 .0246507
1041.500 .0246500
1042.081 .0246481
1042.663 .0246444
1043.244 .0246395
1043.826 .0246332
1044.407 .0246269
1044.988 .0246202
1045.569 .0246133
1046.150 .0246058
1046.730 .0245977
1047.311 .0245891
1047.891 .0245795
1048.471 .0245691
1049.052 .0245582
1049.632 .0245477
1050.211 .0245381
1050.791 .0245288
1051.371 .0245205
1051.950 .0245122
1052.530 .0245040
1053.109 .0244955
1053.688 .0244859
1054.268 .0244755
1054.847 .0244647
1055.426 .0244549
1056.005 .0244462
1056.583 .0244395
1057.162 .0244343
1057.741 .0244309
1058.319 .0244279
1058.898 .0244244
1059.476 .0244188
1060.055 .0244111
1060.633 .0244016
1061.211 .0243893
1061.790 .0243767
1062.368 .0243650
1062.946 .0243557
1063.524 .0243502
1064.102 .0243476
1064.680 .0243487
1065.258 .0243515
1065.836 .0243546
1066.414 .0243568
1066.992 .0243567
1067.570 .0243546
1068.148 .0243495
1068.726 .0243435
1069.304 .0243373
1069.882 .0243320
1070.460 .0243284
1071.038 .0243266
1071.616 .0243251
1072.194 .0243241
1072.772 .0243210
1073.350 .0243159
1073.928 .0243084
1074.506 .0242981
1075.084 .0242853
1075.662 .0242711
1076.240 .0242575
1076.819 .0242452
1077.397 .0242349
1077.976 .0242274
1078.554 .0242213
1079.133 .0242171
1079.711 .0242134
1080.290 .0242094
1080.869 .0242040
1081.448 .0241983
1082.027 .0241926
1082.606 .0241873
1083.185 .0241841
1083.764 .0241826
1084.343 .0241834
1084.923 .0241864
1085.502 .0241916
1086.082 .0241978
1086.662 .0242046
1087.242 .0242114
1087.822 .0242171
1088.402 .0242224
1088.983 .0242266
1089.563 .0242302
1090.144 .0242349
1090.725 .0242428
1091.306 .0242529
1091.887 .0242649
1092.469 .0242806
1093.050 .0242994
1093.632 .0243224
1094.214 .0243481
1094.796 .0243760
1095.379 .0244055
1095.961 .0244347
1096.544 .0244633
1097.127 .0244902
1097.710 .0245163
1098.294 .0245409
1098.877 .0245639
1099.461 .0245878
1100.046 .0246132
1100.630 .0246403
1101.215 .0246700
1101.800 .0247031
1102.385 .0247365
1102.970 .0247677
1103.556 .0247941
1104.142 .0248174
1104.728 .0248375
1105.315 .0248566
1105.902 .0248748
1106.489 .0248951
1107.077 .0249212
1107.664 .0249509
1108.253 .0249838
1108.841 .0250196
1109.430 .0250545
1110.019 .0250874
1110.609 .0251145
1111.198 .0251381
1111.789 .0251554
1112.379 .0251712
1112.970 .0251874
1113.561 .0252068
1114.153 .0252308
1114.745 .0252596
1115.338 .0252941
1115.931 .0253362
1116.524 .0253832
1117.117 .0254312
1117.712 .0254828
1118.306 .0255390
1118.901 .0255999
1119.496 .0256642
1120.092 .0257308
1120.689 .0258039
1121.285 .0258795
1121.882 .0259568
1122.480 .0260348
1123.078 .0261116
1123.677 .0261864
1124.276 .0262538
1124.875 .0263179
1125.476 .0263717
1126.076 .0264188
1126.677 .0264608
1127.279 .0265013
1127.881 .0265421
1128.484 .0265836
1129.087 .0266273
1129.691 .0266796
1130.295 .0267420
1130.900 .0268101
1131.505 .0268833
1132.111 .0269680
1132.718 .0270576
1133.325 .0271498
1133.933 .0272429
1134.541 .0273381
1135.150 .0274341
1135.760 .0275293
1136.370 .0276233
1136.981 .0277193
1137.592 .0278162
1138.204 .0279188
1138.817 .0280231
1139.431 .0281289
1140.045 .0282314
1140.660 .0283291
1141.275 .0284304
1141.891 .0285652
1142.508 .0285992
1143.126 .0286155
1143.744 .0287270
1144.363 .0290504
1144.983 .0300885
