Measurement Sequence started on: 15-12-46-377
Integration time: 28
Scans to Average: 2 
>>>>>Begin Spectral Data<<<<<
432.689 .0000100
433.621 .0000100
434.552 .0000100
435.482 .0000100
436.410 .0000100
437.337 .0000100
438.262 .0261738
439.187 .0554834
440.110 .0919416
441.031 .1331218
441.952 .1731038
442.871 .2046498
443.789 .2220124
444.705 .2232582
445.621 .2107906
446.535 .1898111
447.447 .1660417
448.359 .1295502
449.269 .1115782
450.178 .1003056
451.086 .0923552
451.993 .0863180
452.898 .0814942
453.803 .0775296
454.706 .0741965
455.608 .0713105
456.508 .0688196
457.408 .0666525
458.306 .0647504
459.204 .0630654
460.100 .0615527
460.995 .0602057
461.888 .0589892
462.781 .0578784
463.673 .0568589
464.563 .0559059
465.452 .0550148
466.340 .0541680
467.228 .0533600
468.114 .0525950
468.999 .0518849
469.882 .0512262
470.765 .0506301
471.647 .0500910
472.528 .0496170
473.407 .0491954
474.286 .0488353
475.163 .0485157
476.040 .0482258
476.915 .0479746
477.790 .0477461
478.663 .0475403
479.535 .0473693
480.407 .0472268
481.277 .0471092
482.147 .0470202
483.015 .0469589
483.883 .0469108
484.749 .0468798
485.615 .0468647
486.479 .0468583
487.343 .0468690
488.206 .0468894
489.067 .0469111
489.928 .0469381
490.788 .0469768
491.647 .0470043
492.505 .0470412
493.362 .0470863
494.218 .0471407
495.073 .0472081
495.928 .0473013
496.781 .0474150
497.634 .0475632
498.486 .0477403
499.337 .0479448
500.187 .0481694
501.036 .0484277
501.884 .0487016
502.731 .0490086
503.578 .0493414
504.424 .0497153
505.268 .0501188
506.113 .0505709
506.956 .0510587
507.798 .0515955
508.640 .0521785
509.480 .0528135
510.320 .0535192
511.160 .0543089
511.998 .0551777
512.836 .0561581
513.672 .0572513
514.508 .0584686
515.344 .0597971
516.178 .0612585
517.012 .0628811
517.845 .0647086
518.677 .0667740
519.508 .0691167
520.339 .0718155
521.169 .0749237
521.998 .0784909
522.826 .0825698
523.654 .0872331
524.481 .0924426
525.307 .0982232
526.133 .1044970
526.958 .1112240
527.782 .1183468
528.605 .1256939
529.428 .1331535
530.250 .1402809
531.072 .1467873
531.892 .1523561
532.712 .1566057
533.532 .1593631
534.350 .1603008
535.168 .1593492
535.986 .1565240
536.802 .1520148
537.618 .1461068
538.434 .1391520
539.249 .1316520
540.063 .1239116
540.876 .1162405
541.689 .1089263
542.501 .1021076
543.313 .0959365
544.124 .0903996
544.934 .0854517
545.744 .0809943
546.553 .0770164
547.361 .0734320
548.169 .0702745
548.976 .0674718
549.783 .0649867
550.589 .0627852
551.395 .0607999
552.200 .0589958
553.004 .0573427
553.808 .0558115
554.611 .0544123
555.414 .0531295
556.216 .0519707
557.018 .0509373
557.819 .0500185
558.619 .0491996
559.419 .0484741
560.218 .0478292
561.017 .0472396
561.815 .0466797
562.613 .0461285
563.410 .0455897
564.207 .0450578
565.003 .0445312
565.799 .0440133
566.594 .0435032
567.388 .0430107
568.182 .0425215
568.976 .0420363
569.769 .0415580
570.562 .0410757
571.354 .0405958
572.145 .0401103
572.936 .0396258
573.727 .0391468
574.517 .0386749
575.307 .0382195
576.096 .0377878
576.885 .0373777
577.673 .0369960
578.461 .0366444
579.248 .0363199
580.035 .0360189
580.821 .0357397
581.607 .0354789
582.392 .0352329
583.177 .0350046
583.962 .0347939
584.746 .0345987
585.529 .0344254
586.313 .0342691
587.095 .0341277
587.878 .0340048
588.660 .0338942
589.441 .0337937
590.222 .0337028
591.003 .0336183
591.783 .0335396
592.563 .0334666
593.342 .0333975
594.121 .0333293
594.899 .0332654
595.678 .0332047
596.455 .0331458
597.233 .0330894
598.009 .0330334
598.786 .0329773
599.562 .0329215
600.338 .0328660
601.113 .0328096
601.888 .0327525
602.663 .0326956
603.437 .0326388
604.211 .0325836
604.984 .0325286
605.757 .0324752
606.530 .0324244
607.302 .0323765
608.074 .0323308
608.845 .0322870
609.616 .0322452
610.387 .0322055
611.158 .0321677
611.928 .0321306
612.697 .0320944
613.467 .0320598
614.236 .0320264
615.004 .0319942
615.773 .0319634
616.541 .0319340
617.308 .0319057
618.076 .0318788
618.843 .0318525
619.609 .0318268
620.375 .0318021
621.141 .0317778
621.907 .0317544
622.672 .0317316
623.437 .0317088
624.202 .0316857
624.966 .0316629
625.730 .0316399
626.493 .0316159
627.257 .0315916
628.020 .0315677
628.782 .0315436
629.545 .0315189
630.307 .0314939
631.068 .0314688
631.830 .0314439
632.591 .0314184
633.352 .0313921
634.112 .0313648
634.872 .0313369
635.632 .0313079
636.392 .0312773
637.151 .0312468
637.910 .0312160
638.668 .0311855
639.427 .0311562
640.185 .0311276
640.943 .0311007
641.700 .0310753
642.457 .0310520
643.214 .0310301
643.971 .0310088
644.727 .0309889
645.483 .0309698
646.239 .0309524
646.994 .0309360
647.750 .0309204
648.505 .0309063
649.259 .0308934
650.014 .0308812
650.768 .0308689
651.521 .0308564
652.275 .0308431
653.028 .0308291
653.781 .0308130
654.534 .0307950
655.286 .0307754
656.039 .0307547
656.791 .0307331
657.542 .0307089
658.294 .0306843
659.045 .0306591
659.796 .0306335
660.546 .0306074
661.297 .0305802
662.047 .0305532
662.796 .0305258
663.546 .0304982
664.295 .0304707
665.044 .0304434
665.793 .0304166
666.542 .0303903
667.290 .0303647
668.038 .0303406
668.786 .0303171
669.533 .0302945
670.281 .0302731
671.028 .0302514
671.774 .0302288
672.521 .0302057
673.267 .0301828
674.013 .0301602
674.759 .0301373
675.505 .0301152
676.250 .0300944
676.995 .0300746
677.740 .0300560
678.484 .0300377
679.229 .0300201
679.973 .0300030
680.717 .0299857
681.460 .0299677
682.204 .0299501
682.947 .0299332
683.690 .0299168
684.433 .0299009
685.175 .0298856
685.917 .0298704
686.659 .0298553
687.401 .0298406
688.142 .0298253
688.884 .0298094
689.625 .0297931
690.365 .0297758
691.106 .0297582
691.846 .0297402
692.586 .0297218
693.326 .0297031
694.066 .0296845
694.805 .0296651
695.545 .0296448
696.284 .0296236
697.022 .0296014
697.761 .0295782
698.499 .0295539
699.237 .0295289
699.975 .0295040
700.713 .0294792
701.450 .0294556
702.187 .0294329
702.924 .0294121
703.661 .0293927
704.397 .0293741
705.133 .0293558
705.869 .0293377
706.605 .0293191
707.341 .0292994
708.076 .0292791
708.811 .0292587
709.546 .0292383
710.281 .0292183
711.015 .0291992
711.749 .0291808
712.483 .0291630
713.217 .0291459
713.950 .0291283
714.684 .0291108
715.417 .0290928
716.150 .0290744
716.882 .0290561
717.615 .0290380
718.347 .0290202
719.079 .0290031
719.811 .0289865
720.542 .0289701
721.273 .0289537
722.005 .0289371
722.735 .0289201
723.466 .0289029
724.196 .0288849
724.927 .0288666
725.656 .0288479
726.386 .0288294
727.116 .0288104
727.845 .0287910
728.574 .0287710
729.303 .0287501
730.031 .0287290
730.760 .0287082
731.488 .0286880
732.216 .0286697
732.944 .0286533
733.671 .0286394
734.398 .0286274
735.125 .0286169
735.852 .0286075
736.579 .0285987
737.305 .0285897
738.031 .0285802
738.757 .0285703
739.483 .0285602
740.208 .0285504
740.933 .0285410
741.658 .0285319
742.383 .0285229
743.108 .0285133
743.832 .0285031
744.556 .0284917
745.280 .0284791
746.004 .0284654
746.727 .0284510
747.450 .0284366
748.173 .0284226
748.896 .0284096
749.618 .0283978
750.340 .0283873
751.062 .0283782
751.784 .0283700
752.506 .0283619
753.227 .0283542
753.948 .0283465
754.669 .0283389
755.389 .0283313
756.110 .0283234
756.830 .0283156
757.550 .0283078
758.269 .0282997
758.989 .0282915
759.708 .0282829
760.427 .0282742
761.146 .0282646
761.864 .0282545
762.582 .0282438
763.300 .0282322
764.018 .0282197
764.736 .0282069
765.453 .0281939
766.170 .0281811
766.887 .0281685
767.603 .0281566
768.320 .0281453
769.036 .0281344
769.751 .0281236
770.467 .0281124
771.182 .0281014
771.897 .0280903
772.612 .0280787
773.327 .0280670
774.041 .0280555
774.755 .0280442
775.469 .0280333
776.183 .0280231
776.896 .0280134
777.609 .0280042
778.322 .0279953
779.035 .0279864
779.747 .0279780
780.459 .0279702
781.171 .0279634
781.882 .0279570
782.594 .0279516
783.305 .0279464
784.016 .0279412
784.726 .0279358
785.436 .0279298
786.147 .0279231
786.856 .0279159
787.566 .0279082
788.275 .0279002
788.984 .0278923
789.693 .0278846
790.401 .0278766
791.110 .0278683
791.818 .0278591
792.525 .0278490
793.233 .0278376
793.940 .0278256
794.647 .0278131
795.353 .0278007
796.060 .0277889
796.766 .0277776
797.472 .0277671
798.177 .0277567
798.883 .0277463
799.588 .0277355
800.292 .0277241
800.997 .0277121
801.701 .0276992
802.405 .0276864
803.109 .0276741
803.812 .0276618
804.515 .0276495
805.218 .0276369
805.921 .0276237
806.623 .0276089
807.325 .0275922
808.027 .0275736
808.728 .0275528
809.429 .0275304
810.130 .0275066
810.831 .0274820
811.531 .0274571
812.231 .0274323
812.931 .0274072
813.630 .0273821
814.330 .0273571
815.029 .0273319
815.727 .0273068
816.426 .0272824
817.124 .0272583
817.821 .0272347
818.519 .0272126
819.216 .0271920
819.913 .0271727
820.609 .0271553
821.306 .0271395
822.002 .0271253
822.697 .0271125
823.393 .0271006
824.088 .0270898
824.783 .0270799
825.477 .0270704
826.171 .0270607
826.865 .0270511
827.559 .0270414
828.252 .0270312
828.945 .0270212
829.638 .0270115
830.330 .0270020
831.023 .0269931
831.714 .0269847
832.406 .0269769
833.097 .0269696
833.788 .0269624
834.479 .0269545
835.169 .0269462
835.859 .0269371
836.548 .0269273
837.238 .0269167
837.927 .0269060
838.615 .0268951
839.304 .0268843
839.992 .0268739
840.680 .0268642
841.367 .0268548
842.054 .0268461
842.741 .0268370
843.428 .0268281
844.114 .0268191
844.800 .0268100
845.485 .0268007
846.170 .0267917
846.855 .0267828
847.540 .0267740
848.224 .0267649
848.908 .0267561
849.592 .0267471
850.275 .0267379
850.958 .0267278
851.641 .0267170
852.323 .0267054
853.005 .0266929
853.687 .0266795
854.368 .0266658
855.049 .0266518
855.730 .0266377
856.410 .0266232
857.090 .0266089
857.769 .0265950
858.449 .0265815
859.128 .0265684
859.806 .0265558
860.485 .0265436
861.163 .0265319
861.840 .0265207
862.518 .0265103
863.195 .0265004
863.871 .0264912
864.548 .0264823
865.224 .0264737
865.899 .0264656
866.574 .0264579
867.249 .0264505
867.924 .0264437
868.598 .0264373
869.272 .0264313
869.946 .0264260
870.619 .0264211
871.292 .0264166
871.964 .0264124
872.636 .0264083
873.308 .0264044
873.979 .0264011
874.651 .0263983
875.321 .0263960
875.992 .0263942
876.662 .0263931
877.331 .0263925
878.001 .0263922
878.670 .0263921
879.338 .0263918
880.007 .0263915
880.675 .0263912
881.342 .0263910
882.009 .0263912
882.676 .0263920
883.343 .0263936
884.009 .0263962
884.675 .0263996
885.340 .0264034
886.005 .0264079
886.670 .0264129
887.334 .0264180
887.998 .0264227
888.662 .0264277
889.325 .0264323
889.988 .0264368
890.650 .0264415
891.312 .0264464
891.974 .0264517
892.636 .0264570
893.297 .0264625
893.957 .0264681
894.618 .0264738
895.278 .0264791
895.937 .0264837
896.596 .0264881
897.255 .0264919
897.914 .0264951
898.572 .0264980
899.230 .0265012
899.887 .0265042
900.544 .0265073
901.201 .0265105
901.857 .0265134
902.513 .0265158
903.168 .0265171
903.823 .0265170
904.478 .0265150
905.132 .0265108
905.786 .0265042
906.440 .0264956
907.093 .0264852
907.746 .0264726
908.399 .0264586
909.051 .0264433
909.703 .0264270
910.354 .0264099
911.005 .0263920
911.656 .0263735
912.306 .0263545
912.956 .0263351
913.605 .0263152
914.254 .0262951
914.903 .0262752
915.551 .0262558
916.199 .0262374
916.847 .0262202
917.494 .0262043
918.141 .0261898
918.788 .0261774
919.434 .0261664
920.079 .0261560
920.725 .0261461
921.370 .0261361
922.014 .0261251
922.658 .0261129
923.302 .0260992
923.946 .0260842
924.589 .0260676
925.231 .0260495
925.873 .0260299
926.515 .0260091
927.157 .0259876
927.798 .0259650
928.439 .0259413
929.079 .0259168
929.719 .0258912
930.359 .0258650
930.998 .0258387
931.637 .0258124
932.275 .0257873
932.913 .0257634
933.551 .0257408
934.188 .0257199
934.825 .0257007
935.462 .0256832
936.098 .0256671
936.733 .0256524
937.369 .0256387
938.004 .0256257
938.638 .0256133
939.273 .0256014
939.907 .0255905
940.540 .0255802
941.173 .0255704
941.806 .0255610
942.438 .0255517
943.070 .0255424
943.702 .0255328
944.333 .0255229
944.964 .0255126
945.594 .0255023
946.224 .0254914
946.854 .0254808
947.483 .0254701
948.112 .0254594
948.741 .0254486
949.369 .0254378
949.996 .0254260
950.624 .0254133
951.251 .0253996
951.878 .0253847
952.504 .0253693
953.130 .0253536
953.755 .0253375
954.380 .0253219
955.005 .0253064
955.629 .0252907
956.253 .0252742
956.877 .0252576
957.500 .0252403
958.123 .0252224
958.746 .0252039
959.368 .0251844
959.990 .0251647
960.611 .0251451
961.232 .0251258
961.853 .0251070
962.473 .0250889
963.093 .0250715
963.712 .0250541
964.331 .0250367
964.950 .0250192
965.569 .0250022
966.187 .0249859
966.804 .0249700
967.422 .0249548
968.039 .0249402
968.655 .0249261
969.272 .0249124
969.887 .0248989
970.503 .0248853
971.118 .0248720
971.733 .0248587
972.347 .0248456
972.961 .0248328
973.575 .0248198
974.188 .0248066
974.801 .0247925
975.414 .0247771
976.026 .0247599
976.638 .0247404
977.250 .0247194
977.861 .0246971
978.472 .0246743
979.083 .0246517
979.693 .0246300
980.303 .0246096
980.912 .0245906
981.521 .0245723
982.130 .0245547
982.738 .0245371
983.346 .0245194
983.954 .0245017
984.562 .0244838
985.169 .0244657
985.775 .0244477
986.382 .0244296
986.988 .0244121
987.594 .0243949
988.199 .0243783
988.804 .0243623
989.409 .0243472
990.013 .0243329
990.617 .0243191
991.221 .0243061
991.824 .0242941
992.427 .0242830
993.030 .0242726
993.632 .0242629
994.234 .0242538
994.836 .0242452
995.438 .0242378
996.039 .0242313
996.640 .0242259
997.240 .0242219
997.840 .0242198
998.440 .0242185
999.040 .0242180
999.639 .0242181
1000.238 .0242178
1000.836 .0242165
1001.435 .0242142
1002.033 .0242103
1002.630 .0242052
1003.228 .0241997
1003.825 .0241941
1004.422 .0241892
1005.018 .0241863
1005.614 .0241849
1006.210 .0241847
1006.806 .0241859
1007.401 .0241873
1007.996 .0241882
1008.591 .0241889
1009.186 .0241896
1009.780 .0241900
1010.374 .0241904
1010.967 .0241917
1011.561 .0241941
1012.154 .0241972
1012.746 .0242011
1013.339 .0242048
1013.931 .0242085
1014.523 .0242112
1015.115 .0242123
1015.706 .0242125
1016.298 .0242127
1016.888 .0242130
1017.479 .0242146
1018.069 .0242175
1018.660 .0242225
1019.250 .0242293
1019.839 .0242377
1020.429 .0242475
1021.018 .0242585
1021.607 .0242700
1022.195 .0242818
1022.784 .0242939
1023.372 .0243070
1023.960 .0243200
1024.547 .0243340
1025.135 .0243493
1025.722 .0243652
1026.309 .0243823
1026.896 .0244003
1027.483 .0244183
1028.069 .0244361
1028.655 .0244530
1029.241 .0244684
1029.827 .0244826
1030.412 .0244961
1030.997 .0245094
1031.582 .0245228
1032.167 .0245373
1032.752 .0245525
1033.336 .0245682
1033.921 .0245842
1034.505 .0245994
1035.089 .0246131
1035.672 .0246250
1036.256 .0246349
1036.839 .0246433
1037.422 .0246510
1038.005 .0246593
1038.588 .0246687
1039.171 .0246788
1039.753 .0246900
1040.335 .0247018
1040.918 .0247130
1041.500 .0247225
1042.081 .0247303
1042.663 .0247363
1043.244 .0247411
1043.826 .0247456
1044.407 .0247505
1044.988 .0247569
1045.569 .0247659
1046.150 .0247755
1046.730 .0247862
1047.311 .0247970
1047.891 .0248073
1048.471 .0248153
1049.052 .0248220
1049.632 .0248267
1050.211 .0248305
1050.791 .0248348
1051.371 .0248403
1051.950 .0248483
1052.530 .0248597
1053.109 .0248731
1053.688 .0248881
1054.268 .0249045
1054.847 .0249210
1055.426 .0249355
1056.005 .0249500
1056.583 .0249621
1057.162 .0249723
1057.741 .0249812
1058.319 .0249892
1058.898 .0249965
1059.476 .0250039
1060.055 .0250105
1060.633 .0250155
1061.211 .0250198
1061.790 .0250226
1062.368 .0250229
1062.946 .0250236
1063.524 .0250246
1064.102 .0250261
1064.680 .0250285
1065.258 .0250335
1065.836 .0250402
1066.414 .0250496
1066.992 .0250616
1067.570 .0250753
1068.148 .0250902
1068.726 .0251062
1069.304 .0251227
1069.882 .0251399
1070.460 .0251571
1071.038 .0251746
1071.616 .0251909
1072.194 .0252069
1072.772 .0252214
1073.350 .0252342
1073.928 .0252460
1074.506 .0252583
1075.084 .0252698
1075.662 .0252811
1076.240 .0252940
1076.819 .0253082
1077.397 .0253216
1077.976 .0253358
1078.554 .0253487
1079.133 .0253604
1079.711 .0253709
1080.290 .0253807
1080.869 .0253881
1081.448 .0253954
1082.027 .0254018
1082.606 .0254068
1083.185 .0254123
1083.764 .0254193
1084.343 .0254262
1084.923 .0254341
1085.502 .0254432
1086.082 .0254531
1086.662 .0254636
1087.242 .0254764
1087.822 .0254903
1088.402 .0255064
1088.983 .0255242
1089.563 .0255422
1090.144 .0255588
1090.725 .0255764
1091.306 .0255929
1091.887 .0256078
1092.469 .0256219
1093.050 .0256354
1093.632 .0256477
1094.214 .0256587
1094.796 .0256696
1095.379 .0256791
1095.961 .0256882
1096.544 .0256968
1097.127 .0257029
1097.710 .0257091
1098.294 .0257166
1098.877 .0257254
1099.461 .0257364
1100.046 .0257525
1100.630 .0257726
1101.215 .0257967
1101.800 .0258246
1102.385 .0258542
1102.970 .0258845
1103.556 .0259146
1104.142 .0259433
1104.728 .0259696
1105.315 .0259939
1105.902 .0260157
1106.489 .0260348
1107.077 .0260544
1107.664 .0260750
1108.253 .0260984
1108.841 .0261241
1109.430 .0261532
1110.019 .0261830
1110.609 .0262156
1111.198 .0262473
1111.789 .0262796
1112.379 .0263110
1112.970 .0263399
1113.561 .0263660
1114.153 .0263906
1114.745 .0264156
1115.338 .0264435
1115.931 .0264732
1116.524 .0265067
1117.117 .0265404
1117.712 .0265753
1118.306 .0266076
1118.901 .0266376
1119.496 .0266669
1120.092 .0266956
1120.689 .0267212
1121.285 .0267494
1121.882 .0267816
1122.480 .0268212
1123.078 .0268693
1123.677 .0269256
1124.276 .0269899
1124.875 .0270597
1125.476 .0271336
1126.076 .0272093
1126.677 .0272875
1127.279 .0273719
1127.881 .0274566
1128.484 .0275428
1129.087 .0276320
1129.691 .0277240
1130.295 .0278171
1130.900 .0279107
1131.505 .0280028
1132.111 .0280920
1132.718 .0281794
1133.325 .0282637
1133.933 .0283418
1134.541 .0284220
1135.150 .0285011
1135.760 .0285766
1136.370 .0286512
1136.981 .0287300
1137.592 .0288094
1138.204 .0288959
1138.817 .0289826
1139.431 .0290765
1140.045 .0291760
1140.660 .0292822
1141.275 .0293887
1141.891 .0295122
1142.508 .0296376
1143.126 .0297468
1143.744 .0298698
1144.363 .0299573
1144.983 .0304179
