Measurement Sequence started on: 15-12-46-377
Integration time: 28
Scans to Average: 2 
>>>>>Begin Spectral Data<<<<<
432.689 .0000100
433.621 .0000100
434.552 .0000100
435.482 .0000100
436.410 .0000100
437.337 .0000100
438.262 .0255851
439.187 .0541447
440.110 .0895587
441.031 .1294806
441.952 .1681539
442.871 .1984984
443.789 .2149565
444.705 .2156849
445.621 .2030615
446.535 .1822456
447.447 .1588103
448.359 .1230465
449.269 .1055177
450.178 .0946022
451.086 .0869431
451.993 .0811344
452.898 .0765300
453.803 .0727422
454.706 .0695516
455.608 .0667911
456.508 .0643631
457.408 .0622405
458.306 .0603567
459.204 .0586952
460.100 .0572203
460.995 .0559059
461.888 .0547096
462.781 .0535993
463.673 .0525570
464.563 .0515648
465.452 .0506273
466.340 .0497444
467.228 .0489275
468.114 .0481876
468.999 .0475246
469.882 .0469307
470.765 .0463997
471.647 .0459272
472.528 .0454948
473.407 .0451019
474.286 .0447351
475.163 .0443922
476.040 .0440889
476.915 .0438357
477.790 .0436285
478.663 .0434611
479.535 .0433387
480.407 .0432409
481.277 .0431524
482.147 .0430727
483.015 .0429929
483.883 .0429140
484.749 .0428400
485.615 .0427750
486.479 .0427246
487.343 .0427051
488.206 .0427093
489.067 .0427362
489.928 .0427823
490.788 .0428446
491.647 .0429069
492.505 .0429735
493.362 .0430532
494.218 .0431429
495.073 .0432468
495.928 .0433760
496.781 .0435215
497.634 .0437000
498.486 .0439012
499.337 .0441365
500.187 .0444028
501.036 .0447070
501.884 .0450415
502.731 .0454128
503.578 .0458212
504.424 .0462685
505.268 .0467332
506.113 .0472233
506.956 .0477370
507.798 .0482845
508.640 .0488670
509.480 .0495174
510.320 .0502487
511.160 .0510815
511.998 .0520081
512.836 .0530544
513.672 .0541978
514.508 .0554337
515.344 .0567610
516.178 .0581823
517.012 .0597279
517.845 .0614593
518.677 .0634054
519.508 .0656224
520.339 .0681603
521.169 .0710615
521.998 .0743242
522.826 .0780105
523.654 .0820842
524.481 .0865461
525.307 .0914375
526.133 .0967464
526.958 .1024105
527.782 .1084296
528.605 .1147331
529.428 .1212091
530.250 .1274480
531.072 .1332250
531.892 .1381078
532.712 .1419152
533.532 .1443960
534.350 .1453168
535.168 .1446262
535.986 .1424137
536.802 .1388168
537.618 .1340572
538.434 .1283870
539.249 .1222159
540.063 .1157237
540.876 .1092630
541.689 .1029593
542.501 .0970167
543.313 .0915951
544.124 .0867333
544.934 .0823746
545.744 .0784343
546.553 .0748621
547.361 .0716281
548.169 .0687041
548.976 .0660478
549.783 .0636357
550.589 .0614694
551.395 .0595296
552.200 .0578072
553.004 .0562569
553.808 .0548502
554.611 .0535528
555.414 .0523415
556.216 .0511954
557.018 .0501165
557.819 .0490992
558.619 .0481359
559.419 .0472482
560.218 .0464333
561.017 .0456782
561.815 .0449808
562.613 .0443303
563.410 .0437093
564.207 .0430968
565.003 .0424855
565.799 .0418728
566.594 .0412699
567.388 .0406854
568.182 .0401230
568.976 .0395938
569.769 .0390998
570.562 .0386321
571.354 .0381857
572.145 .0377590
572.936 .0373450
573.727 .0369404
574.517 .0365456
575.307 .0361587
576.096 .0357864
576.885 .0354327
577.673 .0351017
578.461 .0347959
579.248 .0345137
580.035 .0342506
580.821 .0340056
581.607 .0337771
582.392 .0335629
583.177 .0333665
583.962 .0331873
584.746 .0330261
585.529 .0328815
586.313 .0327522
587.095 .0326364
587.878 .0325311
588.660 .0324346
589.441 .0323445
590.222 .0322573
591.003 .0321743
591.783 .0320941
592.563 .0320158
593.342 .0319412
594.121 .0318695
594.899 .0318018
595.678 .0317362
596.455 .0316730
597.233 .0316119
598.009 .0315517
598.786 .0314936
599.562 .0314360
600.338 .0313788
601.113 .0313229
601.888 .0312686
602.663 .0312159
603.437 .0311655
604.211 .0311172
604.984 .0310706
605.757 .0310259
606.530 .0309826
607.302 .0309404
608.074 .0308993
608.845 .0308605
609.616 .0308225
610.387 .0307867
611.158 .0307528
611.928 .0307200
612.697 .0306890
613.467 .0306603
614.236 .0306330
615.004 .0306078
615.773 .0305845
616.541 .0305631
617.308 .0305436
618.076 .0305265
618.843 .0305107
619.609 .0304965
620.375 .0304841
621.141 .0304723
621.907 .0304604
622.672 .0304493
623.437 .0304373
624.202 .0304250
624.966 .0304130
625.730 .0304013
626.493 .0303894
627.257 .0303779
628.020 .0303660
628.782 .0303534
629.545 .0303401
630.307 .0303251
631.068 .0303083
631.830 .0302906
632.591 .0302711
633.352 .0302507
634.112 .0302300
634.872 .0302095
635.632 .0301886
636.392 .0301674
637.151 .0301456
637.910 .0301227
638.668 .0300991
639.427 .0300751
640.185 .0300505
640.943 .0300269
641.700 .0300045
642.457 .0299838
643.214 .0299656
643.971 .0299491
644.727 .0299339
645.483 .0299195
646.239 .0299043
646.994 .0298876
647.750 .0298689
648.505 .0298490
649.259 .0298278
650.014 .0298056
650.768 .0297831
651.521 .0297608
652.275 .0297385
653.028 .0297162
653.781 .0296935
654.534 .0296704
655.286 .0296464
656.039 .0296218
656.791 .0295969
657.542 .0295716
658.294 .0295466
659.045 .0295220
659.796 .0294975
660.546 .0294734
661.297 .0294493
662.047 .0294246
662.796 .0293993
663.546 .0293739
664.295 .0293474
665.044 .0293200
665.793 .0292927
666.542 .0292648
667.290 .0292364
668.038 .0292078
668.786 .0291785
669.533 .0291493
670.281 .0291202
671.028 .0290917
671.774 .0290632
672.521 .0290364
673.267 .0290110
674.013 .0289874
674.759 .0289665
675.505 .0289484
676.250 .0289320
676.995 .0289177
677.740 .0289042
678.484 .0288917
679.229 .0288791
679.973 .0288664
680.717 .0288537
681.460 .0288417
682.204 .0288304
682.947 .0288208
683.690 .0288133
684.433 .0288081
685.175 .0288046
685.917 .0288023
686.659 .0288006
687.401 .0287987
688.142 .0287963
688.884 .0287931
689.625 .0287895
690.365 .0287864
691.106 .0287833
691.846 .0287810
692.586 .0287798
693.326 .0287786
694.066 .0287771
694.805 .0287745
695.545 .0287701
696.284 .0287635
697.022 .0287549
697.761 .0287447
698.499 .0287335
699.237 .0287218
699.975 .0287102
700.713 .0286992
701.450 .0286892
702.187 .0286794
702.924 .0286695
703.661 .0286597
704.397 .0286494
705.133 .0286390
705.869 .0286287
706.605 .0286190
707.341 .0286098
708.076 .0286011
708.811 .0285924
709.546 .0285834
710.281 .0285739
711.015 .0285629
711.749 .0285500
712.483 .0285353
713.217 .0285185
713.950 .0285000
714.684 .0284802
715.417 .0284598
716.150 .0284387
716.882 .0284174
717.615 .0283962
718.347 .0283750
719.079 .0283533
719.811 .0283310
720.542 .0283078
721.273 .0282839
722.005 .0282590
722.735 .0282328
723.466 .0282063
724.196 .0281797
724.927 .0281528
725.656 .0281256
726.386 .0280982
727.116 .0280705
727.845 .0280425
728.574 .0280139
729.303 .0279848
730.031 .0279555
730.760 .0279260
731.488 .0278963
732.216 .0278671
732.944 .0278390
733.671 .0278119
734.398 .0277866
735.125 .0277626
735.852 .0277400
736.579 .0277185
737.305 .0276986
738.031 .0276801
738.757 .0276628
739.483 .0276465
740.208 .0276312
740.933 .0276168
741.658 .0276030
742.383 .0275894
743.108 .0275763
743.832 .0275634
744.556 .0275504
745.280 .0275373
746.004 .0275243
746.727 .0275115
747.450 .0274994
748.173 .0274880
748.896 .0274772
749.618 .0274669
750.340 .0274570
751.062 .0274472
751.784 .0274378
752.506 .0274282
753.227 .0274185
753.948 .0274090
754.669 .0273998
755.389 .0273909
756.110 .0273829
756.830 .0273760
757.550 .0273701
758.269 .0273645
758.989 .0273592
759.708 .0273533
760.427 .0273469
761.146 .0273402
761.864 .0273332
762.582 .0273260
763.300 .0273191
764.018 .0273126
764.736 .0273067
765.453 .0273015
766.170 .0272969
766.887 .0272925
767.603 .0272882
768.320 .0272838
769.036 .0272790
769.751 .0272742
770.467 .0272700
771.182 .0272664
771.897 .0272642
772.612 .0272634
773.327 .0272640
774.041 .0272658
774.755 .0272690
775.469 .0272736
776.183 .0272787
776.896 .0272844
777.609 .0272904
778.322 .0272965
779.035 .0273029
779.747 .0273094
780.459 .0273161
781.171 .0273233
781.882 .0273305
782.594 .0273373
783.305 .0273440
784.016 .0273505
784.726 .0273569
785.436 .0273628
786.147 .0273681
786.856 .0273724
787.566 .0273753
788.275 .0273773
788.984 .0273778
789.693 .0273771
790.401 .0273750
791.110 .0273715
791.818 .0273668
792.525 .0273602
793.233 .0273522
793.940 .0273428
794.647 .0273318
795.353 .0273191
796.060 .0273048
796.766 .0272889
797.472 .0272716
798.177 .0272533
798.883 .0272342
799.588 .0272146
800.292 .0271947
800.997 .0271748
801.701 .0271546
802.405 .0271341
803.109 .0271136
803.812 .0270925
804.515 .0270712
805.218 .0270495
805.921 .0270270
806.623 .0270035
807.325 .0269796
808.027 .0269547
808.728 .0269287
809.429 .0269018
810.130 .0268739
810.831 .0268451
811.531 .0268153
812.231 .0267850
812.931 .0267535
813.630 .0267215
814.330 .0266887
815.029 .0266549
815.727 .0266207
816.426 .0265862
817.124 .0265517
817.821 .0265180
818.519 .0264854
819.216 .0264543
819.913 .0264246
820.609 .0263965
821.306 .0263698
822.002 .0263445
822.697 .0263210
823.393 .0262989
824.088 .0262779
824.783 .0262583
825.477 .0262399
826.171 .0262224
826.865 .0262060
827.559 .0261908
828.252 .0261767
828.945 .0261638
829.638 .0261520
830.330 .0261410
831.023 .0261307
831.714 .0261210
832.406 .0261115
833.097 .0261014
833.788 .0260905
834.479 .0260790
835.169 .0260670
835.859 .0260550
836.548 .0260436
837.238 .0260333
837.927 .0260243
838.615 .0260170
839.304 .0260109
839.992 .0260056
840.680 .0260008
841.367 .0259961
842.054 .0259910
842.741 .0259854
843.428 .0259799
844.114 .0259741
844.800 .0259689
845.485 .0259646
846.170 .0259606
846.855 .0259570
847.540 .0259536
848.224 .0259502
848.908 .0259467
849.592 .0259431
850.275 .0259397
850.958 .0259362
851.641 .0259330
852.323 .0259300
853.005 .0259269
853.687 .0259238
854.368 .0259206
855.049 .0259175
855.730 .0259150
856.410 .0259130
857.090 .0259120
857.769 .0259121
858.449 .0259129
859.128 .0259145
859.806 .0259165
860.485 .0259187
861.163 .0259212
861.840 .0259239
862.518 .0259272
863.195 .0259310
863.871 .0259357
864.548 .0259415
865.224 .0259483
865.899 .0259562
866.574 .0259645
867.249 .0259731
867.924 .0259816
868.598 .0259899
869.272 .0259976
869.946 .0260051
870.619 .0260123
871.292 .0260192
871.964 .0260252
872.636 .0260307
873.308 .0260356
873.979 .0260398
874.651 .0260434
875.321 .0260465
875.992 .0260493
876.662 .0260523
877.331 .0260557
878.001 .0260598
878.670 .0260648
879.338 .0260710
880.007 .0260778
880.675 .0260848
881.342 .0260921
882.009 .0260993
882.676 .0261067
883.343 .0261142
884.009 .0261217
884.675 .0261292
885.340 .0261367
886.005 .0261441
886.670 .0261513
887.334 .0261585
887.998 .0261654
888.662 .0261716
889.325 .0261770
889.988 .0261811
890.650 .0261838
891.312 .0261851
891.974 .0261852
892.636 .0261838
893.297 .0261811
893.957 .0261769
894.618 .0261716
895.278 .0261655
895.937 .0261585
896.596 .0261510
897.255 .0261427
897.914 .0261336
898.572 .0261230
899.230 .0261111
899.887 .0260980
900.544 .0260835
901.201 .0260683
901.857 .0260524
902.513 .0260359
903.168 .0260192
903.823 .0260023
904.478 .0259855
905.132 .0259682
905.786 .0259505
906.440 .0259318
907.093 .0259120
907.746 .0258907
908.399 .0258677
909.051 .0258433
909.703 .0258173
910.354 .0257899
911.005 .0257612
911.656 .0257315
912.306 .0257007
912.956 .0256687
913.605 .0256358
914.254 .0256025
914.903 .0255686
915.551 .0255344
916.199 .0255005
916.847 .0254666
917.494 .0254331
918.141 .0254000
918.788 .0253672
919.434 .0253348
920.079 .0253022
920.725 .0252693
921.370 .0252357
922.014 .0252017
922.658 .0251672
923.302 .0251320
923.946 .0250966
924.589 .0250606
925.231 .0250237
925.873 .0249865
926.515 .0249487
927.157 .0249105
927.798 .0248721
928.439 .0248333
929.079 .0247942
929.719 .0247548
930.359 .0247151
930.998 .0246751
931.637 .0246356
932.275 .0245968
932.913 .0245588
933.551 .0245221
934.188 .0244869
934.825 .0244535
935.462 .0244224
936.098 .0243938
936.733 .0243679
937.369 .0243444
938.004 .0243230
938.638 .0243029
939.273 .0242840
939.907 .0242658
940.540 .0242483
941.173 .0242316
941.806 .0242160
942.438 .0242014
943.070 .0241877
943.702 .0241751
944.333 .0241634
944.964 .0241519
945.594 .0241404
946.224 .0241285
946.854 .0241158
947.483 .0241020
948.112 .0240876
948.741 .0240727
949.369 .0240581
949.996 .0240437
950.624 .0240301
951.251 .0240176
951.878 .0240065
952.504 .0239969
953.130 .0239886
953.755 .0239823
954.380 .0239771
955.005 .0239730
955.629 .0239698
956.253 .0239672
956.877 .0239655
957.500 .0239639
958.123 .0239627
958.746 .0239611
959.368 .0239588
959.990 .0239564
960.611 .0239533
961.232 .0239502
961.853 .0239474
962.473 .0239449
963.093 .0239430
963.712 .0239422
964.331 .0239420
964.950 .0239427
965.569 .0239445
966.187 .0239474
966.804 .0239515
967.422 .0239568
968.039 .0239641
968.655 .0239730
969.272 .0239837
969.887 .0239964
970.503 .0240103
971.118 .0240258
971.733 .0240421
972.347 .0240586
972.961 .0240750
973.575 .0240909
974.188 .0241059
974.801 .0241197
975.414 .0241323
976.026 .0241430
976.638 .0241524
977.250 .0241608
977.861 .0241683
978.472 .0241753
979.083 .0241822
979.693 .0241885
980.303 .0241943
980.912 .0242002
981.521 .0242053
982.130 .0242097
982.738 .0242140
983.346 .0242177
983.954 .0242211
984.562 .0242248
985.169 .0242289
985.775 .0242339
986.382 .0242400
986.988 .0242470
987.594 .0242543
988.199 .0242622
988.804 .0242704
989.409 .0242785
990.013 .0242867
990.617 .0242953
991.221 .0243042
991.824 .0243137
992.427 .0243244
993.030 .0243364
993.632 .0243501
994.234 .0243658
994.836 .0243829
995.438 .0244012
996.039 .0244197
996.640 .0244389
997.240 .0244579
997.840 .0244770
998.440 .0244962
999.040 .0245148
999.639 .0245332
1000.238 .0245517
1000.836 .0245695
1001.435 .0245868
1002.033 .0246036
1002.630 .0246197
1003.228 .0246347
1003.825 .0246492
1004.422 .0246631
1005.018 .0246769
1005.614 .0246910
1006.210 .0247054
1006.806 .0247191
1007.401 .0247328
1007.996 .0247457
1008.591 .0247573
1009.186 .0247684
1009.780 .0247790
1010.374 .0247893
1010.967 .0247997
1011.561 .0248103
1012.154 .0248210
1012.746 .0248318
1013.339 .0248420
1013.931 .0248509
1014.523 .0248584
1015.115 .0248643
1015.706 .0248683
1016.298 .0248711
1016.888 .0248735
1017.479 .0248755
1018.069 .0248774
1018.660 .0248796
1019.250 .0248823
1019.839 .0248857
1020.429 .0248889
1021.018 .0248920
1021.607 .0248951
1022.195 .0248986
1022.784 .0249023
1023.372 .0249067
1023.960 .0249128
1024.547 .0249202
1025.135 .0249290
1025.722 .0249387
1026.309 .0249495
1026.896 .0249616
1027.483 .0249742
1028.069 .0249874
1028.655 .0250011
1029.241 .0250144
1029.827 .0250271
1030.412 .0250392
1030.997 .0250510
1031.582 .0250619
1032.167 .0250717
1032.752 .0250805
1033.336 .0250885
1033.921 .0250951
1034.505 .0250995
1035.089 .0251006
1035.672 .0250992
1036.256 .0250937
1036.839 .0250840
1037.422 .0250711
1038.005 .0250562
1038.588 .0250400
1039.171 .0250235
1039.753 .0250070
1040.335 .0249911
1040.918 .0249749
1041.500 .0249580
1042.081 .0249393
1042.663 .0249193
1043.244 .0248969
1043.826 .0248725
1044.407 .0248474
1044.988 .0248236
1045.569 .0248003
1046.150 .0247787
1046.730 .0247592
1047.311 .0247414
1047.891 .0247244
1048.471 .0247067
1049.052 .0246881
1049.632 .0246691
1050.211 .0246497
1050.791 .0246300
1051.371 .0246112
1051.950 .0245949
1052.530 .0245804
1053.109 .0245677
1053.688 .0245572
1054.268 .0245470
1054.847 .0245371
1055.426 .0245275
1056.005 .0245183
1056.583 .0245084
1057.162 .0244977
1057.741 .0244861
1058.319 .0244736
1058.898 .0244596
1059.476 .0244433
1060.055 .0244245
1060.633 .0244055
1061.211 .0243842
1061.790 .0243608
1062.368 .0243368
1062.946 .0243136
1063.524 .0242899
1064.102 .0242666
1064.680 .0242435
1065.258 .0242201
1065.836 .0241953
1066.414 .0241705
1066.992 .0241448
1067.570 .0241200
1068.148 .0240959
1068.726 .0240732
1069.304 .0240534
1069.882 .0240377
1070.460 .0240238
1071.038 .0240128
1071.616 .0240043
1072.194 .0239970
1072.772 .0239886
1073.350 .0239806
1073.928 .0239729
1074.506 .0239656
1075.084 .0239588
1075.662 .0239526
1076.240 .0239460
1076.819 .0239403
1077.397 .0239335
1077.976 .0239268
1078.554 .0239185
1079.133 .0239084
1079.711 .0238955
1080.290 .0238813
1080.869 .0238656
1081.448 .0238478
1082.027 .0238291
1082.606 .0238107
1083.185 .0237915
1083.764 .0237725
1084.343 .0237511
1084.923 .0237290
1085.502 .0237073
1086.082 .0236866
1086.662 .0236669
1087.242 .0236500
1087.822 .0236375
1088.402 .0236311
1088.983 .0236308
1089.563 .0236351
1090.144 .0236426
1090.725 .0236537
1091.306 .0236659
1091.887 .0236774
1092.469 .0236882
1093.050 .0237001
1093.632 .0237133
1094.214 .0237305
1094.796 .0237528
1095.379 .0237786
1095.961 .0238090
1096.544 .0238416
1097.127 .0238720
1097.710 .0238977
1098.294 .0239174
1098.877 .0239305
1099.461 .0239376
1100.046 .0239415
1100.630 .0239438
1101.215 .0239483
1101.800 .0239576
1102.385 .0239717
1102.970 .0239881
1103.556 .0240075
1104.142 .0240256
1104.728 .0240418
1105.315 .0240552
1105.902 .0240641
1106.489 .0240718
1107.077 .0240814
1107.664 .0240940
1108.253 .0241104
1108.841 .0241314
1109.430 .0241570
1110.019 .0241836
1110.609 .0242109
1111.198 .0242343
1111.789 .0242563
1112.379 .0242755
1112.970 .0242924
1113.561 .0243066
1114.153 .0243233
1114.745 .0243429
1115.338 .0243687
1115.931 .0244000
1116.524 .0244351
1117.117 .0244749
1117.712 .0245194
1118.306 .0245655
1118.901 .0246132
1119.496 .0246611
1120.092 .0247118
1120.689 .0247615
1121.285 .0248140
1121.882 .0248633
1122.480 .0249181
1123.078 .0249769
1123.677 .0250388
1124.276 .0251044
1124.875 .0251715
1125.476 .0252376
1126.076 .0253059
1126.677 .0253749
1127.279 .0254409
1127.881 .0255072
1128.484 .0255752
1129.087 .0256384
1129.691 .0257024
1130.295 .0257632
1130.900 .0258231
1131.505 .0258870
1132.111 .0259568
1132.718 .0260255
1133.325 .0260994
1133.933 .0261850
1134.541 .0262786
1135.150 .0263844
1135.760 .0265029
1136.370 .0266298
1136.981 .0267683
1137.592 .0269155
1138.204 .0270615
1138.817 .0272178
1139.431 .0273919
1140.045 .0275756
1140.660 .0277832
1141.275 .0280017
1141.891 .0282297
1142.508 .0285936
1143.126 .0287298
1143.744 .0292503
1144.363 .0292026
1144.983 .0292623
