Measurement Sequence started on: 15-12-46-377
Integration time: 28
Scans to Average: 2 
>>>>>Begin Spectral Data<<<<<
432.689 .0000100
433.621 .0000100
434.552 .0000100
435.482 .0000100
436.410 .0000100
437.337 .0000100
438.262 .0258910
439.187 .0548850
440.110 .0909186
441.031 .1316055
441.952 .1712214
442.871 .2025031
443.789 .2198339
444.705 .2212493
445.621 .2090912
446.535 .1884899
447.447 .1650295
448.359 .1288751
449.269 .1109384
450.178 .0995659
451.086 .0914501
451.993 .0851742
452.898 .0802319
453.803 .0762088
454.706 .0729131
455.608 .0701427
456.508 .0677815
457.408 .0657580
458.306 .0639789
459.204 .0623823
460.100 .0609282
460.995 .0595985
461.888 .0583632
462.781 .0572084
463.673 .0561373
464.563 .0551505
465.452 .0542399
466.340 .0533968
467.228 .0526307
468.114 .0519168
468.999 .0512582
469.882 .0506409
470.765 .0500593
471.647 .0495116
472.528 .0489998
473.407 .0485277
474.286 .0481005
475.163 .0477230
476.040 .0473985
476.915 .0471192
477.790 .0468850
478.663 .0466804
479.535 .0464996
480.407 .0463407
481.277 .0461982
482.147 .0460667
483.015 .0459444
483.883 .0458338
484.749 .0457401
485.615 .0456685
486.479 .0456204
487.343 .0456011
488.206 .0456116
489.067 .0456471
489.928 .0456992
490.788 .0457740
491.647 .0458659
492.505 .0459781
493.362 .0461178
494.218 .0462777
495.073 .0464611
495.928 .0466787
496.781 .0469222
497.634 .0472015
498.486 .0475129
499.337 .0478534
500.187 .0482108
501.036 .0485932
501.884 .0489930
502.731 .0494032
503.578 .0498359
504.424 .0502847
505.268 .0507385
506.113 .0512167
506.956 .0517164
507.798 .0522457
508.640 .0528213
509.480 .0534557
510.320 .0541590
511.160 .0549547
511.998 .0558393
512.836 .0568210
513.672 .0579175
514.508 .0591409
515.344 .0604743
516.178 .0619575
517.012 .0636077
517.845 .0654496
518.677 .0675291
519.508 .0698449
520.339 .0724477
521.169 .0754009
521.998 .0786954
522.826 .0823858
523.654 .0865081
524.481 .0910799
525.307 .0961425
526.133 .1017167
526.958 .1077765
527.782 .1142540
528.605 .1210785
529.428 .1281377
530.250 .1348464
531.072 .1410067
531.892 .1461606
532.712 .1500056
533.532 .1523941
534.350 .1530218
535.168 .1518800
535.986 .1491360
536.802 .1449595
537.618 .1395900
538.434 .1332689
539.249 .1264966
540.063 .1193835
540.876 .1122218
541.689 .1052114
542.501 .0985069
543.313 .0923802
544.124 .0868670
544.934 .0819537
545.744 .0776473
546.553 .0739105
547.361 .0706999
548.169 .0679854
548.976 .0656403
549.783 .0635989
550.589 .0617867
551.395 .0601425
552.200 .0586196
553.004 .0571964
553.808 .0558453
554.611 .0546064
555.414 .0534727
556.216 .0524196
557.018 .0514504
557.819 .0505663
558.619 .0497522
559.419 .0489845
560.218 .0482621
561.017 .0475806
561.815 .0469313
562.613 .0463087
563.410 .0456999
564.207 .0451101
565.003 .0445502
565.799 .0440075
566.594 .0434782
567.388 .0429732
568.182 .0424823
568.976 .0419976
569.769 .0415264
570.562 .0410571
571.354 .0405907
572.145 .0401188
572.936 .0396460
573.727 .0391694
574.517 .0386949
575.307 .0382264
576.096 .0377705
576.885 .0373397
577.673 .0369370
578.461 .0365614
579.248 .0362170
580.035 .0359010
580.821 .0356111
581.607 .0353403
582.392 .0350859
583.177 .0348419
583.962 .0346129
584.746 .0343998
585.529 .0342021
586.313 .0340220
587.095 .0338612
587.878 .0337189
588.660 .0335941
589.441 .0334836
590.222 .0333832
591.003 .0332912
591.783 .0332058
592.563 .0331242
593.342 .0330477
594.121 .0329752
594.899 .0329080
595.678 .0328452
596.455 .0327900
597.233 .0327396
598.009 .0326921
598.786 .0326456
599.562 .0325982
600.338 .0325477
601.113 .0324955
601.888 .0324420
602.663 .0323881
603.437 .0323359
604.211 .0322865
604.984 .0322387
605.757 .0321944
606.530 .0321522
607.302 .0321117
608.074 .0320725
608.845 .0320345
609.616 .0319963
610.387 .0319593
611.158 .0319239
611.928 .0318917
612.697 .0318622
613.467 .0318374
614.236 .0318156
615.004 .0317962
615.773 .0317796
616.541 .0317639
617.308 .0317489
618.076 .0317349
618.843 .0317197
619.609 .0317043
620.375 .0316877
621.141 .0316706
621.907 .0316528
622.672 .0316344
623.437 .0316148
624.202 .0315937
624.966 .0315711
625.730 .0315473
626.493 .0315221
627.257 .0314959
628.020 .0314691
628.782 .0314413
629.545 .0314128
630.307 .0313830
631.068 .0313519
631.830 .0313207
632.591 .0312884
633.352 .0312556
634.112 .0312224
634.872 .0311889
635.632 .0311558
636.392 .0311229
637.151 .0310905
637.910 .0310592
638.668 .0310290
639.427 .0309993
640.185 .0309693
640.943 .0309404
641.700 .0309123
642.457 .0308852
643.214 .0308592
643.971 .0308341
644.727 .0308098
645.483 .0307863
646.239 .0307631
646.994 .0307398
647.750 .0307174
648.505 .0306950
649.259 .0306732
650.014 .0306529
650.768 .0306340
651.521 .0306169
652.275 .0306014
653.028 .0305869
653.781 .0305714
654.534 .0305539
655.286 .0305341
656.039 .0305113
656.791 .0304862
657.542 .0304589
658.294 .0304305
659.045 .0304023
659.796 .0303750
660.546 .0303488
661.297 .0303239
662.047 .0303001
662.796 .0302766
663.546 .0302521
664.295 .0302269
665.044 .0302002
665.793 .0301728
666.542 .0301453
667.290 .0301183
668.038 .0300921
668.786 .0300671
669.533 .0300435
670.281 .0300214
671.028 .0300004
671.774 .0299802
672.521 .0299606
673.267 .0299414
674.013 .0299224
674.759 .0299038
675.505 .0298854
676.250 .0298675
676.995 .0298500
677.740 .0298330
678.484 .0298162
679.229 .0297999
679.973 .0297843
680.717 .0297689
681.460 .0297540
682.204 .0297390
682.947 .0297237
683.690 .0297080
684.433 .0296920
685.175 .0296753
685.917 .0296581
686.659 .0296408
687.401 .0296234
688.142 .0296058
688.884 .0295881
689.625 .0295702
690.365 .0295516
691.106 .0295326
691.846 .0295130
692.586 .0294926
693.326 .0294721
694.066 .0294519
694.805 .0294323
695.545 .0294130
696.284 .0293947
697.022 .0293766
697.761 .0293585
698.499 .0293403
699.237 .0293216
699.975 .0293023
700.713 .0292827
701.450 .0292633
702.187 .0292433
702.924 .0292238
703.661 .0292051
704.397 .0291863
705.133 .0291681
705.869 .0291505
706.605 .0291332
707.341 .0291162
708.076 .0291002
708.811 .0290849
709.546 .0290699
710.281 .0290554
711.015 .0290408
711.749 .0290261
712.483 .0290113
713.217 .0289961
713.950 .0289805
714.684 .0289655
715.417 .0289509
716.150 .0289367
716.882 .0289234
717.615 .0289108
718.347 .0288991
719.079 .0288874
719.811 .0288753
720.542 .0288629
721.273 .0288498
722.005 .0288365
722.735 .0288226
723.466 .0288088
724.196 .0287950
724.927 .0287806
725.656 .0287661
726.386 .0287506
727.116 .0287347
727.845 .0287184
728.574 .0287012
729.303 .0286841
730.031 .0286666
730.760 .0286491
731.488 .0286320
732.216 .0286154
732.944 .0285997
733.671 .0285847
734.398 .0285708
735.125 .0285580
735.852 .0285463
736.579 .0285359
737.305 .0285266
738.031 .0285185
738.757 .0285112
739.483 .0285039
740.208 .0284964
740.933 .0284890
741.658 .0284811
742.383 .0284732
743.108 .0284647
743.832 .0284563
744.556 .0284475
745.280 .0284383
746.004 .0284282
746.727 .0284179
747.450 .0284071
748.173 .0283955
748.896 .0283829
749.618 .0283700
750.340 .0283565
751.062 .0283430
751.784 .0283289
752.506 .0283146
753.227 .0283000
753.948 .0282850
754.669 .0282691
755.389 .0282528
756.110 .0282357
756.830 .0282182
757.550 .0282000
758.269 .0281819
758.989 .0281629
759.708 .0281437
760.427 .0281242
761.146 .0281045
761.864 .0280843
762.582 .0280639
763.300 .0280434
764.018 .0280233
764.736 .0280033
765.453 .0279837
766.170 .0279644
766.887 .0279459
767.603 .0279274
768.320 .0279091
769.036 .0278908
769.751 .0278729
770.467 .0278550
771.182 .0278375
771.897 .0278202
772.612 .0278037
773.327 .0277878
774.041 .0277728
774.755 .0277584
775.469 .0277447
776.183 .0277317
776.896 .0277194
777.609 .0277076
778.322 .0276962
779.035 .0276853
779.747 .0276755
780.459 .0276668
781.171 .0276596
781.882 .0276536
782.594 .0276490
783.305 .0276456
784.016 .0276430
784.726 .0276406
785.436 .0276380
786.147 .0276350
786.856 .0276312
787.566 .0276268
788.275 .0276217
788.984 .0276162
789.693 .0276106
790.401 .0276047
791.110 .0275982
791.818 .0275905
792.525 .0275815
793.233 .0275710
793.940 .0275586
794.647 .0275448
795.353 .0275297
796.060 .0275139
796.766 .0274980
797.472 .0274822
798.177 .0274664
798.883 .0274509
799.588 .0274358
800.292 .0274207
800.997 .0274058
801.701 .0273910
802.405 .0273766
803.109 .0273626
803.812 .0273497
804.515 .0273377
805.218 .0273261
805.921 .0273151
806.623 .0273039
807.325 .0272921
808.027 .0272801
808.728 .0272674
809.429 .0272544
810.130 .0272412
810.831 .0272285
811.531 .0272154
812.231 .0272020
812.931 .0271885
813.630 .0271742
814.330 .0271591
815.029 .0271434
815.727 .0271267
816.426 .0271095
817.124 .0270921
817.821 .0270746
818.519 .0270574
819.216 .0270408
819.913 .0270247
820.609 .0270091
821.306 .0269942
822.002 .0269803
822.697 .0269671
823.393 .0269557
824.088 .0269459
824.783 .0269374
825.477 .0269304
826.171 .0269244
826.865 .0269194
827.559 .0269153
828.252 .0269119
828.945 .0269093
829.638 .0269075
830.330 .0269062
831.023 .0269052
831.714 .0269046
832.406 .0269041
833.097 .0269033
833.788 .0269019
834.479 .0269002
835.169 .0268981
835.859 .0268962
836.548 .0268944
837.238 .0268933
837.927 .0268928
838.615 .0268928
839.304 .0268928
839.992 .0268928
840.680 .0268925
841.367 .0268918
842.054 .0268909
842.741 .0268899
843.428 .0268891
844.114 .0268888
844.800 .0268891
845.485 .0268894
846.170 .0268891
846.855 .0268876
847.540 .0268843
848.224 .0268791
848.908 .0268721
849.592 .0268634
850.275 .0268535
850.958 .0268429
851.641 .0268323
852.323 .0268216
853.005 .0268111
853.687 .0268005
854.368 .0267895
855.049 .0267778
855.730 .0267650
856.410 .0267507
857.090 .0267357
857.769 .0267198
858.449 .0267030
859.128 .0266859
859.806 .0266687
860.485 .0266514
861.163 .0266348
861.840 .0266193
862.518 .0266045
863.195 .0265905
863.871 .0265772
864.548 .0265642
865.224 .0265512
865.899 .0265379
866.574 .0265239
867.249 .0265097
867.924 .0264956
868.598 .0264813
869.272 .0264678
869.946 .0264557
870.619 .0264451
871.292 .0264355
871.964 .0264270
872.636 .0264190
873.308 .0264110
873.979 .0264028
874.651 .0263944
875.321 .0263858
875.992 .0263776
876.662 .0263700
877.331 .0263634
878.001 .0263579
878.670 .0263535
879.338 .0263496
880.007 .0263464
880.675 .0263436
881.342 .0263408
882.009 .0263381
882.676 .0263358
883.343 .0263338
884.009 .0263319
884.675 .0263300
885.340 .0263275
886.005 .0263243
886.670 .0263204
887.334 .0263156
887.998 .0263106
888.662 .0263060
889.325 .0263021
889.988 .0262993
890.650 .0262984
891.312 .0262991
891.974 .0263008
892.636 .0263032
893.297 .0263056
893.957 .0263072
894.618 .0263078
895.278 .0263073
895.937 .0263061
896.596 .0263046
897.255 .0263030
897.914 .0263010
898.572 .0262991
899.230 .0262972
899.887 .0262943
900.544 .0262902
901.201 .0262845
901.857 .0262770
902.513 .0262672
903.168 .0262553
903.823 .0262417
904.478 .0262267
905.132 .0262105
905.786 .0261936
906.440 .0261760
907.093 .0261583
907.746 .0261401
908.399 .0261214
909.051 .0261025
909.703 .0260833
910.354 .0260632
911.005 .0260426
911.656 .0260218
912.306 .0260009
912.956 .0259795
913.605 .0259582
914.254 .0259373
914.903 .0259165
915.551 .0258961
916.199 .0258758
916.847 .0258555
917.494 .0258355
918.141 .0258153
918.788 .0257950
919.434 .0257753
920.079 .0257558
920.725 .0257362
921.370 .0257169
922.014 .0256978
922.658 .0256785
923.302 .0256586
923.946 .0256381
924.589 .0256163
925.231 .0255935
925.873 .0255702
926.515 .0255462
927.157 .0255222
927.798 .0254985
928.439 .0254748
929.079 .0254513
929.719 .0254277
930.359 .0254036
930.998 .0253791
931.637 .0253544
932.275 .0253291
932.913 .0253034
933.551 .0252778
934.188 .0252534
934.825 .0252303
935.462 .0252093
936.098 .0251906
936.733 .0251739
937.369 .0251593
938.004 .0251462
938.638 .0251343
939.273 .0251233
939.907 .0251129
940.540 .0251033
941.173 .0250944
941.806 .0250862
942.438 .0250791
943.070 .0250732
943.702 .0250683
944.333 .0250640
944.964 .0250596
945.594 .0250550
946.224 .0250498
946.854 .0250439
947.483 .0250372
948.112 .0250295
948.741 .0250215
949.369 .0250128
949.996 .0250040
950.624 .0249950
951.251 .0249858
951.878 .0249764
952.504 .0249662
953.130 .0249553
953.755 .0249434
954.380 .0249303
955.005 .0249167
955.629 .0249027
956.253 .0248883
956.877 .0248738
957.500 .0248596
958.123 .0248456
958.746 .0248318
959.368 .0248184
959.990 .0248052
960.611 .0247920
961.232 .0247791
961.853 .0247667
962.473 .0247547
963.093 .0247438
963.712 .0247332
964.331 .0247231
964.950 .0247135
965.569 .0247045
966.187 .0246959
966.804 .0246883
967.422 .0246814
968.039 .0246749
968.655 .0246685
969.272 .0246627
969.887 .0246567
970.503 .0246510
971.118 .0246455
971.733 .0246402
972.347 .0246346
972.961 .0246293
973.575 .0246241
974.188 .0246186
974.801 .0246127
975.414 .0246061
976.026 .0245980
976.638 .0245888
977.250 .0245789
977.861 .0245688
978.472 .0245588
979.083 .0245496
979.693 .0245405
980.303 .0245318
980.912 .0245229
981.521 .0245133
982.130 .0245022
982.738 .0244907
983.346 .0244784
983.954 .0244655
984.562 .0244533
985.169 .0244421
985.775 .0244324
986.382 .0244243
986.988 .0244170
987.594 .0244093
988.199 .0244007
988.804 .0243916
989.409 .0243809
990.013 .0243699
990.617 .0243587
991.221 .0243476
991.824 .0243377
992.427 .0243293
993.030 .0243223
993.632 .0243168
994.234 .0243136
994.836 .0243116
995.438 .0243109
996.039 .0243114
996.640 .0243127
997.240 .0243152
997.840 .0243189
998.440 .0243237
999.040 .0243288
999.639 .0243349
1000.238 .0243415
1000.836 .0243482
1001.435 .0243552
1002.033 .0243623
1002.630 .0243697
1003.228 .0243773
1003.825 .0243852
1004.422 .0243930
1005.018 .0244011
1005.614 .0244101
1006.210 .0244194
1006.806 .0244297
1007.401 .0244402
1007.996 .0244512
1008.591 .0244620
1009.186 .0244735
1009.780 .0244851
1010.374 .0244965
1010.967 .0245076
1011.561 .0245179
1012.154 .0245267
1012.746 .0245343
1013.339 .0245401
1013.931 .0245443
1014.523 .0245472
1015.115 .0245489
1015.706 .0245495
1016.298 .0245498
1016.888 .0245504
1017.479 .0245518
1018.069 .0245542
1018.660 .0245578
1019.250 .0245619
1019.839 .0245666
1020.429 .0245722
1021.018 .0245789
1021.607 .0245869
1022.195 .0245963
1022.784 .0246071
1023.372 .0246201
1023.960 .0246349
1024.547 .0246514
1025.135 .0246697
1025.722 .0246887
1026.309 .0247079
1026.896 .0247265
1027.483 .0247442
1028.069 .0247611
1028.655 .0247777
1029.241 .0247940
1029.827 .0248104
1030.412 .0248269
1030.997 .0248437
1031.582 .0248608
1032.167 .0248784
1032.752 .0248962
1033.336 .0249134
1033.921 .0249300
1034.505 .0249452
1035.089 .0249589
1035.672 .0249716
1036.256 .0249830
1036.839 .0249938
1037.422 .0250041
1038.005 .0250140
1038.588 .0250231
1039.171 .0250312
1039.753 .0250382
1040.335 .0250441
1040.918 .0250485
1041.500 .0250515
1042.081 .0250527
1042.663 .0250534
1043.244 .0250544
1043.826 .0250561
1044.407 .0250594
1044.988 .0250637
1045.569 .0250678
1046.150 .0250719
1046.730 .0250746
1047.311 .0250757
1047.891 .0250750
1048.471 .0250737
1049.052 .0250733
1049.632 .0250732
1050.211 .0250744
1050.791 .0250769
1051.371 .0250818
1051.950 .0250885
1052.530 .0250940
1053.109 .0250975
1053.688 .0250983
1054.268 .0250960
1054.847 .0250911
1055.426 .0250848
1056.005 .0250789
1056.583 .0250742
1057.162 .0250720
1057.741 .0250720
1058.319 .0250746
1058.898 .0250800
1059.476 .0250876
1060.055 .0250969
1060.633 .0251074
1061.211 .0251181
1061.790 .0251294
1062.368 .0251429
1062.946 .0251584
1063.524 .0251743
1064.102 .0251911
1064.680 .0252079
1065.258 .0252241
1065.836 .0252380
1066.414 .0252508
1066.992 .0252612
1067.570 .0252705
1068.148 .0252777
1068.726 .0252813
1069.304 .0252837
1069.882 .0252846
1070.460 .0252842
1071.038 .0252836
1071.616 .0252817
1072.194 .0252793
1072.772 .0252756
1073.350 .0252727
1073.928 .0252694
1074.506 .0252669
1075.084 .0252653
1075.662 .0252639
1076.240 .0252627
1076.819 .0252612
1077.397 .0252590
1077.976 .0252564
1078.554 .0252541
1079.133 .0252498
1079.711 .0252444
1080.290 .0252383
1080.869 .0252301
1081.448 .0252220
1082.027 .0252137
1082.606 .0252055
1083.185 .0251984
1083.764 .0251936
1084.343 .0251908
1084.923 .0251899
1085.502 .0251928
1086.082 .0251973
1086.662 .0252030
1087.242 .0252094
1087.822 .0252153
1088.402 .0252203
1088.983 .0252266
1089.563 .0252328
1090.144 .0252397
1090.725 .0252507
1091.306 .0252630
1091.887 .0252762
1092.469 .0252914
1093.050 .0253074
1093.632 .0253211
1094.214 .0253337
1094.796 .0253455
1095.379 .0253550
1095.961 .0253648
1096.544 .0253760
1097.127 .0253874
1097.710 .0254011
1098.294 .0254169
1098.877 .0254316
1099.461 .0254464
1100.046 .0254616
1100.630 .0254735
1101.215 .0254850
1101.800 .0254973
1102.385 .0255106
1102.970 .0255236
1103.556 .0255379
1104.142 .0255516
1104.728 .0255634
1105.315 .0255739
1105.902 .0255812
1106.489 .0255882
1107.077 .0255975
1107.664 .0256106
1108.253 .0256290
1108.841 .0256541
1109.430 .0256847
1110.019 .0257182
1110.609 .0257539
1111.198 .0257909
1111.789 .0258274
1112.379 .0258631
1112.970 .0258992
1113.561 .0259402
1114.153 .0259848
1114.745 .0260358
1115.338 .0260916
1115.931 .0261521
1116.524 .0262134
1117.117 .0262738
1117.712 .0263306
1118.306 .0263855
1118.901 .0264393
1119.496 .0264908
1120.092 .0265397
1120.689 .0265896
1121.285 .0266378
1121.882 .0266851
1122.480 .0267305
1123.078 .0267747
1123.677 .0268144
1124.276 .0268512
1124.875 .0268860
1125.476 .0269180
1126.076 .0269502
1126.677 .0269833
1127.279 .0270179
1127.881 .0270535
1128.484 .0270896
1129.087 .0271245
1129.691 .0271611
1130.295 .0272018
1130.900 .0272440
1131.505 .0272869
1132.111 .0273339
1132.718 .0273839
1133.325 .0274342
1133.933 .0274846
1134.541 .0275409
1135.150 .0276024
1135.760 .0276762
1136.370 .0277572
1136.981 .0278497
1137.592 .0279502
1138.204 .0280596
1138.817 .0281744
1139.431 .0282887
1140.045 .0284059
1140.660 .0285352
1141.275 .0286773
1141.891 .0287963
1142.508 .0288693
1143.126 .0290337
1143.744 .0294528
1144.363 .0297711
1144.983 .0287994
