Measurement Sequence started on: 15-12-46-377
Integration time: 28
Scans to Average: 2 
>>>>>Begin Spectral Data<<<<<
432.689 .0000100
433.621 .0000100
434.552 .0000100
435.482 .0000100
436.410 .0000100
437.337 .0000100
438.262 .0291642
439.187 .0619012
440.110 .1025896
441.031 .1485348
441.952 .1931736
442.871 .2283350
443.789 .2476286
444.705 .2488835
445.621 .2347286
446.535 .2110045
447.447 .1841032
448.359 .1429737
449.269 .1224297
450.178 .1094169
451.086 .1001522
451.993 .0930412
452.898 .0873691
453.803 .0826856
454.706 .0787281
455.608 .0753287
456.508 .0723618
457.408 .0697655
458.306 .0674892
459.204 .0654714
460.100 .0636713
460.995 .0620797
461.888 .0606638
462.781 .0594091
463.673 .0582841
464.563 .0572785
465.452 .0563640
466.340 .0555227
467.228 .0547468
468.114 .0540244
468.999 .0533581
469.882 .0527464
470.765 .0521811
471.647 .0516610
472.528 .0511877
473.407 .0507556
474.286 .0503609
475.163 .0500068
476.040 .0496850
476.915 .0493841
477.790 .0491008
478.663 .0488344
479.535 .0485830
480.407 .0483552
481.277 .0481472
482.147 .0479607
483.015 .0478004
483.883 .0476676
484.749 .0475565
485.615 .0474677
486.479 .0474015
487.343 .0473548
488.206 .0473268
489.067 .0473183
489.928 .0473213
490.788 .0473457
491.647 .0473958
492.505 .0474752
493.362 .0475827
494.218 .0477209
495.073 .0478842
495.928 .0480754
496.781 .0482924
497.634 .0485382
498.486 .0488149
499.337 .0491258
500.187 .0494759
501.036 .0498532
501.884 .0502569
502.731 .0506817
503.578 .0511249
504.424 .0515811
505.268 .0520327
506.113 .0524884
506.956 .0529511
507.798 .0534445
508.640 .0539847
509.480 .0545797
510.320 .0552606
511.160 .0560258
511.998 .0568851
512.836 .0578325
513.672 .0588814
514.508 .0600366
515.344 .0613198
516.178 .0627817
517.012 .0644643
517.845 .0664114
518.677 .0687037
519.508 .0713596
520.339 .0744183
521.169 .0779219
521.998 .0818726
522.826 .0863194
523.654 .0913047
524.481 .0968214
525.307 .1029504
526.133 .1096791
526.958 .1169912
527.782 .1247694
528.605 .1327921
529.428 .1409446
530.250 .1486369
531.072 .1555822
531.892 .1613657
532.712 .1656542
533.532 .1683076
534.350 .1690716
535.168 .1678900
535.986 .1649011
536.802 .1602672
537.618 .1543118
538.434 .1472269
539.249 .1395602
540.063 .1315548
540.876 .1235257
541.689 .1157847
542.501 .1085019
543.313 .1018553
544.124 .0959104
544.934 .0905674
545.744 .0857849
546.553 .0815004
547.361 .0776811
548.169 .0743029
548.976 .0713048
549.783 .0686626
550.589 .0663220
551.395 .0642367
552.200 .0623986
553.004 .0607518
553.808 .0592509
554.611 .0578928
555.414 .0566475
556.216 .0555071
557.018 .0544798
557.819 .0535539
558.619 .0527187
559.419 .0519595
560.218 .0512678
561.017 .0506233
561.815 .0500084
562.613 .0494091
563.410 .0488130
564.207 .0482136
565.003 .0476144
565.799 .0470148
566.594 .0464128
567.388 .0458292
568.182 .0452547
568.976 .0446908
569.769 .0441372
570.562 .0435916
571.354 .0430474
572.145 .0425037
572.936 .0419671
573.727 .0414319
574.517 .0409063
575.307 .0404025
576.096 .0399156
576.885 .0394532
577.673 .0390216
578.461 .0386166
579.248 .0382327
580.035 .0378706
580.821 .0375256
581.607 .0371978
582.392 .0368874
583.177 .0365954
583.962 .0363233
584.746 .0360720
585.529 .0358416
586.313 .0356303
587.095 .0354392
587.878 .0352666
588.660 .0351070
589.441 .0349618
590.222 .0348271
591.003 .0347039
591.783 .0345902
592.563 .0344858
593.342 .0343905
594.121 .0343000
594.899 .0342151
595.678 .0341343
596.455 .0340582
597.233 .0339872
598.009 .0339215
598.786 .0338613
599.562 .0338055
600.338 .0337530
601.113 .0337022
601.888 .0336524
602.663 .0336022
603.437 .0335515
604.211 .0334992
604.984 .0334458
605.757 .0333925
606.530 .0333393
607.302 .0332879
608.074 .0332382
608.845 .0331911
609.616 .0331450
610.387 .0331001
611.158 .0330574
611.928 .0330151
612.697 .0329744
613.467 .0329358
614.236 .0328991
615.004 .0328643
615.773 .0328324
616.541 .0328038
617.308 .0327790
618.076 .0327588
618.843 .0327422
619.609 .0327289
620.375 .0327193
621.141 .0327119
621.907 .0327053
622.672 .0327004
623.437 .0326955
624.202 .0326898
624.966 .0326833
625.730 .0326753
626.493 .0326662
627.257 .0326567
628.020 .0326459
628.782 .0326337
629.545 .0326195
630.307 .0326029
631.068 .0325830
631.830 .0325603
632.591 .0325348
633.352 .0325062
634.112 .0324755
634.872 .0324433
635.632 .0324101
636.392 .0323775
637.151 .0323450
637.910 .0323135
638.668 .0322831
639.427 .0322536
640.185 .0322244
640.943 .0321959
641.700 .0321685
642.457 .0321417
643.214 .0321153
643.971 .0320892
644.727 .0320634
645.483 .0320387
646.239 .0320150
646.994 .0319919
647.750 .0319693
648.505 .0319474
649.259 .0319254
650.014 .0319030
650.768 .0318793
651.521 .0318546
652.275 .0318285
653.028 .0318008
653.781 .0317708
654.534 .0317389
655.286 .0317053
656.039 .0316704
656.791 .0316340
657.542 .0315959
658.294 .0315561
659.045 .0315156
659.796 .0314736
660.546 .0314309
661.297 .0313871
662.047 .0313421
662.796 .0312961
663.546 .0312500
664.295 .0312034
665.044 .0311573
665.793 .0311127
666.542 .0310704
667.290 .0310303
668.038 .0309928
668.786 .0309576
669.533 .0309250
670.281 .0308943
671.028 .0308651
671.774 .0308366
672.521 .0308094
673.267 .0307834
674.013 .0307587
674.759 .0307351
675.505 .0307131
676.250 .0306922
676.995 .0306724
677.740 .0306529
678.484 .0306336
679.229 .0306140
679.973 .0305944
680.717 .0305749
681.460 .0305550
682.204 .0305355
682.947 .0305171
683.690 .0304999
684.433 .0304839
685.175 .0304684
685.917 .0304534
686.659 .0304377
687.401 .0304216
688.142 .0304047
688.884 .0303871
689.625 .0303693
690.365 .0303516
691.106 .0303342
691.846 .0303175
692.586 .0303017
693.326 .0302865
694.066 .0302724
694.805 .0302593
695.545 .0302459
696.284 .0302324
697.022 .0302192
697.761 .0302060
698.499 .0301924
699.237 .0301794
699.975 .0301664
700.713 .0301538
701.450 .0301423
702.187 .0301316
702.924 .0301220
703.661 .0301138
704.397 .0301067
705.133 .0301002
705.869 .0300943
706.605 .0300887
707.341 .0300825
708.076 .0300763
708.811 .0300700
709.546 .0300633
710.281 .0300566
711.015 .0300505
711.749 .0300444
712.483 .0300386
713.217 .0300328
713.950 .0300262
714.684 .0300185
715.417 .0300092
716.150 .0299979
716.882 .0299848
717.615 .0299701
718.347 .0299540
719.079 .0299369
719.811 .0299198
720.542 .0299023
721.273 .0298844
722.005 .0298660
722.735 .0298472
723.466 .0298278
724.196 .0298077
724.927 .0297868
725.656 .0297653
726.386 .0297440
727.116 .0297230
727.845 .0297024
728.574 .0296824
729.303 .0296630
730.031 .0296440
730.760 .0296254
731.488 .0296068
732.216 .0295881
732.944 .0295695
733.671 .0295511
734.398 .0295325
735.125 .0295139
735.852 .0294952
736.579 .0294768
737.305 .0294586
738.031 .0294404
738.757 .0294215
739.483 .0294018
740.208 .0293820
740.933 .0293614
741.658 .0293405
742.383 .0293194
743.108 .0292983
743.832 .0292773
744.556 .0292566
745.280 .0292360
746.004 .0292148
746.727 .0291937
747.450 .0291719
748.173 .0291488
748.896 .0291255
749.618 .0291016
750.340 .0290778
751.062 .0290546
751.784 .0290322
752.506 .0290097
753.227 .0289876
753.948 .0289654
754.669 .0289422
755.389 .0289181
756.110 .0288921
756.830 .0288644
757.550 .0288355
758.269 .0288056
758.989 .0287748
759.708 .0287435
760.427 .0287128
761.146 .0286821
761.864 .0286520
762.582 .0286225
763.300 .0285937
764.018 .0285660
764.736 .0285392
765.453 .0285132
766.170 .0284887
766.887 .0284653
767.603 .0284431
768.320 .0284218
769.036 .0284016
769.751 .0283818
770.467 .0283629
771.182 .0283451
771.897 .0283285
772.612 .0283126
773.327 .0282982
774.041 .0282849
774.755 .0282734
775.469 .0282631
776.183 .0282537
776.896 .0282455
777.609 .0282381
778.322 .0282307
779.035 .0282235
779.747 .0282166
780.459 .0282106
781.171 .0282047
781.882 .0281996
782.594 .0281953
783.305 .0281918
784.016 .0281897
784.726 .0281888
785.436 .0281886
786.147 .0281888
786.856 .0281888
787.566 .0281886
788.275 .0281881
788.984 .0281871
789.693 .0281859
790.401 .0281845
791.110 .0281832
791.818 .0281816
792.525 .0281800
793.233 .0281791
793.940 .0281784
794.647 .0281777
795.353 .0281771
796.060 .0281763
796.766 .0281756
797.472 .0281745
798.177 .0281735
798.883 .0281721
799.588 .0281708
800.292 .0281696
800.997 .0281686
801.701 .0281678
802.405 .0281674
803.109 .0281673
803.812 .0281679
804.515 .0281682
805.218 .0281678
805.921 .0281669
806.623 .0281652
807.325 .0281628
808.027 .0281598
808.728 .0281561
809.429 .0281524
810.130 .0281485
810.831 .0281448
811.531 .0281406
812.231 .0281366
812.931 .0281320
813.630 .0281266
814.330 .0281206
815.029 .0281139
815.727 .0281066
816.426 .0280992
817.124 .0280921
817.821 .0280856
818.519 .0280796
819.216 .0280747
819.913 .0280705
820.609 .0280673
821.306 .0280641
822.002 .0280613
822.697 .0280585
823.393 .0280561
824.088 .0280537
824.783 .0280513
825.477 .0280490
826.171 .0280472
826.865 .0280462
827.559 .0280457
828.252 .0280461
828.945 .0280474
829.638 .0280489
830.330 .0280507
831.023 .0280520
831.714 .0280527
832.406 .0280524
833.097 .0280513
833.788 .0280487
834.479 .0280457
835.169 .0280423
835.859 .0280389
836.548 .0280359
837.238 .0280329
837.927 .0280292
838.615 .0280247
839.304 .0280193
839.992 .0280125
840.680 .0280045
841.367 .0279955
842.054 .0279859
842.741 .0279761
843.428 .0279667
844.114 .0279574
844.800 .0279485
845.485 .0279394
846.170 .0279292
846.855 .0279177
847.540 .0279044
848.224 .0278893
848.908 .0278727
849.592 .0278550
850.275 .0278365
850.958 .0278168
851.641 .0277969
852.323 .0277763
853.005 .0277549
853.687 .0277324
854.368 .0277086
855.049 .0276830
855.730 .0276557
856.410 .0276264
857.090 .0275959
857.769 .0275646
858.449 .0275327
859.128 .0275000
859.806 .0274674
860.485 .0274348
861.163 .0274024
861.840 .0273699
862.518 .0273381
863.195 .0273062
863.871 .0272743
864.548 .0272420
865.224 .0272098
865.899 .0271773
866.574 .0271449
867.249 .0271127
867.924 .0270810
868.598 .0270502
869.272 .0270202
869.946 .0269910
870.619 .0269629
871.292 .0269356
871.964 .0269089
872.636 .0268824
873.308 .0268564
873.979 .0268302
874.651 .0268041
875.321 .0267785
875.992 .0267536
876.662 .0267296
877.331 .0267067
878.001 .0266849
878.670 .0266645
879.338 .0266454
880.007 .0266270
880.675 .0266098
881.342 .0265934
882.009 .0265776
882.676 .0265623
883.343 .0265481
884.009 .0265350
884.675 .0265230
885.340 .0265122
886.005 .0265023
886.670 .0264930
887.334 .0264845
887.998 .0264759
888.662 .0264675
889.325 .0264596
889.988 .0264521
890.650 .0264452
891.312 .0264394
891.974 .0264343
892.636 .0264301
893.297 .0264265
893.957 .0264230
894.618 .0264187
895.278 .0264137
895.937 .0264083
896.596 .0264026
897.255 .0263972
897.914 .0263924
898.572 .0263883
899.230 .0263850
899.887 .0263821
900.544 .0263791
901.201 .0263752
901.857 .0263699
902.513 .0263629
903.168 .0263542
903.823 .0263437
904.478 .0263322
905.132 .0263200
905.786 .0263072
906.440 .0262941
907.093 .0262800
907.746 .0262653
908.399 .0262497
909.051 .0262331
909.703 .0262155
910.354 .0261970
911.005 .0261787
911.656 .0261602
912.306 .0261421
912.956 .0261249
913.605 .0261083
914.254 .0260927
914.903 .0260778
915.551 .0260638
916.199 .0260510
916.847 .0260397
917.494 .0260301
918.141 .0260223
918.788 .0260164
919.434 .0260120
920.079 .0260085
920.725 .0260059
921.370 .0260038
922.014 .0260019
922.658 .0260000
923.302 .0259983
923.946 .0259966
924.589 .0259945
925.231 .0259921
925.873 .0259891
926.515 .0259848
927.157 .0259791
927.798 .0259718
928.439 .0259627
929.079 .0259527
929.719 .0259413
930.359 .0259293
930.998 .0259174
931.637 .0259062
932.275 .0258958
932.913 .0258861
933.551 .0258777
934.188 .0258704
934.825 .0258640
935.462 .0258590
936.098 .0258549
936.733 .0258527
937.369 .0258522
938.004 .0258539
938.638 .0258577
939.273 .0258640
939.907 .0258717
940.540 .0258810
941.173 .0258910
941.806 .0259015
942.438 .0259119
943.070 .0259222
943.702 .0259323
944.333 .0259420
944.964 .0259511
945.594 .0259603
946.224 .0259695
946.854 .0259792
947.483 .0259888
948.112 .0259988
948.741 .0260086
949.369 .0260179
949.996 .0260263
950.624 .0260339
951.251 .0260409
951.878 .0260475
952.504 .0260542
953.130 .0260614
953.755 .0260693
954.380 .0260779
955.005 .0260871
955.629 .0260968
956.253 .0261061
956.877 .0261149
957.500 .0261226
958.123 .0261288
958.746 .0261335
959.368 .0261368
959.990 .0261393
960.611 .0261413
961.232 .0261433
961.853 .0261451
962.473 .0261472
963.093 .0261493
963.712 .0261510
964.331 .0261522
964.950 .0261525
965.569 .0261521
966.187 .0261511
966.804 .0261500
967.422 .0261490
968.039 .0261483
968.655 .0261486
969.272 .0261498
969.887 .0261513
970.503 .0261528
971.118 .0261536
971.733 .0261540
972.347 .0261536
972.961 .0261523
973.575 .0261496
974.188 .0261456
974.801 .0261400
975.414 .0261330
976.026 .0261248
976.638 .0261156
977.250 .0261057
977.861 .0260957
978.472 .0260850
979.083 .0260737
979.693 .0260615
980.303 .0260486
980.912 .0260348
981.521 .0260196
982.130 .0260027
982.738 .0259849
983.346 .0259662
983.954 .0259473
984.562 .0259284
985.169 .0259096
985.775 .0258908
986.382 .0258719
986.988 .0258535
987.594 .0258347
988.199 .0258163
988.804 .0257991
989.409 .0257827
990.013 .0257676
990.617 .0257537
991.221 .0257403
991.824 .0257282
992.427 .0257169
993.030 .0257057
993.632 .0256944
994.234 .0256837
994.836 .0256732
995.438 .0256634
996.039 .0256546
996.640 .0256461
997.240 .0256375
997.840 .0256287
998.440 .0256187
999.040 .0256073
999.639 .0255946
1000.238 .0255809
1000.836 .0255662
1001.435 .0255519
1002.033 .0255377
1002.630 .0255244
1003.228 .0255126
1003.825 .0255019
1004.422 .0254924
1005.018 .0254838
1005.614 .0254754
1006.210 .0254668
1006.806 .0254583
1007.401 .0254488
1007.996 .0254381
1008.591 .0254268
1009.186 .0254143
1009.780 .0254009
1010.374 .0253866
1010.967 .0253715
1011.561 .0253558
1012.154 .0253395
1012.746 .0253228
1013.339 .0253051
1013.931 .0252875
1014.523 .0252696
1015.115 .0252512
1015.706 .0252332
1016.298 .0252156
1016.888 .0251987
1017.479 .0251829
1018.069 .0251686
1018.660 .0251556
1019.250 .0251442
1019.839 .0251342
1020.429 .0251256
1021.018 .0251181
1021.607 .0251116
1022.195 .0251059
1022.784 .0251005
1023.372 .0250949
1023.960 .0250889
1024.547 .0250820
1025.135 .0250743
1025.722 .0250654
1026.309 .0250561
1026.896 .0250462
1027.483 .0250363
1028.069 .0250265
1028.655 .0250171
1029.241 .0250077
1029.827 .0249983
1030.412 .0249888
1030.997 .0249789
1031.582 .0249683
1032.167 .0249570
1032.752 .0249454
1033.336 .0249346
1033.921 .0249242
1034.505 .0249143
1035.089 .0249048
1035.672 .0248957
1036.256 .0248858
1036.839 .0248745
1037.422 .0248627
1038.005 .0248504
1038.588 .0248372
1039.171 .0248236
1039.753 .0248102
1040.335 .0247969
1040.918 .0247838
1041.500 .0247709
1042.081 .0247580
1042.663 .0247456
1043.244 .0247326
1043.826 .0247193
1044.407 .0247060
1044.988 .0246931
1045.569 .0246800
1046.150 .0246674
1046.730 .0246567
1047.311 .0246460
1047.891 .0246356
1048.471 .0246264
1049.052 .0246180
1049.632 .0246100
1050.211 .0246029
1050.791 .0245969
1051.371 .0245925
1051.950 .0245902
1052.530 .0245887
1053.109 .0245881
1053.688 .0245888
1054.268 .0245894
1054.847 .0245891
1055.426 .0245880
1056.005 .0245866
1056.583 .0245830
1057.162 .0245782
1057.741 .0245724
1058.319 .0245650
1058.898 .0245571
1059.476 .0245482
1060.055 .0245376
1060.633 .0245266
1061.211 .0245142
1061.790 .0245001
1062.368 .0244862
1062.946 .0244724
1063.524 .0244587
1064.102 .0244459
1064.680 .0244355
1065.258 .0244269
1065.836 .0244207
1066.414 .0244167
1066.992 .0244129
1067.570 .0244100
1068.148 .0244072
1068.726 .0244024
1069.304 .0243988
1069.882 .0243967
1070.460 .0243954
1071.038 .0243951
1071.616 .0243966
1072.194 .0243981
1072.772 .0243990
1073.350 .0243992
1073.928 .0243976
1074.506 .0243947
1075.084 .0243919
1075.662 .0243870
1076.240 .0243836
1076.819 .0243832
1077.397 .0243845
1077.976 .0243879
1078.554 .0243945
1079.133 .0244029
1079.711 .0244120
1080.290 .0244226
1080.869 .0244334
1081.448 .0244435
1082.027 .0244546
1082.606 .0244653
1083.185 .0244765
1083.764 .0244902
1084.343 .0245048
1084.923 .0245211
1085.502 .0245399
1086.082 .0245598
1086.662 .0245812
1087.242 .0246046
1087.822 .0246296
1088.402 .0246546
1088.983 .0246786
1089.563 .0247019
1090.144 .0247230
1090.725 .0247444
1091.306 .0247636
1091.887 .0247817
1092.469 .0248009
1093.050 .0248203
1093.632 .0248405
1094.214 .0248637
1094.796 .0248876
1095.379 .0249129
1095.961 .0249385
1096.544 .0249649
1097.127 .0249903
1097.710 .0250160
1098.294 .0250417
1098.877 .0250676
1099.461 .0250942
1100.046 .0251227
1100.630 .0251516
1101.215 .0251855
1101.800 .0252213
1102.385 .0252581
1102.970 .0252960
1103.556 .0253331
1104.142 .0253676
1104.728 .0254026
1105.315 .0254365
1105.902 .0254705
1106.489 .0255058
1107.077 .0255450
1107.664 .0255857
1108.253 .0256293
1108.841 .0256768
1109.430 .0257245
1110.019 .0257728
1110.609 .0258212
1111.198 .0258663
1111.789 .0259135
1112.379 .0259634
1112.970 .0260162
1113.561 .0260722
1114.153 .0261336
1114.745 .0261967
1115.338 .0262598
1115.931 .0263236
1116.524 .0263808
1117.117 .0264320
1117.712 .0264794
1118.306 .0265201
1118.901 .0265549
1119.496 .0265885
1120.092 .0266221
1120.689 .0266566
1121.285 .0266947
1121.882 .0267323
1122.480 .0267687
1123.078 .0268068
1123.677 .0268438
1124.276 .0268791
1124.875 .0269151
1125.476 .0269564
1126.076 .0270006
1126.677 .0270545
1127.279 .0271158
1127.881 .0271858
1128.484 .0272687
1129.087 .0273598
1129.691 .0274560
1130.295 .0275560
1130.900 .0276579
1131.505 .0277622
1132.111 .0278679
1132.718 .0279774
1133.325 .0280923
1133.933 .0282183
1134.541 .0283533
1135.150 .0284973
1135.760 .0286487
1136.370 .0288077
1136.981 .0289704
1137.592 .0291343
1138.204 .0292974
1138.817 .0294646
1139.431 .0296411
1140.045 .0298309
1140.660 .0300332
1141.275 .0302444
1141.891 .0304681
1142.508 .0307496
1143.126 .0310968
1143.744 .0312278
1144.363 .0312623
1144.983 .0316189
