Measurement Sequence started on: 15-12-46-377
Integration time: 28
Scans to Average: 2 
>>>>>Begin Spectral Data<<<<<
432.689 .0000100
433.621 .0000100
434.552 .0000100
435.482 .0000100
436.410 .0000100
437.337 .0000100
438.262 .0309328
439.187 .0653213
440.110 .1080207
441.031 .1560878
441.952 .2025640
442.871 .2389483
443.789 .2585739
444.705 .2592447
445.621 .2438670
446.535 .2186324
447.447 .1902864
448.359 .1469966
449.269 .1257843
450.178 .1123965
451.086 .1029174
451.993 .0956478
452.898 .0898256
453.803 .0850441
454.706 .0810781
455.608 .0777227
456.508 .0748640
457.408 .0723905
458.306 .0702401
459.204 .0683012
460.100 .0665385
460.995 .0649307
461.888 .0634682
462.781 .0621058
463.673 .0608508
464.563 .0596862
465.452 .0586054
466.340 .0575851
467.228 .0566270
468.114 .0557164
468.999 .0548654
469.882 .0540704
470.765 .0533384
471.647 .0526717
472.528 .0520828
473.407 .0515591
474.286 .0511127
475.163 .0507235
476.040 .0503857
476.915 .0500829
477.790 .0498209
478.663 .0495910
479.535 .0493840
480.407 .0492100
481.277 .0490702
482.147 .0489617
483.015 .0488842
483.883 .0488313
484.749 .0487968
485.615 .0487738
486.479 .0487544
487.343 .0487381
488.206 .0487269
489.067 .0487263
489.928 .0487323
490.788 .0487554
491.647 .0488043
492.505 .0488782
493.362 .0489792
494.218 .0491219
495.073 .0492962
495.928 .0495054
496.781 .0497407
497.634 .0500143
498.486 .0503153
499.337 .0506484
500.187 .0510109
501.036 .0514069
501.884 .0518305
502.731 .0522836
503.578 .0527566
504.424 .0532650
505.268 .0537856
506.113 .0543134
506.956 .0548454
507.798 .0553897
508.640 .0559529
509.480 .0565400
510.320 .0571726
511.160 .0578799
511.998 .0586569
512.836 .0595260
513.672 .0604993
514.508 .0615995
515.344 .0628262
516.178 .0642313
517.012 .0658258
517.845 .0676654
518.677 .0697765
519.508 .0722237
520.339 .0750542
521.169 .0783536
521.998 .0821311
522.826 .0864634
523.654 .0913849
524.481 .0969021
525.307 .1030655
526.133 .1098759
526.958 .1172945
527.782 .1252854
528.605 .1335945
529.428 .1421249
530.250 .1502069
531.072 .1575578
531.892 .1636879
532.712 .1683054
533.532 .1711624
534.350 .1720549
535.168 .1708982
535.986 .1678912
536.802 .1631747
537.618 .1571514
538.434 .1499925
539.249 .1422819
540.063 .1342114
540.876 .1261312
541.689 .1182660
542.501 .1108845
543.313 .1041159
544.124 .0980859
544.934 .0926563
545.744 .0878231
546.553 .0834809
547.361 .0796634
548.169 .0763286
548.976 .0733878
549.783 .0708043
550.589 .0685383
551.395 .0664981
552.200 .0646688
553.004 .0630036
553.808 .0614710
554.611 .0600739
555.414 .0587973
556.216 .0576183
557.018 .0565421
557.819 .0555516
558.619 .0546216
559.419 .0537442
560.218 .0529162
561.017 .0521113
561.815 .0513142
562.613 .0505329
563.410 .0497561
564.207 .0489757
565.003 .0482014
565.799 .0474437
566.594 .0466993
567.388 .0459837
568.182 .0452885
568.976 .0446168
569.769 .0439769
570.562 .0433699
571.354 .0427829
572.145 .0422278
572.936 .0417063
573.727 .0412036
574.517 .0407202
575.307 .0402645
576.096 .0398287
576.885 .0394170
577.673 .0390286
578.461 .0386619
579.248 .0383150
580.035 .0379895
580.821 .0376797
581.607 .0373834
582.392 .0371055
583.177 .0368401
583.962 .0365890
584.746 .0363588
585.529 .0361471
586.313 .0359577
587.095 .0357921
587.878 .0356489
588.660 .0355247
589.441 .0354157
590.222 .0353171
591.003 .0352294
591.783 .0351499
592.563 .0350757
593.342 .0350051
594.121 .0349369
594.899 .0348721
595.678 .0348063
596.455 .0347405
597.233 .0346747
598.009 .0346088
598.786 .0345423
599.562 .0344750
600.338 .0344076
601.113 .0343405
601.888 .0342729
602.663 .0342046
603.437 .0341358
604.211 .0340661
604.984 .0339955
605.757 .0339256
606.530 .0338575
607.302 .0337922
608.074 .0337294
608.845 .0336709
609.616 .0336161
610.387 .0335645
611.158 .0335149
611.928 .0334662
612.697 .0334176
613.467 .0333695
614.236 .0333213
615.004 .0332741
615.773 .0332295
616.541 .0331872
617.308 .0331472
618.076 .0331095
618.843 .0330735
619.609 .0330383
620.375 .0330040
621.141 .0329699
621.907 .0329363
622.672 .0329042
623.437 .0328731
624.202 .0328435
624.966 .0328164
625.730 .0327911
626.493 .0327661
627.257 .0327408
628.020 .0327153
628.782 .0326880
629.545 .0326600
630.307 .0326311
631.068 .0326022
631.830 .0325732
632.591 .0325443
633.352 .0325150
634.112 .0324865
634.872 .0324585
635.632 .0324301
636.392 .0324013
637.151 .0323737
637.910 .0323461
638.668 .0323191
639.427 .0322931
640.185 .0322696
640.943 .0322471
641.700 .0322266
642.457 .0322066
643.214 .0321882
643.971 .0321703
644.727 .0321535
645.483 .0321374
646.239 .0321221
646.994 .0321069
647.750 .0320917
648.505 .0320760
649.259 .0320613
650.014 .0320463
650.768 .0320315
651.521 .0320173
652.275 .0320044
653.028 .0319915
653.781 .0319793
654.534 .0319677
655.286 .0319567
656.039 .0319455
656.791 .0319342
657.542 .0319209
658.294 .0319062
659.045 .0318903
659.796 .0318723
660.546 .0318522
661.297 .0318306
662.047 .0318069
662.796 .0317813
663.546 .0317542
664.295 .0317254
665.044 .0316948
665.793 .0316631
666.542 .0316301
667.290 .0315952
668.038 .0315589
668.786 .0315209
669.533 .0314815
670.281 .0314425
671.028 .0314032
671.774 .0313638
672.521 .0313253
673.267 .0312878
674.013 .0312517
674.759 .0312167
675.505 .0311829
676.250 .0311498
676.995 .0311174
677.740 .0310851
678.484 .0310524
679.229 .0310204
679.973 .0309889
680.717 .0309585
681.460 .0309296
682.204 .0309017
682.947 .0308748
683.690 .0308494
684.433 .0308248
685.175 .0308000
685.917 .0307753
686.659 .0307494
687.401 .0307225
688.142 .0306946
688.884 .0306657
689.625 .0306362
690.365 .0306065
691.106 .0305772
691.846 .0305481
692.586 .0305194
693.326 .0304909
694.066 .0304620
694.805 .0304336
695.545 .0304043
696.284 .0303743
697.022 .0303440
697.761 .0303142
698.499 .0302847
699.237 .0302564
699.975 .0302294
700.713 .0302042
701.450 .0301811
702.187 .0301596
702.924 .0301398
703.661 .0301210
704.397 .0301029
705.133 .0300852
705.869 .0300676
706.605 .0300503
707.341 .0300328
708.076 .0300156
708.811 .0299989
709.546 .0299824
710.281 .0299664
711.015 .0299504
711.749 .0299350
712.483 .0299195
713.217 .0299040
713.950 .0298885
714.684 .0298732
715.417 .0298578
716.150 .0298429
716.882 .0298282
717.615 .0298143
718.347 .0298011
719.079 .0297889
719.811 .0297780
720.542 .0297689
721.273 .0297610
722.005 .0297541
722.735 .0297482
723.466 .0297430
724.196 .0297369
724.927 .0297303
725.656 .0297227
726.386 .0297140
727.116 .0297049
727.845 .0296952
728.574 .0296855
729.303 .0296766
730.031 .0296683
730.760 .0296601
731.488 .0296522
732.216 .0296443
732.944 .0296361
733.671 .0296272
734.398 .0296183
735.125 .0296093
735.852 .0296010
736.579 .0295938
737.305 .0295878
738.031 .0295833
738.757 .0295799
739.483 .0295765
740.208 .0295730
740.933 .0295690
741.658 .0295642
742.383 .0295582
743.108 .0295520
743.832 .0295458
744.556 .0295397
745.280 .0295338
746.004 .0295286
746.727 .0295235
747.450 .0295183
748.173 .0295126
748.896 .0295061
749.618 .0294986
750.340 .0294899
751.062 .0294800
751.784 .0294696
752.506 .0294581
753.227 .0294459
753.948 .0294326
754.669 .0294186
755.389 .0294033
756.110 .0293859
756.830 .0293666
757.550 .0293456
758.269 .0293229
758.989 .0292988
759.708 .0292733
760.427 .0292472
761.146 .0292208
761.864 .0291943
762.582 .0291677
763.300 .0291408
764.018 .0291140
764.736 .0290874
765.453 .0290606
766.170 .0290337
766.887 .0290069
767.603 .0289803
768.320 .0289544
769.036 .0289287
769.751 .0289037
770.467 .0288793
771.182 .0288562
771.897 .0288338
772.612 .0288121
773.327 .0287911
774.041 .0287705
774.755 .0287502
775.469 .0287302
776.183 .0287103
776.896 .0286905
777.609 .0286712
778.322 .0286528
779.035 .0286348
779.747 .0286180
780.459 .0286025
781.171 .0285883
781.882 .0285745
782.594 .0285610
783.305 .0285473
784.016 .0285341
784.726 .0285209
785.436 .0285077
786.147 .0284946
786.856 .0284820
787.566 .0284699
788.275 .0284578
788.984 .0284458
789.693 .0284335
790.401 .0284204
791.110 .0284065
791.818 .0283915
792.525 .0283755
793.233 .0283591
793.940 .0283425
794.647 .0283260
795.353 .0283094
796.060 .0282930
796.766 .0282767
797.472 .0282604
798.177 .0282442
798.883 .0282280
799.588 .0282119
800.292 .0281967
800.997 .0281820
801.701 .0281680
802.405 .0281546
803.109 .0281419
803.812 .0281297
804.515 .0281181
805.218 .0281061
805.921 .0280941
806.623 .0280819
807.325 .0280695
808.027 .0280569
808.728 .0280441
809.429 .0280309
810.130 .0280172
810.831 .0280031
811.531 .0279887
812.231 .0279735
812.931 .0279587
813.630 .0279437
814.330 .0279291
815.029 .0279151
815.727 .0279021
816.426 .0278899
817.124 .0278792
817.821 .0278697
818.519 .0278614
819.216 .0278546
819.913 .0278494
820.609 .0278455
821.306 .0278432
822.002 .0278430
822.697 .0278444
823.393 .0278478
824.088 .0278533
824.783 .0278598
825.477 .0278673
826.171 .0278755
826.865 .0278840
827.559 .0278929
828.252 .0279017
828.945 .0279111
829.638 .0279204
830.330 .0279303
831.023 .0279409
831.714 .0279518
832.406 .0279634
833.097 .0279750
833.788 .0279857
834.479 .0279953
835.169 .0280036
835.859 .0280111
836.548 .0280176
837.238 .0280239
837.927 .0280300
838.615 .0280358
839.304 .0280421
839.992 .0280485
840.680 .0280550
841.367 .0280617
842.054 .0280682
842.741 .0280740
843.428 .0280794
844.114 .0280847
844.800 .0280900
845.485 .0280953
846.170 .0281010
846.855 .0281065
847.540 .0281113
848.224 .0281154
848.908 .0281185
849.592 .0281203
850.275 .0281211
850.958 .0281201
851.641 .0281175
852.323 .0281134
853.005 .0281082
853.687 .0281017
854.368 .0280940
855.049 .0280852
855.730 .0280749
856.410 .0280633
857.090 .0280508
857.769 .0280368
858.449 .0280218
859.128 .0280060
859.806 .0279895
860.485 .0279726
861.163 .0279558
861.840 .0279389
862.518 .0279221
863.195 .0279053
863.871 .0278882
864.548 .0278706
865.224 .0278523
865.899 .0278336
866.574 .0278138
867.249 .0277935
867.924 .0277727
868.598 .0277517
869.272 .0277313
869.946 .0277115
870.619 .0276924
871.292 .0276744
871.964 .0276570
872.636 .0276402
873.308 .0276236
873.979 .0276073
874.651 .0275909
875.321 .0275741
875.992 .0275568
876.662 .0275391
877.331 .0275207
878.001 .0275023
878.670 .0274834
879.338 .0274648
880.007 .0274467
880.675 .0274292
881.342 .0274124
882.009 .0273962
882.676 .0273811
883.343 .0273667
884.009 .0273529
884.675 .0273393
885.340 .0273254
886.005 .0273115
886.670 .0272979
887.334 .0272847
887.998 .0272724
888.662 .0272615
889.325 .0272521
889.988 .0272443
890.650 .0272382
891.312 .0272326
891.974 .0272275
892.636 .0272219
893.297 .0272160
893.957 .0272082
894.618 .0271991
895.278 .0271884
895.937 .0271769
896.596 .0271650
897.255 .0271530
897.914 .0271408
898.572 .0271283
899.230 .0271152
899.887 .0271007
900.544 .0270839
901.201 .0270648
901.857 .0270425
902.513 .0270175
903.168 .0269898
903.823 .0269605
904.478 .0269297
905.132 .0268986
905.786 .0268673
906.440 .0268358
907.093 .0268040
907.746 .0267713
908.399 .0267379
909.051 .0267036
909.703 .0266685
910.354 .0266322
911.005 .0265957
911.656 .0265595
912.306 .0265239
912.956 .0264894
913.605 .0264560
914.254 .0264242
914.903 .0263938
915.551 .0263647
916.199 .0263371
916.847 .0263105
917.494 .0262850
918.141 .0262604
918.788 .0262367
919.434 .0262137
920.079 .0261909
920.725 .0261688
921.370 .0261475
922.014 .0261273
922.658 .0261077
923.302 .0260889
923.946 .0260712
924.589 .0260541
925.231 .0260365
925.873 .0260182
926.515 .0259984
927.157 .0259771
927.798 .0259537
928.439 .0259284
929.079 .0259017
929.719 .0258742
930.359 .0258465
930.998 .0258190
931.637 .0257922
932.275 .0257665
932.913 .0257414
933.551 .0257170
934.188 .0256931
934.825 .0256697
935.462 .0256474
936.098 .0256266
936.733 .0256079
937.369 .0255916
938.004 .0255779
938.638 .0255672
939.273 .0255600
939.907 .0255556
940.540 .0255542
941.173 .0255551
941.806 .0255582
942.438 .0255630
943.070 .0255686
943.702 .0255747
944.333 .0255809
944.964 .0255868
945.594 .0255915
946.224 .0255949
946.854 .0255979
947.483 .0255998
948.112 .0256021
948.741 .0256045
949.369 .0256076
949.996 .0256112
950.624 .0256152
951.251 .0256189
951.878 .0256226
952.504 .0256259
953.130 .0256283
953.755 .0256307
954.380 .0256335
955.005 .0256365
955.629 .0256406
956.253 .0256461
956.877 .0256534
957.500 .0256616
958.123 .0256706
958.746 .0256797
959.368 .0256886
959.990 .0256969
960.611 .0257040
961.232 .0257103
961.853 .0257163
962.473 .0257218
963.093 .0257271
963.712 .0257323
964.331 .0257374
964.950 .0257423
965.569 .0257475
966.187 .0257528
966.804 .0257589
967.422 .0257653
968.039 .0257724
968.655 .0257802
969.272 .0257885
969.887 .0257969
970.503 .0258050
971.118 .0258128
971.733 .0258204
972.347 .0258271
972.961 .0258336
973.575 .0258402
974.188 .0258470
974.801 .0258538
975.414 .0258605
976.026 .0258669
976.638 .0258729
977.250 .0258779
977.861 .0258825
978.472 .0258861
979.083 .0258895
979.693 .0258928
980.303 .0258963
980.912 .0259005
981.521 .0259050
982.130 .0259100
982.738 .0259151
983.346 .0259202
983.954 .0259252
984.562 .0259293
985.169 .0259325
985.775 .0259347
986.382 .0259356
986.988 .0259356
987.594 .0259349
988.199 .0259334
988.804 .0259322
989.409 .0259308
990.013 .0259289
990.617 .0259273
991.221 .0259257
991.824 .0259251
992.427 .0259252
993.030 .0259272
993.632 .0259307
994.234 .0259360
994.836 .0259439
995.438 .0259535
996.039 .0259650
996.640 .0259776
997.240 .0259905
997.840 .0260032
998.440 .0260154
999.040 .0260269
999.639 .0260375
1000.238 .0260475
1000.836 .0260565
1001.435 .0260640
1002.033 .0260696
1002.630 .0260735
1003.228 .0260751
1003.825 .0260746
1004.422 .0260723
1005.018 .0260684
1005.614 .0260639
1006.210 .0260593
1006.806 .0260556
1007.401 .0260525
1007.996 .0260504
1008.591 .0260491
1009.186 .0260481
1009.780 .0260475
1010.374 .0260476
1010.967 .0260480
1011.561 .0260490
1012.154 .0260504
1012.746 .0260526
1013.339 .0260555
1013.931 .0260584
1014.523 .0260610
1015.115 .0260631
1015.706 .0260647
1016.298 .0260659
1016.888 .0260664
1017.479 .0260683
1018.069 .0260712
1018.660 .0260749
1019.250 .0260791
1019.839 .0260835
1020.429 .0260880
1021.018 .0260915
1021.607 .0260937
1022.195 .0260948
1022.784 .0260948
1023.372 .0260943
1023.960 .0260939
1024.547 .0260949
1025.135 .0260975
1025.722 .0261005
1026.309 .0261037
1026.896 .0261069
1027.483 .0261083
1028.069 .0261081
1028.655 .0261061
1029.241 .0261034
1029.827 .0260998
1030.412 .0260951
1030.997 .0260900
1031.582 .0260859
1032.167 .0260823
1032.752 .0260784
1033.336 .0260744
1033.921 .0260708
1034.505 .0260660
1035.089 .0260599
1035.672 .0260526
1036.256 .0260445
1036.839 .0260349
1037.422 .0260238
1038.005 .0260114
1038.588 .0259989
1039.171 .0259860
1039.753 .0259733
1040.335 .0259609
1040.918 .0259502
1041.500 .0259393
1042.081 .0259284
1042.663 .0259177
1043.244 .0259070
1043.826 .0258960
1044.407 .0258849
1044.988 .0258735
1045.569 .0258622
1046.150 .0258503
1046.730 .0258379
1047.311 .0258242
1047.891 .0258093
1048.471 .0257929
1049.052 .0257746
1049.632 .0257550
1050.211 .0257350
1050.791 .0257143
1051.371 .0256945
1051.950 .0256761
1052.530 .0256584
1053.109 .0256424
1053.688 .0256267
1054.268 .0256120
1054.847 .0255971
1055.426 .0255821
1056.005 .0255672
1056.583 .0255530
1057.162 .0255404
1057.741 .0255293
1058.319 .0255189
1058.898 .0255106
1059.476 .0255022
1060.055 .0254935
1060.633 .0254836
1061.211 .0254715
1061.790 .0254581
1062.368 .0254435
1062.946 .0254268
1063.524 .0254092
1064.102 .0253914
1064.680 .0253733
1065.258 .0253542
1065.836 .0253348
1066.414 .0253142
1066.992 .0252926
1067.570 .0252713
1068.148 .0252490
1068.726 .0252267
1069.304 .0252067
1069.882 .0251888
1070.460 .0251723
1071.038 .0251595
1071.616 .0251489
1072.194 .0251405
1072.772 .0251341
1073.350 .0251284
1073.928 .0251219
1074.506 .0251156
1075.084 .0251090
1075.662 .0251012
1076.240 .0250938
1076.819 .0250879
1077.397 .0250813
1077.976 .0250763
1078.554 .0250712
1079.133 .0250659
1079.711 .0250588
1080.290 .0250504
1080.869 .0250391
1081.448 .0250249
1082.027 .0250087
1082.606 .0249905
1083.185 .0249723
1083.764 .0249566
1084.343 .0249433
1084.923 .0249340
1085.502 .0249292
1086.082 .0249290
1086.662 .0249326
1087.242 .0249404
1087.822 .0249511
1088.402 .0249633
1088.983 .0249752
1089.563 .0249867
1090.144 .0249974
1090.725 .0250073
1091.306 .0250156
1091.887 .0250237
1092.469 .0250316
1093.050 .0250394
1093.632 .0250471
1094.214 .0250544
1094.796 .0250615
1095.379 .0250682
1095.961 .0250722
1096.544 .0250735
1097.127 .0250726
1097.710 .0250709
1098.294 .0250676
1098.877 .0250669
1099.461 .0250694
1100.046 .0250751
1100.630 .0250842
1101.215 .0250978
1101.800 .0251141
1102.385 .0251320
1102.970 .0251482
1103.556 .0251628
1104.142 .0251766
1104.728 .0251911
1105.315 .0252073
1105.902 .0252272
1106.489 .0252528
1107.077 .0252831
1107.664 .0253152
1108.253 .0253503
1108.841 .0253848
1109.430 .0254181
1110.019 .0254501
1110.609 .0254810
1111.198 .0255137
1111.789 .0255506
1112.379 .0255927
1112.970 .0256420
1113.561 .0256966
1114.153 .0257539
1114.745 .0258102
1115.338 .0258644
1115.931 .0259164
1116.524 .0259630
1117.117 .0260070
1117.712 .0260510
1118.306 .0260956
1118.901 .0261465
1119.496 .0262019
1120.092 .0262606
1120.689 .0263216
1121.285 .0263809
1121.882 .0264343
1122.480 .0264815
1123.078 .0265223
1123.677 .0265578
1124.276 .0265915
1124.875 .0266262
1125.476 .0266653
1126.076 .0267098
1126.677 .0267602
1127.279 .0268127
1127.881 .0268659
1128.484 .0269179
1129.087 .0269624
1129.691 .0270030
1130.295 .0270400
1130.900 .0270749
1131.505 .0271112
1132.111 .0271483
1132.718 .0271904
1133.325 .0272416
1133.933 .0273006
1134.541 .0273687
1135.150 .0274461
1135.760 .0275296
1136.370 .0276177
1136.981 .0277138
1137.592 .0278160
1138.204 .0279244
1138.817 .0280373
1139.431 .0281599
1140.045 .0282929
1140.660 .0284365
1141.275 .0285838
1141.891 .0287383
1142.508 .0288920
1143.126 .0291664
1143.744 .0292997
1144.363 .0292919
1144.983 .0295108
