Measurement Sequence started on: 15-12-46-377
Integration time: 28
Scans to Average: 2 
>>>>>Begin Spectral Data<<<<<
432.689 .0000100
433.621 .0000100
434.552 .0000100
435.482 .0000100
436.410 .0000100
437.337 .0000100
438.262 .0267459
439.187 .0565479
440.110 .0936356
441.031 .1354395
441.952 .1760462
442.871 .2080113
443.789 .2255510
444.705 .2266788
445.621 .2138371
446.535 .1923672
447.447 .1680692
448.359 .1307456
449.269 .1123839
450.178 .1007464
451.086 .0925245
451.993 .0861976
452.898 .0811753
453.803 .0770346
454.706 .0735812
455.608 .0706067
456.508 .0679959
457.408 .0656828
458.306 .0636255
459.204 .0617756
460.100 .0600978
460.995 .0585893
461.888 .0572211
462.781 .0559822
463.673 .0548613
464.563 .0538285
465.452 .0528735
466.340 .0519673
467.228 .0511190
468.114 .0503185
468.999 .0495727
469.882 .0488727
470.765 .0482267
471.647 .0476453
472.528 .0471205
473.407 .0466495
474.286 .0462350
475.163 .0458660
476.040 .0455443
476.915 .0452607
477.790 .0450092
478.663 .0447914
479.535 .0446110
480.407 .0444697
481.277 .0443668
482.147 .0443045
483.015 .0442784
483.883 .0442828
484.749 .0443199
485.615 .0443816
486.479 .0444583
487.343 .0445517
488.206 .0446552
489.067 .0447653
489.928 .0448813
490.788 .0450018
491.647 .0451317
492.505 .0452778
493.362 .0454392
494.218 .0456190
495.073 .0458159
495.928 .0460418
496.781 .0462787
497.634 .0465370
498.486 .0468047
499.337 .0470808
500.187 .0473633
501.036 .0476605
501.884 .0479712
502.731 .0483089
503.578 .0486750
504.424 .0490815
505.268 .0495178
506.113 .0499885
506.956 .0504817
507.798 .0510036
508.640 .0515507
509.480 .0521296
510.320 .0527533
511.160 .0534436
511.998 .0542005
512.836 .0550707
513.672 .0560519
514.508 .0571688
515.344 .0584125
516.178 .0598242
517.012 .0614159
517.845 .0632120
518.677 .0652518
519.508 .0675678
520.339 .0702122
521.169 .0732863
521.998 .0767971
522.826 .0808479
523.654 .0854529
524.481 .0906255
525.307 .0964093
526.133 .1027895
526.958 .1097077
527.782 .1170641
528.605 .1247112
529.428 .1324964
530.250 .1398728
531.072 .1465926
531.892 .1522459
532.712 .1565269
533.532 .1591989
534.350 .1600675
535.168 .1589907
535.986 .1560993
536.802 .1515193
537.618 .1455625
538.434 .1384919
539.249 .1308387
540.063 .1228609
540.876 .1149490
541.689 .1073878
542.501 .1004198
543.313 .0941600
544.124 .0887235
544.934 .0839658
545.744 .0798260
546.553 .0761585
547.361 .0729414
548.169 .0701087
548.976 .0675905
549.783 .0653444
550.589 .0633444
551.395 .0615103
552.200 .0598424
553.004 .0583200
553.808 .0569093
554.611 .0555970
555.414 .0543793
556.216 .0532313
557.018 .0521596
557.819 .0511637
558.619 .0502236
559.419 .0493504
560.218 .0485395
561.017 .0477747
561.815 .0470490
562.613 .0463563
563.410 .0456834
564.207 .0450283
565.003 .0444036
565.799 .0438009
566.594 .0432138
567.388 .0426634
568.182 .0421377
568.976 .0416398
569.769 .0411566
570.562 .0406878
571.354 .0402219
572.145 .0397645
572.936 .0393048
573.727 .0388459
574.517 .0383911
575.307 .0379477
576.096 .0375193
576.885 .0371177
577.673 .0367439
578.461 .0363983
579.248 .0360775
580.035 .0357870
580.821 .0355160
581.607 .0352620
582.392 .0350201
583.177 .0347933
583.962 .0345787
584.746 .0343758
585.529 .0341846
586.313 .0340072
587.095 .0338443
587.878 .0336951
588.660 .0335573
589.441 .0334309
590.222 .0333140
591.003 .0332063
591.783 .0331059
592.563 .0330128
593.342 .0329275
594.121 .0328473
594.899 .0327746
595.678 .0327074
596.455 .0326461
597.233 .0325903
598.009 .0325400
598.786 .0324954
599.562 .0324549
600.338 .0324173
601.113 .0323824
601.888 .0323481
602.663 .0323134
603.437 .0322768
604.211 .0322372
604.984 .0321960
605.757 .0321538
606.530 .0321113
607.302 .0320700
608.074 .0320302
608.845 .0319926
609.616 .0319564
610.387 .0319225
611.158 .0318900
611.928 .0318584
612.697 .0318288
613.467 .0318011
614.236 .0317761
615.004 .0317541
615.773 .0317361
616.541 .0317220
617.308 .0317123
618.076 .0317054
618.843 .0317003
619.609 .0316969
620.375 .0316942
621.141 .0316913
621.907 .0316880
622.672 .0316838
623.437 .0316787
624.202 .0316722
624.966 .0316646
625.730 .0316548
626.493 .0316435
627.257 .0316296
628.020 .0316132
628.782 .0315939
629.545 .0315719
630.307 .0315474
631.068 .0315213
631.830 .0314941
632.591 .0314654
633.352 .0314358
634.112 .0314054
634.872 .0313740
635.632 .0313419
636.392 .0313079
637.151 .0312726
637.910 .0312354
638.668 .0311970
639.427 .0311571
640.185 .0311167
640.943 .0310768
641.700 .0310371
642.457 .0309983
643.214 .0309605
643.971 .0309234
644.727 .0308878
645.483 .0308531
646.239 .0308192
646.994 .0307869
647.750 .0307563
648.505 .0307270
649.259 .0307006
650.014 .0306766
650.768 .0306541
651.521 .0306331
652.275 .0306124
653.028 .0305911
653.781 .0305688
654.534 .0305460
655.286 .0305220
656.039 .0304972
656.791 .0304724
657.542 .0304468
658.294 .0304217
659.045 .0303977
659.796 .0303739
660.546 .0303509
661.297 .0303282
662.047 .0303050
662.796 .0302812
663.546 .0302575
664.295 .0302339
665.044 .0302115
665.793 .0301906
666.542 .0301720
667.290 .0301551
668.038 .0301406
668.786 .0301279
669.533 .0301157
670.281 .0301040
671.028 .0300914
671.774 .0300774
672.521 .0300632
673.267 .0300489
674.013 .0300362
674.759 .0300244
675.505 .0300145
676.250 .0300056
676.995 .0299974
677.740 .0299895
678.484 .0299807
679.229 .0299716
679.973 .0299622
680.717 .0299525
681.460 .0299431
682.204 .0299349
682.947 .0299288
683.690 .0299243
684.433 .0299214
685.175 .0299189
685.917 .0299167
686.659 .0299139
687.401 .0299106
688.142 .0299068
688.884 .0299027
689.625 .0298983
690.365 .0298935
691.106 .0298881
691.846 .0298818
692.586 .0298743
693.326 .0298650
694.066 .0298539
694.805 .0298409
695.545 .0298254
696.284 .0298080
697.022 .0297891
697.761 .0297685
698.499 .0297460
699.237 .0297219
699.975 .0296961
700.713 .0296686
701.450 .0296401
702.187 .0296108
702.924 .0295812
703.661 .0295526
704.397 .0295246
705.133 .0294975
705.869 .0294715
706.605 .0294464
707.341 .0294218
708.076 .0293975
708.811 .0293731
709.546 .0293486
710.281 .0293242
711.015 .0292998
711.749 .0292753
712.483 .0292510
713.217 .0292269
713.950 .0292026
714.684 .0291777
715.417 .0291524
716.150 .0291261
716.882 .0290990
717.615 .0290713
718.347 .0290430
719.079 .0290144
719.811 .0289853
720.542 .0289559
721.273 .0289265
722.005 .0288967
722.735 .0288664
723.466 .0288359
724.196 .0288053
724.927 .0287747
725.656 .0287439
726.386 .0287134
727.116 .0286836
727.845 .0286545
728.574 .0286262
729.303 .0285988
730.031 .0285731
730.760 .0285491
731.488 .0285265
732.216 .0285061
732.944 .0284879
733.671 .0284721
734.398 .0284593
735.125 .0284494
735.852 .0284421
736.579 .0284375
737.305 .0284352
738.031 .0284350
738.757 .0284366
739.483 .0284394
740.208 .0284431
740.933 .0284477
741.658 .0284526
742.383 .0284570
743.108 .0284611
743.832 .0284652
744.556 .0284684
745.280 .0284705
746.004 .0284717
746.727 .0284716
747.450 .0284704
748.173 .0284681
748.896 .0284648
749.618 .0284606
750.340 .0284559
751.062 .0284507
751.784 .0284452
752.506 .0284397
753.227 .0284344
753.948 .0284290
754.669 .0284239
755.389 .0284183
756.110 .0284121
756.830 .0284054
757.550 .0283982
758.269 .0283905
758.989 .0283823
759.708 .0283737
760.427 .0283651
761.146 .0283566
761.864 .0283483
762.582 .0283405
763.300 .0283330
764.018 .0283258
764.736 .0283186
765.453 .0283111
766.170 .0283032
766.887 .0282949
767.603 .0282863
768.320 .0282776
769.036 .0282691
769.751 .0282607
770.467 .0282522
771.182 .0282440
771.897 .0282355
772.612 .0282267
773.327 .0282174
774.041 .0282077
774.755 .0281973
775.469 .0281867
776.183 .0281756
776.896 .0281643
777.609 .0281529
778.322 .0281415
779.035 .0281299
779.747 .0281181
780.459 .0281056
781.171 .0280929
781.882 .0280798
782.594 .0280668
783.305 .0280537
784.016 .0280406
784.726 .0280275
785.436 .0280143
786.147 .0280003
786.856 .0279854
787.566 .0279690
788.275 .0279513
788.984 .0279319
789.693 .0279108
790.401 .0278885
791.110 .0278652
791.818 .0278411
792.525 .0278167
793.233 .0277919
793.940 .0277663
794.647 .0277397
795.353 .0277119
796.060 .0276832
796.766 .0276533
797.472 .0276224
798.177 .0275910
798.883 .0275600
799.588 .0275296
800.292 .0274999
800.997 .0274712
801.701 .0274438
802.405 .0274169
803.109 .0273902
803.812 .0273634
804.515 .0273364
805.218 .0273087
805.921 .0272807
806.623 .0272522
807.325 .0272238
808.027 .0271960
808.728 .0271688
809.429 .0271421
810.130 .0271162
810.831 .0270907
811.531 .0270653
812.231 .0270403
812.931 .0270159
813.630 .0269914
814.330 .0269675
815.029 .0269442
815.727 .0269222
816.426 .0269012
817.124 .0268819
817.821 .0268638
818.519 .0268473
819.216 .0268322
819.913 .0268181
820.609 .0268049
821.306 .0267926
822.002 .0267812
822.697 .0267703
823.393 .0267598
824.088 .0267499
824.783 .0267403
825.477 .0267313
826.171 .0267228
826.865 .0267151
827.559 .0267085
828.252 .0267036
828.945 .0267002
829.638 .0266986
830.330 .0266989
831.023 .0267007
831.714 .0267039
832.406 .0267084
833.097 .0267140
833.788 .0267203
834.479 .0267273
835.169 .0267349
835.859 .0267433
836.548 .0267528
837.238 .0267629
837.927 .0267736
838.615 .0267851
839.304 .0267967
839.992 .0268079
840.680 .0268185
841.367 .0268287
842.054 .0268379
842.741 .0268463
843.428 .0268536
844.114 .0268600
844.800 .0268656
845.485 .0268706
846.170 .0268750
846.855 .0268793
847.540 .0268835
848.224 .0268872
848.908 .0268905
849.592 .0268933
850.275 .0268951
850.958 .0268962
851.641 .0268967
852.323 .0268970
853.005 .0268967
853.687 .0268965
854.368 .0268963
855.049 .0268963
855.730 .0268963
856.410 .0268956
857.090 .0268942
857.769 .0268918
858.449 .0268879
859.128 .0268826
859.806 .0268764
860.485 .0268697
861.163 .0268628
861.840 .0268557
862.518 .0268487
863.195 .0268414
863.871 .0268338
864.548 .0268256
865.224 .0268166
865.899 .0268070
866.574 .0267971
867.249 .0267867
867.924 .0267767
868.598 .0267671
869.272 .0267581
869.946 .0267499
870.619 .0267424
871.292 .0267350
871.964 .0267276
872.636 .0267202
873.308 .0267130
873.979 .0267057
874.651 .0266986
875.321 .0266918
875.992 .0266850
876.662 .0266785
877.331 .0266717
878.001 .0266644
878.670 .0266567
879.338 .0266482
880.007 .0266387
880.675 .0266279
881.342 .0266158
882.009 .0266026
882.676 .0265883
883.343 .0265732
884.009 .0265572
884.675 .0265407
885.340 .0265239
886.005 .0265070
886.670 .0264894
887.334 .0264720
887.998 .0264544
888.662 .0264362
889.325 .0264175
889.988 .0263982
890.650 .0263783
891.312 .0263580
891.974 .0263378
892.636 .0263180
893.297 .0262987
893.957 .0262803
894.618 .0262622
895.278 .0262443
895.937 .0262259
896.596 .0262065
897.255 .0261858
897.914 .0261634
898.572 .0261389
899.230 .0261131
899.887 .0260862
900.544 .0260589
901.201 .0260310
901.857 .0260032
902.513 .0259756
903.168 .0259479
903.823 .0259197
904.478 .0258912
905.132 .0258624
905.786 .0258329
906.440 .0258027
907.093 .0257718
907.746 .0257404
908.399 .0257084
909.051 .0256759
909.703 .0256434
910.354 .0256106
911.005 .0255781
911.656 .0255453
912.306 .0255127
912.956 .0254803
913.605 .0254472
914.254 .0254141
914.903 .0253809
915.551 .0253476
916.199 .0253144
916.847 .0252817
917.494 .0252499
918.141 .0252194
918.788 .0251899
919.434 .0251620
920.079 .0251352
920.725 .0251095
921.370 .0250847
922.014 .0250608
922.658 .0250375
923.302 .0250149
923.946 .0249925
924.589 .0249707
925.231 .0249489
925.873 .0249277
926.515 .0249066
927.157 .0248857
927.798 .0248650
928.439 .0248442
929.079 .0248238
929.719 .0248039
930.359 .0247844
930.998 .0247657
931.637 .0247479
932.275 .0247312
932.913 .0247156
933.551 .0247014
934.188 .0246889
934.825 .0246781
935.462 .0246694
936.098 .0246626
936.733 .0246574
937.369 .0246535
938.004 .0246509
938.638 .0246490
939.273 .0246477
939.907 .0246465
940.540 .0246461
941.173 .0246464
941.806 .0246477
942.438 .0246498
943.070 .0246527
943.702 .0246561
944.333 .0246593
944.964 .0246616
945.594 .0246631
946.224 .0246637
946.854 .0246640
947.483 .0246641
948.112 .0246645
948.741 .0246653
949.369 .0246671
949.996 .0246696
950.624 .0246730
951.251 .0246771
951.878 .0246814
952.504 .0246860
953.130 .0246912
953.755 .0246966
954.380 .0247023
955.005 .0247092
955.629 .0247170
956.253 .0247258
956.877 .0247360
957.500 .0247474
958.123 .0247600
958.746 .0247738
959.368 .0247884
959.990 .0248031
960.611 .0248183
961.232 .0248337
961.853 .0248488
962.473 .0248640
963.093 .0248789
963.712 .0248934
964.331 .0249075
964.950 .0249217
965.569 .0249357
966.187 .0249501
966.804 .0249649
967.422 .0249798
968.039 .0249947
968.655 .0250095
969.272 .0250240
969.887 .0250376
970.503 .0250508
971.118 .0250631
971.733 .0250745
972.347 .0250853
972.961 .0250954
973.575 .0251053
974.188 .0251147
974.801 .0251237
975.414 .0251319
976.026 .0251389
976.638 .0251448
977.250 .0251496
977.861 .0251532
978.472 .0251557
979.083 .0251575
979.693 .0251582
980.303 .0251583
980.912 .0251578
981.521 .0251569
982.130 .0251560
982.738 .0251548
983.346 .0251537
983.954 .0251524
984.562 .0251514
985.169 .0251500
985.775 .0251482
986.382 .0251462
986.988 .0251433
987.594 .0251397
988.199 .0251355
988.804 .0251308
989.409 .0251266
990.013 .0251226
990.617 .0251194
991.221 .0251172
991.824 .0251158
992.427 .0251150
993.030 .0251147
993.632 .0251145
994.234 .0251142
994.836 .0251132
995.438 .0251119
996.039 .0251103
996.640 .0251090
997.240 .0251081
997.840 .0251077
998.440 .0251084
999.040 .0251096
999.639 .0251111
1000.238 .0251131
1000.836 .0251151
1001.435 .0251162
1002.033 .0251167
1002.630 .0251162
1003.228 .0251151
1003.825 .0251137
1004.422 .0251117
1005.018 .0251091
1005.614 .0251062
1006.210 .0251031
1006.806 .0250991
1007.401 .0250940
1007.996 .0250883
1008.591 .0250813
1009.186 .0250732
1009.780 .0250635
1010.374 .0250518
1010.967 .0250386
1011.561 .0250243
1012.154 .0250083
1012.746 .0249913
1013.339 .0249743
1013.931 .0249572
1014.523 .0249413
1015.115 .0249270
1015.706 .0249143
1016.298 .0249033
1016.888 .0248938
1017.479 .0248855
1018.069 .0248773
1018.660 .0248694
1019.250 .0248617
1019.839 .0248541
1020.429 .0248474
1021.018 .0248410
1021.607 .0248355
1022.195 .0248318
1022.784 .0248294
1023.372 .0248275
1023.960 .0248258
1024.547 .0248232
1025.135 .0248194
1025.722 .0248142
1026.309 .0248068
1026.896 .0247975
1027.483 .0247861
1028.069 .0247734
1028.655 .0247591
1029.241 .0247433
1029.827 .0247270
1030.412 .0247098
1030.997 .0246924
1031.582 .0246739
1032.167 .0246533
1032.752 .0246318
1033.336 .0246094
1033.921 .0245866
1034.505 .0245637
1035.089 .0245413
1035.672 .0245196
1036.256 .0244994
1036.839 .0244805
1037.422 .0244625
1038.005 .0244456
1038.588 .0244292
1039.171 .0244135
1039.753 .0243975
1040.335 .0243821
1040.918 .0243672
1041.500 .0243535
1042.081 .0243412
1042.663 .0243292
1043.244 .0243176
1043.826 .0243054
1044.407 .0242922
1044.988 .0242780
1045.569 .0242617
1046.150 .0242431
1046.730 .0242230
1047.311 .0242016
1047.891 .0241795
1048.471 .0241577
1049.052 .0241365
1049.632 .0241161
1050.211 .0240974
1050.791 .0240788
1051.371 .0240609
1051.950 .0240431
1052.530 .0240252
1053.109 .0240065
1053.688 .0239873
1054.268 .0239679
1054.847 .0239482
1055.426 .0239297
1056.005 .0239143
1056.583 .0239016
1057.162 .0238933
1057.741 .0238879
1058.319 .0238854
1058.898 .0238843
1059.476 .0238833
1060.055 .0238805
1060.633 .0238753
1061.211 .0238675
1061.790 .0238575
1062.368 .0238463
1062.946 .0238354
1063.524 .0238255
1064.102 .0238165
1064.680 .0238087
1065.258 .0238013
1065.836 .0237926
1066.414 .0237830
1066.992 .0237722
1067.570 .0237612
1068.148 .0237508
1068.726 .0237409
1069.304 .0237326
1069.882 .0237258
1070.460 .0237213
1071.038 .0237175
1071.616 .0237138
1072.194 .0237106
1072.772 .0237075
1073.350 .0237043
1073.928 .0237028
1074.506 .0237034
1075.084 .0237069
1075.662 .0237139
1076.240 .0237234
1076.819 .0237341
1077.397 .0237448
1077.976 .0237548
1078.554 .0237631
1079.133 .0237704
1079.711 .0237769
1080.290 .0237826
1080.869 .0237886
1081.448 .0237956
1082.027 .0238031
1082.606 .0238106
1083.185 .0238199
1083.764 .0238305
1084.343 .0238420
1084.923 .0238542
1085.502 .0238675
1086.082 .0238826
1086.662 .0238991
1087.242 .0239167
1087.822 .0239341
1088.402 .0239507
1088.983 .0239671
1089.563 .0239820
1090.144 .0239969
1090.725 .0240135
1091.306 .0240338
1091.887 .0240575
1092.469 .0240857
1093.050 .0241168
1093.632 .0241501
1094.214 .0241838
1094.796 .0242167
1095.379 .0242451
1095.961 .0242685
1096.544 .0242883
1097.127 .0243049
1097.710 .0243201
1098.294 .0243382
1098.877 .0243586
1099.461 .0243844
1100.046 .0244148
1100.630 .0244488
1101.215 .0244833
1101.800 .0245176
1102.385 .0245497
1102.970 .0245770
1103.556 .0246005
1104.142 .0246213
1104.728 .0246400
1105.315 .0246604
1105.902 .0246834
1106.489 .0247089
1107.077 .0247380
1107.664 .0247706
1108.253 .0248037
1108.841 .0248378
1109.430 .0248699
1110.019 .0249002
1110.609 .0249293
1111.198 .0249594
1111.789 .0249909
1112.379 .0250248
1112.970 .0250637
1113.561 .0251041
1114.153 .0251468
1114.745 .0251925
1115.338 .0252380
1115.931 .0252860
1116.524 .0253342
1117.117 .0253827
1117.712 .0254323
1118.306 .0254855
1118.901 .0255406
1119.496 .0255981
1120.092 .0256613
1120.689 .0257267
1121.285 .0257937
1121.882 .0258634
1122.480 .0259348
1123.078 .0260082
1123.677 .0260849
1124.276 .0261627
1124.875 .0262411
1125.476 .0263212
1126.076 .0264004
1126.677 .0264786
1127.279 .0265568
1127.881 .0266338
1128.484 .0267111
1129.087 .0267876
1129.691 .0268688
1130.295 .0269485
1130.900 .0270322
1131.505 .0271181
1132.111 .0272066
1132.718 .0272975
1133.325 .0273921
1133.933 .0274917
1134.541 .0275970
1135.150 .0277104
1135.760 .0278360
1136.370 .0279713
1136.981 .0281208
1137.592 .0282769
1138.204 .0284388
1138.817 .0286073
1139.431 .0287863
1140.045 .0289747
1140.660 .0291671
1141.275 .0293739
1141.891 .0295756
1142.508 .0298631
1143.126 .0301573
1143.744 .0301753
1144.363 .0305615
1144.983 .0303737
