Measurement Sequence started on: 15-12-46-377
Integration time: 28
Scans to Average: 2 
>>>>>Begin Spectral Data<<<<<
432.689 .0000100
433.621 .0000100
434.552 .0000100
435.482 .0000100
436.410 .0000100
437.337 .0000100
438.262 .0280630
439.187 .0593287
440.110 .0981831
441.031 .1420887
441.952 .1847646
442.871 .2183814
443.789 .2368968
444.705 .2382218
445.621 .2249145
446.535 .2025348
447.447 .1771214
448.359 .1379975
449.269 .1187296
450.178 .1064968
451.086 .0977203
451.993 .0909607
452.898 .0856101
453.803 .0812239
454.706 .0775953
455.608 .0745291
456.508 .0719171
457.408 .0696991
458.306 .0677777
459.204 .0660769
460.100 .0645527
460.995 .0631671
461.888 .0618765
462.781 .0606740
463.673 .0595439
464.563 .0584950
465.452 .0575200
466.340 .0566083
467.228 .0557674
468.114 .0549768
468.999 .0542445
469.882 .0535505
470.765 .0528988
471.647 .0522879
472.528 .0517164
473.407 .0511942
474.286 .0507266
475.163 .0503132
476.040 .0499620
476.915 .0496561
477.790 .0493950
478.663 .0491690
479.535 .0489743
480.407 .0488063
481.277 .0486658
482.147 .0485449
483.015 .0484434
483.883 .0483661
484.749 .0483107
485.615 .0482694
486.479 .0482480
487.343 .0482408
488.206 .0482400
489.067 .0482451
489.928 .0482548
490.788 .0482711
491.647 .0483031
492.505 .0483523
493.362 .0484203
494.218 .0485110
495.073 .0486304
495.928 .0487811
496.781 .0489580
497.634 .0491770
498.486 .0494217
499.337 .0497017
500.187 .0500202
501.036 .0503675
501.884 .0507460
502.731 .0511585
503.578 .0515973
504.424 .0520597
505.268 .0525359
506.113 .0530444
506.956 .0535790
507.798 .0541691
508.640 .0548187
509.480 .0555223
510.320 .0563103
511.160 .0571890
511.998 .0581505
512.836 .0592204
513.672 .0603886
514.508 .0616685
515.344 .0630790
516.178 .0646497
517.012 .0664021
517.845 .0684108
518.677 .0707252
519.508 .0733607
520.339 .0763517
521.169 .0797628
521.998 .0835656
522.826 .0878047
523.654 .0925377
524.481 .0976893
525.307 .1033094
526.133 .1093805
526.958 .1158078
527.782 .1226085
528.605 .1296039
529.428 .1366653
530.250 .1432749
531.072 .1492829
531.892 .1542578
532.712 .1578504
533.532 .1600019
534.350 .1604717
535.168 .1592050
535.986 .1563371
536.802 .1519601
537.618 .1464248
538.434 .1399721
539.249 .1330466
540.063 .1257853
540.876 .1185542
541.689 .1115275
542.501 .1048446
543.313 .0986809
544.124 .0931219
544.934 .0881130
545.744 .0836171
546.553 .0795959
547.361 .0760289
548.169 .0729204
548.976 .0701898
549.783 .0677895
550.589 .0656906
551.395 .0637856
552.200 .0620471
553.004 .0604427
553.808 .0589599
554.611 .0576100
555.414 .0563838
556.216 .0552809
557.018 .0542977
557.819 .0534322
558.619 .0526521
559.419 .0519421
560.218 .0512803
561.017 .0506372
561.815 .0499809
562.613 .0493143
563.410 .0486271
564.207 .0479243
565.003 .0472262
565.799 .0465440
566.594 .0458788
567.388 .0452440
568.182 .0446357
568.976 .0440525
569.769 .0434978
570.562 .0429608
571.354 .0424276
572.145 .0419052
572.936 .0413842
573.727 .0408667
574.517 .0403563
575.307 .0398631
576.096 .0393935
576.885 .0389477
577.673 .0385280
578.461 .0381391
579.248 .0377827
580.035 .0374586
580.821 .0371555
581.607 .0368700
582.392 .0366022
583.177 .0363483
583.962 .0361066
584.746 .0358763
585.529 .0356566
586.313 .0354520
587.095 .0352629
587.878 .0350908
588.660 .0349358
589.441 .0347958
590.222 .0346711
591.003 .0345594
591.783 .0344558
592.563 .0343589
593.342 .0342667
594.121 .0341795
594.899 .0340972
595.678 .0340183
596.455 .0339442
597.233 .0338761
598.009 .0338142
598.786 .0337585
599.562 .0337084
600.338 .0336632
601.113 .0336218
601.888 .0335827
602.663 .0335460
603.437 .0335107
604.211 .0334770
604.984 .0334451
605.757 .0334143
606.530 .0333849
607.302 .0333556
608.074 .0333269
608.845 .0332980
609.616 .0332688
610.387 .0332401
611.158 .0332116
611.928 .0331841
612.697 .0331582
613.467 .0331344
614.236 .0331123
615.004 .0330924
615.773 .0330735
616.541 .0330549
617.308 .0330371
618.076 .0330191
618.843 .0330009
619.609 .0329832
620.375 .0329666
621.141 .0329513
621.907 .0329374
622.672 .0329252
623.437 .0329123
624.202 .0328993
624.966 .0328843
625.730 .0328669
626.493 .0328464
627.257 .0328233
628.020 .0327972
628.782 .0327690
629.545 .0327393
630.307 .0327081
631.068 .0326750
631.830 .0326409
632.591 .0326047
633.352 .0325668
634.112 .0325259
634.872 .0324832
635.632 .0324382
636.392 .0323926
637.151 .0323462
637.910 .0322999
638.668 .0322537
639.427 .0322086
640.185 .0321642
640.943 .0321206
641.700 .0320778
642.457 .0320361
643.214 .0319955
643.971 .0319564
644.727 .0319187
645.483 .0318829
646.239 .0318492
646.994 .0318177
647.750 .0317885
648.505 .0317614
649.259 .0317359
650.014 .0317119
650.768 .0316886
651.521 .0316650
652.275 .0316407
653.028 .0316148
653.781 .0315869
654.534 .0315567
655.286 .0315243
656.039 .0314892
656.791 .0314530
657.542 .0314154
658.294 .0313771
659.045 .0313392
659.796 .0313018
660.546 .0312652
661.297 .0312292
662.047 .0311943
662.796 .0311595
663.546 .0311254
664.295 .0310922
665.044 .0310597
665.793 .0310291
666.542 .0310008
667.290 .0309747
668.038 .0309514
668.786 .0309305
669.533 .0309121
670.281 .0308955
671.028 .0308808
671.774 .0308663
672.521 .0308525
673.267 .0308395
674.013 .0308269
674.759 .0308145
675.505 .0308027
676.250 .0307909
676.995 .0307794
677.740 .0307677
678.484 .0307554
679.229 .0307430
679.973 .0307307
680.717 .0307182
681.460 .0307058
682.204 .0306936
682.947 .0306818
683.690 .0306703
684.433 .0306595
685.175 .0306487
685.917 .0306380
686.659 .0306279
687.401 .0306180
688.142 .0306086
688.884 .0305995
689.625 .0305909
690.365 .0305824
691.106 .0305739
691.846 .0305648
692.586 .0305550
693.326 .0305444
694.066 .0305329
694.805 .0305203
695.545 .0305067
696.284 .0304922
697.022 .0304770
697.761 .0304612
698.499 .0304450
699.237 .0304281
699.975 .0304109
700.713 .0303938
701.450 .0303769
702.187 .0303599
702.924 .0303434
703.661 .0303276
704.397 .0303123
705.133 .0302977
705.869 .0302839
706.605 .0302707
707.341 .0302583
708.076 .0302460
708.811 .0302328
709.546 .0302187
710.281 .0302034
711.015 .0301863
711.749 .0301675
712.483 .0301472
713.217 .0301252
713.950 .0301025
714.684 .0300792
715.417 .0300554
716.150 .0300317
716.882 .0300079
717.615 .0299834
718.347 .0299585
719.079 .0299328
719.811 .0299061
720.542 .0298791
721.273 .0298522
722.005 .0298248
722.735 .0297975
723.466 .0297703
724.196 .0297431
724.927 .0297156
725.656 .0296881
726.386 .0296598
727.116 .0296313
727.845 .0296028
728.574 .0295733
729.303 .0295433
730.031 .0295136
730.760 .0294834
731.488 .0294527
732.216 .0294227
732.944 .0293934
733.671 .0293653
734.398 .0293392
735.125 .0293147
735.852 .0292921
736.579 .0292711
737.305 .0292512
738.031 .0292318
738.757 .0292129
739.483 .0291943
740.208 .0291747
740.933 .0291553
741.658 .0291356
742.383 .0291157
743.108 .0290962
743.832 .0290772
744.556 .0290581
745.280 .0290389
746.004 .0290194
746.727 .0289997
747.450 .0289797
748.173 .0289593
748.896 .0289379
749.618 .0289162
750.340 .0288940
751.062 .0288718
751.784 .0288496
752.506 .0288286
753.227 .0288082
753.948 .0287888
754.669 .0287703
755.389 .0287526
756.110 .0287355
756.830 .0287193
757.550 .0287031
758.269 .0286866
758.989 .0286692
759.708 .0286513
760.427 .0286326
761.146 .0286142
761.864 .0285962
762.582 .0285789
763.300 .0285624
764.018 .0285471
764.736 .0285325
765.453 .0285188
766.170 .0285060
766.887 .0284935
767.603 .0284812
768.320 .0284692
769.036 .0284574
769.751 .0284465
770.467 .0284372
771.182 .0284300
771.897 .0284241
772.612 .0284200
773.327 .0284173
774.041 .0284157
774.755 .0284152
775.469 .0284157
776.183 .0284165
776.896 .0284184
777.609 .0284208
778.322 .0284240
779.035 .0284283
779.747 .0284339
780.459 .0284403
781.171 .0284472
781.882 .0284543
782.594 .0284609
783.305 .0284668
784.016 .0284724
784.726 .0284773
785.436 .0284821
786.147 .0284865
786.856 .0284910
787.566 .0284956
788.275 .0285007
788.984 .0285058
789.693 .0285108
790.401 .0285155
791.110 .0285192
791.818 .0285219
792.525 .0285235
793.233 .0285241
793.940 .0285239
794.647 .0285229
795.353 .0285216
796.060 .0285196
796.766 .0285177
797.472 .0285152
798.177 .0285119
798.883 .0285079
799.588 .0285026
800.292 .0284962
800.997 .0284889
801.701 .0284807
802.405 .0284719
803.109 .0284630
803.812 .0284543
804.515 .0284456
805.218 .0284372
805.921 .0284289
806.623 .0284203
807.325 .0284115
808.027 .0284027
808.728 .0283934
809.429 .0283839
810.130 .0283744
810.831 .0283646
811.531 .0283543
812.231 .0283431
812.931 .0283307
813.630 .0283173
814.330 .0283029
815.029 .0282873
815.727 .0282710
816.426 .0282543
817.124 .0282372
817.821 .0282194
818.519 .0282013
819.216 .0281832
819.913 .0281647
820.609 .0281458
821.306 .0281268
822.002 .0281078
822.697 .0280894
823.393 .0280718
824.088 .0280551
824.783 .0280394
825.477 .0280245
826.171 .0280100
826.865 .0279961
827.559 .0279826
828.252 .0279699
828.945 .0279575
829.638 .0279464
830.330 .0279362
831.023 .0279265
831.714 .0279175
832.406 .0279089
833.097 .0279001
833.788 .0278907
834.479 .0278803
835.169 .0278691
835.859 .0278573
836.548 .0278449
837.238 .0278316
837.927 .0278181
838.615 .0278041
839.304 .0277889
839.992 .0277720
840.680 .0277541
841.367 .0277348
842.054 .0277143
842.741 .0276930
843.428 .0276714
844.114 .0276498
844.800 .0276283
845.485 .0276064
846.170 .0275837
846.855 .0275605
847.540 .0275358
848.224 .0275098
848.908 .0274833
849.592 .0274562
850.275 .0274288
850.958 .0274018
851.641 .0273759
852.323 .0273502
853.005 .0273248
853.687 .0272995
854.368 .0272740
855.049 .0272479
855.730 .0272209
856.410 .0271930
857.090 .0271647
857.769 .0271362
858.449 .0271073
859.128 .0270783
859.806 .0270497
860.485 .0270209
861.163 .0269921
861.840 .0269640
862.518 .0269363
863.195 .0269085
863.871 .0268814
864.548 .0268546
865.224 .0268280
865.899 .0268015
866.574 .0267753
867.249 .0267496
867.924 .0267250
868.598 .0267011
869.272 .0266785
869.946 .0266575
870.619 .0266385
871.292 .0266208
871.964 .0266046
872.636 .0265896
873.308 .0265753
873.979 .0265617
874.651 .0265491
875.321 .0265371
875.992 .0265263
876.662 .0265164
877.331 .0265079
878.001 .0265004
878.670 .0264937
879.338 .0264871
880.007 .0264813
880.675 .0264760
881.342 .0264712
882.009 .0264668
882.676 .0264632
883.343 .0264603
884.009 .0264582
884.675 .0264564
885.340 .0264553
886.005 .0264544
886.670 .0264541
887.334 .0264536
887.998 .0264536
888.662 .0264538
889.325 .0264549
889.988 .0264567
890.650 .0264590
891.312 .0264621
891.974 .0264658
892.636 .0264702
893.297 .0264754
893.957 .0264812
894.618 .0264879
895.278 .0264948
895.937 .0265023
896.596 .0265099
897.255 .0265175
897.914 .0265255
898.572 .0265330
899.230 .0265403
899.887 .0265473
900.544 .0265541
901.201 .0265605
901.857 .0265667
902.513 .0265722
903.168 .0265766
903.823 .0265795
904.478 .0265806
905.132 .0265798
905.786 .0265770
906.440 .0265726
907.093 .0265667
907.746 .0265590
908.399 .0265500
909.051 .0265399
909.703 .0265293
910.354 .0265184
911.005 .0265073
911.656 .0264965
912.306 .0264866
912.956 .0264781
913.605 .0264707
914.254 .0264645
914.903 .0264597
915.551 .0264557
916.199 .0264525
916.847 .0264503
917.494 .0264491
918.141 .0264491
918.788 .0264504
919.434 .0264527
920.079 .0264557
920.725 .0264594
921.370 .0264629
922.014 .0264659
922.658 .0264679
923.302 .0264681
923.946 .0264665
924.589 .0264634
925.231 .0264586
925.873 .0264523
926.515 .0264450
927.157 .0264365
927.798 .0264271
928.439 .0264165
929.079 .0264047
929.719 .0263916
930.359 .0263777
930.998 .0263628
931.637 .0263476
932.275 .0263329
932.913 .0263195
933.551 .0263074
934.188 .0262972
934.825 .0262888
935.462 .0262821
936.098 .0262772
936.733 .0262737
937.369 .0262713
938.004 .0262705
938.638 .0262708
939.273 .0262726
939.907 .0262762
940.540 .0262821
941.173 .0262901
941.806 .0262996
942.438 .0263103
943.070 .0263210
943.702 .0263311
944.333 .0263397
944.964 .0263465
945.594 .0263515
946.224 .0263546
946.854 .0263565
947.483 .0263580
948.112 .0263595
948.741 .0263609
949.369 .0263622
949.996 .0263628
950.624 .0263622
951.251 .0263597
951.878 .0263553
952.504 .0263494
953.130 .0263425
953.755 .0263353
954.380 .0263281
955.005 .0263217
955.629 .0263163
956.253 .0263113
956.877 .0263073
957.500 .0263032
958.123 .0262985
958.746 .0262925
959.368 .0262855
959.990 .0262770
960.611 .0262675
961.232 .0262572
961.853 .0262465
962.473 .0262355
963.093 .0262241
963.712 .0262121
964.331 .0261993
964.950 .0261858
965.569 .0261714
966.187 .0261559
966.804 .0261404
967.422 .0261247
968.039 .0261096
968.655 .0260953
969.272 .0260813
969.887 .0260675
970.503 .0260533
971.118 .0260385
971.733 .0260227
972.347 .0260058
972.961 .0259879
973.575 .0259689
974.188 .0259490
974.801 .0259283
975.414 .0259066
976.026 .0258837
976.638 .0258599
977.250 .0258351
977.861 .0258097
978.472 .0257836
979.083 .0257571
979.693 .0257309
980.303 .0257042
980.912 .0256778
981.521 .0256511
982.130 .0256244
982.738 .0255980
983.346 .0255719
983.954 .0255463
984.562 .0255215
985.169 .0254967
985.775 .0254718
986.382 .0254463
986.988 .0254204
987.594 .0253930
988.199 .0253642
988.804 .0253345
989.409 .0253042
990.013 .0252735
990.617 .0252437
991.221 .0252149
991.824 .0251880
992.427 .0251626
993.030 .0251384
993.632 .0251148
994.234 .0250922
994.836 .0250701
995.438 .0250484
996.039 .0250274
996.640 .0250074
997.240 .0249879
997.840 .0249700
998.440 .0249528
999.040 .0249360
999.639 .0249192
1000.238 .0249020
1000.836 .0248833
1001.435 .0248636
1002.033 .0248425
1002.630 .0248205
1003.228 .0247987
1003.825 .0247779
1004.422 .0247578
1005.018 .0247392
1005.614 .0247222
1006.210 .0247062
1006.806 .0246912
1007.401 .0246772
1007.996 .0246630
1008.591 .0246495
1009.186 .0246366
1009.780 .0246241
1010.374 .0246128
1010.967 .0246033
1011.561 .0245954
1012.154 .0245889
1012.746 .0245831
1013.339 .0245769
1013.931 .0245695
1014.523 .0245613
1015.115 .0245512
1015.706 .0245399
1016.298 .0245281
1016.888 .0245158
1017.479 .0245028
1018.069 .0244899
1018.660 .0244774
1019.250 .0244657
1019.839 .0244549
1020.429 .0244447
1021.018 .0244355
1021.607 .0244275
1022.195 .0244208
1022.784 .0244158
1023.372 .0244124
1023.960 .0244105
1024.547 .0244089
1025.135 .0244081
1025.722 .0244077
1026.309 .0244075
1026.896 .0244080
1027.483 .0244093
1028.069 .0244120
1028.655 .0244150
1029.241 .0244182
1029.827 .0244215
1030.412 .0244244
1030.997 .0244267
1031.582 .0244278
1032.167 .0244277
1032.752 .0244276
1033.336 .0244279
1033.921 .0244288
1034.505 .0244306
1035.089 .0244334
1035.672 .0244368
1036.256 .0244410
1036.839 .0244457
1037.422 .0244510
1038.005 .0244570
1038.588 .0244642
1039.171 .0244722
1039.753 .0244814
1040.335 .0244916
1040.918 .0245022
1041.500 .0245132
1042.081 .0245240
1042.663 .0245326
1043.244 .0245394
1043.826 .0245448
1044.407 .0245481
1044.988 .0245498
1045.569 .0245498
1046.150 .0245490
1046.730 .0245474
1047.311 .0245454
1047.891 .0245440
1048.471 .0245428
1049.052 .0245423
1049.632 .0245417
1050.211 .0245411
1050.791 .0245411
1051.371 .0245420
1051.950 .0245436
1052.530 .0245466
1053.109 .0245511
1053.688 .0245563
1054.268 .0245620
1054.847 .0245688
1055.426 .0245760
1056.005 .0245832
1056.583 .0245902
1057.162 .0245973
1057.741 .0246036
1058.319 .0246096
1058.898 .0246153
1059.476 .0246217
1060.055 .0246281
1060.633 .0246343
1061.211 .0246398
1061.790 .0246458
1062.368 .0246521
1062.946 .0246590
1063.524 .0246661
1064.102 .0246750
1064.680 .0246850
1065.258 .0246966
1065.836 .0247081
1066.414 .0247208
1066.992 .0247331
1067.570 .0247454
1068.148 .0247561
1068.726 .0247666
1069.304 .0247764
1069.882 .0247884
1070.460 .0248008
1071.038 .0248149
1071.616 .0248298
1072.194 .0248462
1072.772 .0248621
1073.350 .0248786
1073.928 .0248944
1074.506 .0249105
1075.084 .0249256
1075.662 .0249416
1076.240 .0249564
1076.819 .0249722
1077.397 .0249877
1077.976 .0250041
1078.554 .0250204
1079.133 .0250365
1079.711 .0250501
1080.290 .0250630
1080.869 .0250731
1081.448 .0250806
1082.027 .0250850
1082.606 .0250896
1083.185 .0250940
1083.764 .0251006
1084.343 .0251107
1084.923 .0251251
1085.502 .0251439
1086.082 .0251666
1086.662 .0251906
1087.242 .0252161
1087.822 .0252413
1088.402 .0252653
1088.983 .0252881
1089.563 .0253108
1090.144 .0253328
1090.725 .0253569
1091.306 .0253835
1091.887 .0254120
1092.469 .0254437
1093.050 .0254788
1093.632 .0255150
1094.214 .0255524
1094.796 .0255898
1095.379 .0256262
1095.961 .0256624
1096.544 .0256986
1097.127 .0257339
1097.710 .0257708
1098.294 .0258101
1098.877 .0258520
1099.461 .0258956
1100.046 .0259433
1100.630 .0259929
1101.215 .0260451
1101.800 .0260995
1102.385 .0261522
1102.970 .0262044
1103.556 .0262553
1104.142 .0263027
1104.728 .0263469
1105.315 .0263873
1105.902 .0264260
1106.489 .0264636
1107.077 .0265015
1107.664 .0265391
1108.253 .0265781
1108.841 .0266181
1109.430 .0266577
1110.019 .0266925
1110.609 .0267233
1111.198 .0267493
1111.789 .0267700
1112.379 .0267865
1112.970 .0267994
1113.561 .0268160
1114.153 .0268391
1114.745 .0268706
1115.338 .0269139
1115.931 .0269655
1116.524 .0270254
1117.117 .0270902
1117.712 .0271552
1118.306 .0272177
1118.901 .0272769
1119.496 .0273336
1120.092 .0273907
1120.689 .0274496
1121.285 .0275106
1121.882 .0275735
1122.480 .0276418
1123.078 .0277137
1123.677 .0277803
1124.276 .0278413
1124.875 .0278968
1125.476 .0279453
1126.076 .0279900
1126.677 .0280344
1127.279 .0280815
1127.881 .0281390
1128.484 .0282071
1129.087 .0282822
1129.691 .0283646
1130.295 .0284509
1130.900 .0285358
1131.505 .0286175
1132.111 .0286986
1132.718 .0287770
1133.325 .0288529
1133.933 .0289355
1134.541 .0290242
1135.150 .0291201
1135.760 .0292221
1136.370 .0293308
1136.981 .0294437
1137.592 .0295570
1138.204 .0296684
1138.817 .0297809
1139.431 .0299065
1140.045 .0300411
1140.660 .0301921
1141.275 .0303621
1141.891 .0305547
1142.508 .0308223
1143.126 .0309056
1143.744 .0312481
1144.363 .0315255
1144.983 .0317759
