Measurement Sequence started on: 15-12-46-377
Integration time: 28
Scans to Average: 2 
>>>>>Begin Spectral Data<<<<<
432.689 .0000100
433.621 .0000100
434.552 .0000100
435.482 .0000100
436.410 .0000100
437.337 .0000100
438.262 .0267939
439.187 .0569333
440.110 .0943525
441.031 .1365239
441.952 .1774938
442.871 .2097977
443.789 .2275650
444.705 .2287944
445.621 .2159414
446.535 .1943869
447.447 .1699956
448.359 .1325817
449.269 .1140372
450.178 .1024288
451.086 .0942636
451.993 .0879671
452.898 .0829549
453.803 .0788636
454.706 .0754725
455.608 .0726293
456.508 .0702212
457.408 .0681728
458.306 .0663989
459.204 .0648366
460.100 .0634225
460.995 .0621225
461.888 .0609123
462.781 .0597499
463.673 .0586509
464.563 .0576259
465.452 .0566332
466.340 .0556777
467.228 .0547750
468.114 .0539337
468.999 .0531472
469.882 .0524213
470.765 .0517577
471.647 .0511554
472.528 .0506117
473.407 .0501385
474.286 .0497290
475.163 .0493817
476.040 .0490882
476.915 .0488391
477.790 .0486309
478.663 .0484547
479.535 .0483023
480.407 .0481842
481.277 .0480959
482.147 .0480386
483.015 .0480019
483.883 .0479908
484.749 .0479946
485.615 .0480092
486.479 .0480275
487.343 .0480476
488.206 .0480617
489.067 .0480674
489.928 .0480650
490.788 .0480624
491.647 .0480680
492.505 .0480869
493.362 .0481244
494.218 .0481832
495.073 .0482596
495.928 .0483612
496.781 .0484738
497.634 .0486042
498.486 .0487511
499.337 .0489198
500.187 .0491056
501.036 .0493148
501.884 .0495501
502.731 .0498156
503.578 .0501221
504.424 .0504663
505.268 .0508493
506.113 .0512815
506.956 .0517575
507.798 .0522931
508.640 .0528913
509.480 .0535651
510.320 .0543288
511.160 .0552041
511.998 .0561833
512.836 .0572800
513.672 .0585044
514.508 .0598687
515.344 .0613659
516.178 .0630353
517.012 .0648807
517.845 .0669431
518.677 .0692766
519.508 .0718792
520.339 .0748099
521.169 .0781524
521.998 .0819048
522.826 .0861764
523.654 .0909822
524.481 .0963128
525.307 .1022112
526.133 .1086739
526.958 .1156013
527.782 .1229084
528.605 .1304617
529.428 .1381644
530.250 .1454539
531.072 .1521385
531.892 .1577975
532.712 .1621828
533.532 .1650979
534.350 .1662343
535.168 .1654879
535.986 .1629601
536.802 .1587397
537.618 .1530749
538.434 .1461817
539.249 .1386389
540.063 .1306562
540.876 .1226207
541.689 .1147975
542.501 .1074314
543.313 .1007057
544.124 .0946730
544.934 .0892592
545.744 .0843974
546.553 .0800141
547.361 .0760974
548.169 .0726149
548.976 .0695166
549.783 .0667852
550.589 .0643898
551.395 .0622641
552.200 .0603868
553.004 .0587067
553.808 .0571810
554.611 .0558218
555.414 .0546122
556.216 .0535245
557.018 .0525709
557.819 .0517383
558.619 .0509954
559.419 .0503287
560.218 .0497237
561.017 .0491413
561.815 .0485674
562.613 .0479945
563.410 .0474042
564.207 .0468097
565.003 .0462212
565.799 .0456416
566.594 .0450736
567.388 .0445309
568.182 .0440052
568.976 .0434810
569.769 .0429714
570.562 .0424630
571.354 .0419487
572.145 .0414340
572.936 .0409153
573.727 .0403996
574.517 .0398977
575.307 .0394154
576.096 .0389522
576.885 .0385142
577.673 .0380990
578.461 .0377042
579.248 .0373273
580.035 .0369725
580.821 .0366360
581.607 .0363172
582.392 .0360208
583.177 .0357465
583.962 .0354954
584.746 .0352727
585.529 .0350758
586.313 .0349054
587.095 .0347536
587.878 .0346206
588.660 .0345018
589.441 .0343943
590.222 .0342955
591.003 .0342060
591.783 .0341239
592.563 .0340491
593.342 .0339791
594.121 .0339126
594.899 .0338509
595.678 .0337915
596.455 .0337322
597.233 .0336727
598.009 .0336127
598.786 .0335526
599.562 .0334913
600.338 .0334322
601.113 .0333745
601.888 .0333168
602.663 .0332600
603.437 .0332034
604.211 .0331450
604.984 .0330854
605.757 .0330255
606.530 .0329651
607.302 .0329060
608.074 .0328491
608.845 .0327951
609.616 .0327441
610.387 .0326972
611.158 .0326530
611.928 .0326103
612.697 .0325699
613.467 .0325307
614.236 .0324921
615.004 .0324558
615.773 .0324210
616.541 .0323886
617.308 .0323603
618.076 .0323367
618.843 .0323170
619.609 .0323007
620.375 .0322872
621.141 .0322754
621.907 .0322644
622.672 .0322535
623.437 .0322413
624.202 .0322283
624.966 .0322143
625.730 .0321988
626.493 .0321827
627.257 .0321661
628.020 .0321493
628.782 .0321313
629.545 .0321115
630.307 .0320888
631.068 .0320636
631.830 .0320353
632.591 .0320040
633.352 .0319701
634.112 .0319344
634.872 .0318973
635.632 .0318612
636.392 .0318261
637.151 .0317927
637.910 .0317615
638.668 .0317326
639.427 .0317046
640.185 .0316775
640.943 .0316507
641.700 .0316245
642.457 .0315991
643.214 .0315753
643.971 .0315518
644.727 .0315303
645.483 .0315112
646.239 .0314930
646.994 .0314752
647.750 .0314579
648.505 .0314397
649.259 .0314208
650.014 .0314010
650.768 .0313795
651.521 .0313573
652.275 .0313346
653.028 .0313115
653.781 .0312874
654.534 .0312632
655.286 .0312390
656.039 .0312135
656.791 .0311888
657.542 .0311630
658.294 .0311373
659.045 .0311121
659.796 .0310868
660.546 .0310604
661.297 .0310333
662.047 .0310050
662.796 .0309754
663.546 .0309446
664.295 .0309136
665.044 .0308812
665.793 .0308500
666.542 .0308193
667.290 .0307897
668.038 .0307605
668.786 .0307325
669.533 .0307037
670.281 .0306754
671.028 .0306464
671.774 .0306175
672.521 .0305893
673.267 .0305631
674.013 .0305380
674.759 .0305143
675.505 .0304919
676.250 .0304703
676.995 .0304481
677.740 .0304263
678.484 .0304025
679.229 .0303784
679.973 .0303533
680.717 .0303276
681.460 .0303010
682.204 .0302747
682.947 .0302480
683.690 .0302213
684.433 .0301948
685.175 .0301682
685.917 .0301415
686.659 .0301159
687.401 .0300911
688.142 .0300675
688.884 .0300456
689.625 .0300250
690.365 .0300054
691.106 .0299868
691.846 .0299684
692.586 .0299504
693.326 .0299327
694.066 .0299158
694.805 .0298989
695.545 .0298821
696.284 .0298665
697.022 .0298511
697.761 .0298363
698.499 .0298216
699.237 .0298070
699.975 .0297921
700.713 .0297770
701.450 .0297616
702.187 .0297462
702.924 .0297313
703.661 .0297173
704.397 .0297038
705.133 .0296916
705.869 .0296803
706.605 .0296696
707.341 .0296593
708.076 .0296493
708.811 .0296389
709.546 .0296278
710.281 .0296158
711.015 .0296037
711.749 .0295909
712.483 .0295779
713.217 .0295651
713.950 .0295526
714.684 .0295396
715.417 .0295259
716.150 .0295110
716.882 .0294954
717.615 .0294786
718.347 .0294610
719.079 .0294426
719.811 .0294243
720.542 .0294063
721.273 .0293883
722.005 .0293711
722.735 .0293547
723.466 .0293387
724.196 .0293230
724.927 .0293075
725.656 .0292919
726.386 .0292758
727.116 .0292604
727.845 .0292456
728.574 .0292311
729.303 .0292172
730.031 .0292038
730.760 .0291911
731.488 .0291792
732.216 .0291679
732.944 .0291572
733.671 .0291473
734.398 .0291381
735.125 .0291284
735.852 .0291186
736.579 .0291085
737.305 .0290975
738.031 .0290856
738.757 .0290730
739.483 .0290590
740.208 .0290440
740.933 .0290287
741.658 .0290131
742.383 .0289977
743.108 .0289825
743.832 .0289678
744.556 .0289539
745.280 .0289404
746.004 .0289274
746.727 .0289142
747.450 .0289016
748.173 .0288885
748.896 .0288747
749.618 .0288603
750.340 .0288452
751.062 .0288296
751.784 .0288139
752.506 .0287979
753.227 .0287815
753.948 .0287644
754.669 .0287467
755.389 .0287274
756.110 .0287066
756.830 .0286840
757.550 .0286596
758.269 .0286340
758.989 .0286073
759.708 .0285794
760.427 .0285517
761.146 .0285246
761.864 .0284980
762.582 .0284722
763.300 .0284474
764.018 .0284232
764.736 .0283994
765.453 .0283765
766.170 .0283541
766.887 .0283321
767.603 .0283107
768.320 .0282894
769.036 .0282681
769.751 .0282474
770.467 .0282264
771.182 .0282054
771.897 .0281850
772.612 .0281650
773.327 .0281454
774.041 .0281267
774.755 .0281093
775.469 .0280928
776.183 .0280777
776.896 .0280642
777.609 .0280515
778.322 .0280400
779.035 .0280298
779.747 .0280206
780.459 .0280129
781.171 .0280065
781.882 .0280008
782.594 .0279959
783.305 .0279915
784.016 .0279870
784.726 .0279820
785.436 .0279767
786.147 .0279708
786.856 .0279639
787.566 .0279564
788.275 .0279485
788.984 .0279405
789.693 .0279327
790.401 .0279247
791.110 .0279169
791.818 .0279092
792.525 .0279012
793.233 .0278932
793.940 .0278851
794.647 .0278770
795.353 .0278692
796.060 .0278617
796.766 .0278548
797.472 .0278482
798.177 .0278422
798.883 .0278362
799.588 .0278305
800.292 .0278249
800.997 .0278189
801.701 .0278127
802.405 .0278066
803.109 .0278004
803.812 .0277939
804.515 .0277875
805.218 .0277806
805.921 .0277731
806.623 .0277648
807.325 .0277561
808.027 .0277474
808.728 .0277385
809.429 .0277298
810.130 .0277211
810.831 .0277130
811.531 .0277051
812.231 .0276967
812.931 .0276881
813.630 .0276783
814.330 .0276677
815.029 .0276560
815.727 .0276440
816.426 .0276326
817.124 .0276221
817.821 .0276129
818.519 .0276056
819.216 .0275999
819.913 .0275954
820.609 .0275920
821.306 .0275895
822.002 .0275875
822.697 .0275861
823.393 .0275853
824.088 .0275857
824.783 .0275873
825.477 .0275902
826.171 .0275941
826.865 .0275991
827.559 .0276051
828.252 .0276110
828.945 .0276166
829.638 .0276223
830.330 .0276276
831.023 .0276322
831.714 .0276361
832.406 .0276394
833.097 .0276419
833.788 .0276438
834.479 .0276452
835.169 .0276459
835.859 .0276468
836.548 .0276481
837.238 .0276494
837.927 .0276510
838.615 .0276527
839.304 .0276538
839.992 .0276539
840.680 .0276533
841.367 .0276508
842.054 .0276464
842.741 .0276411
843.428 .0276350
844.114 .0276283
844.800 .0276215
845.485 .0276147
846.170 .0276076
846.855 .0276001
847.540 .0275915
848.224 .0275813
848.908 .0275699
849.592 .0275575
850.275 .0275437
850.958 .0275293
851.641 .0275149
852.323 .0275002
853.005 .0274852
853.687 .0274698
854.368 .0274532
855.049 .0274349
855.730 .0274150
856.410 .0273931
857.090 .0273692
857.769 .0273438
858.449 .0273173
859.128 .0272901
859.806 .0272623
860.485 .0272343
861.163 .0272057
861.840 .0271768
862.518 .0271476
863.195 .0271178
863.871 .0270881
864.548 .0270588
865.224 .0270302
865.899 .0270028
866.574 .0269768
867.249 .0269525
867.924 .0269295
868.598 .0269075
869.272 .0268861
869.946 .0268647
870.619 .0268430
871.292 .0268212
871.964 .0267988
872.636 .0267762
873.308 .0267537
873.979 .0267314
874.651 .0267094
875.321 .0266876
875.992 .0266660
876.662 .0266445
877.331 .0266234
878.001 .0266026
878.670 .0265817
879.338 .0265615
880.007 .0265422
880.675 .0265238
881.342 .0265064
882.009 .0264905
882.676 .0264757
883.343 .0264626
884.009 .0264505
884.675 .0264392
885.340 .0264287
886.005 .0264189
886.670 .0264094
887.334 .0264003
887.998 .0263913
888.662 .0263823
889.325 .0263732
889.988 .0263645
890.650 .0263556
891.312 .0263470
891.974 .0263385
892.636 .0263305
893.297 .0263228
893.957 .0263151
894.618 .0263071
895.278 .0262991
895.937 .0262910
896.596 .0262824
897.255 .0262731
897.914 .0262636
898.572 .0262535
899.230 .0262428
899.887 .0262316
900.544 .0262201
901.201 .0262080
901.857 .0261957
902.513 .0261829
903.168 .0261694
903.823 .0261550
904.478 .0261395
905.132 .0261224
905.786 .0261038
906.440 .0260832
907.093 .0260607
907.746 .0260368
908.399 .0260119
909.051 .0259867
909.703 .0259619
910.354 .0259379
911.005 .0259152
911.656 .0258936
912.306 .0258728
912.956 .0258527
913.605 .0258330
914.254 .0258140
914.903 .0257956
915.551 .0257785
916.199 .0257631
916.847 .0257499
917.494 .0257391
918.141 .0257308
918.788 .0257246
919.434 .0257197
920.079 .0257152
920.725 .0257108
921.370 .0257060
922.014 .0257009
922.658 .0256950
923.302 .0256885
923.946 .0256819
924.589 .0256748
925.231 .0256670
925.873 .0256586
926.515 .0256497
927.157 .0256404
927.798 .0256303
928.439 .0256202
929.079 .0256101
929.719 .0256000
930.359 .0255903
930.998 .0255806
931.637 .0255709
932.275 .0255615
932.913 .0255522
933.551 .0255434
934.188 .0255352
934.825 .0255277
935.462 .0255208
936.098 .0255148
936.733 .0255099
937.369 .0255058
938.004 .0255023
938.638 .0254997
939.273 .0254974
939.907 .0254958
940.540 .0254953
941.173 .0254959
941.806 .0254982
942.438 .0255022
943.070 .0255075
943.702 .0255138
944.333 .0255207
944.964 .0255282
945.594 .0255360
946.224 .0255435
946.854 .0255516
947.483 .0255596
948.112 .0255681
948.741 .0255765
949.369 .0255851
949.996 .0255941
950.624 .0256028
951.251 .0256108
951.878 .0256179
952.504 .0256243
953.130 .0256300
953.755 .0256351
954.380 .0256397
955.005 .0256441
955.629 .0256479
956.253 .0256513
956.877 .0256550
957.500 .0256586
958.123 .0256625
958.746 .0256664
959.368 .0256703
959.990 .0256743
960.611 .0256775
961.232 .0256807
961.853 .0256837
962.473 .0256868
963.093 .0256893
963.712 .0256909
964.331 .0256921
964.950 .0256929
965.569 .0256935
966.187 .0256943
966.804 .0256957
967.422 .0256982
968.039 .0257012
968.655 .0257041
969.272 .0257065
969.887 .0257082
970.503 .0257084
971.118 .0257074
971.733 .0257045
972.347 .0257008
972.961 .0256965
973.575 .0256926
974.188 .0256894
974.801 .0256868
975.414 .0256845
976.026 .0256819
976.638 .0256783
977.250 .0256734
977.861 .0256668
978.472 .0256590
979.083 .0256504
979.693 .0256413
980.303 .0256317
980.912 .0256224
981.521 .0256134
982.130 .0256051
982.738 .0255970
983.346 .0255888
983.954 .0255803
984.562 .0255714
985.169 .0255620
985.775 .0255520
986.382 .0255419
986.988 .0255321
987.594 .0255221
988.199 .0255124
988.804 .0255028
989.409 .0254931
990.013 .0254834
990.617 .0254742
991.221 .0254651
991.824 .0254565
992.427 .0254483
993.030 .0254412
993.632 .0254356
994.234 .0254313
994.836 .0254278
995.438 .0254250
996.039 .0254222
996.640 .0254187
997.240 .0254142
997.840 .0254089
998.440 .0254030
999.040 .0253969
999.639 .0253911
1000.238 .0253855
1000.836 .0253803
1001.435 .0253750
1002.033 .0253691
1002.630 .0253621
1003.228 .0253533
1003.825 .0253422
1004.422 .0253292
1005.018 .0253145
1005.614 .0252988
1006.210 .0252825
1006.806 .0252666
1007.401 .0252510
1007.996 .0252356
1008.591 .0252206
1009.186 .0252058
1009.780 .0251913
1010.374 .0251766
1010.967 .0251619
1011.561 .0251477
1012.154 .0251335
1012.746 .0251196
1013.339 .0251056
1013.931 .0250928
1014.523 .0250814
1015.115 .0250715
1015.706 .0250630
1016.298 .0250563
1016.888 .0250515
1017.479 .0250480
1018.069 .0250449
1018.660 .0250421
1019.250 .0250389
1019.839 .0250354
1020.429 .0250317
1021.018 .0250281
1021.607 .0250245
1022.195 .0250218
1022.784 .0250199
1023.372 .0250184
1023.960 .0250164
1024.547 .0250132
1025.135 .0250086
1025.722 .0250026
1026.309 .0249951
1026.896 .0249866
1027.483 .0249781
1028.069 .0249706
1028.655 .0249642
1029.241 .0249588
1029.827 .0249548
1030.412 .0249515
1030.997 .0249489
1031.582 .0249462
1032.167 .0249430
1032.752 .0249389
1033.336 .0249342
1033.921 .0249288
1034.505 .0249228
1035.089 .0249160
1035.672 .0249081
1036.256 .0248995
1036.839 .0248901
1037.422 .0248794
1038.005 .0248688
1038.588 .0248585
1039.171 .0248490
1039.753 .0248401
1040.335 .0248322
1040.918 .0248245
1041.500 .0248173
1042.081 .0248104
1042.663 .0248031
1043.244 .0247960
1043.826 .0247888
1044.407 .0247817
1044.988 .0247752
1045.569 .0247702
1046.150 .0247657
1046.730 .0247613
1047.311 .0247571
1047.891 .0247516
1048.471 .0247440
1049.052 .0247341
1049.632 .0247212
1050.211 .0247064
1050.791 .0246894
1051.371 .0246706
1051.950 .0246514
1052.530 .0246327
1053.109 .0246143
1053.688 .0245969
1054.268 .0245808
1054.847 .0245669
1055.426 .0245536
1056.005 .0245419
1056.583 .0245316
1057.162 .0245227
1057.741 .0245139
1058.319 .0245047
1058.898 .0244960
1059.476 .0244870
1060.055 .0244769
1060.633 .0244676
1061.211 .0244588
1061.790 .0244519
1062.368 .0244475
1062.946 .0244461
1063.524 .0244474
1064.102 .0244517
1064.680 .0244569
1065.258 .0244618
1065.836 .0244662
1066.414 .0244679
1066.992 .0244661
1067.570 .0244626
1068.148 .0244582
1068.726 .0244516
1069.304 .0244453
1069.882 .0244405
1070.460 .0244354
1071.038 .0244309
1071.616 .0244262
1072.194 .0244207
1072.772 .0244147
1073.350 .0244085
1073.928 .0244020
1074.506 .0243946
1075.084 .0243885
1075.662 .0243816
1076.240 .0243756
1076.819 .0243719
1077.397 .0243686
1077.976 .0243671
1078.554 .0243690
1079.133 .0243750
1079.711 .0243837
1080.290 .0243959
1080.869 .0244120
1081.448 .0244285
1082.027 .0244449
1082.606 .0244590
1083.185 .0244702
1083.764 .0244785
1084.343 .0244849
1084.923 .0244893
1085.502 .0244942
1086.082 .0245011
1086.662 .0245081
1087.242 .0245169
1087.822 .0245270
1088.402 .0245373
1088.983 .0245458
1089.563 .0245524
1090.144 .0245574
1090.725 .0245599
1091.306 .0245619
1091.887 .0245633
1092.469 .0245662
1093.050 .0245712
1093.632 .0245764
1094.214 .0245828
1094.796 .0245901
1095.379 .0245989
1095.961 .0246076
1096.544 .0246182
1097.127 .0246321
1097.710 .0246476
1098.294 .0246659
1098.877 .0246877
1099.461 .0247137
1100.046 .0247433
1100.630 .0247746
1101.215 .0248071
1101.800 .0248427
1102.385 .0248800
1102.970 .0249188
1103.556 .0249591
1104.142 .0250030
1104.728 .0250509
1105.315 .0251012
1105.902 .0251537
1106.489 .0252091
1107.077 .0252651
1107.664 .0253220
1108.253 .0253760
1108.841 .0254283
1109.430 .0254756
1110.019 .0255184
1110.609 .0255568
1111.198 .0255908
1111.789 .0256211
1112.379 .0256486
1112.970 .0256738
1113.561 .0257018
1114.153 .0257298
1114.745 .0257593
1115.338 .0257903
1115.931 .0258240
1116.524 .0258570
1117.117 .0258890
1117.712 .0259205
1118.306 .0259538
1118.901 .0259873
1119.496 .0260240
1120.092 .0260640
1120.689 .0261111
1121.285 .0261649
1121.882 .0262231
1122.480 .0262879
1123.078 .0263588
1123.677 .0264326
1124.276 .0265095
1124.875 .0265876
1125.476 .0266680
1126.076 .0267486
1126.677 .0268305
1127.279 .0269112
1127.881 .0269908
1128.484 .0270710
1129.087 .0271522
1129.691 .0272376
1130.295 .0273295
1130.900 .0274304
1131.505 .0275436
1132.111 .0276706
1132.718 .0278099
1133.325 .0279566
1133.933 .0281078
1134.541 .0282601
1135.150 .0284060
1135.760 .0285405
1136.370 .0286678
1136.981 .0287911
1137.592 .0289115
1138.204 .0290339
1138.817 .0291562
1139.431 .0292768
1140.045 .0293937
1140.660 .0294925
1141.275 .0295775
1141.891 .0296984
1142.508 .0297459
1143.126 .0297575
1143.744 .0295483
1144.363 .0298092
1144.983 .0313461
