Measurement Sequence started on: 15-12-46-377
Integration time: 28
Scans to Average: 2 
>>>>>Begin Spectral Data<<<<<
432.689 .0000100
433.621 .0000100
434.552 .0000100
435.482 .0000100
436.410 .0000100
437.337 .0000100
438.262 .0279352
439.187 .0591361
440.110 .0979580
441.031 .1417184
441.952 .1842081
442.871 .2176445
443.789 .2359534
444.705 .2370272
445.621 .2234356
446.535 .2007538
447.447 .1750547
448.359 .1357470
449.269 .1162192
450.178 .1037882
451.086 .0949984
451.993 .0882750
452.898 .0829863
453.803 .0787067
454.706 .0752228
455.608 .0722854
456.508 .0697709
457.408 .0676068
458.306 .0656944
459.204 .0639927
460.100 .0624560
460.995 .0610575
461.888 .0597792
462.781 .0586082
463.673 .0575249
464.563 .0565131
465.452 .0555611
466.340 .0546451
467.228 .0537703
468.114 .0529395
468.999 .0521575
469.882 .0514268
470.765 .0507509
471.647 .0501292
472.528 .0495554
473.407 .0490321
474.286 .0485600
475.163 .0481360
476.040 .0477672
476.915 .0474513
477.790 .0471907
478.663 .0469864
479.535 .0468275
480.407 .0467196
481.277 .0466472
482.147 .0466037
483.015 .0465795
483.883 .0465693
484.749 .0465662
485.615 .0465729
486.479 .0465910
487.343 .0466231
488.206 .0466731
489.067 .0467382
489.928 .0468148
490.788 .0469074
491.647 .0470165
492.505 .0471369
493.362 .0472596
494.218 .0473958
495.073 .0475336
495.928 .0476823
496.781 .0478384
497.634 .0480190
498.486 .0482305
499.337 .0484747
500.187 .0487531
501.036 .0490699
501.884 .0494312
502.731 .0498335
503.578 .0502645
504.424 .0507267
505.268 .0511990
506.113 .0516882
506.956 .0521846
507.798 .0527108
508.640 .0532739
509.480 .0538949
510.320 .0545912
511.160 .0553811
511.998 .0562606
512.836 .0572341
513.672 .0583023
514.508 .0594827
515.344 .0607577
516.178 .0621525
517.012 .0636796
517.845 .0654112
518.677 .0673861
519.508 .0696336
520.339 .0721645
521.169 .0750790
521.998 .0783433
522.826 .0819712
523.654 .0859832
524.481 .0903966
525.307 .0952480
526.133 .1005303
526.958 .1062230
527.782 .1122957
528.605 .1186526
529.428 .1252469
530.250 .1315126
531.072 .1373436
531.892 .1423268
532.712 .1461370
533.532 .1486382
534.350 .1496124
535.168 .1489648
535.986 .1468085
536.802 .1433006
537.618 .1386449
538.434 .1330337
539.249 .1269360
540.063 .1204291
540.876 .1138387
541.689 .1073639
542.501 .1011246
543.313 .0953112
544.124 .0900450
544.934 .0852326
545.744 .0808763
546.553 .0769672
547.361 .0734661
548.169 .0703677
548.976 .0676145
549.783 .0651780
550.589 .0630280
551.395 .0611200
552.200 .0594284
553.004 .0579153
553.808 .0565641
554.611 .0553565
555.414 .0542716
556.216 .0532917
557.018 .0523944
557.819 .0515835
558.619 .0508367
559.419 .0501414
560.218 .0494950
561.017 .0488807
561.815 .0482794
562.613 .0476839
563.410 .0470824
564.207 .0464785
565.003 .0458735
565.799 .0452709
566.594 .0446661
567.388 .0440801
568.182 .0435079
568.976 .0429509
569.769 .0424132
570.562 .0418967
571.354 .0413944
572.145 .0409002
572.936 .0404145
573.727 .0399358
574.517 .0394700
575.307 .0390187
576.096 .0385858
576.885 .0381798
577.673 .0377969
578.461 .0374397
579.248 .0371019
580.035 .0367839
580.821 .0364819
581.607 .0361932
582.392 .0359180
583.177 .0356537
583.962 .0354043
584.746 .0351709
585.529 .0349566
586.313 .0347625
587.095 .0345878
587.878 .0344294
588.660 .0342870
589.441 .0341553
590.222 .0340326
591.003 .0339173
591.783 .0338089
592.563 .0337064
593.342 .0336113
594.121 .0335204
594.899 .0334370
595.678 .0333597
596.455 .0332886
597.233 .0332222
598.009 .0331601
598.786 .0331006
599.562 .0330433
600.338 .0329874
601.113 .0329329
601.888 .0328786
602.663 .0328263
603.437 .0327752
604.211 .0327251
604.984 .0326761
605.757 .0326293
606.530 .0325836
607.302 .0325407
608.074 .0325009
608.845 .0324642
609.616 .0324299
610.387 .0323992
611.158 .0323702
611.928 .0323433
612.697 .0323176
613.467 .0322937
614.236 .0322707
615.004 .0322494
615.773 .0322301
616.541 .0322131
617.308 .0322002
618.076 .0321908
618.843 .0321843
619.609 .0321810
620.375 .0321796
621.141 .0321784
621.907 .0321763
622.672 .0321739
623.437 .0321698
624.202 .0321637
624.966 .0321557
625.730 .0321461
626.493 .0321343
627.257 .0321203
628.020 .0321040
628.782 .0320847
629.545 .0320625
630.307 .0320368
631.068 .0320084
631.830 .0319779
632.591 .0319453
633.352 .0319116
634.112 .0318764
634.872 .0318410
635.632 .0318047
636.392 .0317669
637.151 .0317295
637.910 .0316917
638.668 .0316536
639.427 .0316160
640.185 .0315796
640.943 .0315444
641.700 .0315100
642.457 .0314772
643.214 .0314450
643.971 .0314128
644.727 .0313811
645.483 .0313493
646.239 .0313177
646.994 .0312866
647.750 .0312560
648.505 .0312263
649.259 .0311980
650.014 .0311710
650.768 .0311446
651.521 .0311194
652.275 .0310945
653.028 .0310689
653.781 .0310424
654.534 .0310153
655.286 .0309865
656.039 .0309567
656.791 .0309265
657.542 .0308954
658.294 .0308639
659.045 .0308324
659.796 .0308007
660.546 .0307695
661.297 .0307387
662.047 .0307084
662.796 .0306784
663.546 .0306501
664.295 .0306229
665.044 .0305977
665.793 .0305754
666.542 .0305560
667.290 .0305393
668.038 .0305253
668.786 .0305130
669.533 .0305026
670.281 .0304934
671.028 .0304853
671.774 .0304780
672.521 .0304721
673.267 .0304668
674.013 .0304628
674.759 .0304597
675.505 .0304574
676.250 .0304547
676.995 .0304512
677.740 .0304462
678.484 .0304396
679.229 .0304321
679.973 .0304242
680.717 .0304164
681.460 .0304106
682.204 .0304057
682.947 .0304024
683.690 .0303999
684.433 .0303975
685.175 .0303943
685.917 .0303893
686.659 .0303821
687.401 .0303728
688.142 .0303619
688.884 .0303504
689.625 .0303386
690.365 .0303271
691.106 .0303155
691.846 .0303037
692.586 .0302911
693.326 .0302769
694.066 .0302602
694.805 .0302412
695.545 .0302193
696.284 .0301953
697.022 .0301695
697.761 .0301426
698.499 .0301159
699.237 .0300896
699.975 .0300639
700.713 .0300391
701.450 .0300146
702.187 .0299905
702.924 .0299665
703.661 .0299424
704.397 .0299177
705.133 .0298925
705.869 .0298669
706.605 .0298412
707.341 .0298156
708.076 .0297908
708.811 .0297666
709.546 .0297435
710.281 .0297208
711.015 .0296984
711.749 .0296755
712.483 .0296523
713.217 .0296276
713.950 .0296015
714.684 .0295738
715.417 .0295449
716.150 .0295153
716.882 .0294857
717.615 .0294562
718.347 .0294270
719.079 .0293979
719.811 .0293692
720.542 .0293402
721.273 .0293106
722.005 .0292802
722.735 .0292488
723.466 .0292169
724.196 .0291846
724.927 .0291520
725.656 .0291203
726.386 .0290901
727.116 .0290613
727.845 .0290344
728.574 .0290089
729.303 .0289852
730.031 .0289633
730.760 .0289428
731.488 .0289240
732.216 .0289066
732.944 .0288909
733.671 .0288766
734.398 .0288641
735.125 .0288531
735.852 .0288434
736.579 .0288352
737.305 .0288286
738.031 .0288230
738.757 .0288186
739.483 .0288153
740.208 .0288129
740.933 .0288113
741.658 .0288096
742.383 .0288078
743.108 .0288061
743.832 .0288041
744.556 .0288021
745.280 .0288004
746.004 .0287997
746.727 .0287996
747.450 .0288005
748.173 .0288020
748.896 .0288037
749.618 .0288053
750.340 .0288063
751.062 .0288067
751.784 .0288065
752.506 .0288058
753.227 .0288048
753.948 .0288040
754.669 .0288037
755.389 .0288032
756.110 .0288030
756.830 .0288022
757.550 .0288009
758.269 .0287992
758.989 .0287970
759.708 .0287947
760.427 .0287924
761.146 .0287897
761.864 .0287868
762.582 .0287840
763.300 .0287803
764.018 .0287758
764.736 .0287704
765.453 .0287638
766.170 .0287561
766.887 .0287477
767.603 .0287389
768.320 .0287292
769.036 .0287196
769.751 .0287090
770.467 .0286974
771.182 .0286856
771.897 .0286731
772.612 .0286603
773.327 .0286479
774.041 .0286357
774.755 .0286240
775.469 .0286134
776.183 .0286040
776.896 .0285955
777.609 .0285884
778.322 .0285822
779.035 .0285763
779.747 .0285714
780.459 .0285668
781.171 .0285620
781.882 .0285574
782.594 .0285523
783.305 .0285456
784.016 .0285379
784.726 .0285285
785.436 .0285172
786.147 .0285042
786.856 .0284895
787.566 .0284728
788.275 .0284543
788.984 .0284341
789.693 .0284117
790.401 .0283876
791.110 .0283622
791.818 .0283355
792.525 .0283084
793.233 .0282814
793.940 .0282550
794.647 .0282290
795.353 .0282035
796.060 .0281783
796.766 .0281533
797.472 .0281280
798.177 .0281024
798.883 .0280762
799.588 .0280499
800.292 .0280235
800.997 .0279968
801.701 .0279700
802.405 .0279433
803.109 .0279157
803.812 .0278869
804.515 .0278565
805.218 .0278242
805.921 .0277899
806.623 .0277542
807.325 .0277175
808.027 .0276806
808.728 .0276441
809.429 .0276086
810.130 .0275742
810.831 .0275415
811.531 .0275101
812.231 .0274800
812.931 .0274514
813.630 .0274240
814.330 .0273976
815.029 .0273726
815.727 .0273490
816.426 .0273268
817.124 .0273058
817.821 .0272858
818.519 .0272668
819.216 .0272485
819.913 .0272309
820.609 .0272143
821.306 .0271987
822.002 .0271847
822.697 .0271720
823.393 .0271609
824.088 .0271512
824.783 .0271428
825.477 .0271353
826.171 .0271289
826.865 .0271240
827.559 .0271205
828.252 .0271187
828.945 .0271193
829.638 .0271220
830.330 .0271268
831.023 .0271339
831.714 .0271422
832.406 .0271516
833.097 .0271616
833.788 .0271715
834.479 .0271812
835.169 .0271909
835.859 .0272004
836.548 .0272097
837.238 .0272187
837.927 .0272273
838.615 .0272349
839.304 .0272422
839.992 .0272483
840.680 .0272533
841.367 .0272579
842.054 .0272620
842.741 .0272657
843.428 .0272699
844.114 .0272746
844.800 .0272796
845.485 .0272847
846.170 .0272895
846.855 .0272941
847.540 .0272985
848.224 .0273027
848.908 .0273075
849.592 .0273132
850.275 .0273196
850.958 .0273265
851.641 .0273345
852.323 .0273431
853.005 .0273513
853.687 .0273588
854.368 .0273653
855.049 .0273707
855.730 .0273749
856.410 .0273780
857.090 .0273803
857.769 .0273820
858.449 .0273828
859.128 .0273823
859.806 .0273807
860.485 .0273783
861.163 .0273749
861.840 .0273707
862.518 .0273659
863.195 .0273607
863.871 .0273547
864.548 .0273490
865.224 .0273432
865.899 .0273376
866.574 .0273320
867.249 .0273263
867.924 .0273203
868.598 .0273143
869.272 .0273082
869.946 .0273021
870.619 .0272961
871.292 .0272901
871.964 .0272832
872.636 .0272753
873.308 .0272663
873.979 .0272562
874.651 .0272449
875.321 .0272329
875.992 .0272204
876.662 .0272080
877.331 .0271958
878.001 .0271842
878.670 .0271731
879.338 .0271628
880.007 .0271531
880.675 .0271437
881.342 .0271343
882.009 .0271254
882.676 .0271167
883.343 .0271087
884.009 .0271011
884.675 .0270935
885.340 .0270856
886.005 .0270769
886.670 .0270674
887.334 .0270565
887.998 .0270444
888.662 .0270312
889.325 .0270164
889.988 .0270005
890.650 .0269836
891.312 .0269658
891.974 .0269476
892.636 .0269287
893.297 .0269092
893.957 .0268886
894.618 .0268673
895.278 .0268452
895.937 .0268228
896.596 .0268000
897.255 .0267769
897.914 .0267535
898.572 .0267297
899.230 .0267051
899.887 .0266797
900.544 .0266535
901.201 .0266264
901.857 .0265982
902.513 .0265687
903.168 .0265386
903.823 .0265077
904.478 .0264763
905.132 .0264446
905.786 .0264117
906.440 .0263781
907.093 .0263432
907.746 .0263072
908.399 .0262705
909.051 .0262331
909.703 .0261954
910.354 .0261577
911.005 .0261202
911.656 .0260828
912.306 .0260457
912.956 .0260090
913.605 .0259724
914.254 .0259354
914.903 .0258985
915.551 .0258615
916.199 .0258254
916.847 .0257906
917.494 .0257569
918.141 .0257250
918.788 .0256951
919.434 .0256668
920.079 .0256400
920.725 .0256139
921.370 .0255887
922.014 .0255637
922.658 .0255386
923.302 .0255127
923.946 .0254864
924.589 .0254593
925.231 .0254319
925.873 .0254040
926.515 .0253754
927.157 .0253466
927.798 .0253177
928.439 .0252892
929.079 .0252611
929.719 .0252335
930.359 .0252068
930.998 .0251812
931.637 .0251571
932.275 .0251342
932.913 .0251129
933.551 .0250932
934.188 .0250754
934.825 .0250593
935.462 .0250455
936.098 .0250339
936.733 .0250251
937.369 .0250186
938.004 .0250141
938.638 .0250109
939.273 .0250089
939.907 .0250078
940.540 .0250072
941.173 .0250066
941.806 .0250064
942.438 .0250061
943.070 .0250065
943.702 .0250077
944.333 .0250097
944.964 .0250129
945.594 .0250176
946.224 .0250229
946.854 .0250288
947.483 .0250349
948.112 .0250417
948.741 .0250483
949.369 .0250553
949.996 .0250623
950.624 .0250694
951.251 .0250771
951.878 .0250856
952.504 .0250946
953.130 .0251042
953.755 .0251141
954.380 .0251238
955.005 .0251332
955.629 .0251424
956.253 .0251510
956.877 .0251597
957.500 .0251684
958.123 .0251768
958.746 .0251856
959.368 .0251951
959.990 .0252054
960.611 .0252160
961.232 .0252277
961.853 .0252396
962.473 .0252519
963.093 .0252643
963.712 .0252769
964.331 .0252897
964.950 .0253030
965.569 .0253166
966.187 .0253311
966.804 .0253465
967.422 .0253629
968.039 .0253799
968.655 .0253984
969.272 .0254169
969.887 .0254355
970.503 .0254533
971.118 .0254707
971.733 .0254869
972.347 .0255027
972.961 .0255178
973.575 .0255330
974.188 .0255481
974.801 .0255633
975.414 .0255778
976.026 .0255923
976.638 .0256048
977.250 .0256157
977.861 .0256246
978.472 .0256314
979.083 .0256357
979.693 .0256386
980.303 .0256400
980.912 .0256412
981.521 .0256421
982.130 .0256429
982.738 .0256431
983.346 .0256432
983.954 .0256416
984.562 .0256387
985.169 .0256340
985.775 .0256274
986.382 .0256190
986.988 .0256101
987.594 .0256006
988.199 .0255919
988.804 .0255847
989.409 .0255793
990.013 .0255755
990.617 .0255733
991.221 .0255712
991.824 .0255698
992.427 .0255690
993.030 .0255689
993.632 .0255697
994.234 .0255725
994.836 .0255766
995.438 .0255823
996.039 .0255901
996.640 .0255989
997.240 .0256086
997.840 .0256190
998.440 .0256291
999.040 .0256383
999.639 .0256464
1000.238 .0256528
1000.836 .0256577
1001.435 .0256610
1002.033 .0256627
1002.630 .0256622
1003.228 .0256608
1003.825 .0256577
1004.422 .0256542
1005.018 .0256507
1005.614 .0256472
1006.210 .0256440
1006.806 .0256410
1007.401 .0256377
1007.996 .0256335
1008.591 .0256283
1009.186 .0256220
1009.780 .0256147
1010.374 .0256063
1010.967 .0255966
1011.561 .0255866
1012.154 .0255765
1012.746 .0255659
1013.339 .0255549
1013.931 .0255435
1014.523 .0255307
1015.115 .0255163
1015.706 .0255010
1016.298 .0254844
1016.888 .0254683
1017.479 .0254528
1018.069 .0254383
1018.660 .0254250
1019.250 .0254133
1019.839 .0254025
1020.429 .0253931
1021.018 .0253854
1021.607 .0253776
1022.195 .0253699
1022.784 .0253626
1023.372 .0253553
1023.960 .0253483
1024.547 .0253419
1025.135 .0253365
1025.722 .0253318
1026.309 .0253281
1026.896 .0253238
1027.483 .0253187
1028.069 .0253128
1028.655 .0253056
1029.241 .0252964
1029.827 .0252851
1030.412 .0252726
1030.997 .0252592
1031.582 .0252463
1032.167 .0252339
1032.752 .0252226
1033.336 .0252118
1033.921 .0252014
1034.505 .0251905
1035.089 .0251781
1035.672 .0251642
1036.256 .0251484
1036.839 .0251310
1037.422 .0251127
1038.005 .0250947
1038.588 .0250768
1039.171 .0250598
1039.753 .0250445
1040.335 .0250293
1040.918 .0250142
1041.500 .0249980
1042.081 .0249801
1042.663 .0249606
1043.244 .0249393
1043.826 .0249171
1044.407 .0248947
1044.988 .0248737
1045.569 .0248531
1046.150 .0248331
1046.730 .0248139
1047.311 .0247944
1047.891 .0247736
1048.471 .0247518
1049.052 .0247294
1049.632 .0247066
1050.211 .0246839
1050.791 .0246618
1051.371 .0246417
1051.950 .0246233
1052.530 .0246058
1053.109 .0245888
1053.688 .0245719
1054.268 .0245542
1054.847 .0245357
1055.426 .0245158
1056.005 .0244965
1056.583 .0244779
1057.162 .0244611
1057.741 .0244459
1058.319 .0244328
1058.898 .0244216
1059.476 .0244119
1060.055 .0244041
1060.633 .0243974
1061.211 .0243907
1061.790 .0243851
1062.368 .0243800
1062.946 .0243752
1063.524 .0243704
1064.102 .0243658
1064.680 .0243608
1065.258 .0243552
1065.836 .0243481
1066.414 .0243395
1066.992 .0243295
1067.570 .0243189
1068.148 .0243079
1068.726 .0242959
1069.304 .0242840
1069.882 .0242712
1070.460 .0242584
1071.038 .0242453
1071.616 .0242307
1072.194 .0242162
1072.772 .0242017
1073.350 .0241883
1073.928 .0241755
1074.506 .0241637
1075.084 .0241554
1075.662 .0241500
1076.240 .0241478
1076.819 .0241474
1077.397 .0241490
1077.976 .0241514
1078.554 .0241543
1079.133 .0241559
1079.711 .0241568
1080.290 .0241572
1080.869 .0241574
1081.448 .0241584
1082.027 .0241616
1082.606 .0241672
1083.185 .0241756
1083.764 .0241875
1084.343 .0242016
1084.923 .0242151
1085.502 .0242275
1086.082 .0242381
1086.662 .0242482
1087.242 .0242584
1087.822 .0242697
1088.402 .0242825
1088.983 .0242996
1089.563 .0243196
1090.144 .0243404
1090.725 .0243620
1091.306 .0243827
1091.887 .0244013
1092.469 .0244174
1093.050 .0244307
1093.632 .0244430
1094.214 .0244572
1094.796 .0244760
1095.379 .0244999
1095.961 .0245290
1096.544 .0245630
1097.127 .0245995
1097.710 .0246369
1098.294 .0246750
1098.877 .0247103
1099.461 .0247445
1100.046 .0247768
1100.630 .0248082
1101.215 .0248411
1101.800 .0248746
1102.385 .0249109
1102.970 .0249498
1103.556 .0249901
1104.142 .0250303
1104.728 .0250675
1105.315 .0251025
1105.902 .0251338
1106.489 .0251612
1107.077 .0251851
1107.664 .0252078
1108.253 .0252312
1108.841 .0252590
1109.430 .0252896
1110.019 .0253249
1110.609 .0253655
1111.198 .0254083
1111.789 .0254539
1112.379 .0255014
1112.970 .0255494
1113.561 .0255993
1114.153 .0256500
1114.745 .0257053
1115.338 .0257630
1115.931 .0258269
1116.524 .0258935
1117.117 .0259620
1117.712 .0260320
1118.306 .0261012
1118.901 .0261654
1119.496 .0262275
1120.092 .0262884
1120.689 .0263483
1121.285 .0264081
1121.882 .0264704
1122.480 .0265352
1123.078 .0266044
1123.677 .0266735
1124.276 .0267419
1124.875 .0268038
1125.476 .0268638
1126.076 .0269158
1126.677 .0269633
1127.279 .0270113
1127.881 .0270625
1128.484 .0271192
1129.087 .0271836
1129.691 .0272587
1130.295 .0273387
1130.900 .0274233
1131.505 .0275126
1132.111 .0276008
1132.718 .0276923
1133.325 .0277866
1133.933 .0278846
1134.541 .0279904
1135.150 .0281112
1135.760 .0282439
1136.370 .0283888
1136.981 .0285511
1137.592 .0287197
1138.204 .0288933
1138.817 .0290717
1139.431 .0292601
1140.045 .0294570
1140.660 .0296573
1141.275 .0298839
1141.891 .0301063
1142.508 .0304204
1143.126 .0306978
1143.744 .0306607
1144.363 .0314500
1144.983 .0311117
