Measurement Sequence started on: 15-12-46-377
Integration time: 28
Scans to Average: 2 
>>>>>Begin Spectral Data<<<<<
432.689 .0000100
433.621 .0000100
434.552 .0000100
435.482 .0000100
436.410 .0000100
437.337 .0000100
438.262 .0265393
439.187 .0562452
440.110 .0932233
441.031 .1349005
441.952 .1753541
442.871 .2071208
443.789 .2244325
444.705 .2253143
445.621 .2121871
446.535 .1903581
447.447 .1656604
448.359 .1280581
449.269 .1092916
450.178 .0973684
451.086 .0889739
451.993 .0825825
452.898 .0775796
453.803 .0734988
454.706 .0701105
455.608 .0672235
456.508 .0647352
457.408 .0625549
458.306 .0606210
459.204 .0588722
460.100 .0572908
460.995 .0558705
461.888 .0545928
462.781 .0534388
463.673 .0523955
464.563 .0514380
465.452 .0505530
466.340 .0497147
467.228 .0489202
468.114 .0481617
468.999 .0474554
469.882 .0467925
470.765 .0461881
471.647 .0456375
472.528 .0451488
473.407 .0447271
474.286 .0443766
475.163 .0440815
476.040 .0438348
476.915 .0436196
477.790 .0434282
478.663 .0432525
479.535 .0431001
480.407 .0429631
481.277 .0428419
482.147 .0427433
483.015 .0426564
483.883 .0425864
484.749 .0425305
485.615 .0424832
486.479 .0424452
487.343 .0424187
488.206 .0423943
489.067 .0423712
489.928 .0423566
490.788 .0423513
491.647 .0423620
492.505 .0424002
493.362 .0424602
494.218 .0425525
495.073 .0426769
495.928 .0428349
496.781 .0430104
497.634 .0432155
498.486 .0434376
499.337 .0436734
500.187 .0439247
501.036 .0441874
501.884 .0444704
502.731 .0447851
503.578 .0451278
504.424 .0455058
505.268 .0459196
506.113 .0463709
506.956 .0468496
507.798 .0473674
508.640 .0479116
509.480 .0484950
510.320 .0491383
511.160 .0498548
511.998 .0506562
512.836 .0515536
513.672 .0525595
514.508 .0536948
515.344 .0549560
516.178 .0563535
517.012 .0579011
517.845 .0596429
518.677 .0615716
519.508 .0637352
520.339 .0661708
521.169 .0689231
521.998 .0720031
522.826 .0754473
523.654 .0792875
524.481 .0835631
525.307 .0883009
526.133 .0935078
526.958 .0991714
527.782 .1052940
528.605 .1116306
529.428 .1181297
530.250 .1242816
531.072 .1298542
531.892 .1343890
532.712 .1376720
533.532 .1394734
534.350 .1396867
535.168 .1382805
535.986 .1354611
536.802 .1314266
537.618 .1265278
538.434 .1208696
539.249 .1149433
540.063 .1088647
540.876 .1028693
541.689 .0970123
542.501 .0914919
543.313 .0863698
544.124 .0817201
544.934 .0774740
545.744 .0736476
546.553 .0702288
547.361 .0672240
548.169 .0645580
548.976 .0622039
549.783 .0601432
550.589 .0583219
551.395 .0566596
552.200 .0551559
553.004 .0537716
553.808 .0524755
554.611 .0512850
555.414 .0502026
556.216 .0492200
557.018 .0483455
557.819 .0475528
558.619 .0468289
559.419 .0461648
560.218 .0455427
561.017 .0449342
561.815 .0443269
562.613 .0437211
563.410 .0430970
564.207 .0424737
565.003 .0418664
565.799 .0412709
566.594 .0406908
567.388 .0401475
568.182 .0396242
568.976 .0391272
569.769 .0386580
570.562 .0382169
571.354 .0378001
572.145 .0374100
572.936 .0370311
573.727 .0366596
574.517 .0362971
575.307 .0359428
576.096 .0355920
576.885 .0352455
577.673 .0349066
578.461 .0345745
579.248 .0342576
580.035 .0339596
580.821 .0336750
581.607 .0334075
582.392 .0331545
583.177 .0329130
583.962 .0326847
584.746 .0324703
585.529 .0322708
586.313 .0320891
587.095 .0319248
587.878 .0317762
588.660 .0316439
589.441 .0315271
590.222 .0314242
591.003 .0313321
591.783 .0312475
592.563 .0311689
593.342 .0310965
594.121 .0310294
594.899 .0309663
595.678 .0309069
596.455 .0308514
597.233 .0307970
598.009 .0307443
598.786 .0306939
599.562 .0306460
600.338 .0306006
601.113 .0305590
601.888 .0305198
602.663 .0304828
603.437 .0304475
604.211 .0304131
604.984 .0303787
605.757 .0303451
606.530 .0303106
607.302 .0302753
608.074 .0302422
608.845 .0302121
609.616 .0301846
610.387 .0301621
611.158 .0301449
611.928 .0301307
612.697 .0301188
613.467 .0301094
614.236 .0301007
615.004 .0300934
615.773 .0300875
616.541 .0300824
617.308 .0300795
618.076 .0300795
618.843 .0300810
619.609 .0300845
620.375 .0300902
621.141 .0300958
621.907 .0301004
622.672 .0301041
623.437 .0301056
624.202 .0301042
624.966 .0301002
625.730 .0300936
626.493 .0300841
627.257 .0300722
628.020 .0300579
628.782 .0300413
629.545 .0300224
630.307 .0300003
631.068 .0299750
631.830 .0299467
632.591 .0299148
633.352 .0298799
634.112 .0298419
634.872 .0298023
635.632 .0297618
636.392 .0297205
637.151 .0296797
637.910 .0296398
638.668 .0296013
639.427 .0295632
640.185 .0295263
640.943 .0294900
641.700 .0294544
642.457 .0294203
643.214 .0293874
643.971 .0293562
644.727 .0293271
645.483 .0293003
646.239 .0292760
646.994 .0292533
647.750 .0292327
648.505 .0292131
649.259 .0291945
650.014 .0291757
650.768 .0291567
651.521 .0291369
652.275 .0291165
653.028 .0290952
653.781 .0290731
654.534 .0290505
655.286 .0290276
656.039 .0290053
656.791 .0289835
657.542 .0289623
658.294 .0289419
659.045 .0289217
659.796 .0289025
660.546 .0288833
661.297 .0288645
662.047 .0288456
662.796 .0288273
663.546 .0288096
664.295 .0287928
665.044 .0287779
665.793 .0287647
666.542 .0287528
667.290 .0287427
668.038 .0287342
668.786 .0287264
669.533 .0287193
670.281 .0287127
671.028 .0287064
671.774 .0287000
672.521 .0286937
673.267 .0286871
674.013 .0286808
674.759 .0286749
675.505 .0286689
676.250 .0286627
676.995 .0286570
677.740 .0286512
678.484 .0286455
679.229 .0286403
679.973 .0286350
680.717 .0286294
681.460 .0286237
682.204 .0286175
682.947 .0286106
683.690 .0286031
684.433 .0285950
685.175 .0285863
685.917 .0285766
686.659 .0285665
687.401 .0285554
688.142 .0285441
688.884 .0285323
689.625 .0285194
690.365 .0285049
691.106 .0284891
691.846 .0284719
692.586 .0284530
693.326 .0284328
694.066 .0284118
694.805 .0283902
695.545 .0283684
696.284 .0283464
697.022 .0283245
697.761 .0283027
698.499 .0282808
699.237 .0282583
699.975 .0282351
700.713 .0282114
701.450 .0281874
702.187 .0281629
702.924 .0281386
703.661 .0281146
704.397 .0280903
705.133 .0280661
705.869 .0280418
706.605 .0280173
707.341 .0279924
708.076 .0279675
708.811 .0279423
709.546 .0279167
710.281 .0278915
711.015 .0278661
711.749 .0278409
712.483 .0278161
713.217 .0277909
713.950 .0277653
714.684 .0277398
715.417 .0277141
716.150 .0276882
716.882 .0276627
717.615 .0276374
718.347 .0276121
719.079 .0275871
719.811 .0275623
720.542 .0275377
721.273 .0275135
722.005 .0274901
722.735 .0274672
723.466 .0274456
724.196 .0274252
724.927 .0274061
725.656 .0273883
726.386 .0273722
727.116 .0273570
727.845 .0273429
728.574 .0273295
729.303 .0273172
730.031 .0273057
730.760 .0272956
731.488 .0272864
732.216 .0272788
732.944 .0272727
733.671 .0272685
734.398 .0272655
735.125 .0272636
735.852 .0272629
736.579 .0272632
737.305 .0272636
738.031 .0272648
738.757 .0272663
739.483 .0272686
740.208 .0272714
740.933 .0272747
741.658 .0272782
742.383 .0272821
743.108 .0272858
743.832 .0272890
744.556 .0272917
745.280 .0272936
746.004 .0272943
746.727 .0272941
747.450 .0272932
748.173 .0272908
748.896 .0272878
749.618 .0272844
750.340 .0272805
751.062 .0272766
751.784 .0272721
752.506 .0272675
753.227 .0272631
753.948 .0272582
754.669 .0272533
755.389 .0272484
756.110 .0272437
756.830 .0272384
757.550 .0272329
758.269 .0272266
758.989 .0272192
759.708 .0272102
760.427 .0271997
761.146 .0271873
761.864 .0271731
762.582 .0271569
763.300 .0271391
764.018 .0271203
764.736 .0271003
765.453 .0270792
766.170 .0270573
766.887 .0270345
767.603 .0270109
768.320 .0269863
769.036 .0269606
769.751 .0269342
770.467 .0269071
771.182 .0268798
771.897 .0268520
772.612 .0268245
773.327 .0267972
774.041 .0267703
774.755 .0267440
775.469 .0267180
776.183 .0266920
776.896 .0266661
777.609 .0266401
778.322 .0266138
779.035 .0265871
779.747 .0265605
780.459 .0265338
781.171 .0265077
781.882 .0264826
782.594 .0264588
783.305 .0264363
784.016 .0264157
784.726 .0263967
785.436 .0263789
786.147 .0263617
786.856 .0263454
787.566 .0263292
788.275 .0263134
788.984 .0262975
789.693 .0262822
790.401 .0262671
791.110 .0262525
791.818 .0262380
792.525 .0262237
793.233 .0262090
793.940 .0261938
794.647 .0261770
795.353 .0261592
796.060 .0261403
796.766 .0261200
797.472 .0260987
798.177 .0260772
798.883 .0260556
799.588 .0260343
800.292 .0260134
800.997 .0259936
801.701 .0259743
802.405 .0259561
803.109 .0259386
803.812 .0259219
804.515 .0259060
805.218 .0258908
805.921 .0258763
806.623 .0258629
807.325 .0258503
808.027 .0258389
808.728 .0258289
809.429 .0258203
810.130 .0258127
810.831 .0258063
811.531 .0258009
812.231 .0257961
812.931 .0257915
813.630 .0257873
814.330 .0257831
815.029 .0257793
815.727 .0257758
816.426 .0257730
817.124 .0257712
817.821 .0257699
818.519 .0257697
819.216 .0257706
819.913 .0257726
820.609 .0257756
821.306 .0257795
822.002 .0257847
822.697 .0257908
823.393 .0257977
824.088 .0258053
824.783 .0258137
825.477 .0258223
826.171 .0258312
826.865 .0258405
827.559 .0258504
828.252 .0258604
828.945 .0258707
829.638 .0258818
830.330 .0258933
831.023 .0259052
831.714 .0259173
832.406 .0259293
833.097 .0259408
833.788 .0259513
834.479 .0259605
835.169 .0259681
835.859 .0259749
836.548 .0259807
837.238 .0259858
837.927 .0259910
838.615 .0259961
839.304 .0260011
839.992 .0260061
840.680 .0260108
841.367 .0260142
842.054 .0260166
842.741 .0260173
843.428 .0260164
844.114 .0260139
844.800 .0260101
845.485 .0260050
846.170 .0259989
846.855 .0259919
847.540 .0259832
848.224 .0259731
848.908 .0259617
849.592 .0259484
850.275 .0259333
850.958 .0259166
851.641 .0258981
852.323 .0258779
853.005 .0258567
853.687 .0258339
854.368 .0258098
855.049 .0257845
855.730 .0257579
856.410 .0257298
857.090 .0257006
857.769 .0256703
858.449 .0256395
859.128 .0256089
859.806 .0255782
860.485 .0255476
861.163 .0255179
861.840 .0254885
862.518 .0254591
863.195 .0254294
863.871 .0253994
864.548 .0253686
865.224 .0253372
865.899 .0253054
866.574 .0252730
867.249 .0252407
867.924 .0252090
868.598 .0251775
869.272 .0251468
869.946 .0251168
870.619 .0250869
871.292 .0250573
871.964 .0250278
872.636 .0249978
873.308 .0249674
873.979 .0249372
874.651 .0249071
875.321 .0248772
875.992 .0248481
876.662 .0248201
877.331 .0247931
878.001 .0247678
878.670 .0247431
879.338 .0247193
880.007 .0246966
880.675 .0246742
881.342 .0246521
882.009 .0246306
882.676 .0246096
883.343 .0245894
884.009 .0245701
884.675 .0245515
885.340 .0245335
886.005 .0245165
886.670 .0245002
887.334 .0244846
887.998 .0244700
888.662 .0244563
889.325 .0244437
889.988 .0244324
890.650 .0244226
891.312 .0244134
891.974 .0244054
892.636 .0243982
893.297 .0243916
893.957 .0243852
894.618 .0243789
895.278 .0243730
895.937 .0243679
896.596 .0243638
897.255 .0243604
897.914 .0243578
898.572 .0243562
899.230 .0243549
899.887 .0243536
900.544 .0243523
901.201 .0243511
901.857 .0243496
902.513 .0243483
903.168 .0243468
903.823 .0243454
904.478 .0243440
905.132 .0243424
905.786 .0243405
906.440 .0243381
907.093 .0243350
907.746 .0243311
908.399 .0243269
909.051 .0243224
909.703 .0243173
910.354 .0243118
911.005 .0243061
911.656 .0243002
912.306 .0242941
912.956 .0242876
913.605 .0242812
914.254 .0242753
914.903 .0242699
915.551 .0242652
916.199 .0242617
916.847 .0242591
917.494 .0242575
918.141 .0242568
918.788 .0242567
919.434 .0242576
920.079 .0242595
920.725 .0242620
921.370 .0242658
922.014 .0242706
922.658 .0242760
923.302 .0242819
923.946 .0242887
924.589 .0242953
925.231 .0243014
925.873 .0243069
926.515 .0243114
927.157 .0243153
927.798 .0243190
928.439 .0243221
929.079 .0243250
929.719 .0243280
930.359 .0243305
930.998 .0243327
931.637 .0243351
932.275 .0243371
932.913 .0243386
933.551 .0243400
934.188 .0243412
934.825 .0243420
935.462 .0243431
936.098 .0243452
936.733 .0243482
937.369 .0243521
938.004 .0243570
938.638 .0243621
939.273 .0243680
939.907 .0243738
940.540 .0243792
941.173 .0243843
941.806 .0243888
942.438 .0243931
943.070 .0243966
943.702 .0244001
944.333 .0244032
944.964 .0244056
945.594 .0244079
946.224 .0244095
946.854 .0244103
947.483 .0244110
948.112 .0244114
948.741 .0244114
949.369 .0244112
949.996 .0244104
950.624 .0244095
951.251 .0244084
951.878 .0244068
952.504 .0244048
953.130 .0244023
953.755 .0243997
954.380 .0243965
955.005 .0243926
955.629 .0243880
956.253 .0243819
956.877 .0243752
957.500 .0243673
958.123 .0243584
958.746 .0243486
959.368 .0243380
959.990 .0243272
960.611 .0243158
961.232 .0243038
961.853 .0242914
962.473 .0242785
963.093 .0242652
963.712 .0242506
964.331 .0242350
964.950 .0242184
965.569 .0242012
966.187 .0241835
966.804 .0241660
967.422 .0241489
968.039 .0241321
968.655 .0241156
969.272 .0240994
969.887 .0240831
970.503 .0240661
971.118 .0240482
971.733 .0240297
972.347 .0240101
972.961 .0239896
973.575 .0239684
974.188 .0239465
974.801 .0239245
975.414 .0239018
976.026 .0238783
976.638 .0238544
977.250 .0238303
977.861 .0238054
978.472 .0237799
979.083 .0237538
979.693 .0237262
980.303 .0236973
980.912 .0236672
981.521 .0236355
982.130 .0236027
982.738 .0235695
983.346 .0235360
983.954 .0235030
984.562 .0234709
985.169 .0234392
985.775 .0234081
986.382 .0233774
986.988 .0233463
987.594 .0233143
988.199 .0232816
988.804 .0232486
989.409 .0232147
990.013 .0231814
990.617 .0231485
991.221 .0231164
991.824 .0230862
992.427 .0230574
993.030 .0230298
993.632 .0230039
994.234 .0229792
994.836 .0229553
995.438 .0229321
996.039 .0229100
996.640 .0228884
997.240 .0228678
997.840 .0228487
998.440 .0228305
999.040 .0228130
999.639 .0227973
1000.238 .0227822
1000.836 .0227680
1001.435 .0227541
1002.033 .0227402
1002.630 .0227255
1003.228 .0227106
1003.825 .0226947
1004.422 .0226781
1005.018 .0226615
1005.614 .0226456
1006.210 .0226302
1006.806 .0226159
1007.401 .0226030
1007.996 .0225908
1008.591 .0225794
1009.186 .0225691
1009.780 .0225591
1010.374 .0225498
1010.967 .0225414
1011.561 .0225347
1012.154 .0225297
1012.746 .0225272
1013.339 .0225265
1013.931 .0225275
1014.523 .0225299
1015.115 .0225335
1015.706 .0225372
1016.298 .0225410
1016.888 .0225455
1017.479 .0225502
1018.069 .0225553
1018.660 .0225610
1019.250 .0225673
1019.839 .0225743
1020.429 .0225820
1021.018 .0225903
1021.607 .0225983
1022.195 .0226062
1022.784 .0226146
1023.372 .0226230
1023.960 .0226316
1024.547 .0226409
1025.135 .0226506
1025.722 .0226610
1026.309 .0226731
1026.896 .0226857
1027.483 .0226991
1028.069 .0227135
1028.655 .0227292
1029.241 .0227451
1029.827 .0227613
1030.412 .0227778
1030.997 .0227940
1031.582 .0228104
1032.167 .0228268
1032.752 .0228422
1033.336 .0228578
1033.921 .0228737
1034.505 .0228896
1035.089 .0229058
1035.672 .0229220
1036.256 .0229381
1036.839 .0229544
1037.422 .0229707
1038.005 .0229872
1038.588 .0230042
1039.171 .0230217
1039.753 .0230398
1040.335 .0230585
1040.918 .0230781
1041.500 .0230980
1042.081 .0231177
1042.663 .0231372
1043.244 .0231560
1043.826 .0231747
1044.407 .0231925
1044.988 .0232102
1045.569 .0232281
1046.150 .0232451
1046.730 .0232610
1047.311 .0232759
1047.891 .0232892
1048.471 .0233011
1049.052 .0233122
1049.632 .0233227
1050.211 .0233339
1050.791 .0233469
1051.371 .0233625
1051.950 .0233818
1052.530 .0234049
1053.109 .0234306
1053.688 .0234575
1054.268 .0234862
1054.847 .0235155
1055.426 .0235447
1056.005 .0235748
1056.583 .0236057
1057.162 .0236372
1057.741 .0236694
1058.319 .0237014
1058.898 .0237331
1059.476 .0237629
1060.055 .0237897
1060.633 .0238133
1061.211 .0238335
1061.790 .0238500
1062.368 .0238644
1062.946 .0238779
1063.524 .0238910
1064.102 .0239039
1064.680 .0239173
1065.258 .0239302
1065.836 .0239436
1066.414 .0239579
1066.992 .0239731
1067.570 .0239896
1068.148 .0240079
1068.726 .0240267
1069.304 .0240468
1069.882 .0240674
1070.460 .0240874
1071.038 .0241069
1071.616 .0241264
1072.194 .0241441
1072.772 .0241601
1073.350 .0241754
1073.928 .0241908
1074.506 .0242044
1075.084 .0242174
1075.662 .0242285
1076.240 .0242379
1076.819 .0242452
1077.397 .0242512
1077.976 .0242567
1078.554 .0242636
1079.133 .0242721
1079.711 .0242822
1080.290 .0242944
1080.869 .0243098
1081.448 .0243250
1082.027 .0243401
1082.606 .0243550
1083.185 .0243692
1083.764 .0243826
1084.343 .0243966
1084.923 .0244118
1085.502 .0244284
1086.082 .0244467
1086.662 .0244671
1087.242 .0244880
1087.822 .0245095
1088.402 .0245303
1088.983 .0245502
1089.563 .0245688
1090.144 .0245855
1090.725 .0245984
1091.306 .0246091
1091.887 .0246197
1092.469 .0246302
1093.050 .0246400
1093.632 .0246498
1094.214 .0246603
1094.796 .0246711
1095.379 .0246812
1095.961 .0246917
1096.544 .0247012
1097.127 .0247107
1097.710 .0247186
1098.294 .0247242
1098.877 .0247296
1099.461 .0247352
1100.046 .0247424
1100.630 .0247519
1101.215 .0247654
1101.800 .0247836
1102.385 .0248058
1102.970 .0248344
1103.556 .0248678
1104.142 .0249047
1104.728 .0249442
1105.315 .0249849
1105.902 .0250251
1106.489 .0250623
1107.077 .0250965
1107.664 .0251268
1108.253 .0251536
1108.841 .0251749
1109.430 .0251922
1110.019 .0252027
1110.609 .0252093
1111.198 .0252112
1111.789 .0252073
1112.379 .0252009
1112.970 .0251908
1113.561 .0251779
1114.153 .0251633
1114.745 .0251493
1115.338 .0251370
1115.931 .0251257
1116.524 .0251190
1117.117 .0251129
1117.712 .0251108
1118.306 .0251136
1118.901 .0251219
1119.496 .0251376
1120.092 .0251622
1120.689 .0251933
1121.285 .0252274
1121.882 .0252641
1122.480 .0252977
1123.078 .0253276
1123.677 .0253551
1124.276 .0253824
1124.875 .0254110
1125.476 .0254419
1126.076 .0254776
1126.677 .0255180
1127.279 .0255631
1127.881 .0256107
1128.484 .0256571
1129.087 .0257018
1129.691 .0257435
1130.295 .0257835
1130.900 .0258219
1131.505 .0258638
1132.111 .0259126
1132.718 .0259657
1133.325 .0260257
1133.933 .0260886
1134.541 .0261490
1135.150 .0262060
1135.760 .0262639
1136.370 .0263212
1136.981 .0263824
1137.592 .0264516
1138.204 .0265317
1138.817 .0266257
1139.431 .0267361
1140.045 .0268563
1140.660 .0269859
1141.275 .0271443
1141.891 .0273206
1142.508 .0274027
1143.126 .0275204
1143.744 .0276439
1144.363 .0284276
1144.983 .0286463
