Measurement Sequence started on: 15-12-46-377
Integration time: 28
Scans to Average: 2 
>>>>>Begin Spectral Data<<<<<
432.689 .0000100
433.621 .0000100
434.552 .0000100
435.482 .0000100
436.410 .0000100
437.337 .0000100
438.262 .0265576
439.187 .0563093
440.110 .0932665
441.031 .1349300
441.952 .1753486
442.871 .2071228
443.789 .2244920
444.705 .2254845
445.621 .2125844
446.535 .1911097
447.447 .1668491
448.359 .1297413
449.269 .1114793
450.178 .1000834
451.086 .0921364
451.993 .0861103
452.898 .0813724
453.803 .0775175
454.706 .0743475
455.608 .0716482
456.508 .0693418
457.408 .0673552
458.306 .0655947
459.204 .0639961
460.100 .0625277
460.995 .0611691
461.888 .0599163
462.781 .0587485
463.673 .0576459
464.563 .0566223
465.452 .0556814
466.340 .0548046
467.228 .0540073
468.114 .0532662
468.999 .0525924
469.882 .0519681
470.765 .0513897
471.647 .0508590
472.528 .0503722
473.407 .0499448
474.286 .0495801
475.163 .0492742
476.040 .0490284
476.915 .0488334
477.790 .0486784
478.663 .0485480
479.535 .0484345
480.407 .0483241
481.277 .0482194
482.147 .0481171
483.015 .0480292
483.883 .0479517
484.749 .0479007
485.615 .0478790
486.479 .0478790
487.343 .0479061
488.206 .0479374
489.067 .0479665
489.928 .0479855
490.788 .0479942
491.647 .0479927
492.505 .0479894
493.362 .0479949
494.218 .0480182
495.073 .0480717
495.928 .0481591
496.781 .0482752
497.634 .0484306
498.486 .0486201
499.337 .0488369
500.187 .0490704
501.036 .0493329
501.884 .0496262
502.731 .0499628
503.578 .0503381
504.424 .0507689
505.268 .0512412
506.113 .0517676
506.956 .0523350
507.798 .0529524
508.640 .0536135
509.480 .0543205
510.320 .0550768
511.160 .0558991
511.998 .0567923
512.836 .0577712
513.672 .0588355
514.508 .0600158
515.344 .0612986
516.178 .0627247
517.012 .0643170
517.845 .0661300
518.677 .0681746
519.508 .0705206
520.339 .0731838
521.169 .0762439
521.998 .0797265
522.826 .0836771
523.654 .0881634
524.481 .0932267
525.307 .0988835
526.133 .1051074
526.958 .1118455
527.782 .1190368
528.605 .1265099
529.428 .1341558
530.250 .1414088
531.072 .1480164
531.892 .1535843
532.712 .1578404
533.532 .1605445
534.350 .1615468
535.168 .1607619
535.986 .1583030
536.802 .1543155
537.618 .1490504
538.434 .1427146
539.249 .1358361
540.063 .1285539
540.876 .1211924
541.689 .1139601
542.501 .1070956
543.313 .1007563
544.124 .0950367
544.934 .0898867
545.744 .0852616
546.553 .0810989
547.361 .0773851
548.169 .0740496
548.976 .0710518
549.783 .0683320
550.589 .0658600
551.395 .0635998
552.200 .0615065
553.004 .0595784
553.808 .0577841
554.611 .0561428
555.414 .0546534
556.216 .0533195
557.018 .0521403
557.819 .0511087
558.619 .0501931
559.419 .0493764
560.218 .0486562
561.017 .0480047
561.815 .0473845
562.613 .0467956
563.410 .0462204
564.207 .0456592
565.003 .0451063
565.799 .0445666
566.594 .0440398
567.388 .0435399
568.182 .0430556
568.976 .0425729
569.769 .0420988
570.562 .0416266
571.354 .0411448
572.145 .0406646
572.936 .0401872
573.727 .0397122
574.517 .0392489
575.307 .0388150
576.096 .0384088
576.885 .0380320
577.673 .0376851
578.461 .0373580
579.248 .0370477
580.035 .0367494
580.821 .0364595
581.607 .0361755
582.392 .0359068
583.177 .0356494
583.962 .0354065
584.746 .0351843
585.529 .0349829
586.313 .0347997
587.095 .0346361
587.878 .0344874
588.660 .0343521
589.441 .0342277
590.222 .0341150
591.003 .0340137
591.783 .0339252
592.563 .0338482
593.342 .0337807
594.121 .0337206
594.899 .0336678
595.678 .0336164
596.455 .0335662
597.233 .0335170
598.009 .0334667
598.786 .0334153
599.562 .0333637
600.338 .0333118
601.113 .0332594
601.888 .0332070
602.663 .0331548
603.437 .0331021
604.211 .0330488
604.984 .0329951
605.757 .0329404
606.530 .0328871
607.302 .0328344
608.074 .0327833
608.845 .0327352
609.616 .0326895
610.387 .0326462
611.158 .0326052
611.928 .0325657
612.697 .0325279
613.467 .0324918
614.236 .0324578
615.004 .0324246
615.773 .0323939
616.541 .0323652
617.308 .0323390
618.076 .0323153
618.843 .0322941
619.609 .0322753
620.375 .0322590
621.141 .0322437
621.907 .0322293
622.672 .0322161
623.437 .0322029
624.202 .0321891
624.966 .0321743
625.730 .0321591
626.493 .0321425
627.257 .0321243
628.020 .0321048
628.782 .0320831
629.545 .0320596
630.307 .0320330
631.068 .0320035
631.830 .0319726
632.591 .0319390
633.352 .0319038
634.112 .0318680
634.872 .0318326
635.632 .0317977
636.392 .0317640
637.151 .0317319
637.910 .0317010
638.668 .0316712
639.427 .0316416
640.185 .0316126
640.943 .0315849
641.700 .0315588
642.457 .0315337
643.214 .0315108
643.971 .0314900
644.727 .0314700
645.483 .0314515
646.239 .0314338
646.994 .0314158
647.750 .0313971
648.505 .0313776
649.259 .0313580
650.014 .0313380
650.768 .0313190
651.521 .0313004
652.275 .0312830
653.028 .0312659
653.781 .0312484
654.534 .0312304
655.286 .0312124
656.039 .0311941
656.791 .0311750
657.542 .0311547
658.294 .0311334
659.045 .0311106
659.796 .0310872
660.546 .0310626
661.297 .0310372
662.047 .0310105
662.796 .0309831
663.546 .0309550
664.295 .0309265
665.044 .0308977
665.793 .0308691
666.542 .0308403
667.290 .0308114
668.038 .0307816
668.786 .0307513
669.533 .0307212
670.281 .0306915
671.028 .0306623
671.774 .0306338
672.521 .0306064
673.267 .0305800
674.013 .0305549
674.759 .0305309
675.505 .0305070
676.250 .0304829
676.995 .0304583
677.740 .0304325
678.484 .0304057
679.229 .0303782
679.973 .0303503
680.717 .0303223
681.460 .0302947
682.204 .0302670
682.947 .0302401
683.690 .0302141
684.433 .0301885
685.175 .0301631
685.917 .0301382
686.659 .0301131
687.401 .0300883
688.142 .0300644
688.884 .0300417
689.625 .0300202
690.365 .0300002
691.106 .0299807
691.846 .0299623
692.586 .0299443
693.326 .0299265
694.066 .0299086
694.805 .0298905
695.545 .0298717
696.284 .0298520
697.022 .0298319
697.761 .0298115
698.499 .0297909
699.237 .0297706
699.975 .0297499
700.713 .0297296
701.450 .0297094
702.187 .0296899
702.924 .0296714
703.661 .0296545
704.397 .0296389
705.133 .0296243
705.869 .0296110
706.605 .0295992
707.341 .0295887
708.076 .0295794
708.811 .0295708
709.546 .0295623
710.281 .0295536
711.015 .0295446
711.749 .0295343
712.483 .0295235
713.217 .0295116
713.950 .0294986
714.684 .0294844
715.417 .0294694
716.150 .0294544
716.882 .0294392
717.615 .0294247
718.347 .0294102
719.079 .0293955
719.811 .0293812
720.542 .0293668
721.273 .0293526
722.005 .0293390
722.735 .0293258
723.466 .0293131
724.196 .0293009
724.927 .0292893
725.656 .0292780
726.386 .0292673
727.116 .0292566
727.845 .0292459
728.574 .0292346
729.303 .0292228
730.031 .0292107
730.760 .0291984
731.488 .0291862
732.216 .0291739
732.944 .0291619
733.671 .0291500
734.398 .0291383
735.125 .0291271
735.852 .0291160
736.579 .0291052
737.305 .0290942
738.031 .0290829
738.757 .0290711
739.483 .0290588
740.208 .0290464
740.933 .0290341
741.658 .0290220
742.383 .0290097
743.108 .0289973
743.832 .0289847
744.556 .0289721
745.280 .0289591
746.004 .0289458
746.727 .0289319
747.450 .0289180
748.173 .0289038
748.896 .0288897
749.618 .0288762
750.340 .0288634
751.062 .0288508
751.784 .0288387
752.506 .0288261
753.227 .0288131
753.948 .0287988
754.669 .0287832
755.389 .0287664
756.110 .0287484
756.830 .0287290
757.550 .0287086
758.269 .0286874
758.989 .0286660
759.708 .0286432
760.427 .0286199
761.146 .0285956
761.864 .0285705
762.582 .0285441
763.300 .0285168
764.018 .0284891
764.736 .0284614
765.453 .0284340
766.170 .0284075
766.887 .0283821
767.603 .0283579
768.320 .0283347
769.036 .0283131
769.751 .0282923
770.467 .0282722
771.182 .0282522
771.897 .0282326
772.612 .0282133
773.327 .0281941
774.041 .0281754
774.755 .0281573
775.469 .0281407
776.183 .0281251
776.896 .0281105
777.609 .0280969
778.322 .0280843
779.035 .0280718
779.747 .0280597
780.459 .0280474
781.171 .0280343
781.882 .0280208
782.594 .0280069
783.305 .0279933
784.016 .0279803
784.726 .0279683
785.436 .0279574
786.147 .0279472
786.856 .0279382
787.566 .0279290
788.275 .0279201
788.984 .0279110
789.693 .0279009
790.401 .0278898
791.110 .0278779
791.818 .0278657
792.525 .0278532
793.233 .0278413
793.940 .0278301
794.647 .0278198
795.353 .0278106
796.060 .0278023
796.766 .0277951
797.472 .0277887
798.177 .0277828
798.883 .0277768
799.588 .0277706
800.292 .0277637
800.997 .0277562
801.701 .0277484
802.405 .0277403
803.109 .0277326
803.812 .0277253
804.515 .0277187
805.218 .0277122
805.921 .0277060
806.623 .0276997
807.325 .0276924
808.027 .0276839
808.728 .0276737
809.429 .0276617
810.130 .0276480
810.831 .0276337
811.531 .0276190
812.231 .0276046
812.931 .0275908
813.630 .0275778
814.330 .0275660
815.029 .0275549
815.727 .0275444
816.426 .0275342
817.124 .0275243
817.821 .0275145
818.519 .0275044
819.216 .0274953
819.913 .0274872
820.609 .0274803
821.306 .0274749
822.002 .0274716
822.697 .0274703
823.393 .0274710
824.088 .0274732
824.783 .0274768
825.477 .0274810
826.171 .0274857
826.865 .0274907
827.559 .0274964
828.252 .0275030
828.945 .0275104
829.638 .0275187
830.330 .0275283
831.023 .0275379
831.714 .0275478
832.406 .0275576
833.097 .0275668
833.788 .0275741
834.479 .0275797
835.169 .0275840
835.859 .0275871
836.548 .0275892
837.238 .0275904
837.927 .0275905
838.615 .0275900
839.304 .0275881
839.992 .0275848
840.680 .0275807
841.367 .0275762
842.054 .0275708
842.741 .0275651
843.428 .0275598
844.114 .0275551
844.800 .0275510
845.485 .0275477
846.170 .0275445
846.855 .0275409
847.540 .0275364
848.224 .0275311
848.908 .0275253
849.592 .0275189
850.275 .0275119
850.958 .0275043
851.641 .0274960
852.323 .0274867
853.005 .0274760
853.687 .0274638
854.368 .0274497
855.049 .0274338
855.730 .0274156
856.410 .0273957
857.090 .0273750
857.769 .0273535
858.449 .0273316
859.128 .0273099
859.806 .0272879
860.485 .0272660
861.163 .0272443
861.840 .0272229
862.518 .0272016
863.195 .0271804
863.871 .0271589
864.548 .0271368
865.224 .0271148
865.899 .0270927
866.574 .0270704
867.249 .0270485
867.924 .0270265
868.598 .0270044
869.272 .0269825
869.946 .0269610
870.619 .0269394
871.292 .0269180
871.964 .0268965
872.636 .0268747
873.308 .0268526
873.979 .0268303
874.651 .0268077
875.321 .0267857
875.992 .0267638
876.662 .0267424
877.331 .0267219
878.001 .0267025
878.670 .0266840
879.338 .0266662
880.007 .0266492
880.675 .0266324
881.342 .0266155
882.009 .0265986
882.676 .0265814
883.343 .0265645
884.009 .0265480
884.675 .0265317
885.340 .0265161
886.005 .0265013
886.670 .0264871
887.334 .0264735
887.998 .0264599
888.662 .0264462
889.325 .0264319
889.988 .0264170
890.650 .0264020
891.312 .0263871
891.974 .0263726
892.636 .0263586
893.297 .0263453
893.957 .0263326
894.618 .0263198
895.278 .0263071
895.937 .0262942
896.596 .0262810
897.255 .0262673
897.914 .0262531
898.572 .0262392
899.230 .0262260
899.887 .0262132
900.544 .0262010
901.201 .0261893
901.857 .0261775
902.513 .0261651
903.168 .0261518
903.823 .0261375
904.478 .0261220
905.132 .0261055
905.786 .0260880
906.440 .0260693
907.093 .0260497
907.746 .0260290
908.399 .0260075
909.051 .0259852
909.703 .0259614
910.354 .0259366
911.005 .0259114
911.656 .0258859
912.306 .0258603
912.956 .0258352
913.605 .0258107
914.254 .0257867
914.903 .0257633
915.551 .0257406
916.199 .0257194
916.847 .0256998
917.494 .0256820
918.141 .0256665
918.788 .0256528
919.434 .0256409
920.079 .0256300
920.725 .0256202
921.370 .0256107
922.014 .0256014
922.658 .0255920
923.302 .0255826
923.946 .0255731
924.589 .0255632
925.231 .0255530
925.873 .0255430
926.515 .0255325
927.157 .0255209
927.798 .0255083
928.439 .0254950
929.079 .0254810
929.719 .0254664
930.359 .0254516
930.998 .0254369
931.637 .0254225
932.275 .0254085
932.913 .0253946
933.551 .0253812
934.188 .0253689
934.825 .0253575
935.462 .0253474
936.098 .0253390
936.733 .0253329
937.369 .0253287
938.004 .0253267
938.638 .0253259
939.273 .0253263
939.907 .0253272
940.540 .0253287
941.173 .0253307
941.806 .0253339
942.438 .0253388
943.070 .0253457
943.702 .0253542
944.333 .0253641
944.964 .0253743
945.594 .0253844
946.224 .0253940
946.854 .0254027
947.483 .0254102
948.112 .0254172
948.741 .0254241
949.369 .0254313
949.996 .0254391
950.624 .0254474
951.251 .0254560
951.878 .0254642
952.504 .0254716
953.130 .0254772
953.755 .0254814
954.380 .0254845
955.005 .0254862
955.629 .0254873
956.253 .0254881
956.877 .0254893
957.500 .0254907
958.123 .0254926
958.746 .0254949
959.368 .0254973
959.990 .0254999
960.611 .0255022
961.232 .0255046
961.853 .0255071
962.473 .0255099
963.093 .0255131
963.712 .0255169
964.331 .0255208
964.950 .0255248
965.569 .0255294
966.187 .0255343
966.804 .0255398
967.422 .0255458
968.039 .0255524
968.655 .0255593
969.272 .0255662
969.887 .0255727
970.503 .0255782
971.118 .0255828
971.733 .0255864
972.347 .0255889
972.961 .0255912
973.575 .0255934
974.188 .0255956
974.801 .0255981
975.414 .0256008
976.026 .0256025
976.638 .0256029
977.250 .0256018
977.861 .0255992
978.472 .0255951
979.083 .0255896
979.693 .0255833
980.303 .0255762
980.912 .0255691
981.521 .0255616
982.130 .0255539
982.738 .0255464
983.346 .0255391
983.954 .0255314
984.562 .0255236
985.169 .0255156
985.775 .0255070
986.382 .0254984
986.988 .0254901
987.594 .0254811
988.199 .0254719
988.804 .0254632
989.409 .0254548
990.013 .0254465
990.617 .0254390
991.221 .0254317
991.824 .0254254
992.427 .0254198
993.030 .0254142
993.632 .0254088
994.234 .0254040
994.836 .0253992
995.438 .0253943
996.039 .0253896
996.640 .0253847
997.240 .0253800
997.840 .0253767
998.440 .0253744
999.040 .0253728
999.639 .0253719
1000.238 .0253717
1000.836 .0253715
1001.435 .0253713
1002.033 .0253700
1002.630 .0253678
1003.228 .0253652
1003.825 .0253614
1004.422 .0253561
1005.018 .0253506
1005.614 .0253449
1006.210 .0253389
1006.806 .0253327
1007.401 .0253267
1007.996 .0253202
1008.591 .0253133
1009.186 .0253063
1009.780 .0252983
1010.374 .0252900
1010.967 .0252812
1011.561 .0252716
1012.154 .0252622
1012.746 .0252530
1013.339 .0252439
1013.931 .0252351
1014.523 .0252270
1015.115 .0252192
1015.706 .0252116
1016.298 .0252048
1016.888 .0251986
1017.479 .0251926
1018.069 .0251862
1018.660 .0251796
1019.250 .0251724
1019.839 .0251645
1020.429 .0251558
1021.018 .0251469
1021.607 .0251378
1022.195 .0251283
1022.784 .0251188
1023.372 .0251097
1023.960 .0251013
1024.547 .0250941
1025.135 .0250874
1025.722 .0250818
1026.309 .0250771
1026.896 .0250738
1027.483 .0250721
1028.069 .0250717
1028.655 .0250729
1029.241 .0250745
1029.827 .0250767
1030.412 .0250793
1030.997 .0250813
1031.582 .0250826
1032.167 .0250837
1032.752 .0250840
1033.336 .0250838
1033.921 .0250827
1034.505 .0250813
1035.089 .0250785
1035.672 .0250745
1036.256 .0250687
1036.839 .0250602
1037.422 .0250492
1038.005 .0250366
1038.588 .0250218
1039.171 .0250070
1039.753 .0249927
1040.335 .0249793
1040.918 .0249669
1041.500 .0249561
1042.081 .0249461
1042.663 .0249363
1043.244 .0249266
1043.826 .0249164
1044.407 .0249055
1044.988 .0248951
1045.569 .0248842
1046.150 .0248732
1046.730 .0248633
1047.311 .0248537
1047.891 .0248435
1048.471 .0248331
1049.052 .0248218
1049.632 .0248090
1050.211 .0247955
1050.791 .0247818
1051.371 .0247670
1051.950 .0247532
1052.530 .0247396
1053.109 .0247267
1053.688 .0247144
1054.268 .0247014
1054.847 .0246872
1055.426 .0246727
1056.005 .0246576
1056.583 .0246419
1057.162 .0246254
1057.741 .0246107
1058.319 .0245966
1058.898 .0245842
1059.476 .0245726
1060.055 .0245619
1060.633 .0245525
1061.211 .0245435
1061.790 .0245338
1062.368 .0245250
1062.946 .0245158
1063.524 .0245080
1064.102 .0245003
1064.680 .0244924
1065.258 .0244841
1065.836 .0244755
1066.414 .0244654
1066.992 .0244540
1067.570 .0244410
1068.148 .0244267
1068.726 .0244121
1069.304 .0243989
1069.882 .0243870
1070.460 .0243761
1071.038 .0243676
1071.616 .0243609
1072.194 .0243547
1072.772 .0243493
1073.350 .0243435
1073.928 .0243383
1074.506 .0243348
1075.084 .0243310
1075.662 .0243278
1076.240 .0243265
1076.819 .0243278
1077.397 .0243306
1077.976 .0243351
1078.554 .0243397
1079.133 .0243451
1079.711 .0243497
1080.290 .0243532
1080.869 .0243548
1081.448 .0243540
1082.027 .0243518
1082.606 .0243469
1083.185 .0243423
1083.764 .0243388
1084.343 .0243369
1084.923 .0243403
1085.502 .0243469
1086.082 .0243562
1086.662 .0243680
1087.242 .0243810
1087.822 .0243956
1088.402 .0244094
1088.983 .0244222
1089.563 .0244328
1090.144 .0244419
1090.725 .0244502
1091.306 .0244576
1091.887 .0244656
1092.469 .0244777
1093.050 .0244906
1093.632 .0245059
1094.214 .0245232
1094.796 .0245411
1095.379 .0245602
1095.961 .0245797
1096.544 .0245983
1097.127 .0246165
1097.710 .0246336
1098.294 .0246525
1098.877 .0246717
1099.461 .0246948
1100.046 .0247203
1100.630 .0247490
1101.215 .0247814
1101.800 .0248153
1102.385 .0248484
1102.970 .0248819
1103.556 .0249139
1104.142 .0249442
1104.728 .0249716
1105.315 .0249944
1105.902 .0250154
1106.489 .0250348
1107.077 .0250530
1107.664 .0250699
1108.253 .0250875
1108.841 .0251069
1109.430 .0251267
1110.019 .0251480
1110.609 .0251700
1111.198 .0251922
1111.789 .0252158
1112.379 .0252394
1112.970 .0252637
1113.561 .0252894
1114.153 .0253191
1114.745 .0253539
1115.338 .0253989
1115.931 .0254513
1116.524 .0255105
1117.117 .0255747
1117.712 .0256451
1118.306 .0257148
1118.901 .0257829
1119.496 .0258478
1120.092 .0259127
1120.689 .0259786
1121.285 .0260445
1121.882 .0261122
1122.480 .0261826
1123.078 .0262567
1123.677 .0263313
1124.276 .0264004
1124.875 .0264655
1125.476 .0265232
1126.076 .0265774
1126.677 .0266328
1127.279 .0266935
1127.881 .0267636
1128.484 .0268452
1129.087 .0269379
1129.691 .0270401
1130.295 .0271443
1130.900 .0272465
1131.505 .0273483
1132.111 .0274454
1132.718 .0275394
1133.325 .0276274
1133.933 .0277181
1134.541 .0278162
1135.150 .0279248
1135.760 .0280462
1136.370 .0281763
1136.981 .0283159
1137.592 .0284601
1138.204 .0286044
1138.817 .0287516
1139.431 .0289094
1140.045 .0290767
1140.660 .0292667
1141.275 .0294924
1141.891 .0297361
1142.508 .0299847
1143.126 .0301669
1143.744 .0307076
1144.363 .0313072
1144.983 .0311373
