Measurement Sequence started on: 15-12-46-377
Integration time: 28
Scans to Average: 2 
>>>>>Begin Spectral Data<<<<<
432.689 .0000100
433.621 .0000100
434.552 .0000100
435.482 .0000100
436.410 .0000100
437.337 .0000100
438.262 .0243145
439.187 .0513913
440.110 .0850861
441.031 .1231007
441.952 .1600307
442.871 .1891253
443.789 .2051429
444.705 .2062855
445.621 .1947789
446.535 .1754656
447.447 .1535781
448.359 .1198760
449.269 .1034451
450.178 .0931309
451.086 .0859046
451.993 .0804411
452.898 .0761821
453.803 .0727395
454.706 .0699306
455.608 .0675574
456.508 .0655053
457.408 .0637281
458.306 .0621312
459.204 .0606697
460.100 .0593204
460.995 .0580833
461.888 .0569226
462.781 .0558436
463.673 .0548361
464.563 .0538938
465.452 .0530121
466.340 .0521813
467.228 .0513954
468.114 .0506495
468.999 .0499446
469.882 .0492767
470.765 .0486439
471.647 .0480586
472.528 .0475199
473.407 .0470360
474.286 .0466055
475.163 .0462295
476.040 .0459020
476.915 .0456162
477.790 .0453581
478.663 .0451331
479.535 .0449278
480.407 .0447474
481.277 .0445951
482.147 .0444737
483.015 .0443904
483.883 .0443466
484.749 .0443362
485.615 .0443556
486.479 .0444029
487.343 .0444657
488.206 .0445320
489.067 .0446019
489.928 .0446687
490.788 .0447364
491.647 .0448139
492.505 .0449102
493.362 .0450210
494.218 .0451558
495.073 .0453131
495.928 .0454903
496.781 .0456836
497.634 .0458868
498.486 .0461022
499.337 .0463329
500.187 .0465777
501.036 .0468351
501.884 .0471191
502.731 .0474475
503.578 .0478188
504.424 .0482472
505.268 .0487220
506.113 .0492496
506.956 .0498268
507.798 .0504562
508.640 .0511401
509.480 .0518846
510.320 .0527050
511.160 .0536075
511.998 .0545921
512.836 .0556633
513.672 .0568194
514.508 .0580850
515.344 .0594492
516.178 .0609451
517.012 .0626039
517.845 .0644537
518.677 .0665118
519.508 .0688198
520.339 .0714176
521.169 .0743636
521.998 .0777001
522.826 .0814664
523.654 .0856983
524.481 .0904077
525.307 .0955982
526.133 .1012966
526.958 .1075254
527.782 .1142389
528.605 .1212100
529.428 .1284274
530.250 .1352978
531.072 .1415131
531.892 .1467649
532.712 .1507204
533.532 .1531495
534.350 .1538594
535.168 .1527893
535.986 .1500384
536.802 .1458155
537.618 .1404026
538.434 .1339364
539.249 .1269877
540.063 .1197213
540.876 .1123692
541.689 .1052333
542.501 .0985824
543.313 .0925216
544.124 .0871305
544.934 .0823407
545.744 .0780736
546.553 .0742810
547.361 .0709033
548.169 .0679058
548.976 .0652210
549.783 .0628302
550.589 .0606854
551.395 .0587266
552.200 .0569782
553.004 .0553826
553.808 .0539514
554.611 .0526804
555.414 .0515467
556.216 .0505282
557.018 .0496149
557.819 .0487922
558.619 .0480247
559.419 .0473006
560.218 .0466074
561.017 .0459404
561.815 .0452913
562.613 .0446718
563.410 .0440695
564.207 .0435004
565.003 .0429622
565.799 .0424519
566.594 .0419619
567.388 .0414908
568.182 .0410382
568.976 .0405978
569.769 .0401632
570.562 .0397357
571.354 .0393110
572.145 .0389062
572.936 .0385068
573.727 .0381164
574.517 .0377389
575.307 .0373780
576.096 .0370259
576.885 .0366858
577.673 .0363544
578.461 .0360380
579.248 .0357300
580.035 .0354325
580.821 .0351447
581.607 .0348661
582.392 .0346017
583.177 .0343529
583.962 .0341241
584.746 .0339156
585.529 .0337237
586.313 .0335546
587.095 .0334048
587.878 .0332719
588.660 .0331541
589.441 .0330481
590.222 .0329525
591.003 .0328650
591.783 .0327831
592.563 .0327072
593.342 .0326374
594.121 .0325714
594.899 .0325101
595.678 .0324515
596.455 .0323949
597.233 .0323391
598.009 .0322834
598.786 .0322290
599.562 .0321733
600.338 .0321176
601.113 .0320619
601.888 .0320065
602.663 .0319516
603.437 .0318963
604.211 .0318410
604.984 .0317863
605.757 .0317325
606.530 .0316794
607.302 .0316280
608.074 .0315785
608.845 .0315313
609.616 .0314870
610.387 .0314450
611.158 .0314061
611.928 .0313690
612.697 .0313337
613.467 .0312993
614.236 .0312654
615.004 .0312325
615.773 .0312005
616.541 .0311702
617.308 .0311422
618.076 .0311164
618.843 .0310929
619.609 .0310713
620.375 .0310517
621.141 .0310337
621.907 .0310163
622.672 .0309984
623.437 .0309800
624.202 .0309608
624.966 .0309408
625.730 .0309206
626.493 .0309004
627.257 .0308805
628.020 .0308607
628.782 .0308412
629.545 .0308214
630.307 .0308008
631.068 .0307802
631.830 .0307585
632.591 .0307367
633.352 .0307146
634.112 .0306923
634.872 .0306709
635.632 .0306507
636.392 .0306308
637.151 .0306110
637.910 .0305913
638.668 .0305716
639.427 .0305514
640.185 .0305319
640.943 .0305124
641.700 .0304939
642.457 .0304768
643.214 .0304611
643.971 .0304459
644.727 .0304320
645.483 .0304182
646.239 .0304039
646.994 .0303896
647.750 .0303755
648.505 .0303617
649.259 .0303499
650.014 .0303398
650.768 .0303307
651.521 .0303230
652.275 .0303164
653.028 .0303097
653.781 .0303026
654.534 .0302947
655.286 .0302846
656.039 .0302727
656.791 .0302590
657.542 .0302422
658.294 .0302227
659.045 .0302013
659.796 .0301763
660.546 .0301483
661.297 .0301177
662.047 .0300845
662.796 .0300489
663.546 .0300126
664.295 .0299748
665.044 .0299367
665.793 .0298990
666.542 .0298617
667.290 .0298244
668.038 .0297883
668.786 .0297526
669.533 .0297176
670.281 .0296839
671.028 .0296518
671.774 .0296211
672.521 .0295931
673.267 .0295672
674.013 .0295438
674.759 .0295222
675.505 .0295028
676.250 .0294838
676.995 .0294653
677.740 .0294462
678.484 .0294263
679.229 .0294053
679.973 .0293836
680.717 .0293618
681.460 .0293409
682.204 .0293206
682.947 .0293016
683.690 .0292840
684.433 .0292678
685.175 .0292524
685.917 .0292367
686.659 .0292212
687.401 .0292058
688.142 .0291899
688.884 .0291739
689.625 .0291584
690.365 .0291431
691.106 .0291277
691.846 .0291126
692.586 .0290974
693.326 .0290817
694.066 .0290661
694.805 .0290504
695.545 .0290345
696.284 .0290186
697.022 .0290026
697.761 .0289862
698.499 .0289702
699.237 .0289539
699.975 .0289374
700.713 .0289219
701.450 .0289077
702.187 .0288952
702.924 .0288850
703.661 .0288774
704.397 .0288721
705.133 .0288688
705.869 .0288669
706.605 .0288655
707.341 .0288638
708.076 .0288619
708.811 .0288592
709.546 .0288560
710.281 .0288526
711.015 .0288491
711.749 .0288455
712.483 .0288418
713.217 .0288376
713.950 .0288325
714.684 .0288262
715.417 .0288185
716.150 .0288092
716.882 .0287991
717.615 .0287879
718.347 .0287757
719.079 .0287629
719.811 .0287499
720.542 .0287369
721.273 .0287234
722.005 .0287098
722.735 .0286962
723.466 .0286823
724.196 .0286679
724.927 .0286525
725.656 .0286358
726.386 .0286180
727.116 .0285986
727.845 .0285781
728.574 .0285568
729.303 .0285350
730.031 .0285135
730.760 .0284928
731.488 .0284729
732.216 .0284544
732.944 .0284370
733.671 .0284211
734.398 .0284064
735.125 .0283928
735.852 .0283800
736.579 .0283683
737.305 .0283583
738.031 .0283490
738.757 .0283407
739.483 .0283335
740.208 .0283266
740.933 .0283202
741.658 .0283139
742.383 .0283069
743.108 .0282995
743.832 .0282907
744.556 .0282802
745.280 .0282675
746.004 .0282526
746.727 .0282353
747.450 .0282153
748.173 .0281935
748.896 .0281696
749.618 .0281443
750.340 .0281186
751.062 .0280923
751.784 .0280663
752.506 .0280402
753.227 .0280141
753.948 .0279877
754.669 .0279610
755.389 .0279335
756.110 .0279055
756.830 .0278774
757.550 .0278493
758.269 .0278215
758.989 .0277950
759.708 .0277698
760.427 .0277460
761.146 .0277241
761.864 .0277035
762.582 .0276836
763.300 .0276649
764.018 .0276461
764.736 .0276275
765.453 .0276086
766.170 .0275897
766.887 .0275708
767.603 .0275525
768.320 .0275349
769.036 .0275180
769.751 .0275023
770.467 .0274872
771.182 .0274721
771.897 .0274570
772.612 .0274413
773.327 .0274252
774.041 .0274083
774.755 .0273913
775.469 .0273747
776.183 .0273593
776.896 .0273453
777.609 .0273335
778.322 .0273239
779.035 .0273163
779.747 .0273108
780.459 .0273070
781.171 .0273049
781.882 .0273043
782.594 .0273053
783.305 .0273076
784.016 .0273115
784.726 .0273169
785.436 .0273232
786.147 .0273302
786.856 .0273373
787.566 .0273438
788.275 .0273494
788.984 .0273541
789.693 .0273581
790.401 .0273609
791.110 .0273634
791.818 .0273654
792.525 .0273671
793.233 .0273686
793.940 .0273699
794.647 .0273710
795.353 .0273719
796.060 .0273725
796.766 .0273725
797.472 .0273722
798.177 .0273717
798.883 .0273709
799.588 .0273702
800.292 .0273698
800.997 .0273696
801.701 .0273690
802.405 .0273686
803.109 .0273683
803.812 .0273679
804.515 .0273668
805.218 .0273648
805.921 .0273617
806.623 .0273578
807.325 .0273530
808.027 .0273476
808.728 .0273419
809.429 .0273361
810.130 .0273301
810.831 .0273239
811.531 .0273178
812.231 .0273113
812.931 .0273044
813.630 .0272971
814.330 .0272890
815.029 .0272801
815.727 .0272709
816.426 .0272615
817.124 .0272520
817.821 .0272424
818.519 .0272321
819.216 .0272213
819.913 .0272103
820.609 .0271987
821.306 .0271866
822.002 .0271750
822.697 .0271639
823.393 .0271539
824.088 .0271451
824.783 .0271375
825.477 .0271307
826.171 .0271247
826.865 .0271191
827.559 .0271134
828.252 .0271081
828.945 .0271031
829.638 .0270983
830.330 .0270941
831.023 .0270901
831.714 .0270861
832.406 .0270820
833.097 .0270776
833.788 .0270724
834.479 .0270660
835.169 .0270584
835.859 .0270497
836.548 .0270402
837.238 .0270298
837.927 .0270186
838.615 .0270067
839.304 .0269942
839.992 .0269811
840.680 .0269679
841.367 .0269541
842.054 .0269401
842.741 .0269257
843.428 .0269105
844.114 .0268945
844.800 .0268780
845.485 .0268604
846.170 .0268419
846.855 .0268225
847.540 .0268022
848.224 .0267810
848.908 .0267598
849.592 .0267380
850.275 .0267157
850.958 .0266927
851.641 .0266683
852.323 .0266425
853.005 .0266155
853.687 .0265875
854.368 .0265588
855.049 .0265301
855.730 .0265018
856.410 .0264737
857.090 .0264465
857.769 .0264197
858.449 .0263930
859.128 .0263665
859.806 .0263396
860.485 .0263125
861.163 .0262855
861.840 .0262591
862.518 .0262331
863.195 .0262082
863.871 .0261839
864.548 .0261601
865.224 .0261364
865.899 .0261131
866.574 .0260896
867.249 .0260664
867.924 .0260437
868.598 .0260216
869.272 .0260006
869.946 .0259812
870.619 .0259631
871.292 .0259465
871.964 .0259305
872.636 .0259154
873.308 .0259005
873.979 .0258859
874.651 .0258714
875.321 .0258575
875.992 .0258444
876.662 .0258328
877.331 .0258224
878.001 .0258140
878.670 .0258070
879.338 .0258017
880.007 .0257971
880.675 .0257931
881.342 .0257892
882.009 .0257850
882.676 .0257802
883.343 .0257749
884.009 .0257696
884.675 .0257644
885.340 .0257598
886.005 .0257564
886.670 .0257543
887.334 .0257538
887.998 .0257546
888.662 .0257569
889.325 .0257602
889.988 .0257645
890.650 .0257695
891.312 .0257747
891.974 .0257809
892.636 .0257879
893.297 .0257957
893.957 .0258050
894.618 .0258158
895.278 .0258277
895.937 .0258404
896.596 .0258539
897.255 .0258676
897.914 .0258810
898.572 .0258936
899.230 .0259050
899.887 .0259152
900.544 .0259239
901.201 .0259309
901.857 .0259364
902.513 .0259407
903.168 .0259434
903.823 .0259443
904.478 .0259441
905.132 .0259425
905.786 .0259399
906.440 .0259364
907.093 .0259325
907.746 .0259282
908.399 .0259236
909.051 .0259186
909.703 .0259132
910.354 .0259076
911.005 .0259015
911.656 .0258949
912.306 .0258880
912.956 .0258813
913.605 .0258750
914.254 .0258695
914.903 .0258650
915.551 .0258619
916.199 .0258596
916.847 .0258577
917.494 .0258555
918.141 .0258531
918.788 .0258497
919.434 .0258457
920.079 .0258408
920.725 .0258358
921.370 .0258306
922.014 .0258256
922.658 .0258206
923.302 .0258156
923.946 .0258102
924.589 .0258037
925.231 .0257957
925.873 .0257867
926.515 .0257760
927.157 .0257639
927.798 .0257506
928.439 .0257363
929.079 .0257213
929.719 .0257056
930.359 .0256895
930.998 .0256737
931.637 .0256583
932.275 .0256438
932.913 .0256302
933.551 .0256182
934.188 .0256077
934.825 .0255988
935.462 .0255912
936.098 .0255852
936.733 .0255799
937.369 .0255753
938.004 .0255712
938.638 .0255680
939.273 .0255656
939.907 .0255637
940.540 .0255629
941.173 .0255628
941.806 .0255631
942.438 .0255636
943.070 .0255638
943.702 .0255637
944.333 .0255624
944.964 .0255597
945.594 .0255555
946.224 .0255498
946.854 .0255429
947.483 .0255351
948.112 .0255263
948.741 .0255173
949.369 .0255078
949.996 .0254983
950.624 .0254888
951.251 .0254794
951.878 .0254700
952.504 .0254604
953.130 .0254502
953.755 .0254391
954.380 .0254269
955.005 .0254142
955.629 .0254008
956.253 .0253871
956.877 .0253737
957.500 .0253605
958.123 .0253476
958.746 .0253352
959.368 .0253226
959.990 .0253101
960.611 .0252969
961.232 .0252830
961.853 .0252679
962.473 .0252520
963.093 .0252350
963.712 .0252176
964.331 .0251993
964.950 .0251807
965.569 .0251615
966.187 .0251419
966.804 .0251219
967.422 .0251016
968.039 .0250813
968.655 .0250609
969.272 .0250409
969.887 .0250218
970.503 .0250033
971.118 .0249860
971.733 .0249698
972.347 .0249550
972.961 .0249410
973.575 .0249274
974.188 .0249135
974.801 .0248989
975.414 .0248834
976.026 .0248667
976.638 .0248488
977.250 .0248300
977.861 .0248109
978.472 .0247911
979.083 .0247706
979.693 .0247488
980.303 .0247259
980.912 .0247014
981.521 .0246751
982.130 .0246472
982.738 .0246180
983.346 .0245881
983.954 .0245585
984.562 .0245300
985.169 .0245026
985.775 .0244765
986.382 .0244522
986.988 .0244287
987.594 .0244058
988.199 .0243832
988.804 .0243615
989.409 .0243408
990.013 .0243215
990.617 .0243034
991.221 .0242864
991.824 .0242712
992.427 .0242574
993.030 .0242443
993.632 .0242321
994.234 .0242204
994.836 .0242090
995.438 .0241978
996.039 .0241872
996.640 .0241768
997.240 .0241673
997.840 .0241587
998.440 .0241511
999.040 .0241435
999.639 .0241362
1000.238 .0241285
1000.836 .0241201
1001.435 .0241115
1002.033 .0241020
1002.630 .0240917
1003.228 .0240819
1003.825 .0240721
1004.422 .0240629
1005.018 .0240544
1005.614 .0240475
1006.210 .0240415
1006.806 .0240363
1007.401 .0240310
1007.996 .0240249
1008.591 .0240187
1009.186 .0240122
1009.780 .0240054
1010.374 .0239988
1010.967 .0239929
1011.561 .0239881
1012.154 .0239843
1012.746 .0239817
1013.339 .0239800
1013.931 .0239791
1014.523 .0239781
1015.115 .0239767
1015.706 .0239746
1016.298 .0239723
1016.888 .0239704
1017.479 .0239697
1018.069 .0239709
1018.660 .0239738
1019.250 .0239791
1019.839 .0239868
1020.429 .0239962
1021.018 .0240068
1021.607 .0240183
1022.195 .0240302
1022.784 .0240419
1023.372 .0240531
1023.960 .0240643
1024.547 .0240754
1025.135 .0240873
1025.722 .0241000
1026.309 .0241131
1026.896 .0241274
1027.483 .0241424
1028.069 .0241571
1028.655 .0241714
1029.241 .0241852
1029.827 .0241987
1030.412 .0242120
1030.997 .0242265
1031.582 .0242413
1032.167 .0242567
1032.752 .0242731
1033.336 .0242896
1033.921 .0243053
1034.505 .0243208
1035.089 .0243357
1035.672 .0243497
1036.256 .0243638
1036.839 .0243775
1037.422 .0243922
1038.005 .0244085
1038.588 .0244255
1039.171 .0244427
1039.753 .0244586
1040.335 .0244734
1040.918 .0244861
1041.500 .0244977
1042.081 .0245086
1042.663 .0245191
1043.244 .0245312
1043.826 .0245448
1044.407 .0245601
1044.988 .0245769
1045.569 .0245940
1046.150 .0246110
1046.730 .0246264
1047.311 .0246398
1047.891 .0246509
1048.471 .0246613
1049.052 .0246715
1049.632 .0246823
1050.211 .0246944
1050.791 .0247076
1051.371 .0247218
1051.950 .0247361
1052.530 .0247497
1053.109 .0247615
1053.688 .0247712
1054.268 .0247799
1054.847 .0247875
1055.426 .0247957
1056.005 .0248049
1056.583 .0248161
1057.162 .0248295
1057.741 .0248451
1058.319 .0248624
1058.898 .0248812
1059.476 .0249009
1060.055 .0249210
1060.633 .0249407
1061.211 .0249591
1061.790 .0249770
1062.368 .0249953
1062.946 .0250136
1063.524 .0250326
1064.102 .0250511
1064.680 .0250698
1065.258 .0250867
1065.836 .0251017
1066.414 .0251139
1066.992 .0251233
1067.570 .0251314
1068.148 .0251371
1068.726 .0251404
1069.304 .0251440
1069.882 .0251471
1070.460 .0251503
1071.038 .0251539
1071.616 .0251596
1072.194 .0251666
1072.772 .0251757
1073.350 .0251873
1073.928 .0252016
1074.506 .0252178
1075.084 .0252356
1075.662 .0252530
1076.240 .0252705
1076.819 .0252870
1077.397 .0253010
1077.976 .0253138
1078.554 .0253268
1079.133 .0253398
1079.711 .0253520
1080.290 .0253632
1080.869 .0253731
1081.448 .0253811
1082.027 .0253857
1082.606 .0253878
1083.185 .0253887
1083.764 .0253896
1084.343 .0253908
1084.923 .0253946
1085.502 .0254013
1086.082 .0254103
1086.662 .0254217
1087.242 .0254339
1087.822 .0254456
1088.402 .0254559
1088.983 .0254641
1089.563 .0254711
1090.144 .0254790
1090.725 .0254889
1091.306 .0254995
1091.887 .0255132
1092.469 .0255292
1093.050 .0255457
1093.632 .0255618
1094.214 .0255769
1094.796 .0255919
1095.379 .0256074
1095.961 .0256251
1096.544 .0256444
1097.127 .0256676
1097.710 .0256947
1098.294 .0257249
1098.877 .0257568
1099.461 .0257879
1100.046 .0258177
1100.630 .0258440
1101.215 .0258661
1101.800 .0258842
1102.385 .0258983
1102.970 .0259087
1103.556 .0259158
1104.142 .0259197
1104.728 .0259206
1105.315 .0259200
1105.902 .0259175
1106.489 .0259145
1107.077 .0259131
1107.664 .0259153
1108.253 .0259216
1108.841 .0259325
1109.430 .0259507
1110.019 .0259738
1110.609 .0260032
1111.198 .0260369
1111.789 .0260743
1112.379 .0261156
1112.970 .0261619
1113.561 .0262117
1114.153 .0262664
1114.745 .0263259
1115.338 .0263908
1115.931 .0264588
1116.524 .0265295
1117.117 .0265989
1117.712 .0266643
1118.306 .0267255
1118.901 .0267817
1119.496 .0268313
1120.092 .0268779
1120.689 .0269230
1121.285 .0269684
1121.882 .0270147
1122.480 .0270623
1123.078 .0271088
1123.677 .0271558
1124.276 .0272016
1124.875 .0272440
1125.476 .0272832
1126.076 .0273220
1126.677 .0273601
1127.279 .0273994
1127.881 .0274425
1128.484 .0274887
1129.087 .0275364
1129.691 .0275875
1130.295 .0276398
1130.900 .0276929
1131.505 .0277479
1132.111 .0278062
1132.718 .0278693
1133.325 .0279380
1133.933 .0280085
1134.541 .0280803
1135.150 .0281549
1135.760 .0282302
1136.370 .0283040
1136.981 .0283782
1137.592 .0284513
1138.204 .0285254
1138.817 .0286034
1139.431 .0286856
1140.045 .0287693
1140.660 .0288557
1141.275 .0289703
1141.891 .0290952
1142.508 .0292024
1143.126 .0291590
1143.744 .0292185
1144.363 .0301162
1144.983 .0300789
