Measurement Sequence started on: 15-12-46-377
Integration time: 28
Scans to Average: 2 
>>>>>Begin Spectral Data<<<<<
432.689 .0000100
433.621 .0000100
434.552 .0000100
435.482 .0000100
436.410 .0000100
437.337 .0000100
438.262 .0280578
439.187 .0594912
440.110 .0986801
441.031 .1429691
441.952 .1860262
442.871 .2200251
443.789 .2387988
444.705 .2401570
445.621 .2266316
446.535 .2038062
447.447 .1778101
448.359 .1380669
449.269 .1181090
450.178 .1053064
451.086 .0962001
451.993 .0892706
452.898 .0838103
453.803 .0793580
454.706 .0756866
455.608 .0725457
456.508 .0698228
457.408 .0674503
458.306 .0653458
459.204 .0634815
460.100 .0618086
460.995 .0603103
461.888 .0589584
462.781 .0577279
463.673 .0566110
464.563 .0555937
465.452 .0546488
466.340 .0537547
467.228 .0529150
468.114 .0521208
468.999 .0513852
469.882 .0506982
470.765 .0500634
471.647 .0494859
472.528 .0489627
473.407 .0484975
474.286 .0480804
475.163 .0477176
476.040 .0474075
476.915 .0471418
477.790 .0469149
478.663 .0467124
479.535 .0465344
480.407 .0463889
481.277 .0462631
482.147 .0461579
483.015 .0460697
483.883 .0459940
484.749 .0459267
485.615 .0458682
486.479 .0458150
487.343 .0457720
488.206 .0457374
489.067 .0457096
489.928 .0456823
490.788 .0456654
491.647 .0456554
492.505 .0456581
493.362 .0456820
494.218 .0457269
495.073 .0457857
495.928 .0458810
496.781 .0459980
497.634 .0461553
498.486 .0463437
499.337 .0465654
500.187 .0468155
501.036 .0470938
501.884 .0473958
502.731 .0477214
503.578 .0480801
504.424 .0484790
505.268 .0489086
506.113 .0493888
506.956 .0499156
507.798 .0504981
508.640 .0511386
509.480 .0518475
510.320 .0526224
511.160 .0534780
511.998 .0544021
512.836 .0554252
513.672 .0565639
514.508 .0578384
515.344 .0592642
516.178 .0608776
517.012 .0627257
517.845 .0648208
518.677 .0671837
519.508 .0698235
520.339 .0727742
521.169 .0760561
521.998 .0796985
522.826 .0837519
523.654 .0882486
524.481 .0932180
525.307 .0987424
526.133 .1048441
526.958 .1114444
527.782 .1184873
528.605 .1257979
529.428 .1332899
530.250 .1403742
531.072 .1467231
531.892 .1519617
532.712 .1558365
533.532 .1581087
534.350 .1586231
535.168 .1573586
535.986 .1544854
536.802 .1501801
537.618 .1447148
538.434 .1382483
539.249 .1313112
540.063 .1240208
540.876 .1166672
541.689 .1094474
542.501 .1026099
543.313 .0962760
544.124 .0905802
544.934 .0855198
545.744 .0810208
546.553 .0770531
547.361 .0735888
548.169 .0705686
548.976 .0679223
549.783 .0655725
550.589 .0634740
551.395 .0615705
552.200 .0598578
553.004 .0582978
553.808 .0568731
554.611 .0555964
555.414 .0544583
556.216 .0534428
557.018 .0525500
557.819 .0517516
558.619 .0510025
559.419 .0503002
560.218 .0496242
561.017 .0489571
561.815 .0482938
562.613 .0476471
563.410 .0470059
564.207 .0463711
565.003 .0457468
565.799 .0451299
566.594 .0445072
567.388 .0438982
568.182 .0432957
568.976 .0427042
569.769 .0421182
570.562 .0415423
571.354 .0409758
572.145 .0404337
572.936 .0399094
573.727 .0394025
574.517 .0389152
575.307 .0384538
576.096 .0380110
576.885 .0375921
577.673 .0372021
578.461 .0368419
579.248 .0365038
580.035 .0361877
580.821 .0358869
581.607 .0355993
582.392 .0353217
583.177 .0350537
583.962 .0347948
584.746 .0345504
585.529 .0343198
586.313 .0341089
587.095 .0339196
587.878 .0337544
588.660 .0336114
589.441 .0334864
590.222 .0333797
591.003 .0332863
591.783 .0332019
592.563 .0331250
593.342 .0330529
594.121 .0329860
594.899 .0329238
595.678 .0328664
596.455 .0328135
597.233 .0327650
598.009 .0327207
598.786 .0326792
599.562 .0326404
600.338 .0326015
601.113 .0325609
601.888 .0325187
602.663 .0324747
603.437 .0324278
604.211 .0323783
604.984 .0323274
605.757 .0322762
606.530 .0322256
607.302 .0321756
608.074 .0321269
608.845 .0320817
609.616 .0320402
610.387 .0320027
611.158 .0319689
611.928 .0319383
612.697 .0319091
613.467 .0318812
614.236 .0318544
615.004 .0318282
615.773 .0318029
616.541 .0317794
617.308 .0317586
618.076 .0317409
618.843 .0317260
619.609 .0317144
620.375 .0317054
621.141 .0316973
621.907 .0316881
622.672 .0316761
623.437 .0316604
624.202 .0316410
624.966 .0316181
625.730 .0315927
626.493 .0315660
627.257 .0315391
628.020 .0315125
628.782 .0314865
629.545 .0314607
630.307 .0314344
631.068 .0314071
631.830 .0313781
632.591 .0313476
633.352 .0313155
634.112 .0312834
634.872 .0312522
635.632 .0312234
636.392 .0311978
637.151 .0311752
637.910 .0311554
638.668 .0311372
639.427 .0311203
640.185 .0311030
640.943 .0310843
641.700 .0310645
642.457 .0310432
643.214 .0310204
643.971 .0309967
644.727 .0309738
645.483 .0309515
646.239 .0309299
646.994 .0309090
647.750 .0308881
648.505 .0308671
649.259 .0308455
650.014 .0308229
650.768 .0307994
651.521 .0307757
652.275 .0307509
653.028 .0307256
653.781 .0307004
654.534 .0306746
655.286 .0306490
656.039 .0306237
656.791 .0305987
657.542 .0305729
658.294 .0305472
659.045 .0305215
659.796 .0304951
660.546 .0304681
661.297 .0304397
662.047 .0304106
662.796 .0303811
663.546 .0303509
664.295 .0303207
665.044 .0302917
665.793 .0302642
666.542 .0302379
667.290 .0302129
668.038 .0301889
668.786 .0301653
669.533 .0301413
670.281 .0301165
671.028 .0300902
671.774 .0300632
672.521 .0300360
673.267 .0300091
674.013 .0299837
674.759 .0299602
675.505 .0299385
676.250 .0299189
676.995 .0299001
677.740 .0298815
678.484 .0298624
679.229 .0298431
679.973 .0298227
680.717 .0298022
681.460 .0297815
682.204 .0297614
682.947 .0297426
683.690 .0297250
684.433 .0297077
685.175 .0296909
685.917 .0296735
686.659 .0296555
687.401 .0296361
688.142 .0296161
688.884 .0295949
689.625 .0295738
690.365 .0295525
691.106 .0295313
691.846 .0295111
692.586 .0294918
693.326 .0294727
694.066 .0294542
694.805 .0294359
695.545 .0294175
696.284 .0293989
697.022 .0293805
697.761 .0293616
698.499 .0293430
699.237 .0293243
699.975 .0293054
700.713 .0292865
701.450 .0292683
702.187 .0292501
702.924 .0292327
703.661 .0292162
704.397 .0291998
705.133 .0291840
705.869 .0291686
706.605 .0291534
707.341 .0291392
708.076 .0291254
708.811 .0291126
709.546 .0291004
710.281 .0290897
711.015 .0290797
711.749 .0290704
712.483 .0290610
713.217 .0290506
713.950 .0290383
714.684 .0290241
715.417 .0290075
716.150 .0289897
716.882 .0289709
717.615 .0289520
718.347 .0289336
719.079 .0289160
719.811 .0288991
720.542 .0288830
721.273 .0288668
722.005 .0288499
722.735 .0288317
723.466 .0288123
724.196 .0287916
724.927 .0287703
725.656 .0287493
726.386 .0287292
727.116 .0287106
727.845 .0286941
728.574 .0286788
729.303 .0286646
730.031 .0286517
730.760 .0286391
731.488 .0286265
732.216 .0286140
732.944 .0286013
733.671 .0285887
734.398 .0285770
735.125 .0285658
735.852 .0285558
736.579 .0285471
737.305 .0285400
738.031 .0285338
738.757 .0285290
739.483 .0285253
740.208 .0285217
740.933 .0285183
741.658 .0285143
742.383 .0285088
743.108 .0285019
743.832 .0284931
744.556 .0284825
745.280 .0284703
746.004 .0284571
746.727 .0284428
747.450 .0284285
748.173 .0284143
748.896 .0284006
749.618 .0283872
750.340 .0283746
751.062 .0283624
751.784 .0283500
752.506 .0283378
753.227 .0283248
753.948 .0283116
754.669 .0282980
755.389 .0282843
756.110 .0282708
756.830 .0282573
757.550 .0282445
758.269 .0282323
758.989 .0282207
759.708 .0282092
760.427 .0281973
761.146 .0281850
761.864 .0281716
762.582 .0281567
763.300 .0281398
764.018 .0281218
764.736 .0281023
765.453 .0280824
766.170 .0280625
766.887 .0280431
767.603 .0280247
768.320 .0280075
769.036 .0279913
769.751 .0279758
770.467 .0279608
771.182 .0279457
771.897 .0279299
772.612 .0279134
773.327 .0278954
774.041 .0278769
774.755 .0278578
775.469 .0278390
776.183 .0278207
776.896 .0278033
777.609 .0277870
778.322 .0277714
779.035 .0277569
779.747 .0277425
780.459 .0277285
781.171 .0277151
781.882 .0277017
782.594 .0276890
783.305 .0276770
784.016 .0276662
784.726 .0276568
785.436 .0276490
786.147 .0276423
786.856 .0276365
787.566 .0276313
788.275 .0276258
788.984 .0276197
789.693 .0276126
790.401 .0276042
791.110 .0275941
791.818 .0275825
792.525 .0275696
793.233 .0275552
793.940 .0275402
794.647 .0275240
795.353 .0275076
796.060 .0274911
796.766 .0274744
797.472 .0274577
798.177 .0274411
798.883 .0274247
799.588 .0274082
800.292 .0273921
800.997 .0273760
801.701 .0273598
802.405 .0273440
803.109 .0273286
803.812 .0273139
804.515 .0272998
805.218 .0272861
805.921 .0272724
806.623 .0272584
807.325 .0272436
808.027 .0272276
808.728 .0272105
809.429 .0271924
810.130 .0271732
810.831 .0271531
811.531 .0271326
812.231 .0271120
812.931 .0270916
813.630 .0270719
814.330 .0270526
815.029 .0270341
815.727 .0270161
816.426 .0269989
817.124 .0269820
817.821 .0269656
818.519 .0269500
819.216 .0269351
819.913 .0269210
820.609 .0269077
821.306 .0268955
822.002 .0268847
822.697 .0268755
823.393 .0268678
824.088 .0268613
824.783 .0268560
825.477 .0268514
826.171 .0268469
826.865 .0268429
827.559 .0268387
828.252 .0268347
828.945 .0268309
829.638 .0268275
830.330 .0268251
831.023 .0268235
831.714 .0268232
832.406 .0268238
833.097 .0268246
833.788 .0268249
834.479 .0268241
835.169 .0268226
835.859 .0268204
836.548 .0268176
837.238 .0268151
837.927 .0268131
838.615 .0268119
839.304 .0268119
839.992 .0268123
840.680 .0268132
841.367 .0268141
842.054 .0268143
842.741 .0268137
843.428 .0268121
844.114 .0268102
844.800 .0268081
845.485 .0268059
846.170 .0268041
846.855 .0268023
847.540 .0268010
848.224 .0267995
848.908 .0267977
849.592 .0267955
850.275 .0267926
850.958 .0267887
851.641 .0267839
852.323 .0267781
853.005 .0267714
853.687 .0267638
854.368 .0267554
855.049 .0267460
855.730 .0267358
856.410 .0267247
857.090 .0267132
857.769 .0267012
858.449 .0266889
859.128 .0266760
859.806 .0266633
860.485 .0266509
861.163 .0266382
861.840 .0266257
862.518 .0266136
863.195 .0266023
863.871 .0265916
864.548 .0265819
865.224 .0265732
865.899 .0265659
866.574 .0265598
867.249 .0265542
867.924 .0265494
868.598 .0265454
869.272 .0265417
869.946 .0265383
870.619 .0265347
871.292 .0265308
871.964 .0265266
872.636 .0265221
873.308 .0265170
873.979 .0265110
874.651 .0265044
875.321 .0264970
875.992 .0264893
876.662 .0264814
877.331 .0264731
878.001 .0264652
878.670 .0264579
879.338 .0264508
880.007 .0264441
880.675 .0264379
881.342 .0264322
882.009 .0264271
882.676 .0264227
883.343 .0264186
884.009 .0264149
884.675 .0264117
885.340 .0264087
886.005 .0264059
886.670 .0264036
887.334 .0264015
887.998 .0263996
888.662 .0263987
889.325 .0263980
889.988 .0263982
890.650 .0263995
891.312 .0264016
891.974 .0264042
892.636 .0264070
893.297 .0264098
893.957 .0264124
894.618 .0264146
895.278 .0264163
895.937 .0264174
896.596 .0264184
897.255 .0264193
897.914 .0264200
898.572 .0264205
899.230 .0264208
899.887 .0264200
900.544 .0264180
901.201 .0264139
901.857 .0264079
902.513 .0263995
903.168 .0263890
903.823 .0263767
904.478 .0263626
905.132 .0263468
905.786 .0263296
906.440 .0263109
907.093 .0262910
907.746 .0262693
908.399 .0262458
909.051 .0262205
909.703 .0261938
910.354 .0261654
911.005 .0261360
911.656 .0261062
912.306 .0260760
912.956 .0260458
913.605 .0260158
914.254 .0259865
914.903 .0259580
915.551 .0259303
916.199 .0259041
916.847 .0258793
917.494 .0258562
918.141 .0258345
918.788 .0258145
919.434 .0257965
920.079 .0257789
920.725 .0257618
921.370 .0257447
922.014 .0257278
922.658 .0257103
923.302 .0256925
923.946 .0256745
924.589 .0256562
925.231 .0256371
925.873 .0256172
926.515 .0255962
927.157 .0255741
927.798 .0255504
928.439 .0255250
929.079 .0254981
929.719 .0254703
930.359 .0254407
930.998 .0254107
931.637 .0253805
932.275 .0253505
932.913 .0253208
933.551 .0252919
934.188 .0252640
934.825 .0252375
935.462 .0252126
936.098 .0251892
936.733 .0251675
937.369 .0251475
938.004 .0251282
938.638 .0251096
939.273 .0250917
939.907 .0250743
940.540 .0250573
941.173 .0250416
941.806 .0250271
942.438 .0250138
943.070 .0250022
943.702 .0249918
944.333 .0249822
944.964 .0249731
945.594 .0249632
946.224 .0249525
946.854 .0249409
947.483 .0249287
948.112 .0249158
948.741 .0249031
949.369 .0248911
949.996 .0248796
950.624 .0248689
951.251 .0248587
951.878 .0248482
952.504 .0248377
953.130 .0248267
953.755 .0248149
954.380 .0248023
955.005 .0247889
955.629 .0247747
956.253 .0247605
956.877 .0247467
957.500 .0247333
958.123 .0247204
958.746 .0247082
959.368 .0246961
959.990 .0246839
960.611 .0246717
961.232 .0246593
961.853 .0246470
962.473 .0246350
963.093 .0246227
963.712 .0246103
964.331 .0245981
964.950 .0245858
965.569 .0245737
966.187 .0245619
966.804 .0245508
967.422 .0245405
968.039 .0245312
968.655 .0245227
969.272 .0245154
969.887 .0245093
970.503 .0245036
971.118 .0244979
971.733 .0244921
972.347 .0244855
972.961 .0244783
973.575 .0244706
974.188 .0244626
974.801 .0244542
975.414 .0244456
976.026 .0244363
976.638 .0244262
977.250 .0244153
977.861 .0244030
978.472 .0243891
979.083 .0243741
979.693 .0243575
980.303 .0243399
980.912 .0243220
981.521 .0243043
982.130 .0242868
982.738 .0242702
983.346 .0242547
983.954 .0242403
984.562 .0242271
985.169 .0242154
985.775 .0242048
986.382 .0241956
986.988 .0241875
987.594 .0241805
988.199 .0241741
988.804 .0241686
989.409 .0241638
990.013 .0241600
990.617 .0241571
991.221 .0241552
991.824 .0241545
992.427 .0241555
993.030 .0241583
993.632 .0241631
994.234 .0241692
994.836 .0241771
995.438 .0241856
996.039 .0241946
996.640 .0242035
997.240 .0242122
997.840 .0242206
998.440 .0242288
999.040 .0242366
999.639 .0242441
1000.238 .0242507
1000.836 .0242566
1001.435 .0242610
1002.033 .0242642
1002.630 .0242652
1003.228 .0242649
1003.825 .0242631
1004.422 .0242607
1005.018 .0242582
1005.614 .0242565
1006.210 .0242557
1006.806 .0242569
1007.401 .0242602
1007.996 .0242644
1008.591 .0242701
1009.186 .0242773
1009.780 .0242854
1010.374 .0242950
1010.967 .0243056
1011.561 .0243178
1012.154 .0243315
1012.746 .0243470
1013.339 .0243632
1013.931 .0243796
1014.523 .0243958
1015.115 .0244106
1015.706 .0244236
1016.298 .0244347
1016.888 .0244439
1017.479 .0244516
1018.069 .0244588
1018.660 .0244659
1019.250 .0244731
1019.839 .0244810
1020.429 .0244897
1021.018 .0245000
1021.607 .0245117
1022.195 .0245252
1022.784 .0245405
1023.372 .0245580
1023.960 .0245776
1024.547 .0245988
1025.135 .0246216
1025.722 .0246458
1026.309 .0246710
1026.896 .0246970
1027.483 .0247228
1028.069 .0247483
1028.655 .0247733
1029.241 .0247968
1029.827 .0248187
1030.412 .0248388
1030.997 .0248566
1031.582 .0248727
1032.167 .0248871
1032.752 .0249007
1033.336 .0249133
1033.921 .0249259
1034.505 .0249386
1035.089 .0249519
1035.672 .0249654
1036.256 .0249789
1036.839 .0249921
1037.422 .0250058
1038.005 .0250197
1038.588 .0250342
1039.171 .0250497
1039.753 .0250668
1040.335 .0250850
1040.918 .0251038
1041.500 .0251218
1042.081 .0251390
1042.663 .0251528
1043.244 .0251634
1043.826 .0251699
1044.407 .0251735
1044.988 .0251741
1045.569 .0251730
1046.150 .0251715
1046.730 .0251697
1047.311 .0251687
1047.891 .0251682
1048.471 .0251678
1049.052 .0251678
1049.632 .0251670
1050.211 .0251649
1050.791 .0251616
1051.371 .0251585
1051.950 .0251555
1052.530 .0251530
1053.109 .0251518
1053.688 .0251521
1054.268 .0251536
1054.847 .0251564
1055.426 .0251601
1056.005 .0251646
1056.583 .0251701
1057.162 .0251752
1057.741 .0251800
1058.319 .0251849
1058.898 .0251896
1059.476 .0251939
1060.055 .0251982
1060.633 .0252021
1061.211 .0252056
1061.790 .0252082
1062.368 .0252118
1062.946 .0252157
1063.524 .0252212
1064.102 .0252278
1064.680 .0252352
1065.258 .0252431
1065.836 .0252497
1066.414 .0252548
1066.992 .0252586
1067.570 .0252608
1068.148 .0252612
1068.726 .0252598
1069.304 .0252595
1069.882 .0252605
1070.460 .0252644
1071.038 .0252707
1071.616 .0252796
1072.194 .0252901
1072.772 .0253009
1073.350 .0253110
1073.928 .0253198
1074.506 .0253276
1075.084 .0253350
1075.662 .0253426
1076.240 .0253519
1076.819 .0253627
1077.397 .0253762
1077.976 .0253909
1078.554 .0254064
1079.133 .0254206
1079.711 .0254322
1080.290 .0254403
1080.869 .0254457
1081.448 .0254479
1082.027 .0254481
1082.606 .0254463
1083.185 .0254442
1083.764 .0254425
1084.343 .0254412
1084.923 .0254391
1085.502 .0254355
1086.082 .0254302
1086.662 .0254233
1087.242 .0254142
1087.822 .0254051
1088.402 .0253962
1088.983 .0253886
1089.563 .0253827
1090.144 .0253797
1090.725 .0253788
1091.306 .0253808
1091.887 .0253858
1092.469 .0253946
1093.050 .0254058
1093.632 .0254197
1094.214 .0254359
1094.796 .0254554
1095.379 .0254775
1095.961 .0255010
1096.544 .0255245
1097.127 .0255492
1097.710 .0255735
1098.294 .0255981
1098.877 .0256221
1099.461 .0256458
1100.046 .0256675
1100.630 .0256867
1101.215 .0257024
1101.800 .0257132
1102.385 .0257191
1102.970 .0257212
1103.556 .0257194
1104.142 .0257165
1104.728 .0257132
1105.315 .0257123
1105.902 .0257141
1106.489 .0257201
1107.077 .0257291
1107.664 .0257403
1108.253 .0257536
1108.841 .0257682
1109.430 .0257861
1110.019 .0258064
1110.609 .0258292
1111.198 .0258544
1111.789 .0258832
1112.379 .0259142
1112.970 .0259449
1113.561 .0259756
1114.153 .0260057
1114.745 .0260339
1115.338 .0260597
1115.931 .0260831
1116.524 .0261065
1117.117 .0261301
1117.712 .0261540
1118.306 .0261767
1118.901 .0262010
1119.496 .0262254
1120.092 .0262504
1120.689 .0262753
1121.285 .0263017
1121.882 .0263281
1122.480 .0263577
1123.078 .0263919
1123.677 .0264296
1124.276 .0264725
1124.875 .0265193
1125.476 .0265675
1126.076 .0266177
1126.677 .0266679
1127.279 .0267152
1127.881 .0267590
1128.484 .0267994
1129.087 .0268360
1129.691 .0268727
1130.295 .0269098
1130.900 .0269514
1131.505 .0269970
1132.111 .0270504
1132.718 .0271054
1133.325 .0271606
1133.933 .0272175
1134.541 .0272716
1135.150 .0273231
1135.760 .0273772
1136.370 .0274350
1136.981 .0275018
1137.592 .0275765
1138.204 .0276692
1138.817 .0277665
1139.431 .0278748
1140.045 .0279904
1140.660 .0281192
1141.275 .0282617
1141.891 .0284108
1142.508 .0284238
1143.126 .0286197
1143.744 .0290348
1144.363 .0293032
1144.983 .0292352
