Measurement Sequence started on: 15-12-46-377
Integration time: 28
Scans to Average: 2 
>>>>>Begin Spectral Data<<<<<
432.689 .0000100
433.621 .0000100
434.552 .0000100
435.482 .0000100
436.410 .0000100
437.337 .0000100
438.262 .0287058
439.187 .0607741
440.110 .1006488
441.031 .1455898
441.952 .1891543
442.871 .2233803
443.789 .2420399
444.705 .2429924
445.621 .2289133
446.535 .2055837
447.447 .1792602
448.359 .1390516
449.269 .1192793
450.178 .1068745
451.086 .0982092
451.993 .0916483
452.898 .0864696
453.803 .0822133
454.706 .0786804
455.608 .0756381
456.508 .0729692
457.408 .0706418
458.306 .0685814
459.204 .0667209
460.100 .0650527
460.995 .0635442
461.888 .0621775
462.781 .0609136
463.673 .0597493
464.563 .0586519
465.452 .0576073
466.340 .0566053
467.228 .0556395
468.114 .0547103
468.999 .0538392
469.882 .0530164
470.765 .0522581
471.647 .0515728
472.528 .0509658
473.407 .0504294
474.286 .0499707
475.163 .0495753
476.040 .0492374
476.915 .0489530
477.790 .0487150
478.663 .0485049
479.535 .0483245
480.407 .0481792
481.277 .0480517
482.147 .0479450
483.015 .0478624
483.883 .0477924
484.749 .0477418
485.615 .0477110
486.479 .0476993
487.343 .0477109
488.206 .0477556
489.067 .0478126
489.928 .0478796
490.788 .0479551
491.647 .0480313
492.505 .0481075
493.362 .0481954
494.218 .0483016
495.073 .0484281
495.928 .0486017
496.781 .0488219
497.634 .0490857
498.486 .0494027
499.337 .0497582
500.187 .0501427
501.036 .0505393
501.884 .0509369
502.731 .0513235
503.578 .0517170
504.424 .0521246
505.268 .0525450
506.113 .0529976
506.956 .0534950
507.798 .0540468
508.640 .0546565
509.480 .0553422
510.320 .0561050
511.160 .0569482
511.998 .0578840
512.836 .0588995
513.672 .0600072
514.508 .0612107
515.344 .0625312
516.178 .0640147
517.012 .0657001
517.845 .0676272
518.677 .0698437
519.508 .0724043
520.339 .0753656
521.169 .0787734
521.998 .0826410
522.826 .0870020
523.654 .0918468
524.481 .0971606
525.307 .1029930
526.133 .1093189
526.958 .1161474
527.782 .1234178
528.605 .1310464
529.428 .1388910
530.250 .1463771
531.072 .1532806
531.892 .1591323
532.712 .1636116
533.532 .1663918
534.350 .1671982
535.168 .1660308
535.986 .1629773
536.802 .1582666
537.618 .1522088
538.434 .1451333
539.249 .1376156
540.063 .1298121
540.876 .1221168
541.689 .1147119
542.501 .1078274
543.313 .1015613
544.124 .0959074
544.934 .0908085
545.744 .0861959
546.553 .0819983
547.361 .0782200
548.169 .0748401
548.976 .0717975
549.783 .0690576
550.589 .0666316
551.395 .0644584
552.200 .0625146
553.004 .0607554
553.808 .0591607
554.611 .0577061
555.414 .0563967
556.216 .0551911
557.018 .0540892
557.819 .0531062
558.619 .0522029
559.419 .0513672
560.218 .0506017
561.017 .0498932
561.815 .0492249
562.613 .0485784
563.410 .0479468
564.207 .0473187
565.003 .0467053
565.799 .0461057
566.594 .0455194
567.388 .0449587
568.182 .0444220
568.976 .0438959
569.769 .0433885
570.562 .0428978
571.354 .0424124
572.145 .0419333
572.936 .0414528
573.727 .0409721
574.517 .0404890
575.307 .0400132
576.096 .0395533
576.885 .0391130
577.673 .0386939
578.461 .0382996
579.248 .0379289
580.035 .0375854
580.821 .0372639
581.607 .0369594
582.392 .0366709
583.177 .0363956
583.962 .0361309
584.746 .0358812
585.529 .0356492
586.313 .0354419
587.095 .0352577
587.878 .0350998
588.660 .0349654
589.441 .0348514
590.222 .0347539
591.003 .0346694
591.783 .0345916
592.563 .0345148
593.342 .0344396
594.121 .0343646
594.899 .0342920
595.678 .0342232
596.455 .0341592
597.233 .0341010
598.009 .0340468
598.786 .0339956
599.562 .0339448
600.338 .0338940
601.113 .0338422
601.888 .0337887
602.663 .0337349
603.437 .0336812
604.211 .0336280
604.984 .0335768
605.757 .0335288
606.530 .0334824
607.302 .0334369
608.074 .0333914
608.845 .0333460
609.616 .0333001
610.387 .0332546
611.158 .0332106
611.928 .0331688
612.697 .0331304
613.467 .0330942
614.236 .0330603
615.004 .0330285
615.773 .0329985
616.541 .0329700
617.308 .0329439
618.076 .0329207
618.843 .0329000
619.609 .0328831
620.375 .0328693
621.141 .0328583
621.907 .0328498
622.672 .0328415
623.437 .0328330
624.202 .0328230
624.966 .0328113
625.730 .0327974
626.493 .0327824
627.257 .0327672
628.020 .0327520
628.782 .0327363
629.545 .0327198
630.307 .0327016
631.068 .0326810
631.830 .0326565
632.591 .0326272
633.352 .0325936
634.112 .0325562
634.872 .0325149
635.632 .0324722
636.392 .0324285
637.151 .0323859
637.910 .0323446
638.668 .0323047
639.427 .0322662
640.185 .0322284
640.943 .0321900
641.700 .0321511
642.457 .0321112
643.214 .0320715
643.971 .0320308
644.727 .0319917
645.483 .0319546
646.239 .0319199
646.994 .0318883
647.750 .0318595
648.505 .0318332
649.259 .0318086
650.014 .0317840
650.768 .0317583
651.521 .0317304
652.275 .0317007
653.028 .0316684
653.781 .0316343
654.534 .0315991
655.286 .0315639
656.039 .0315282
656.791 .0314931
657.542 .0314583
658.294 .0314238
659.045 .0313902
659.796 .0313567
660.546 .0313227
661.297 .0312887
662.047 .0312546
662.796 .0312208
663.546 .0311879
664.295 .0311567
665.044 .0311268
665.793 .0310984
666.542 .0310712
667.290 .0310455
668.038 .0310209
668.786 .0309972
669.533 .0309742
670.281 .0309518
671.028 .0309295
671.774 .0309074
672.521 .0308859
673.267 .0308656
674.013 .0308467
674.759 .0308297
675.505 .0308143
676.250 .0308009
676.995 .0307893
677.740 .0307786
678.484 .0307688
679.229 .0307593
679.973 .0307484
680.717 .0307361
681.460 .0307222
682.204 .0307068
682.947 .0306904
683.690 .0306744
684.433 .0306585
685.175 .0306430
685.917 .0306280
686.659 .0306134
687.401 .0305983
688.142 .0305825
688.884 .0305652
689.625 .0305468
690.365 .0305272
691.106 .0305065
691.846 .0304858
692.586 .0304662
693.326 .0304481
694.066 .0304316
694.805 .0304167
695.545 .0304031
696.284 .0303899
697.022 .0303763
697.761 .0303617
698.499 .0303460
699.237 .0303289
699.975 .0303103
700.713 .0302911
701.450 .0302719
702.187 .0302528
702.924 .0302347
703.661 .0302177
704.397 .0302016
705.133 .0301864
705.869 .0301712
706.605 .0301558
707.341 .0301397
708.076 .0301227
708.811 .0301044
709.546 .0300860
710.281 .0300674
711.015 .0300483
711.749 .0300291
712.483 .0300102
713.217 .0299909
713.950 .0299717
714.684 .0299515
715.417 .0299305
716.150 .0299083
716.882 .0298849
717.615 .0298597
718.347 .0298335
719.079 .0298064
719.811 .0297787
720.542 .0297510
721.273 .0297234
722.005 .0296956
722.735 .0296686
723.466 .0296421
724.196 .0296160
724.927 .0295898
725.656 .0295633
726.386 .0295358
727.116 .0295079
727.845 .0294795
728.574 .0294508
729.303 .0294226
730.031 .0293958
730.760 .0293702
731.488 .0293460
732.216 .0293231
732.944 .0293013
733.671 .0292808
734.398 .0292614
735.125 .0292423
735.852 .0292241
736.579 .0292066
737.305 .0291903
738.031 .0291752
738.757 .0291613
739.483 .0291482
740.208 .0291353
740.933 .0291228
741.658 .0291097
742.383 .0290956
743.108 .0290807
743.832 .0290653
744.556 .0290493
745.280 .0290329
746.004 .0290162
746.727 .0289989
747.450 .0289819
748.173 .0289644
748.896 .0289464
749.618 .0289281
750.340 .0289098
751.062 .0288915
751.784 .0288737
752.506 .0288570
753.227 .0288414
753.948 .0288271
754.669 .0288146
755.389 .0288032
756.110 .0287929
756.830 .0287830
757.550 .0287738
758.269 .0287645
758.989 .0287553
759.708 .0287450
760.427 .0287344
761.146 .0287237
761.864 .0287123
762.582 .0287004
763.300 .0286884
764.018 .0286763
764.736 .0286639
765.453 .0286506
766.170 .0286368
766.887 .0286220
767.603 .0286067
768.320 .0285905
769.036 .0285742
769.751 .0285583
770.467 .0285434
771.182 .0285296
771.897 .0285179
772.612 .0285080
773.327 .0284993
774.041 .0284921
774.755 .0284860
775.469 .0284807
776.183 .0284763
776.896 .0284729
777.609 .0284708
778.322 .0284697
779.035 .0284696
779.747 .0284702
780.459 .0284716
781.171 .0284736
781.882 .0284749
782.594 .0284758
783.305 .0284768
784.016 .0284776
784.726 .0284785
785.436 .0284800
786.147 .0284819
786.856 .0284842
787.566 .0284867
788.275 .0284891
788.984 .0284909
789.693 .0284926
790.401 .0284937
791.110 .0284938
791.818 .0284935
792.525 .0284929
793.233 .0284918
793.940 .0284910
794.647 .0284897
795.353 .0284874
796.060 .0284841
796.766 .0284794
797.472 .0284724
798.177 .0284637
798.883 .0284531
799.588 .0284408
800.292 .0284271
800.997 .0284127
801.701 .0283972
802.405 .0283816
803.109 .0283663
803.812 .0283511
804.515 .0283359
805.218 .0283205
805.921 .0283043
806.623 .0282874
807.325 .0282699
808.027 .0282517
808.728 .0282327
809.429 .0282136
810.130 .0281946
810.831 .0281755
811.531 .0281564
812.231 .0281370
812.931 .0281169
813.630 .0280958
814.330 .0280731
815.029 .0280489
815.727 .0280235
816.426 .0279971
817.124 .0279704
817.821 .0279436
818.519 .0279171
819.216 .0278911
819.913 .0278656
820.609 .0278403
821.306 .0278153
822.002 .0277902
822.697 .0277657
823.393 .0277420
824.088 .0277193
824.783 .0276978
825.477 .0276778
826.171 .0276593
826.865 .0276422
827.559 .0276263
828.252 .0276114
828.945 .0275971
829.638 .0275833
830.330 .0275695
831.023 .0275559
831.714 .0275427
832.406 .0275301
833.097 .0275180
833.788 .0275065
834.479 .0274953
835.169 .0274845
835.859 .0274742
836.548 .0274641
837.238 .0274542
837.927 .0274442
838.615 .0274339
839.304 .0274227
839.992 .0274105
840.680 .0273970
841.367 .0273826
842.054 .0273670
842.741 .0273506
843.428 .0273338
844.114 .0273171
844.800 .0273005
845.485 .0272842
846.170 .0272681
846.855 .0272516
847.540 .0272344
848.224 .0272166
848.908 .0271980
849.592 .0271791
850.275 .0271603
850.958 .0271418
851.641 .0271242
852.323 .0271075
853.005 .0270913
853.687 .0270759
854.368 .0270611
855.049 .0270465
855.730 .0270317
856.410 .0270171
857.090 .0270024
857.769 .0269878
858.449 .0269732
859.128 .0269585
859.806 .0269435
860.485 .0269282
861.163 .0269125
861.840 .0268966
862.518 .0268808
863.195 .0268651
863.871 .0268498
864.548 .0268350
865.224 .0268209
865.899 .0268072
866.574 .0267938
867.249 .0267808
867.924 .0267681
868.598 .0267558
869.272 .0267442
869.946 .0267338
870.619 .0267248
871.292 .0267172
871.964 .0267110
872.636 .0267056
873.308 .0267011
873.979 .0266968
874.651 .0266925
875.321 .0266882
875.992 .0266847
876.662 .0266819
877.331 .0266799
878.001 .0266787
878.670 .0266786
879.338 .0266793
880.007 .0266811
880.675 .0266837
881.342 .0266869
882.009 .0266908
882.676 .0266955
883.343 .0267006
884.009 .0267062
884.675 .0267121
885.340 .0267188
886.005 .0267257
886.670 .0267332
887.334 .0267409
887.998 .0267493
888.662 .0267589
889.325 .0267692
889.988 .0267802
890.650 .0267916
891.312 .0268031
891.974 .0268142
892.636 .0268248
893.297 .0268353
893.957 .0268457
894.618 .0268566
895.278 .0268684
895.937 .0268812
896.596 .0268947
897.255 .0269091
897.914 .0269238
898.572 .0269382
899.230 .0269515
899.887 .0269634
900.544 .0269737
901.201 .0269822
901.857 .0269887
902.513 .0269934
903.168 .0269959
903.823 .0269964
904.478 .0269945
905.132 .0269901
905.786 .0269833
906.440 .0269746
907.093 .0269641
907.746 .0269521
908.399 .0269389
909.051 .0269247
909.703 .0269093
910.354 .0268926
911.005 .0268747
911.656 .0268559
912.306 .0268364
912.956 .0268163
913.605 .0267961
914.254 .0267766
914.903 .0267580
915.551 .0267408
916.199 .0267249
916.847 .0267102
917.494 .0266962
918.141 .0266824
918.788 .0266688
919.434 .0266554
920.079 .0266420
920.725 .0266293
921.370 .0266171
922.014 .0266052
922.658 .0265932
923.302 .0265806
923.946 .0265672
924.589 .0265522
925.231 .0265349
925.873 .0265153
926.515 .0264938
927.157 .0264706
927.798 .0264456
928.439 .0264194
929.079 .0263924
929.719 .0263644
930.359 .0263352
930.998 .0263049
931.637 .0262734
932.275 .0262416
932.913 .0262097
933.551 .0261781
934.188 .0261478
934.825 .0261192
935.462 .0260928
936.098 .0260689
936.733 .0260471
937.369 .0260269
938.004 .0260080
938.638 .0259904
939.273 .0259729
939.907 .0259558
940.540 .0259394
941.173 .0259234
941.806 .0259082
942.438 .0258936
943.070 .0258794
943.702 .0258656
944.333 .0258518
944.964 .0258378
945.594 .0258234
946.224 .0258086
946.854 .0257932
947.483 .0257776
948.112 .0257616
948.741 .0257448
949.369 .0257272
949.996 .0257095
950.624 .0256911
951.251 .0256724
951.878 .0256536
952.504 .0256350
953.130 .0256166
953.755 .0255985
954.380 .0255803
955.005 .0255622
955.629 .0255437
956.253 .0255247
956.877 .0255050
957.500 .0254848
958.123 .0254641
958.746 .0254427
959.368 .0254211
959.990 .0253994
960.611 .0253773
961.232 .0253553
961.853 .0253330
962.473 .0253107
963.093 .0252876
963.712 .0252643
964.331 .0252403
964.950 .0252157
965.569 .0251911
966.187 .0251662
966.804 .0251419
967.422 .0251181
968.039 .0250952
968.655 .0250736
969.272 .0250527
969.887 .0250330
970.503 .0250139
971.118 .0249954
971.733 .0249770
972.347 .0249584
972.961 .0249398
973.575 .0249211
974.188 .0249020
974.801 .0248829
975.414 .0248642
976.026 .0248456
976.638 .0248270
977.250 .0248083
977.861 .0247895
978.472 .0247704
979.083 .0247506
979.693 .0247303
980.303 .0247095
980.912 .0246887
981.521 .0246676
982.130 .0246468
982.738 .0246268
983.346 .0246078
983.954 .0245899
984.562 .0245734
985.169 .0245578
985.775 .0245431
986.382 .0245290
986.988 .0245150
987.594 .0245014
988.199 .0244880
988.804 .0244749
989.409 .0244625
990.013 .0244513
990.617 .0244413
991.221 .0244323
991.824 .0244250
992.427 .0244190
993.030 .0244140
993.632 .0244101
994.234 .0244071
994.836 .0244050
995.438 .0244039
996.039 .0244037
996.640 .0244042
997.240 .0244058
997.840 .0244084
998.440 .0244116
999.040 .0244153
999.639 .0244195
1000.238 .0244236
1000.836 .0244271
1001.435 .0244300
1002.033 .0244321
1002.630 .0244330
1003.228 .0244329
1003.825 .0244323
1004.422 .0244310
1005.018 .0244299
1005.614 .0244288
1006.210 .0244283
1006.806 .0244284
1007.401 .0244299
1007.996 .0244324
1008.591 .0244363
1009.186 .0244422
1009.780 .0244499
1010.374 .0244590
1010.967 .0244701
1011.561 .0244830
1012.154 .0244972
1012.746 .0245127
1013.339 .0245300
1013.931 .0245480
1014.523 .0245677
1015.115 .0245877
1015.706 .0246081
1016.298 .0246283
1016.888 .0246486
1017.479 .0246674
1018.069 .0246853
1018.660 .0247026
1019.250 .0247189
1019.839 .0247343
1020.429 .0247498
1021.018 .0247652
1021.607 .0247817
1022.195 .0247989
1022.784 .0248169
1023.372 .0248351
1023.960 .0248539
1024.547 .0248726
1025.135 .0248913
1025.722 .0249103
1026.309 .0249295
1026.896 .0249489
1027.483 .0249691
1028.069 .0249899
1028.655 .0250116
1029.241 .0250338
1029.827 .0250570
1030.412 .0250805
1030.997 .0251037
1031.582 .0251265
1032.167 .0251485
1032.752 .0251699
1033.336 .0251904
1033.921 .0252099
1034.505 .0252288
1035.089 .0252464
1035.672 .0252632
1036.256 .0252785
1036.839 .0252929
1037.422 .0253071
1038.005 .0253212
1038.588 .0253360
1039.171 .0253516
1039.753 .0253681
1040.335 .0253853
1040.918 .0254035
1041.500 .0254219
1042.081 .0254404
1042.663 .0254588
1043.244 .0254767
1043.826 .0254943
1044.407 .0255112
1044.988 .0255280
1045.569 .0255442
1046.150 .0255606
1046.730 .0255767
1047.311 .0255913
1047.891 .0256044
1048.471 .0256159
1049.052 .0256254
1049.632 .0256329
1050.211 .0256384
1050.791 .0256429
1051.371 .0256467
1051.950 .0256508
1052.530 .0256551
1053.109 .0256610
1053.688 .0256679
1054.268 .0256765
1054.847 .0256855
1055.426 .0256959
1056.005 .0257066
1056.583 .0257178
1057.162 .0257299
1057.741 .0257416
1058.319 .0257529
1058.898 .0257640
1059.476 .0257746
1060.055 .0257849
1060.633 .0257939
1061.211 .0258019
1061.790 .0258089
1062.368 .0258155
1062.946 .0258206
1063.524 .0258247
1064.102 .0258283
1064.680 .0258325
1065.258 .0258359
1065.836 .0258394
1066.414 .0258432
1066.992 .0258467
1067.570 .0258513
1068.148 .0258554
1068.726 .0258595
1069.304 .0258641
1069.882 .0258692
1070.460 .0258752
1071.038 .0258815
1071.616 .0258889
1072.194 .0258964
1072.772 .0259049
1073.350 .0259143
1073.928 .0259230
1074.506 .0259325
1075.084 .0259432
1075.662 .0259544
1076.240 .0259664
1076.819 .0259795
1077.397 .0259928
1077.976 .0260068
1078.554 .0260211
1079.133 .0260347
1079.711 .0260468
1080.290 .0260578
1080.869 .0260670
1081.448 .0260735
1082.027 .0260780
1082.606 .0260800
1083.185 .0260802
1083.764 .0260809
1084.343 .0260800
1084.923 .0260779
1085.502 .0260754
1086.082 .0260728
1086.662 .0260694
1087.242 .0260656
1087.822 .0260618
1088.402 .0260572
1088.983 .0260520
1089.563 .0260468
1090.144 .0260406
1090.725 .0260345
1091.306 .0260277
1091.887 .0260199
1092.469 .0260123
1093.050 .0260049
1093.632 .0259972
1094.214 .0259919
1094.796 .0259892
1095.379 .0259902
1095.961 .0259938
1096.544 .0260005
1097.127 .0260088
1097.710 .0260177
1098.294 .0260262
1098.877 .0260336
1099.461 .0260406
1100.046 .0260471
1100.630 .0260532
1101.215 .0260632
1101.800 .0260752
1102.385 .0260902
1102.970 .0261085
1103.556 .0261290
1104.142 .0261482
1104.728 .0261656
1105.315 .0261783
1105.902 .0261864
1106.489 .0261909
1107.077 .0261945
1107.664 .0261973
1108.253 .0262051
1108.841 .0262182
1109.430 .0262369
1110.019 .0262623
1110.609 .0262928
1111.198 .0263235
1111.789 .0263550
1112.379 .0263867
1112.970 .0264145
1113.561 .0264392
1114.153 .0264641
1114.745 .0264912
1115.338 .0265215
1115.931 .0265548
1116.524 .0265882
1117.117 .0266212
1117.712 .0266516
1118.306 .0266755
1118.901 .0266921
1119.496 .0267048
1120.092 .0267125
1120.689 .0267194
1121.285 .0267275
1121.882 .0267415
1122.480 .0267603
1123.078 .0267871
1123.677 .0268193
1124.276 .0268535
1124.875 .0268879
1125.476 .0269198
1126.076 .0269496
1126.677 .0269811
1127.279 .0270097
1127.881 .0270432
1128.484 .0270798
1129.087 .0271222
1129.691 .0271698
1130.295 .0272267
1130.900 .0272928
1131.505 .0273647
1132.111 .0274414
1132.718 .0275214
1133.325 .0276014
1133.933 .0276857
1134.541 .0277679
1135.150 .0278532
1135.760 .0279434
1136.370 .0280364
1136.981 .0281315
1137.592 .0282329
1138.204 .0283390
1138.817 .0284462
1139.431 .0285474
1140.045 .0286553
1140.660 .0287666
1141.275 .0288826
1141.891 .0289836
1142.508 .0289113
1143.126 .0293333
1143.744 .0295081
1144.363 .0295883
1144.983 .0291053
