Measurement Sequence started on: 15-12-46-377
Integration time: 28
Scans to Average: 2 
>>>>>Begin Spectral Data<<<<<
432.689 .0000100
433.621 .0000100
434.552 .0000100
435.482 .0000100
436.410 .0000100
437.337 .0000100
438.262 .0246236
439.187 .0524038
440.110 .0869542
441.031 .1259830
441.952 .1639847
442.871 .1940514
443.789 .2107645
444.705 .2121881
445.621 .2005847
446.535 .1808746
447.447 .1584310
448.359 .1239846
449.269 .1068280
450.178 .0960880
451.086 .0885641
451.993 .0828367
452.898 .0783140
453.803 .0745945
454.706 .0715033
455.608 .0688217
456.508 .0664720
457.408 .0644143
458.306 .0625557
459.204 .0608997
460.100 .0594001
460.995 .0580377
461.888 .0567941
462.781 .0556525
463.673 .0546028
464.563 .0536240
465.452 .0526975
466.340 .0518140
467.228 .0509835
468.114 .0502079
468.999 .0494874
469.882 .0488244
470.765 .0482272
471.647 .0476928
472.528 .0472184
473.407 .0468029
474.286 .0464352
475.163 .0461088
476.040 .0458216
476.915 .0455660
477.790 .0453354
478.663 .0451222
479.535 .0449360
480.407 .0447721
481.277 .0446276
482.147 .0445004
483.015 .0443875
483.883 .0442904
484.749 .0442074
485.615 .0441319
486.479 .0440692
487.343 .0440169
488.206 .0439816
489.067 .0439540
489.928 .0439425
490.788 .0439431
491.647 .0439515
492.505 .0439754
493.362 .0440136
494.218 .0440583
495.073 .0441206
495.928 .0442036
496.781 .0443184
497.634 .0444698
498.486 .0446617
499.337 .0448899
500.187 .0451659
501.036 .0454723
501.884 .0458046
502.731 .0461578
503.578 .0465356
504.424 .0469248
505.268 .0473252
506.113 .0477461
506.956 .0481964
507.798 .0486985
508.640 .0492555
509.480 .0498763
510.320 .0505829
511.160 .0513598
511.998 .0522142
512.836 .0531549
513.672 .0541738
514.508 .0552754
515.344 .0564889
516.178 .0578286
517.012 .0593288
517.845 .0610231
518.677 .0629807
519.508 .0652492
520.339 .0678974
521.169 .0709568
521.998 .0744391
522.826 .0784412
523.654 .0829648
524.481 .0880156
525.307 .0936232
526.133 .0997168
526.958 .1062693
527.782 .1132143
528.605 .1203503
529.428 .1275496
530.250 .1343537
531.072 .1404973
531.892 .1456346
532.712 .1494226
533.532 .1516602
534.350 .1521467
535.168 .1508286
535.986 .1478023
536.802 .1431967
537.618 .1373664
538.434 .1305733
539.249 .1233309
540.063 .1158978
540.876 .1085601
541.689 .1016291
542.501 .0952475
543.313 .0895162
544.124 .0844512
544.934 .0799410
545.744 .0759446
546.553 .0723863
547.361 .0692163
548.169 .0664024
548.976 .0638979
549.783 .0616883
550.589 .0597378
551.395 .0579896
552.200 .0564368
553.004 .0550355
553.808 .0537563
554.611 .0525766
555.414 .0514935
556.216 .0504917
557.018 .0495742
557.819 .0487334
558.619 .0479622
559.419 .0472487
560.218 .0465924
561.017 .0459751
561.815 .0453855
562.613 .0448178
563.410 .0442609
564.207 .0437046
565.003 .0431586
565.799 .0426144
566.594 .0420748
567.388 .0415515
568.182 .0410521
568.976 .0405663
569.769 .0401031
570.562 .0396566
571.354 .0392211
572.145 .0388000
572.936 .0383862
573.727 .0379755
574.517 .0375698
575.307 .0371729
576.096 .0367813
576.885 .0363985
577.673 .0360307
578.461 .0356747
579.248 .0353336
580.035 .0350130
580.821 .0347114
581.607 .0344272
582.392 .0341620
583.177 .0339173
583.962 .0336932
584.746 .0334902
585.529 .0333056
586.313 .0331356
587.095 .0329806
587.878 .0328394
588.660 .0327081
589.441 .0325898
590.222 .0324841
591.003 .0323931
591.783 .0323138
592.563 .0322442
593.342 .0321824
594.121 .0321250
594.899 .0320718
595.678 .0320194
596.455 .0319658
597.233 .0319125
598.009 .0318581
598.786 .0318036
599.562 .0317500
600.338 .0316983
601.113 .0316496
601.888 .0316033
602.663 .0315594
603.437 .0315173
604.211 .0314756
604.984 .0314342
605.757 .0313940
606.530 .0313535
607.302 .0313148
608.074 .0312778
608.845 .0312436
609.616 .0312126
610.387 .0311856
611.158 .0311631
611.928 .0311438
612.697 .0311277
613.467 .0311129
614.236 .0310984
615.004 .0310848
615.773 .0310707
616.541 .0310562
617.308 .0310422
618.076 .0310292
618.843 .0310162
619.609 .0310048
620.375 .0309938
621.141 .0309820
621.907 .0309697
622.672 .0309553
623.437 .0309384
624.202 .0309186
624.966 .0308974
625.730 .0308740
626.493 .0308498
627.257 .0308250
628.020 .0307993
628.782 .0307732
629.545 .0307466
630.307 .0307186
631.068 .0306896
631.830 .0306600
632.591 .0306293
633.352 .0305981
634.112 .0305673
634.872 .0305371
635.632 .0305079
636.392 .0304793
637.151 .0304520
637.910 .0304250
638.668 .0303987
639.427 .0303726
640.185 .0303465
640.943 .0303204
641.700 .0302944
642.457 .0302689
643.214 .0302436
643.971 .0302181
644.727 .0301933
645.483 .0301685
646.239 .0301441
646.994 .0301204
647.750 .0300974
648.505 .0300761
649.259 .0300563
650.014 .0300373
650.768 .0300184
651.521 .0299989
652.275 .0299791
653.028 .0299583
653.781 .0299363
654.534 .0299136
655.286 .0298903
656.039 .0298680
656.791 .0298465
657.542 .0298256
658.294 .0298061
659.045 .0297874
659.796 .0297689
660.546 .0297498
661.297 .0297294
662.047 .0297084
662.796 .0296861
663.546 .0296636
664.295 .0296412
665.044 .0296197
665.793 .0295989
666.542 .0295796
667.290 .0295618
668.038 .0295454
668.786 .0295296
669.533 .0295146
670.281 .0294996
671.028 .0294848
671.774 .0294704
672.521 .0294569
673.267 .0294448
674.013 .0294350
674.759 .0294267
675.505 .0294198
676.250 .0294136
676.995 .0294077
677.740 .0294013
678.484 .0293944
679.229 .0293866
679.973 .0293781
680.717 .0293687
681.460 .0293593
682.204 .0293494
682.947 .0293394
683.690 .0293293
684.433 .0293183
685.175 .0293053
685.917 .0292907
686.659 .0292740
687.401 .0292556
688.142 .0292360
688.884 .0292161
689.625 .0291964
690.365 .0291774
691.106 .0291587
691.846 .0291411
692.586 .0291236
693.326 .0291061
694.066 .0290880
694.805 .0290693
695.545 .0290501
696.284 .0290303
697.022 .0290111
697.761 .0289929
698.499 .0289761
699.237 .0289605
699.975 .0289458
700.713 .0289322
701.450 .0289188
702.187 .0289050
702.924 .0288903
703.661 .0288748
704.397 .0288585
705.133 .0288419
705.869 .0288258
706.605 .0288100
707.341 .0287951
708.076 .0287812
708.811 .0287677
709.546 .0287538
710.281 .0287394
711.015 .0287236
711.749 .0287057
712.483 .0286860
713.217 .0286644
713.950 .0286415
714.684 .0286185
715.417 .0285958
716.150 .0285736
716.882 .0285525
717.615 .0285323
718.347 .0285121
719.079 .0284926
719.811 .0284727
720.542 .0284519
721.273 .0284306
722.005 .0284090
722.735 .0283867
723.466 .0283649
724.196 .0283436
724.927 .0283228
725.656 .0283028
726.386 .0282838
727.116 .0282653
727.845 .0282480
728.574 .0282317
729.303 .0282161
730.031 .0282014
730.760 .0281873
731.488 .0281730
732.216 .0281588
732.944 .0281452
733.671 .0281319
734.398 .0281186
735.125 .0281061
735.852 .0280941
736.579 .0280829
737.305 .0280727
738.031 .0280630
738.757 .0280532
739.483 .0280431
740.208 .0280324
740.933 .0280206
741.658 .0280077
742.383 .0279937
743.108 .0279792
743.832 .0279644
744.556 .0279497
745.280 .0279352
746.004 .0279207
746.727 .0279075
747.450 .0278950
748.173 .0278828
748.896 .0278716
749.618 .0278610
750.340 .0278510
751.062 .0278416
751.784 .0278325
752.506 .0278233
753.227 .0278144
753.948 .0278055
754.669 .0277966
755.389 .0277874
756.110 .0277784
756.830 .0277694
757.550 .0277608
758.269 .0277523
758.989 .0277434
759.708 .0277344
760.427 .0277254
761.146 .0277161
761.864 .0277066
762.582 .0276968
763.300 .0276876
764.018 .0276786
764.736 .0276698
765.453 .0276612
766.170 .0276529
766.887 .0276445
767.603 .0276362
768.320 .0276277
769.036 .0276191
769.751 .0276105
770.467 .0276022
771.182 .0275940
771.897 .0275858
772.612 .0275784
773.327 .0275711
774.041 .0275640
774.755 .0275577
775.469 .0275517
776.183 .0275467
776.896 .0275428
777.609 .0275399
778.322 .0275379
779.035 .0275372
779.747 .0275374
780.459 .0275378
781.171 .0275390
781.882 .0275402
782.594 .0275410
783.305 .0275417
784.016 .0275422
784.726 .0275421
785.436 .0275419
786.147 .0275413
786.856 .0275399
787.566 .0275378
788.275 .0275348
788.984 .0275309
789.693 .0275258
790.401 .0275198
791.110 .0275125
791.818 .0275046
792.525 .0274961
793.233 .0274868
793.940 .0274777
794.647 .0274684
795.353 .0274584
796.060 .0274478
796.766 .0274361
797.472 .0274234
798.177 .0274094
798.883 .0273943
799.588 .0273784
800.292 .0273623
800.997 .0273460
801.701 .0273296
802.405 .0273136
803.109 .0272979
803.812 .0272820
804.515 .0272652
805.218 .0272473
805.921 .0272275
806.623 .0272060
807.325 .0271835
808.027 .0271602
808.728 .0271365
809.429 .0271125
810.130 .0270888
810.831 .0270657
811.531 .0270428
812.231 .0270201
812.931 .0269977
813.630 .0269751
814.330 .0269522
815.029 .0269293
815.727 .0269069
816.426 .0268856
817.124 .0268657
817.821 .0268472
818.519 .0268303
819.216 .0268152
819.913 .0268018
820.609 .0267899
821.306 .0267797
822.002 .0267706
822.697 .0267619
823.393 .0267538
824.088 .0267453
824.783 .0267364
825.477 .0267269
826.171 .0267163
826.865 .0267046
827.559 .0266924
828.252 .0266796
828.945 .0266669
829.638 .0266545
830.330 .0266431
831.023 .0266318
831.714 .0266210
832.406 .0266099
833.097 .0265982
833.788 .0265864
834.479 .0265749
835.169 .0265634
835.859 .0265530
836.548 .0265438
837.238 .0265365
837.927 .0265304
838.615 .0265257
839.304 .0265214
839.992 .0265168
840.680 .0265118
841.367 .0265064
842.054 .0264999
842.741 .0264940
843.428 .0264883
844.114 .0264835
844.800 .0264799
845.485 .0264771
846.170 .0264742
846.855 .0264712
847.540 .0264673
848.224 .0264615
848.908 .0264540
849.592 .0264457
850.275 .0264363
850.958 .0264270
851.641 .0264179
852.323 .0264090
853.005 .0264001
853.687 .0263908
854.368 .0263801
855.049 .0263676
855.730 .0263537
856.410 .0263377
857.090 .0263202
857.769 .0263025
858.449 .0262846
859.128 .0262677
859.806 .0262519
860.485 .0262376
861.163 .0262245
861.840 .0262120
862.518 .0262000
863.195 .0261881
863.871 .0261763
864.548 .0261645
865.224 .0261533
865.899 .0261426
866.574 .0261330
867.249 .0261247
867.924 .0261176
868.598 .0261117
869.272 .0261071
869.946 .0261037
870.619 .0261009
871.292 .0260990
871.964 .0260972
872.636 .0260955
873.308 .0260943
873.979 .0260928
874.651 .0260913
875.321 .0260899
875.992 .0260885
876.662 .0260871
877.331 .0260863
878.001 .0260864
878.670 .0260870
879.338 .0260886
880.007 .0260911
880.675 .0260942
881.342 .0260980
882.009 .0261023
882.676 .0261066
883.343 .0261109
884.009 .0261150
884.675 .0261185
885.340 .0261218
886.005 .0261251
886.670 .0261283
887.334 .0261319
887.998 .0261358
888.662 .0261399
889.325 .0261439
889.988 .0261480
890.650 .0261517
891.312 .0261544
891.974 .0261561
892.636 .0261566
893.297 .0261561
893.957 .0261550
894.618 .0261532
895.278 .0261514
895.937 .0261501
896.596 .0261501
897.255 .0261508
897.914 .0261525
898.572 .0261547
899.230 .0261571
899.887 .0261593
900.544 .0261604
901.201 .0261599
901.857 .0261579
902.513 .0261545
903.168 .0261490
903.823 .0261417
904.478 .0261329
905.132 .0261231
905.786 .0261119
906.440 .0260997
907.093 .0260860
907.746 .0260711
908.399 .0260552
909.051 .0260384
909.703 .0260209
910.354 .0260030
911.005 .0259847
911.656 .0259665
912.306 .0259482
912.956 .0259301
913.605 .0259118
914.254 .0258938
914.903 .0258760
915.551 .0258586
916.199 .0258414
916.847 .0258248
917.494 .0258088
918.141 .0257934
918.788 .0257775
919.434 .0257611
920.079 .0257436
920.725 .0257250
921.370 .0257048
922.014 .0256834
922.658 .0256608
923.302 .0256380
923.946 .0256147
924.589 .0255914
925.231 .0255679
925.873 .0255447
926.515 .0255208
927.157 .0254965
927.798 .0254715
928.439 .0254461
929.079 .0254207
929.719 .0253954
930.359 .0253706
930.998 .0253469
931.637 .0253241
932.275 .0253027
932.913 .0252824
933.551 .0252630
934.188 .0252441
934.825 .0252256
935.462 .0252076
936.098 .0251901
936.733 .0251733
937.369 .0251573
938.004 .0251420
938.638 .0251271
939.273 .0251122
939.907 .0250969
940.540 .0250818
941.173 .0250665
941.806 .0250512
942.438 .0250358
943.070 .0250206
943.702 .0250054
944.333 .0249902
944.964 .0249750
945.594 .0249594
946.224 .0249435
946.854 .0249279
947.483 .0249120
948.112 .0248964
948.741 .0248815
949.369 .0248678
949.996 .0248547
950.624 .0248428
951.251 .0248310
951.878 .0248189
952.504 .0248063
953.130 .0247934
953.755 .0247796
954.380 .0247655
955.005 .0247510
955.629 .0247361
956.253 .0247214
956.877 .0247075
957.500 .0246935
958.123 .0246796
958.746 .0246657
959.368 .0246513
959.990 .0246361
960.611 .0246206
961.232 .0246049
961.853 .0245896
962.473 .0245754
963.093 .0245618
963.712 .0245488
964.331 .0245368
964.950 .0245256
965.569 .0245154
966.187 .0245060
966.804 .0244976
967.422 .0244896
968.039 .0244824
968.655 .0244760
969.272 .0244702
969.887 .0244645
970.503 .0244588
971.118 .0244531
971.733 .0244474
972.347 .0244415
972.961 .0244355
973.575 .0244297
974.188 .0244240
974.801 .0244179
975.414 .0244105
976.026 .0244021
976.638 .0243931
977.250 .0243833
977.861 .0243731
978.472 .0243625
979.083 .0243523
979.693 .0243428
980.303 .0243340
980.912 .0243264
981.521 .0243198
982.130 .0243137
982.738 .0243081
983.346 .0243027
983.954 .0242977
984.562 .0242926
985.169 .0242880
985.775 .0242840
986.382 .0242802
986.988 .0242766
987.594 .0242728
988.199 .0242687
988.804 .0242643
989.409 .0242592
990.013 .0242536
990.617 .0242474
991.221 .0242411
991.824 .0242348
992.427 .0242293
993.030 .0242247
993.632 .0242214
994.234 .0242193
994.836 .0242188
995.438 .0242196
996.039 .0242213
996.640 .0242240
997.240 .0242280
997.840 .0242332
998.440 .0242397
999.040 .0242467
999.639 .0242547
1000.238 .0242629
1000.836 .0242710
1001.435 .0242787
1002.033 .0242855
1002.630 .0242916
1003.228 .0242970
1003.825 .0243016
1004.422 .0243060
1005.018 .0243107
1005.614 .0243156
1006.210 .0243209
1006.806 .0243263
1007.401 .0243317
1007.996 .0243359
1008.591 .0243396
1009.186 .0243427
1009.780 .0243455
1010.374 .0243481
1010.967 .0243513
1011.561 .0243550
1012.154 .0243597
1012.746 .0243651
1013.339 .0243712
1013.931 .0243779
1014.523 .0243847
1015.115 .0243912
1015.706 .0243975
1016.298 .0244038
1016.888 .0244106
1017.479 .0244181
1018.069 .0244272
1018.660 .0244383
1019.250 .0244509
1019.839 .0244650
1020.429 .0244802
1021.018 .0244964
1021.607 .0245124
1022.195 .0245283
1022.784 .0245433
1023.372 .0245574
1023.960 .0245708
1024.547 .0245841
1025.135 .0245977
1025.722 .0246125
1026.309 .0246281
1026.896 .0246446
1027.483 .0246618
1028.069 .0246793
1028.655 .0246963
1029.241 .0247137
1029.827 .0247312
1030.412 .0247481
1030.997 .0247651
1031.582 .0247824
1032.167 .0247999
1032.752 .0248182
1033.336 .0248366
1033.921 .0248550
1034.505 .0248724
1035.089 .0248883
1035.672 .0249022
1036.256 .0249147
1036.839 .0249258
1037.422 .0249345
1038.005 .0249418
1038.588 .0249477
1039.171 .0249519
1039.753 .0249551
1040.335 .0249572
1040.918 .0249592
1041.500 .0249615
1042.081 .0249642
1042.663 .0249671
1043.244 .0249714
1043.826 .0249760
1044.407 .0249807
1044.988 .0249854
1045.569 .0249889
1046.150 .0249911
1046.730 .0249922
1047.311 .0249929
1047.891 .0249935
1048.471 .0249955
1049.052 .0249990
1049.632 .0250033
1050.211 .0250101
1050.791 .0250177
1051.371 .0250248
1051.950 .0250317
1052.530 .0250365
1053.109 .0250392
1053.688 .0250405
1054.268 .0250404
1054.847 .0250399
1055.426 .0250404
1056.005 .0250418
1056.583 .0250444
1057.162 .0250480
1057.741 .0250522
1058.319 .0250554
1058.898 .0250581
1059.476 .0250592
1060.055 .0250582
1060.633 .0250562
1061.211 .0250547
1061.790 .0250547
1062.368 .0250581
1062.946 .0250628
1063.524 .0250702
1064.102 .0250794
1064.680 .0250888
1065.258 .0250968
1065.836 .0251031
1066.414 .0251068
1066.992 .0251084
1067.570 .0251084
1068.148 .0251067
1068.726 .0251050
1069.304 .0251054
1069.882 .0251061
1070.460 .0251071
1071.038 .0251084
1071.616 .0251072
1072.194 .0251036
1072.772 .0250988
1073.350 .0250927
1073.928 .0250861
1074.506 .0250816
1075.084 .0250789
1075.662 .0250782
1076.240 .0250805
1076.819 .0250840
1077.397 .0250874
1077.976 .0250915
1078.554 .0250929
1079.133 .0250907
1079.711 .0250862
1080.290 .0250786
1080.869 .0250683
1081.448 .0250564
1082.027 .0250435
1082.606 .0250301
1083.185 .0250166
1083.764 .0250036
1084.343 .0249908
1084.923 .0249802
1085.502 .0249719
1086.082 .0249644
1086.662 .0249598
1087.242 .0249564
1087.822 .0249541
1088.402 .0249532
1088.983 .0249539
1089.563 .0249555
1090.144 .0249577
1090.725 .0249607
1091.306 .0249645
1091.887 .0249692
1092.469 .0249750
1093.050 .0249812
1093.632 .0249882
1094.214 .0249958
1094.796 .0250033
1095.379 .0250099
1095.961 .0250175
1096.544 .0250265
1097.127 .0250363
1097.710 .0250461
1098.294 .0250578
1098.877 .0250703
1099.461 .0250837
1100.046 .0250983
1100.630 .0251143
1101.215 .0251326
1101.800 .0251541
1102.385 .0251787
1102.970 .0252045
1103.556 .0252322
1104.142 .0252604
1104.728 .0252866
1105.315 .0253101
1105.902 .0253295
1106.489 .0253459
1107.077 .0253580
1107.664 .0253685
1108.253 .0253774
1108.841 .0253867
1109.430 .0254006
1110.019 .0254173
1110.609 .0254358
1111.198 .0254565
1111.789 .0254785
1112.379 .0254986
1112.970 .0255181
1113.561 .0255401
1114.153 .0255641
1114.745 .0255943
1115.338 .0256332
1115.931 .0256806
1116.524 .0257378
1117.117 .0258045
1117.712 .0258763
1118.306 .0259502
1118.901 .0260250
1119.496 .0260932
1120.092 .0261560
1120.689 .0262156
1121.285 .0262713
1121.882 .0263230
1122.480 .0263743
1123.078 .0264249
1123.677 .0264690
1124.276 .0265066
1124.875 .0265348
1125.476 .0265518
1126.076 .0265624
1126.677 .0265644
1127.279 .0265639
1127.881 .0265660
1128.484 .0265745
1129.087 .0265903
1129.691 .0266148
1130.295 .0266512
1130.900 .0266927
1131.505 .0267404
1132.111 .0267932
1132.718 .0268516
1133.325 .0269179
1133.933 .0269939
1134.541 .0270811
1135.150 .0271797
1135.760 .0272888
1136.370 .0274037
1136.981 .0275226
1137.592 .0276435
1138.204 .0277634
1138.817 .0278817
1139.431 .0279963
1140.045 .0281112
1140.660 .0282218
1141.275 .0283386
1141.891 .0284530
1142.508 .0285688
1143.126 .0287189
1143.744 .0287571
1144.363 .0290460
1144.983 .0289718
