Measurement Sequence started on: 15-12-46-377
Integration time: 28
Scans to Average: 2 
>>>>>Begin Spectral Data<<<<<
432.689 .0000100
433.621 .0000100
434.552 .0000100
435.482 .0000100
436.410 .0000100
437.337 .0000100
438.262 .0266620
439.187 .0565238
440.110 .0936461
441.031 .1355132
441.952 .1761614
442.871 .2081508
443.789 .2256765
444.705 .2267425
445.621 .2137961
446.535 .1921730
447.447 .1677025
448.359 .1302904
449.269 .1117545
450.178 .1000814
451.086 .0918618
451.993 .0855750
452.898 .0805874
453.803 .0764843
454.706 .0730524
455.608 .0701006
456.508 .0675367
457.408 .0653012
458.306 .0633270
459.204 .0615782
460.100 .0600137
460.995 .0586138
461.888 .0573579
462.781 .0562110
463.673 .0551513
464.563 .0541828
465.452 .0532862
466.340 .0524480
467.228 .0516812
468.114 .0509764
468.999 .0503416
469.882 .0497625
470.765 .0492457
471.647 .0487788
472.528 .0483602
473.407 .0479867
474.286 .0476479
475.163 .0473382
476.040 .0470551
476.915 .0467848
477.790 .0465333
478.663 .0462963
479.535 .0460752
480.407 .0458769
481.277 .0456975
482.147 .0455383
483.015 .0454070
483.883 .0453050
484.749 .0452339
485.615 .0451812
486.479 .0451558
487.343 .0451462
488.206 .0451515
489.067 .0451672
489.928 .0451900
490.788 .0452303
491.647 .0452835
492.505 .0453496
493.362 .0454314
494.218 .0455271
495.073 .0456343
495.928 .0457577
496.781 .0458966
497.634 .0460454
498.486 .0462080
499.337 .0463860
500.187 .0465842
501.036 .0468057
501.884 .0470610
502.731 .0473502
503.578 .0476838
504.424 .0480741
505.268 .0485008
506.113 .0489836
506.956 .0495317
507.798 .0501461
508.640 .0508380
509.480 .0516109
510.320 .0524754
511.160 .0534378
511.998 .0545119
512.836 .0556891
513.672 .0569580
514.508 .0583526
515.344 .0598409
516.178 .0614357
517.012 .0631694
517.845 .0650746
518.677 .0671626
519.508 .0694952
520.339 .0721093
521.169 .0750771
521.998 .0784359
522.826 .0822282
523.654 .0864967
524.481 .0912396
525.307 .0964713
526.133 .1021757
526.958 .1083096
527.782 .1148883
528.605 .1217040
529.428 .1287543
530.250 .1355305
531.072 .1418596
531.892 .1473180
532.712 .1516040
533.532 .1544790
534.350 .1557227
535.168 .1551815
535.986 .1529281
536.802 .1490494
537.618 .1438717
538.434 .1375728
539.249 .1307158
540.063 .1234700
540.876 .1162249
541.689 .1091935
542.501 .1026099
543.313 .0965689
544.124 .0911582
544.934 .0863008
545.744 .0819477
546.553 .0780260
547.361 .0745112
548.169 .0713770
548.976 .0685936
549.783 .0661252
550.589 .0639333
551.395 .0619609
552.200 .0601949
553.004 .0585868
553.808 .0571063
554.611 .0557481
555.414 .0545121
556.216 .0533765
557.018 .0523399
557.819 .0514051
558.619 .0505455
559.419 .0497426
560.218 .0489954
561.017 .0482884
561.815 .0476012
562.613 .0469290
563.410 .0462572
564.207 .0455765
565.003 .0449050
565.799 .0442393
566.594 .0435773
567.388 .0429368
568.182 .0423208
568.976 .0417196
569.769 .0411378
570.562 .0405866
571.354 .0400507
572.145 .0395317
572.936 .0390340
573.727 .0385483
574.517 .0380718
575.307 .0376098
576.096 .0371638
576.885 .0367340
577.673 .0363309
578.461 .0359579
579.248 .0356152
580.035 .0353082
580.821 .0350344
581.607 .0347827
582.392 .0345561
583.177 .0343501
583.962 .0341554
584.746 .0339784
585.529 .0338159
586.313 .0336676
587.095 .0335336
587.878 .0334163
588.660 .0333135
589.441 .0332230
590.222 .0331445
591.003 .0330736
591.783 .0330065
592.563 .0329430
593.342 .0328799
594.121 .0328180
594.899 .0327584
595.678 .0327004
596.455 .0326439
597.233 .0325919
598.009 .0325426
598.786 .0324959
599.562 .0324512
600.338 .0324083
601.113 .0323658
601.888 .0323230
602.663 .0322796
603.437 .0322367
604.211 .0321957
604.984 .0321565
605.757 .0321191
606.530 .0320842
607.302 .0320512
608.074 .0320206
608.845 .0319912
609.616 .0319619
610.387 .0319315
611.158 .0319000
611.928 .0318669
612.697 .0318330
613.467 .0317990
614.236 .0317666
615.004 .0317369
615.773 .0317104
616.541 .0316865
617.308 .0316654
618.076 .0316470
618.843 .0316305
619.609 .0316146
620.375 .0315987
621.141 .0315812
621.907 .0315634
622.672 .0315449
623.437 .0315262
624.202 .0315073
624.966 .0314888
625.730 .0314700
626.493 .0314506
627.257 .0314291
628.020 .0314055
628.782 .0313791
629.545 .0313506
630.307 .0313187
631.068 .0312845
631.830 .0312491
632.591 .0312126
633.352 .0311762
634.112 .0311409
634.872 .0311054
635.632 .0310714
636.392 .0310385
637.151 .0310074
637.910 .0309775
638.668 .0309500
639.427 .0309253
640.185 .0309032
640.943 .0308838
641.700 .0308667
642.457 .0308514
643.214 .0308377
643.971 .0308239
644.727 .0308099
645.483 .0307960
646.239 .0307825
646.994 .0307685
647.750 .0307552
648.505 .0307431
649.259 .0307324
650.014 .0307227
650.768 .0307143
651.521 .0307068
652.275 .0306989
653.028 .0306908
653.781 .0306819
654.534 .0306723
655.286 .0306619
656.039 .0306503
656.791 .0306382
657.542 .0306252
658.294 .0306114
659.045 .0305959
659.796 .0305795
660.546 .0305619
661.297 .0305419
662.047 .0305197
662.796 .0304955
663.546 .0304697
664.295 .0304418
665.044 .0304128
665.793 .0303831
666.542 .0303530
667.290 .0303231
668.038 .0302929
668.786 .0302635
669.533 .0302350
670.281 .0302073
671.028 .0301804
671.774 .0301546
672.521 .0301298
673.267 .0301063
674.013 .0300844
674.759 .0300635
675.505 .0300439
676.250 .0300252
676.995 .0300070
677.740 .0299892
678.484 .0299712
679.229 .0299528
679.973 .0299337
680.717 .0299144
681.460 .0298939
682.204 .0298723
682.947 .0298500
683.690 .0298267
684.433 .0298031
685.175 .0297788
685.917 .0297543
686.659 .0297299
687.401 .0297061
688.142 .0296826
688.884 .0296595
689.625 .0296365
690.365 .0296134
691.106 .0295895
691.846 .0295647
692.586 .0295387
693.326 .0295123
694.066 .0294860
694.805 .0294608
695.545 .0294370
696.284 .0294154
697.022 .0293957
697.761 .0293787
698.499 .0293634
699.237 .0293494
699.975 .0293355
700.713 .0293216
701.450 .0293074
702.187 .0292929
702.924 .0292782
703.661 .0292643
704.397 .0292514
705.133 .0292401
705.869 .0292298
706.605 .0292211
707.341 .0292130
708.076 .0292056
708.811 .0291980
709.546 .0291897
710.281 .0291803
711.015 .0291700
711.749 .0291584
712.483 .0291464
713.217 .0291337
713.950 .0291205
714.684 .0291072
715.417 .0290941
716.150 .0290814
716.882 .0290690
717.615 .0290571
718.347 .0290459
719.079 .0290348
719.811 .0290239
720.542 .0290129
721.273 .0290020
722.005 .0289908
722.735 .0289789
723.466 .0289663
724.196 .0289532
724.927 .0289394
725.656 .0289253
726.386 .0289110
727.116 .0288969
727.845 .0288830
728.574 .0288688
729.303 .0288547
730.031 .0288401
730.760 .0288248
731.488 .0288083
732.216 .0287909
732.944 .0287727
733.671 .0287535
734.398 .0287340
735.125 .0287149
735.852 .0286963
736.579 .0286786
737.305 .0286614
738.031 .0286451
738.757 .0286292
739.483 .0286133
740.208 .0285967
740.933 .0285798
741.658 .0285622
742.383 .0285438
743.108 .0285247
743.832 .0285052
744.556 .0284853
745.280 .0284651
746.004 .0284447
746.727 .0284242
747.450 .0284037
748.173 .0283827
748.896 .0283615
749.618 .0283401
750.340 .0283183
751.062 .0282962
751.784 .0282743
752.506 .0282524
753.227 .0282301
753.948 .0282077
754.669 .0281858
755.389 .0281638
756.110 .0281424
756.830 .0281209
757.550 .0280998
758.269 .0280794
758.989 .0280593
759.708 .0280390
760.427 .0280186
761.146 .0279982
761.864 .0279771
762.582 .0279546
763.300 .0279313
764.018 .0279068
764.736 .0278818
765.453 .0278568
766.170 .0278318
766.887 .0278070
767.603 .0277830
768.320 .0277593
769.036 .0277363
769.751 .0277136
770.467 .0276910
771.182 .0276684
771.897 .0276463
772.612 .0276249
773.327 .0276042
774.041 .0275851
774.755 .0275686
775.469 .0275542
776.183 .0275425
776.896 .0275328
777.609 .0275255
778.322 .0275203
779.035 .0275163
779.747 .0275136
780.459 .0275119
781.171 .0275114
781.882 .0275116
782.594 .0275127
783.305 .0275145
784.016 .0275166
784.726 .0275187
785.436 .0275206
786.147 .0275219
786.856 .0275226
787.566 .0275225
788.275 .0275221
788.984 .0275218
789.693 .0275217
790.401 .0275219
791.110 .0275228
791.818 .0275238
792.525 .0275249
793.233 .0275258
793.940 .0275264
794.647 .0275263
795.353 .0275259
796.060 .0275253
796.766 .0275245
797.472 .0275240
798.177 .0275237
798.883 .0275229
799.588 .0275219
800.292 .0275196
800.997 .0275159
801.701 .0275107
802.405 .0275039
803.109 .0274958
803.812 .0274868
804.515 .0274777
805.218 .0274685
805.921 .0274590
806.623 .0274498
807.325 .0274407
808.027 .0274315
808.728 .0274220
809.429 .0274120
810.130 .0274018
810.831 .0273914
811.531 .0273806
812.231 .0273692
812.931 .0273568
813.630 .0273433
814.330 .0273281
815.029 .0273118
815.727 .0272946
816.426 .0272764
817.124 .0272576
817.821 .0272383
818.519 .0272186
819.216 .0271983
819.913 .0271776
820.609 .0271566
821.306 .0271351
822.002 .0271136
822.697 .0270921
823.393 .0270716
824.088 .0270525
824.783 .0270350
825.477 .0270188
826.171 .0270041
826.865 .0269901
827.559 .0269765
828.252 .0269629
828.945 .0269494
829.638 .0269354
830.330 .0269211
831.023 .0269067
831.714 .0268922
832.406 .0268778
833.097 .0268636
833.788 .0268489
834.479 .0268341
835.169 .0268187
835.859 .0268025
836.548 .0267857
837.238 .0267686
837.927 .0267514
838.615 .0267339
839.304 .0267165
839.992 .0266988
840.680 .0266804
841.367 .0266613
842.054 .0266415
842.741 .0266207
843.428 .0265992
844.114 .0265768
844.800 .0265538
845.485 .0265305
846.170 .0265071
846.855 .0264831
847.540 .0264591
848.224 .0264348
848.908 .0264103
849.592 .0263854
850.275 .0263603
850.958 .0263348
851.641 .0263096
852.323 .0262847
853.005 .0262606
853.687 .0262371
854.368 .0262148
855.049 .0261932
855.730 .0261723
856.410 .0261518
857.090 .0261311
857.769 .0261100
858.449 .0260889
859.128 .0260676
859.806 .0260459
860.485 .0260246
861.163 .0260039
861.840 .0259835
862.518 .0259637
863.195 .0259437
863.871 .0259237
864.548 .0259038
865.224 .0258842
865.899 .0258648
866.574 .0258463
867.249 .0258292
867.924 .0258133
868.598 .0257988
869.272 .0257857
869.946 .0257739
870.619 .0257630
871.292 .0257532
871.964 .0257442
872.636 .0257358
873.308 .0257283
873.979 .0257216
874.651 .0257157
875.321 .0257110
875.992 .0257073
876.662 .0257045
877.331 .0257026
878.001 .0257017
878.670 .0257013
879.338 .0257015
880.007 .0257031
880.675 .0257058
881.342 .0257095
882.009 .0257145
882.676 .0257203
883.343 .0257269
884.009 .0257341
884.675 .0257415
885.340 .0257491
886.005 .0257571
886.670 .0257654
887.334 .0257741
887.998 .0257834
888.662 .0257937
889.325 .0258048
889.988 .0258169
890.650 .0258298
891.312 .0258427
891.974 .0258558
892.636 .0258691
893.297 .0258823
893.957 .0258957
894.618 .0259088
895.278 .0259221
895.937 .0259357
896.596 .0259496
897.255 .0259637
897.914 .0259777
898.572 .0259915
899.230 .0260039
899.887 .0260145
900.544 .0260228
901.201 .0260292
901.857 .0260338
902.513 .0260373
903.168 .0260401
903.823 .0260423
904.478 .0260441
905.132 .0260451
905.786 .0260448
906.440 .0260433
907.093 .0260396
907.746 .0260342
908.399 .0260270
909.051 .0260186
909.703 .0260093
910.354 .0259998
911.005 .0259905
911.656 .0259813
912.306 .0259717
912.956 .0259616
913.605 .0259499
914.254 .0259371
914.903 .0259227
915.551 .0259074
916.199 .0258910
916.847 .0258743
917.494 .0258572
918.141 .0258401
918.788 .0258229
919.434 .0258057
920.079 .0257881
920.725 .0257700
921.370 .0257512
922.014 .0257311
922.658 .0257097
923.302 .0256873
923.946 .0256636
924.589 .0256388
925.231 .0256124
925.873 .0255850
926.515 .0255565
927.157 .0255278
927.798 .0254992
928.439 .0254705
929.079 .0254427
929.719 .0254153
930.359 .0253878
930.998 .0253602
931.637 .0253324
932.275 .0253045
932.913 .0252762
933.551 .0252477
934.188 .0252188
934.825 .0251904
935.462 .0251628
936.098 .0251361
936.733 .0251108
937.369 .0250870
938.004 .0250642
938.638 .0250420
939.273 .0250205
939.907 .0249990
940.540 .0249773
941.173 .0249558
941.806 .0249347
942.438 .0249135
943.070 .0248926
943.702 .0248724
944.333 .0248528
944.964 .0248341
945.594 .0248158
946.224 .0247975
946.854 .0247795
947.483 .0247609
948.112 .0247420
948.741 .0247224
949.369 .0247024
949.996 .0246818
950.624 .0246609
951.251 .0246396
951.878 .0246183
952.504 .0245969
953.130 .0245759
953.755 .0245554
954.380 .0245355
955.005 .0245159
955.629 .0244966
956.253 .0244779
956.877 .0244599
957.500 .0244421
958.123 .0244244
958.746 .0244060
959.368 .0243872
959.990 .0243675
960.611 .0243469
961.232 .0243254
961.853 .0243034
962.473 .0242816
963.093 .0242597
963.712 .0242379
964.331 .0242161
964.950 .0241943
965.569 .0241727
966.187 .0241513
966.804 .0241299
967.422 .0241089
968.039 .0240885
968.655 .0240690
969.272 .0240505
969.887 .0240332
970.503 .0240168
971.118 .0240018
971.733 .0239876
972.347 .0239739
972.961 .0239601
973.575 .0239470
974.188 .0239339
974.801 .0239210
975.414 .0239077
976.026 .0238940
976.638 .0238798
977.250 .0238652
977.861 .0238499
978.472 .0238345
979.083 .0238191
979.693 .0238041
980.303 .0237891
980.912 .0237751
981.521 .0237610
982.130 .0237476
982.738 .0237346
983.346 .0237220
983.954 .0237094
984.562 .0236975
985.169 .0236858
985.775 .0236752
986.382 .0236656
986.988 .0236576
987.594 .0236508
988.199 .0236456
988.804 .0236410
989.409 .0236369
990.013 .0236331
990.617 .0236293
991.221 .0236248
991.824 .0236211
992.427 .0236183
993.030 .0236168
993.632 .0236169
994.234 .0236192
994.836 .0236234
995.438 .0236299
996.039 .0236374
996.640 .0236459
997.240 .0236544
997.840 .0236632
998.440 .0236720
999.040 .0236808
999.639 .0236900
1000.238 .0236997
1000.836 .0237098
1001.435 .0237207
1002.033 .0237315
1002.630 .0237426
1003.228 .0237541
1003.825 .0237669
1004.422 .0237801
1005.018 .0237941
1005.614 .0238091
1006.210 .0238254
1006.806 .0238427
1007.401 .0238609
1007.996 .0238790
1008.591 .0238974
1009.186 .0239163
1009.780 .0239350
1010.374 .0239536
1010.967 .0239728
1011.561 .0239924
1012.154 .0240129
1012.746 .0240332
1013.339 .0240536
1013.931 .0240735
1014.523 .0240926
1015.115 .0241106
1015.706 .0241272
1016.298 .0241428
1016.888 .0241578
1017.479 .0241729
1018.069 .0241889
1018.660 .0242054
1019.250 .0242232
1019.839 .0242422
1020.429 .0242627
1021.018 .0242843
1021.607 .0243068
1022.195 .0243297
1022.784 .0243530
1023.372 .0243760
1023.960 .0243983
1024.547 .0244202
1025.135 .0244417
1025.722 .0244621
1026.309 .0244812
1026.896 .0244996
1027.483 .0245171
1028.069 .0245341
1028.655 .0245508
1029.241 .0245669
1029.827 .0245825
1030.412 .0245970
1030.997 .0246102
1031.582 .0246222
1032.167 .0246337
1032.752 .0246453
1033.336 .0246571
1033.921 .0246696
1034.505 .0246826
1035.089 .0246961
1035.672 .0247101
1036.256 .0247240
1036.839 .0247372
1037.422 .0247494
1038.005 .0247611
1038.588 .0247716
1039.171 .0247814
1039.753 .0247923
1040.335 .0248040
1040.918 .0248168
1041.500 .0248303
1042.081 .0248443
1042.663 .0248577
1043.244 .0248702
1043.826 .0248818
1044.407 .0248907
1044.988 .0248980
1045.569 .0249037
1046.150 .0249073
1046.730 .0249106
1047.311 .0249137
1047.891 .0249164
1048.471 .0249199
1049.052 .0249240
1049.632 .0249268
1050.211 .0249293
1050.791 .0249311
1051.371 .0249321
1051.950 .0249319
1052.530 .0249307
1053.109 .0249289
1053.688 .0249260
1054.268 .0249238
1054.847 .0249215
1055.426 .0249194
1056.005 .0249184
1056.583 .0249168
1057.162 .0249153
1057.741 .0249126
1058.319 .0249093
1058.898 .0249057
1059.476 .0249010
1060.055 .0248957
1060.633 .0248902
1061.211 .0248841
1061.790 .0248778
1062.368 .0248712
1062.946 .0248634
1063.524 .0248549
1064.102 .0248463
1064.680 .0248367
1065.258 .0248268
1065.836 .0248172
1066.414 .0248072
1066.992 .0247966
1067.570 .0247864
1068.148 .0247742
1068.726 .0247603
1069.304 .0247465
1069.882 .0247320
1070.460 .0247170
1071.038 .0247031
1071.616 .0246904
1072.194 .0246788
1072.772 .0246693
1073.350 .0246603
1073.928 .0246515
1074.506 .0246436
1075.084 .0246361
1075.662 .0246291
1076.240 .0246245
1076.819 .0246217
1077.397 .0246213
1077.976 .0246232
1078.554 .0246256
1079.133 .0246267
1079.711 .0246258
1080.290 .0246241
1080.869 .0246204
1081.448 .0246139
1082.027 .0246057
1082.606 .0245972
1083.185 .0245895
1083.764 .0245820
1084.343 .0245739
1084.923 .0245654
1085.502 .0245558
1086.082 .0245439
1086.662 .0245292
1087.242 .0245116
1087.822 .0244924
1088.402 .0244724
1088.983 .0244518
1089.563 .0244325
1090.144 .0244140
1090.725 .0243984
1091.306 .0243857
1091.887 .0243760
1092.469 .0243684
1093.050 .0243618
1093.632 .0243577
1094.214 .0243567
1094.796 .0243574
1095.379 .0243612
1095.961 .0243677
1096.544 .0243782
1097.127 .0243903
1097.710 .0244027
1098.294 .0244136
1098.877 .0244248
1099.461 .0244334
1100.046 .0244385
1100.630 .0244409
1101.215 .0244422
1101.800 .0244428
1102.385 .0244449
1102.970 .0244483
1103.556 .0244541
1104.142 .0244616
1104.728 .0244706
1105.315 .0244779
1105.902 .0244836
1106.489 .0244873
1107.077 .0244894
1107.664 .0244919
1108.253 .0244962
1108.841 .0245020
1109.430 .0245135
1110.019 .0245296
1110.609 .0245486
1111.198 .0245701
1111.789 .0245930
1112.379 .0246134
1112.970 .0246311
1113.561 .0246438
1114.153 .0246535
1114.745 .0246621
1115.338 .0246720
1115.931 .0246859
1116.524 .0247080
1117.117 .0247391
1117.712 .0247792
1118.306 .0248263
1118.901 .0248801
1119.496 .0249302
1120.092 .0249780
1120.689 .0250190
1121.285 .0250529
1121.882 .0250797
1122.480 .0251022
1123.078 .0251220
1123.677 .0251443
1124.276 .0251683
1124.875 .0251945
1125.476 .0252223
1126.076 .0252522
1126.677 .0252755
1127.279 .0252946
1127.881 .0253081
1128.484 .0253200
1129.087 .0253299
1129.691 .0253476
1130.295 .0253740
1130.900 .0254148
1131.505 .0254718
1132.111 .0255421
1132.718 .0256265
1133.325 .0257265
1133.933 .0258332
1134.541 .0259457
1135.150 .0260646
1135.760 .0261916
1136.370 .0263205
1136.981 .0264573
1137.592 .0265952
1138.204 .0267374
1138.817 .0268835
1139.431 .0270286
1140.045 .0271795
1140.660 .0273297
1141.275 .0274870
1141.891 .0276318
1142.508 .0277710
1143.126 .0280938
1143.744 .0280241
1144.363 .0283201
1144.983 .0280780
