Measurement Sequence started on: 15-12-46-377
Integration time: 28
Scans to Average: 2 
>>>>>Begin Spectral Data<<<<<
432.689 .0000100
433.621 .0000100
434.552 .0000100
435.482 .0000100
436.410 .0000100
437.337 .0000100
438.262 .0250219
439.187 .0531676
440.110 .0883042
441.031 .1280579
441.952 .1668188
442.871 .1975792
443.789 .2148274
444.705 .2165832
445.621 .2050429
446.535 .1851663
447.447 .1624048
448.359 .1273358
449.269 .1098142
450.178 .0986590
451.086 .0907866
451.993 .0848082
452.898 .0801004
453.803 .0762660
454.706 .0730946
455.608 .0703977
456.508 .0680584
457.408 .0660218
458.306 .0642117
459.204 .0626037
460.100 .0611682
460.995 .0598886
461.888 .0587263
462.781 .0576681
463.673 .0566791
464.563 .0557596
465.452 .0548888
466.340 .0540516
467.228 .0532585
468.114 .0525064
468.999 .0518084
469.882 .0511639
470.765 .0505723
471.647 .0500414
472.528 .0495553
473.407 .0491140
474.286 .0487072
475.163 .0483275
476.040 .0479742
476.915 .0476482
477.790 .0473575
478.663 .0471106
479.535 .0469051
480.407 .0467464
481.277 .0466327
482.147 .0465562
483.015 .0465063
483.883 .0464742
484.749 .0464558
485.615 .0464508
486.479 .0464523
487.343 .0464714
488.206 .0465066
489.067 .0465623
489.928 .0466315
490.788 .0467149
491.647 .0468099
492.505 .0469147
493.362 .0470195
494.218 .0471255
495.073 .0472295
495.928 .0473400
496.781 .0474601
497.634 .0476057
498.486 .0477791
499.337 .0479829
500.187 .0482117
501.036 .0484687
501.884 .0487465
502.731 .0490447
503.578 .0493561
504.424 .0496883
505.268 .0500368
506.113 .0504139
506.956 .0508196
507.798 .0512801
508.640 .0518092
509.480 .0524242
510.320 .0531263
511.160 .0539163
511.998 .0547748
512.836 .0557159
513.672 .0567371
514.508 .0578418
515.344 .0590455
516.178 .0603786
517.012 .0618853
517.845 .0636225
518.677 .0656387
519.508 .0679762
520.339 .0706756
521.169 .0737773
521.998 .0772699
522.826 .0811843
523.654 .0855271
524.481 .0903331
525.307 .0956513
526.133 .1014922
526.958 .1078807
527.782 .1147723
528.605 .1220345
529.428 .1295596
530.250 .1368033
531.072 .1434495
531.892 .1490626
532.712 .1533144
533.532 .1559758
534.350 .1568344
535.168 .1558264
535.986 .1531323
536.802 .1489781
537.618 .1436571
538.434 .1373758
539.249 .1306313
540.063 .1236186
540.876 .1165685
541.689 .1096960
542.501 .1031402
543.313 .0970739
544.124 .0915824
544.934 .0865912
545.744 .0820944
546.553 .0780840
547.361 .0745504
548.169 .0714496
548.976 .0687046
549.783 .0662832
550.589 .0640966
551.395 .0620964
552.200 .0602657
553.004 .0585624
553.808 .0569701
554.611 .0555186
555.414 .0541921
556.216 .0529962
557.018 .0519261
557.819 .0509644
558.619 .0500959
559.419 .0492958
560.218 .0485489
561.017 .0478303
561.815 .0471301
562.613 .0464553
563.410 .0457922
564.207 .0451552
565.003 .0445470
565.799 .0439563
566.594 .0433865
567.388 .0428500
568.182 .0423289
568.976 .0418145
569.769 .0413055
570.562 .0407991
571.354 .0402927
572.145 .0397973
572.936 .0393122
573.727 .0388378
574.517 .0383874
575.307 .0379603
576.096 .0375535
576.885 .0371725
577.673 .0368159
578.461 .0364782
579.248 .0361636
580.035 .0358673
580.821 .0355837
581.607 .0353178
582.392 .0350708
583.177 .0348421
583.962 .0346276
584.746 .0344296
585.529 .0342454
586.313 .0340762
587.095 .0339227
587.878 .0337811
588.660 .0336540
589.441 .0335409
590.222 .0334398
591.003 .0333506
591.783 .0332700
592.563 .0331964
593.342 .0331292
594.121 .0330675
594.899 .0330088
595.678 .0329546
596.455 .0329045
597.233 .0328580
598.009 .0328145
598.786 .0327738
599.562 .0327343
600.338 .0326946
601.113 .0326545
601.888 .0326130
602.663 .0325708
603.437 .0325284
604.211 .0324858
604.984 .0324451
605.757 .0324064
606.530 .0323695
607.302 .0323332
608.074 .0322980
608.845 .0322625
609.616 .0322260
610.387 .0321890
611.158 .0321515
611.928 .0321144
612.697 .0320783
613.467 .0320442
614.236 .0320124
615.004 .0319828
615.773 .0319548
616.541 .0319278
617.308 .0319012
618.076 .0318743
618.843 .0318464
619.609 .0318181
620.375 .0317897
621.141 .0317618
621.907 .0317345
622.672 .0317087
623.437 .0316843
624.202 .0316609
624.966 .0316381
625.730 .0316152
626.493 .0315916
627.257 .0315660
628.020 .0315391
628.782 .0315109
629.545 .0314808
630.307 .0314496
631.068 .0314178
631.830 .0313855
632.591 .0313528
633.352 .0313197
634.112 .0312858
634.872 .0312510
635.632 .0312154
636.392 .0311782
637.151 .0311403
637.910 .0311016
638.668 .0310627
639.427 .0310236
640.185 .0309850
640.943 .0309475
641.700 .0309108
642.457 .0308765
643.214 .0308447
643.971 .0308147
644.727 .0307871
645.483 .0307612
646.239 .0307372
646.994 .0307147
647.750 .0306940
648.505 .0306754
649.259 .0306593
650.014 .0306459
650.768 .0306346
651.521 .0306251
652.275 .0306175
653.028 .0306106
653.781 .0306033
654.534 .0305951
655.286 .0305846
656.039 .0305716
656.791 .0305567
657.542 .0305390
658.294 .0305199
659.045 .0305000
659.796 .0304793
660.546 .0304584
661.297 .0304370
662.047 .0304163
662.796 .0303957
663.546 .0303757
664.295 .0303561
665.044 .0303365
665.793 .0303176
666.542 .0302988
667.290 .0302801
668.038 .0302619
668.786 .0302439
669.533 .0302262
670.281 .0302085
671.028 .0301910
671.774 .0301736
672.521 .0301566
673.267 .0301401
674.013 .0301238
674.759 .0301065
675.505 .0300884
676.250 .0300689
676.995 .0300480
677.740 .0300258
678.484 .0300024
679.229 .0299789
679.973 .0299557
680.717 .0299329
681.460 .0299110
682.204 .0298900
682.947 .0298705
683.690 .0298516
684.433 .0298328
685.175 .0298135
685.917 .0297930
686.659 .0297713
687.401 .0297484
688.142 .0297247
688.884 .0297005
689.625 .0296758
690.365 .0296515
691.106 .0296274
691.846 .0296033
692.586 .0295790
693.326 .0295547
694.066 .0295301
694.805 .0295047
695.545 .0294784
696.284 .0294515
697.022 .0294242
697.761 .0293966
698.499 .0293693
699.237 .0293428
699.975 .0293172
700.713 .0292928
701.450 .0292693
702.187 .0292467
702.924 .0292245
703.661 .0292025
704.397 .0291803
705.133 .0291578
705.869 .0291348
706.605 .0291109
707.341 .0290868
708.076 .0290626
708.811 .0290385
709.546 .0290148
710.281 .0289914
711.015 .0289687
711.749 .0289463
712.483 .0289246
713.217 .0289033
713.950 .0288825
714.684 .0288619
715.417 .0288414
716.150 .0288214
716.882 .0288022
717.615 .0287841
718.347 .0287677
719.079 .0287531
719.811 .0287400
720.542 .0287287
721.273 .0287182
722.005 .0287082
722.735 .0286985
723.466 .0286883
724.196 .0286771
724.927 .0286649
725.656 .0286518
726.386 .0286382
727.116 .0286245
727.845 .0286113
728.574 .0285982
729.303 .0285865
730.031 .0285756
730.760 .0285655
731.488 .0285564
732.216 .0285483
732.944 .0285407
733.671 .0285342
734.398 .0285285
735.125 .0285238
735.852 .0285203
736.579 .0285181
737.305 .0285170
738.031 .0285170
738.757 .0285176
739.483 .0285187
740.208 .0285202
740.933 .0285215
741.658 .0285215
742.383 .0285206
743.108 .0285183
743.832 .0285144
744.556 .0285089
745.280 .0285022
746.004 .0284946
746.727 .0284866
747.450 .0284783
748.173 .0284695
748.896 .0284608
749.618 .0284519
750.340 .0284424
751.062 .0284326
751.784 .0284222
752.506 .0284109
753.227 .0283993
753.948 .0283872
754.669 .0283744
755.389 .0283613
756.110 .0283482
756.830 .0283349
757.550 .0283212
758.269 .0283069
758.989 .0282913
759.708 .0282743
760.427 .0282560
761.146 .0282358
761.864 .0282141
762.582 .0281910
763.300 .0281667
764.018 .0281420
764.736 .0281170
765.453 .0280924
766.170 .0280682
766.887 .0280446
767.603 .0280214
768.320 .0279983
769.036 .0279757
769.751 .0279530
770.467 .0279309
771.182 .0279088
771.897 .0278867
772.612 .0278650
773.327 .0278436
774.041 .0278226
774.755 .0278021
775.469 .0277819
776.183 .0277621
776.896 .0277421
777.609 .0277219
778.322 .0277009
779.035 .0276792
779.747 .0276566
780.459 .0276330
781.171 .0276086
781.882 .0275841
782.594 .0275596
783.305 .0275365
784.016 .0275151
784.726 .0274959
785.436 .0274788
786.147 .0274636
786.856 .0274503
787.566 .0274384
788.275 .0274271
788.984 .0274164
789.693 .0274063
790.401 .0273967
791.110 .0273870
791.818 .0273772
792.525 .0273678
793.233 .0273577
793.940 .0273473
794.647 .0273362
795.353 .0273242
796.060 .0273114
796.766 .0272975
797.472 .0272824
798.177 .0272665
798.883 .0272496
799.588 .0272321
800.292 .0272144
800.997 .0271965
801.701 .0271785
802.405 .0271611
803.109 .0271452
803.812 .0271309
804.515 .0271181
805.218 .0271072
805.921 .0270975
806.623 .0270893
807.325 .0270819
808.027 .0270749
808.728 .0270682
809.429 .0270617
810.130 .0270548
810.831 .0270475
811.531 .0270403
812.231 .0270327
812.931 .0270251
813.630 .0270172
814.330 .0270091
815.029 .0270009
815.727 .0269927
816.426 .0269846
817.124 .0269767
817.821 .0269695
818.519 .0269630
819.216 .0269570
819.913 .0269525
820.609 .0269489
821.306 .0269468
822.002 .0269462
822.697 .0269472
823.393 .0269500
824.088 .0269547
824.783 .0269611
825.477 .0269688
826.171 .0269777
826.865 .0269880
827.559 .0269991
828.252 .0270112
828.945 .0270237
829.638 .0270364
830.330 .0270489
831.023 .0270609
831.714 .0270719
832.406 .0270821
833.097 .0270906
833.788 .0270976
834.479 .0271029
835.169 .0271067
835.859 .0271100
836.548 .0271128
837.238 .0271157
837.927 .0271190
838.615 .0271222
839.304 .0271253
839.992 .0271281
840.680 .0271304
841.367 .0271318
842.054 .0271321
842.741 .0271316
843.428 .0271307
844.114 .0271303
844.800 .0271303
845.485 .0271314
846.170 .0271332
846.855 .0271349
847.540 .0271352
848.224 .0271336
848.908 .0271296
849.592 .0271226
850.275 .0271127
850.958 .0271002
851.641 .0270863
852.323 .0270716
853.005 .0270568
853.687 .0270418
854.368 .0270265
855.049 .0270104
855.730 .0269923
856.410 .0269722
857.090 .0269501
857.769 .0269262
858.449 .0269015
859.128 .0268767
859.806 .0268530
860.485 .0268307
861.163 .0268100
861.840 .0267909
862.518 .0267721
863.195 .0267529
863.871 .0267323
864.548 .0267101
865.224 .0266865
865.899 .0266618
866.574 .0266369
867.249 .0266125
867.924 .0265889
868.598 .0265661
869.272 .0265442
869.946 .0265227
870.619 .0265011
871.292 .0264789
871.964 .0264556
872.636 .0264316
873.308 .0264065
873.979 .0263810
874.651 .0263549
875.321 .0263286
875.992 .0263025
876.662 .0262763
877.331 .0262504
878.001 .0262250
878.670 .0261998
879.338 .0261752
880.007 .0261512
880.675 .0261277
881.342 .0261045
882.009 .0260818
882.676 .0260593
883.343 .0260367
884.009 .0260142
884.675 .0259916
885.340 .0259693
886.005 .0259476
886.670 .0259268
887.334 .0259071
887.998 .0258887
888.662 .0258716
889.325 .0258554
889.988 .0258402
890.650 .0258254
891.312 .0258107
891.974 .0257962
892.636 .0257817
893.297 .0257679
893.957 .0257548
894.618 .0257427
895.278 .0257320
895.937 .0257231
896.596 .0257158
897.255 .0257094
897.914 .0257037
898.572 .0256984
899.230 .0256930
899.887 .0256869
900.544 .0256794
901.201 .0256707
901.857 .0256608
902.513 .0256496
903.168 .0256371
903.823 .0256234
904.478 .0256085
905.132 .0255923
905.786 .0255746
906.440 .0255552
907.093 .0255341
907.746 .0255117
908.399 .0254882
909.051 .0254643
909.703 .0254400
910.354 .0254160
911.005 .0253930
911.656 .0253712
912.306 .0253507
912.956 .0253313
913.605 .0253132
914.254 .0252966
914.903 .0252812
915.551 .0252671
916.199 .0252547
916.847 .0252442
917.494 .0252358
918.141 .0252292
918.788 .0252239
919.434 .0252200
920.079 .0252168
920.725 .0252135
921.370 .0252100
922.014 .0252060
922.658 .0252015
923.302 .0251968
923.946 .0251920
924.589 .0251873
925.231 .0251828
925.873 .0251790
926.515 .0251751
927.157 .0251714
927.798 .0251678
928.439 .0251638
929.079 .0251599
929.719 .0251557
930.359 .0251513
930.998 .0251471
931.637 .0251433
932.275 .0251400
932.913 .0251368
933.551 .0251342
934.188 .0251323
934.825 .0251311
935.462 .0251310
936.098 .0251317
936.733 .0251337
937.369 .0251369
938.004 .0251409
938.638 .0251455
939.273 .0251510
939.907 .0251569
940.540 .0251636
941.173 .0251715
941.806 .0251808
942.438 .0251916
943.070 .0252044
943.702 .0252187
944.333 .0252340
944.964 .0252494
945.594 .0252651
946.224 .0252801
946.854 .0252951
947.483 .0253093
948.112 .0253236
948.741 .0253377
949.369 .0253519
949.996 .0253655
950.624 .0253787
951.251 .0253908
951.878 .0254013
952.504 .0254096
953.130 .0254166
953.755 .0254215
954.380 .0254262
955.005 .0254304
955.629 .0254351
956.253 .0254399
956.877 .0254454
957.500 .0254505
958.123 .0254555
958.746 .0254592
959.368 .0254618
959.990 .0254628
960.611 .0254631
961.232 .0254628
961.853 .0254633
962.473 .0254649
963.093 .0254680
963.712 .0254715
964.331 .0254758
964.950 .0254792
965.569 .0254818
966.187 .0254831
966.804 .0254835
967.422 .0254829
968.039 .0254819
968.655 .0254810
969.272 .0254803
969.887 .0254795
970.503 .0254788
971.118 .0254775
971.733 .0254753
972.347 .0254716
972.961 .0254667
973.575 .0254607
974.188 .0254538
974.801 .0254460
975.414 .0254382
976.026 .0254298
976.638 .0254206
977.250 .0254100
977.861 .0253981
978.472 .0253850
979.083 .0253702
979.693 .0253534
980.303 .0253353
980.912 .0253163
981.521 .0252962
982.130 .0252750
982.738 .0252536
983.346 .0252320
983.954 .0252101
984.562 .0251881
985.169 .0251658
985.775 .0251435
986.382 .0251218
986.988 .0251008
987.594 .0250807
988.199 .0250612
988.804 .0250421
989.409 .0250230
990.013 .0250044
990.617 .0249860
991.221 .0249671
991.824 .0249492
992.427 .0249322
993.030 .0249154
993.632 .0248993
994.234 .0248842
994.836 .0248698
995.438 .0248556
996.039 .0248415
996.640 .0248265
997.240 .0248109
997.840 .0247948
998.440 .0247779
999.040 .0247608
999.639 .0247438
1000.238 .0247269
1000.836 .0247100
1001.435 .0246938
1002.033 .0246777
1002.630 .0246615
1003.228 .0246453
1003.825 .0246291
1004.422 .0246122
1005.018 .0245950
1005.614 .0245775
1006.210 .0245595
1006.806 .0245414
1007.401 .0245229
1007.996 .0245036
1008.591 .0244843
1009.186 .0244649
1009.780 .0244460
1010.374 .0244274
1010.967 .0244098
1011.561 .0243924
1012.154 .0243751
1012.746 .0243573
1013.339 .0243392
1013.931 .0243201
1014.523 .0243006
1015.115 .0242799
1015.706 .0242592
1016.298 .0242383
1016.888 .0242180
1017.479 .0241986
1018.069 .0241804
1018.660 .0241633
1019.250 .0241473
1019.839 .0241317
1020.429 .0241174
1021.018 .0241041
1021.607 .0240923
1022.195 .0240814
1022.784 .0240724
1023.372 .0240647
1023.960 .0240590
1024.547 .0240547
1025.135 .0240520
1025.722 .0240501
1026.309 .0240484
1026.896 .0240464
1027.483 .0240441
1028.069 .0240418
1028.655 .0240397
1029.241 .0240379
1029.827 .0240364
1030.412 .0240352
1030.997 .0240341
1031.582 .0240327
1032.167 .0240310
1032.752 .0240287
1033.336 .0240255
1033.921 .0240211
1034.505 .0240157
1035.089 .0240097
1035.672 .0240030
1036.256 .0239967
1036.839 .0239903
1037.422 .0239843
1038.005 .0239790
1038.588 .0239743
1039.171 .0239703
1039.753 .0239672
1040.335 .0239649
1040.918 .0239629
1041.500 .0239601
1042.081 .0239573
1042.663 .0239534
1043.244 .0239494
1043.826 .0239448
1044.407 .0239397
1044.988 .0239355
1045.569 .0239323
1046.150 .0239301
1046.730 .0239286
1047.311 .0239285
1047.891 .0239291
1048.471 .0239294
1049.052 .0239292
1049.632 .0239285
1050.211 .0239275
1050.791 .0239267
1051.371 .0239261
1051.950 .0239260
1052.530 .0239270
1053.109 .0239287
1053.688 .0239311
1054.268 .0239346
1054.847 .0239379
1055.426 .0239421
1056.005 .0239470
1056.583 .0239537
1057.162 .0239604
1057.741 .0239672
1058.319 .0239743
1058.898 .0239811
1059.476 .0239870
1060.055 .0239916
1060.633 .0239954
1061.211 .0240002
1061.790 .0240060
1062.368 .0240138
1062.946 .0240242
1063.524 .0240376
1064.102 .0240528
1064.680 .0240689
1065.258 .0240844
1065.836 .0240988
1066.414 .0241106
1066.992 .0241209
1067.570 .0241292
1068.148 .0241361
1068.726 .0241426
1069.304 .0241496
1069.882 .0241574
1070.460 .0241645
1071.038 .0241709
1071.616 .0241756
1072.194 .0241795
1072.772 .0241819
1073.350 .0241833
1073.928 .0241860
1074.506 .0241903
1075.084 .0241975
1075.662 .0242076
1076.240 .0242216
1076.819 .0242385
1077.397 .0242580
1077.976 .0242792
1078.554 .0243006
1079.133 .0243230
1079.711 .0243443
1080.290 .0243659
1080.869 .0243881
1081.448 .0244104
1082.027 .0244313
1082.606 .0244524
1083.185 .0244740
1083.764 .0244944
1084.343 .0245164
1084.923 .0245388
1085.502 .0245618
1086.082 .0245853
1086.662 .0246097
1087.242 .0246338
1087.822 .0246581
1088.402 .0246838
1088.983 .0247079
1089.563 .0247326
1090.144 .0247594
1090.725 .0247867
1091.306 .0248169
1091.887 .0248499
1092.469 .0248849
1093.050 .0249192
1093.632 .0249548
1094.214 .0249879
1094.796 .0250184
1095.379 .0250465
1095.961 .0250731
1096.544 .0250984
1097.127 .0251254
1097.710 .0251545
1098.294 .0251854
1098.877 .0252200
1099.461 .0252580
1100.046 .0252956
1100.630 .0253348
1101.215 .0253745
1101.800 .0254155
1102.385 .0254558
1102.970 .0254978
1103.556 .0255390
1104.142 .0255816
1104.728 .0256261
1105.315 .0256711
1105.902 .0257148
1106.489 .0257596
1107.077 .0258030
1107.664 .0258434
1108.253 .0258821
1108.841 .0259196
1109.430 .0259535
1110.019 .0259874
1110.609 .0260203
1111.198 .0260534
1111.789 .0260871
1112.379 .0261219
1112.970 .0261577
1113.561 .0261965
1114.153 .0262358
1114.745 .0262740
1115.338 .0263132
1115.931 .0263539
1116.524 .0263934
1117.117 .0264343
1117.712 .0264794
1118.306 .0265302
1118.901 .0265868
1119.496 .0266486
1120.092 .0267133
1120.689 .0267822
1121.285 .0268486
1121.882 .0269106
1122.480 .0269699
1123.078 .0270264
1123.677 .0270777
1124.276 .0271280
1124.875 .0271806
1125.476 .0272395
1126.076 .0273049
1126.677 .0273789
1127.279 .0274586
1127.881 .0275409
1128.484 .0276206
1129.087 .0276921
1129.691 .0277579
1130.295 .0278176
1130.900 .0278719
1131.505 .0279299
1132.111 .0279958
1132.718 .0280733
1133.325 .0281637
1133.933 .0282678
1134.541 .0283817
1135.150 .0284987
1135.760 .0286130
1136.370 .0287187
1136.981 .0288184
1137.592 .0289102
1138.204 .0289998
1138.817 .0290982
1139.431 .0292073
1140.045 .0293222
1140.660 .0294434
1141.275 .0295806
1141.891 .0297037
1142.508 .0299944
1143.126 .0299062
1143.744 .0299932
1144.363 .0304437
1144.983 .0299718
