Measurement Sequence started on: 15-12-46-377
Integration time: 28
Scans to Average: 2 
>>>>>Begin Spectral Data<<<<<
432.689 .0000100
433.621 .0000100
434.552 .0000100
435.482 .0000100
436.410 .0000100
437.337 .0000100
438.262 .0248643
439.187 .0526858
440.110 .0872090
441.031 .1262280
441.952 .1641343
442.871 .1939438
443.789 .2102606
444.705 .2112586
445.621 .1991607
446.535 .1789509
447.447 .1560337
448.359 .1209844
449.269 .1035387
450.178 .0925070
451.086 .0846361
451.993 .0786306
452.898 .0739464
453.803 .0701511
454.706 .0670061
455.608 .0643711
456.508 .0621050
457.408 .0601541
458.306 .0584633
459.204 .0569730
460.100 .0556530
460.995 .0544931
461.888 .0534744
462.781 .0525600
463.673 .0517261
464.563 .0509660
465.452 .0502526
466.340 .0495643
467.228 .0489194
468.114 .0482813
468.999 .0476698
469.882 .0470980
470.765 .0465699
471.647 .0460924
472.528 .0456677
473.407 .0452989
474.286 .0449796
475.163 .0447081
476.040 .0444787
476.915 .0442711
477.790 .0440910
478.663 .0439305
479.535 .0437829
480.407 .0436546
481.277 .0435539
482.147 .0434707
483.015 .0434147
483.883 .0433799
484.749 .0433582
485.615 .0433439
486.479 .0433275
487.343 .0433202
488.206 .0433093
489.067 .0433047
489.928 .0433010
490.788 .0433047
491.647 .0433205
492.505 .0433483
493.362 .0433897
494.218 .0434478
495.073 .0435133
495.928 .0435911
496.781 .0436768
497.634 .0437855
498.486 .0439096
499.337 .0440547
500.187 .0442274
501.036 .0444348
501.884 .0446582
502.731 .0449146
503.578 .0451900
504.424 .0454967
505.268 .0458307
506.113 .0461943
506.956 .0465885
507.798 .0470374
508.640 .0475511
509.480 .0481416
510.320 .0488213
511.160 .0496044
511.998 .0504766
512.836 .0514601
513.672 .0525573
514.508 .0537686
515.344 .0551085
516.178 .0566164
517.012 .0583009
517.845 .0601865
518.677 .0623036
519.508 .0646677
520.339 .0673194
521.169 .0703176
521.998 .0736741
522.826 .0774156
523.654 .0816034
524.481 .0862419
525.307 .0913817
526.133 .0970008
526.958 .1030570
527.782 .1094586
528.605 .1160356
529.428 .1226602
530.250 .1288732
531.072 .1344132
531.892 .1390216
532.712 .1424242
533.532 .1444591
534.350 .1449839
535.168 .1439581
535.986 .1414432
536.802 .1375728
537.618 .1325941
538.434 .1266689
539.249 .1202151
540.063 .1134496
540.876 .1066260
541.689 .1000065
542.501 .0937884
543.313 .0880985
544.124 .0830300
544.934 .0785475
545.744 .0745838
546.553 .0710711
547.361 .0680041
548.169 .0653407
548.976 .0630000
549.783 .0609312
550.589 .0590877
551.395 .0574102
552.200 .0558808
553.004 .0544745
553.808 .0531783
554.611 .0520061
555.414 .0509481
556.216 .0499922
557.018 .0491348
557.819 .0483599
558.619 .0476238
559.419 .0469223
560.218 .0462418
561.017 .0455558
561.815 .0448606
562.613 .0441699
563.410 .0434854
564.207 .0428227
565.003 .0421959
565.799 .0416040
566.594 .0410503
567.388 .0405347
568.182 .0400419
568.976 .0395699
569.769 .0391163
570.562 .0386795
571.354 .0382489
572.145 .0378341
572.936 .0374297
573.727 .0370309
574.517 .0366473
575.307 .0362775
576.096 .0359225
576.885 .0355791
577.673 .0352511
578.461 .0349335
579.248 .0346323
580.035 .0343459
580.821 .0340718
581.607 .0338124
582.392 .0335655
583.177 .0333324
583.962 .0331143
584.746 .0329127
585.529 .0327290
586.313 .0325597
587.095 .0324052
587.878 .0322615
588.660 .0321299
589.441 .0320097
590.222 .0318971
591.003 .0317939
591.783 .0316982
592.563 .0316086
593.342 .0315268
594.121 .0314519
594.899 .0313839
595.678 .0313228
596.455 .0312664
597.233 .0312140
598.009 .0311646
598.786 .0311166
599.562 .0310700
600.338 .0310243
601.113 .0309801
601.888 .0309378
602.663 .0308961
603.437 .0308574
604.211 .0308196
604.984 .0307831
605.757 .0307470
606.530 .0307101
607.302 .0306720
608.074 .0306329
608.845 .0305927
609.616 .0305532
610.387 .0305149
611.158 .0304792
611.928 .0304457
612.697 .0304153
613.467 .0303876
614.236 .0303626
615.004 .0303387
615.773 .0303167
616.541 .0302951
617.308 .0302760
618.076 .0302588
618.843 .0302445
619.609 .0302338
620.375 .0302267
621.141 .0302219
621.907 .0302188
622.672 .0302159
623.437 .0302118
624.202 .0302054
624.966 .0301975
625.730 .0301872
626.493 .0301764
627.257 .0301652
628.020 .0301544
628.782 .0301444
629.545 .0301356
630.307 .0301262
631.068 .0301162
631.830 .0301054
632.591 .0300922
633.352 .0300770
634.112 .0300607
634.872 .0300435
635.632 .0300256
636.392 .0300077
637.151 .0299899
637.910 .0299723
638.668 .0299552
639.427 .0299376
640.185 .0299190
640.943 .0298999
641.700 .0298791
642.457 .0298560
643.214 .0298310
643.971 .0298040
644.727 .0297746
645.483 .0297439
646.239 .0297124
646.994 .0296812
647.750 .0296514
648.505 .0296231
649.259 .0295970
650.014 .0295723
650.768 .0295485
651.521 .0295244
652.275 .0294993
653.028 .0294729
653.781 .0294449
654.534 .0294163
655.286 .0293872
656.039 .0293585
656.791 .0293311
657.542 .0293040
658.294 .0292778
659.045 .0292512
659.796 .0292237
660.546 .0291949
661.297 .0291643
662.047 .0291324
662.796 .0290999
663.546 .0290680
664.295 .0290371
665.044 .0290077
665.793 .0289803
666.542 .0289545
667.290 .0289301
668.038 .0289070
668.786 .0288845
669.533 .0288626
670.281 .0288412
671.028 .0288203
671.774 .0288001
672.521 .0287810
673.267 .0287629
674.013 .0287466
674.759 .0287316
675.505 .0287183
676.250 .0287062
676.995 .0286953
677.740 .0286857
678.484 .0286772
679.229 .0286700
679.973 .0286637
680.717 .0286585
681.460 .0286541
682.204 .0286503
682.947 .0286480
683.690 .0286466
684.433 .0286460
685.175 .0286458
685.917 .0286456
686.659 .0286451
687.401 .0286443
688.142 .0286426
688.884 .0286395
689.625 .0286352
690.365 .0286293
691.106 .0286218
691.846 .0286128
692.586 .0286028
693.326 .0285921
694.066 .0285809
694.805 .0285696
695.545 .0285576
696.284 .0285459
697.022 .0285345
697.761 .0285230
698.499 .0285116
699.237 .0285008
699.975 .0284902
700.713 .0284801
701.450 .0284708
702.187 .0284624
702.924 .0284545
703.661 .0284468
704.397 .0284386
705.133 .0284300
705.869 .0284209
706.605 .0284109
707.341 .0284000
708.076 .0283890
708.811 .0283771
709.546 .0283644
710.281 .0283507
711.015 .0283360
711.749 .0283197
712.483 .0283019
713.217 .0282822
713.950 .0282613
714.684 .0282392
715.417 .0282166
716.150 .0281938
716.882 .0281717
717.615 .0281495
718.347 .0281269
719.079 .0281042
719.811 .0280810
720.542 .0280566
721.273 .0280315
722.005 .0280051
722.735 .0279782
723.466 .0279506
724.196 .0279222
724.927 .0278926
725.656 .0278626
726.386 .0278320
727.116 .0278005
727.845 .0277688
728.574 .0277369
729.303 .0277052
730.031 .0276747
730.760 .0276454
731.488 .0276170
732.216 .0275902
732.944 .0275651
733.671 .0275405
734.398 .0275174
735.125 .0274956
735.852 .0274754
736.579 .0274569
737.305 .0274405
738.031 .0274259
738.757 .0274129
739.483 .0274016
740.208 .0273908
740.933 .0273803
741.658 .0273698
742.383 .0273587
743.108 .0273468
743.832 .0273346
744.556 .0273223
745.280 .0273095
746.004 .0272974
746.727 .0272860
747.450 .0272746
748.173 .0272635
748.896 .0272527
749.618 .0272421
750.340 .0272315
751.062 .0272213
751.784 .0272112
752.506 .0272021
753.227 .0271945
753.948 .0271877
754.669 .0271825
755.389 .0271787
756.110 .0271761
756.830 .0271738
757.550 .0271722
758.269 .0271707
758.989 .0271687
759.708 .0271666
760.427 .0271644
761.146 .0271621
761.864 .0271600
762.582 .0271579
763.300 .0271561
764.018 .0271546
764.736 .0271532
765.453 .0271513
766.170 .0271492
766.887 .0271467
767.603 .0271431
768.320 .0271386
769.036 .0271338
769.751 .0271289
770.467 .0271241
771.182 .0271201
771.897 .0271169
772.612 .0271149
773.327 .0271143
774.041 .0271147
774.755 .0271162
775.469 .0271184
776.183 .0271210
776.896 .0271239
777.609 .0271273
778.322 .0271312
779.035 .0271354
779.747 .0271407
780.459 .0271468
781.171 .0271537
781.882 .0271611
782.594 .0271686
783.305 .0271760
784.016 .0271828
784.726 .0271884
785.436 .0271923
786.147 .0271947
786.856 .0271953
787.566 .0271942
788.275 .0271917
788.984 .0271880
789.693 .0271830
790.401 .0271766
791.110 .0271683
791.818 .0271584
792.525 .0271471
793.233 .0271342
793.940 .0271195
794.647 .0271037
795.353 .0270866
796.060 .0270690
796.766 .0270508
797.472 .0270322
798.177 .0270134
798.883 .0269944
799.588 .0269749
800.292 .0269546
800.997 .0269337
801.701 .0269120
802.405 .0268896
803.109 .0268663
803.812 .0268421
804.515 .0268173
805.218 .0267915
805.921 .0267649
806.623 .0267374
807.325 .0267092
808.027 .0266801
808.728 .0266504
809.429 .0266199
810.130 .0265887
810.831 .0265574
811.531 .0265257
812.231 .0264937
812.931 .0264613
813.630 .0264285
814.330 .0263954
815.029 .0263628
815.727 .0263307
816.426 .0262990
817.124 .0262685
817.821 .0262387
818.519 .0262096
819.216 .0261817
819.913 .0261543
820.609 .0261275
821.306 .0261015
822.002 .0260755
822.697 .0260495
823.393 .0260243
824.088 .0260002
824.783 .0259770
825.477 .0259553
826.171 .0259353
826.865 .0259172
827.559 .0259010
828.252 .0258870
828.945 .0258745
829.638 .0258637
830.330 .0258542
831.023 .0258452
831.714 .0258367
832.406 .0258286
833.097 .0258208
833.788 .0258134
834.479 .0258065
835.169 .0257998
835.859 .0257934
836.548 .0257877
837.238 .0257826
837.927 .0257779
838.615 .0257733
839.304 .0257686
839.992 .0257637
840.680 .0257585
841.367 .0257527
842.054 .0257469
842.741 .0257413
843.428 .0257363
844.114 .0257324
844.800 .0257298
845.485 .0257285
846.170 .0257288
846.855 .0257307
847.540 .0257335
848.224 .0257375
848.908 .0257421
849.592 .0257471
850.275 .0257522
850.958 .0257569
851.641 .0257610
852.323 .0257646
853.005 .0257676
853.687 .0257699
854.368 .0257718
855.049 .0257734
855.730 .0257745
856.410 .0257754
857.090 .0257765
857.769 .0257775
858.449 .0257784
859.128 .0257789
859.806 .0257789
860.485 .0257786
861.163 .0257777
861.840 .0257769
862.518 .0257766
863.195 .0257770
863.871 .0257781
864.548 .0257804
865.224 .0257843
865.899 .0257896
866.574 .0257962
867.249 .0258038
867.924 .0258119
868.598 .0258207
869.272 .0258295
869.946 .0258384
870.619 .0258476
871.292 .0258567
871.964 .0258651
872.636 .0258728
873.308 .0258795
873.979 .0258852
874.651 .0258902
875.321 .0258948
875.992 .0258992
876.662 .0259033
877.331 .0259075
878.001 .0259121
878.670 .0259172
879.338 .0259226
880.007 .0259281
880.675 .0259335
881.342 .0259384
882.009 .0259430
882.676 .0259470
883.343 .0259510
884.009 .0259551
884.675 .0259594
885.340 .0259637
886.005 .0259683
886.670 .0259727
887.334 .0259769
887.998 .0259806
888.662 .0259834
889.325 .0259846
889.988 .0259841
890.650 .0259821
891.312 .0259787
891.974 .0259741
892.636 .0259685
893.297 .0259618
893.957 .0259544
894.618 .0259463
895.278 .0259373
895.937 .0259275
896.596 .0259173
897.255 .0259062
897.914 .0258942
898.572 .0258813
899.230 .0258676
899.887 .0258530
900.544 .0258378
901.201 .0258219
901.857 .0258049
902.513 .0257866
903.168 .0257669
903.823 .0257455
904.478 .0257228
905.132 .0256986
905.786 .0256729
906.440 .0256464
907.093 .0256191
907.746 .0255905
908.399 .0255612
909.051 .0255312
909.703 .0255001
910.354 .0254681
911.005 .0254352
911.656 .0254011
912.306 .0253662
912.956 .0253312
913.605 .0252959
914.254 .0252607
914.903 .0252256
915.551 .0251906
916.199 .0251557
916.847 .0251215
917.494 .0250874
918.141 .0250538
918.788 .0250211
919.434 .0249887
920.079 .0249563
920.725 .0249243
921.370 .0248922
922.014 .0248600
922.658 .0248275
923.302 .0247946
923.946 .0247612
924.589 .0247272
925.231 .0246928
925.873 .0246586
926.515 .0246249
927.157 .0245911
927.798 .0245573
928.439 .0245232
929.079 .0244883
929.719 .0244522
930.359 .0244150
930.998 .0243768
931.637 .0243384
932.275 .0243004
932.913 .0242636
933.551 .0242287
934.188 .0241966
934.825 .0241671
935.462 .0241405
936.098 .0241165
936.733 .0240943
937.369 .0240737
938.004 .0240547
938.638 .0240369
939.273 .0240204
939.907 .0240056
940.540 .0239930
941.173 .0239829
941.806 .0239755
942.438 .0239698
943.070 .0239658
943.702 .0239624
944.333 .0239586
944.964 .0239534
945.594 .0239464
946.224 .0239377
946.854 .0239276
947.483 .0239167
948.112 .0239056
948.741 .0238948
949.369 .0238848
949.996 .0238755
950.624 .0238668
951.251 .0238580
951.878 .0238489
952.504 .0238396
953.130 .0238298
953.755 .0238200
954.380 .0238104
955.005 .0238016
955.629 .0237942
956.253 .0237882
956.877 .0237839
957.500 .0237813
958.123 .0237805
958.746 .0237808
959.368 .0237821
959.990 .0237844
960.611 .0237870
961.232 .0237902
961.853 .0237943
962.473 .0237987
963.093 .0238039
963.712 .0238098
964.331 .0238159
964.950 .0238225
965.569 .0238298
966.187 .0238377
966.804 .0238464
967.422 .0238561
968.039 .0238661
968.655 .0238762
969.272 .0238865
969.887 .0238964
970.503 .0239056
971.118 .0239151
971.733 .0239245
972.347 .0239340
972.961 .0239440
973.575 .0239546
974.188 .0239660
974.801 .0239782
975.414 .0239909
976.026 .0240037
976.638 .0240166
977.250 .0240294
977.861 .0240418
978.472 .0240539
979.083 .0240656
979.693 .0240767
980.303 .0240869
980.912 .0240962
981.521 .0241045
982.130 .0241116
982.738 .0241184
983.346 .0241246
983.954 .0241310
984.562 .0241377
985.169 .0241445
985.775 .0241509
986.382 .0241570
986.988 .0241622
987.594 .0241659
988.199 .0241679
988.804 .0241694
989.409 .0241706
990.013 .0241724
990.617 .0241754
991.221 .0241801
991.824 .0241873
992.427 .0241968
993.030 .0242076
993.632 .0242197
994.234 .0242325
994.836 .0242456
995.438 .0242591
996.039 .0242732
996.640 .0242880
997.240 .0243042
997.840 .0243223
998.440 .0243420
999.040 .0243629
999.639 .0243853
1000.238 .0244077
1000.836 .0244303
1001.435 .0244523
1002.033 .0244726
1002.630 .0244912
1003.228 .0245083
1003.825 .0245237
1004.422 .0245377
1005.018 .0245508
1005.614 .0245626
1006.210 .0245734
1006.806 .0245835
1007.401 .0245920
1007.996 .0245991
1008.591 .0246054
1009.186 .0246104
1009.780 .0246139
1010.374 .0246168
1010.967 .0246188
1011.561 .0246205
1012.154 .0246229
1012.746 .0246257
1013.339 .0246297
1013.931 .0246347
1014.523 .0246410
1015.115 .0246469
1015.706 .0246533
1016.298 .0246595
1016.888 .0246647
1017.479 .0246692
1018.069 .0246730
1018.660 .0246766
1019.250 .0246802
1019.839 .0246844
1020.429 .0246895
1021.018 .0246960
1021.607 .0247037
1022.195 .0247118
1022.784 .0247198
1023.372 .0247272
1023.960 .0247344
1024.547 .0247402
1025.135 .0247457
1025.722 .0247509
1026.309 .0247556
1026.896 .0247613
1027.483 .0247680
1028.069 .0247765
1028.655 .0247860
1029.241 .0247967
1029.827 .0248080
1030.412 .0248183
1030.997 .0248284
1031.582 .0248366
1032.167 .0248430
1032.752 .0248480
1033.336 .0248509
1033.921 .0248520
1034.505 .0248515
1035.089 .0248494
1035.672 .0248455
1036.256 .0248399
1036.839 .0248323
1037.422 .0248219
1038.005 .0248095
1038.588 .0247957
1039.171 .0247800
1039.753 .0247633
1040.335 .0247462
1040.918 .0247283
1041.500 .0247096
1042.081 .0246905
1042.663 .0246705
1043.244 .0246503
1043.826 .0246290
1044.407 .0246072
1044.988 .0245853
1045.569 .0245633
1046.150 .0245418
1046.730 .0245210
1047.311 .0245016
1047.891 .0244826
1048.471 .0244632
1049.052 .0244436
1049.632 .0244226
1050.211 .0244015
1050.791 .0243784
1051.371 .0243551
1051.950 .0243328
1052.530 .0243114
1053.109 .0242914
1053.688 .0242732
1054.268 .0242573
1054.847 .0242433
1055.426 .0242307
1056.005 .0242183
1056.583 .0242059
1057.162 .0241930
1057.741 .0241785
1058.319 .0241630
1058.898 .0241473
1059.476 .0241308
1060.055 .0241142
1060.633 .0240985
1061.211 .0240834
1061.790 .0240683
1062.368 .0240552
1062.946 .0240424
1063.524 .0240302
1064.102 .0240161
1064.680 .0240001
1065.258 .0239822
1065.836 .0239633
1066.414 .0239427
1066.992 .0239209
1067.570 .0238998
1068.148 .0238798
1068.726 .0238598
1069.304 .0238418
1069.882 .0238239
1070.460 .0238070
1071.038 .0237896
1071.616 .0237709
1072.194 .0237501
1072.772 .0237284
1073.350 .0237066
1073.928 .0236864
1074.506 .0236673
1075.084 .0236499
1075.662 .0236330
1076.240 .0236176
1076.819 .0236031
1077.397 .0235887
1077.976 .0235743
1078.554 .0235608
1079.133 .0235478
1079.711 .0235357
1080.290 .0235240
1080.869 .0235149
1081.448 .0235084
1082.027 .0235043
1082.606 .0235017
1083.185 .0235004
1083.764 .0234997
1084.343 .0235002
1084.923 .0235003
1085.502 .0235009
1086.082 .0235014
1086.662 .0235009
1087.242 .0235002
1087.822 .0234993
1088.402 .0234991
1088.983 .0234984
1089.563 .0234969
1090.144 .0234945
1090.725 .0234908
1091.306 .0234848
1091.887 .0234766
1092.469 .0234674
1093.050 .0234583
1093.632 .0234503
1094.214 .0234450
1094.796 .0234443
1095.379 .0234501
1095.961 .0234625
1096.544 .0234812
1097.127 .0235036
1097.710 .0235295
1098.294 .0235567
1098.877 .0235848
1099.461 .0236150
1100.046 .0236458
1100.630 .0236776
1101.215 .0237120
1101.800 .0237481
1102.385 .0237845
1102.970 .0238207
1103.556 .0238542
1104.142 .0238852
1104.728 .0239118
1105.315 .0239360
1105.902 .0239573
1106.489 .0239797
1107.077 .0240030
1107.664 .0240273
1108.253 .0240501
1108.841 .0240727
1109.430 .0240928
1110.019 .0241105
1110.609 .0241252
1111.198 .0241379
1111.789 .0241496
1112.379 .0241637
1112.970 .0241815
1113.561 .0242060
1114.153 .0242352
1114.745 .0242715
1115.338 .0243106
1115.931 .0243525
1116.524 .0243934
1117.117 .0244328
1117.712 .0244739
1118.306 .0245191
1118.901 .0245685
1119.496 .0246228
1120.092 .0246842
1120.689 .0247538
1121.285 .0248274
1121.882 .0249006
1122.480 .0249728
1123.078 .0250400
1123.677 .0251005
1124.276 .0251561
1124.875 .0252101
1125.476 .0252638
1126.076 .0253196
1126.677 .0253804
1127.279 .0254474
1127.881 .0255213
1128.484 .0255993
1129.087 .0256778
1129.691 .0257601
1130.295 .0258446
1130.900 .0259274
1131.505 .0260114
1132.111 .0261045
1132.718 .0262053
1133.325 .0263160
1133.933 .0264351
1134.541 .0265603
1135.150 .0266901
1135.760 .0268205
1136.370 .0269428
1136.981 .0270593
1137.592 .0271659
1138.204 .0272643
1138.817 .0273591
1139.431 .0274505
1140.045 .0275376
1140.660 .0276136
1141.275 .0276869
1141.891 .0277452
1142.508 .0279069
1143.126 .0279473
1143.744 .0276956
1144.363 .0279175
1144.983 .0278032
