Measurement Sequence started on: 15-12-46-377
Integration time: 28
Scans to Average: 2 
>>>>>Begin Spectral Data<<<<<
432.689 .0000100
433.621 .0000100
434.552 .0000100
435.482 .0000100
436.410 .0000100
437.337 .0000100
438.262 .0261385
439.187 .0554427
440.110 .0918774
441.031 .1329938
441.952 .1729471
442.871 .2044153
443.789 .2217016
444.705 .2228380
445.621 .2102309
446.535 .1890697
447.447 .1650883
448.359 .1283748
449.269 .1101358
450.178 .0986205
451.086 .0904878
451.993 .0842513
452.898 .0793245
453.803 .0752777
454.706 .0718997
455.608 .0690049
456.508 .0665207
457.408 .0643599
458.306 .0624693
459.204 .0607895
460.100 .0592851
460.995 .0579373
461.888 .0567362
462.781 .0556318
463.673 .0546131
464.563 .0536745
465.452 .0527963
466.340 .0519686
467.228 .0511985
468.114 .0504762
468.999 .0498099
469.882 .0491937
470.765 .0486226
471.647 .0480915
472.528 .0476079
473.407 .0471683
474.286 .0467647
475.163 .0463974
476.040 .0460692
476.915 .0457756
477.790 .0455248
478.663 .0453195
479.535 .0451602
480.407 .0450429
481.277 .0449686
482.147 .0449205
483.015 .0448996
483.883 .0449022
484.749 .0449144
485.615 .0449420
486.479 .0449799
487.343 .0450302
488.206 .0450978
489.067 .0451878
489.928 .0452998
490.788 .0454324
491.647 .0455857
492.505 .0457451
493.362 .0459028
494.218 .0460556
495.073 .0462023
495.928 .0463432
496.781 .0464814
497.634 .0466222
498.486 .0467705
499.337 .0469386
500.187 .0471219
501.036 .0473323
501.884 .0475708
502.731 .0478276
503.578 .0481130
504.424 .0484264
505.268 .0487628
506.113 .0491317
506.956 .0495477
507.798 .0500261
508.640 .0505676
509.480 .0511746
510.320 .0518537
511.160 .0526200
511.998 .0534787
512.836 .0544289
513.672 .0554797
514.508 .0566484
515.344 .0579417
516.178 .0593728
517.012 .0609958
517.845 .0628284
518.677 .0649177
519.508 .0672893
520.339 .0699836
521.169 .0730356
521.998 .0764639
522.826 .0803281
523.654 .0846830
524.481 .0895069
525.307 .0948870
526.133 .1007753
526.958 .1071441
527.782 .1139486
528.605 .1210005
529.428 .1281238
530.250 .1348444
531.072 .1408244
531.892 .1456965
532.712 .1491636
533.532 .1511010
534.350 .1513082
535.168 .1498109
535.986 .1467533
536.802 .1422754
537.618 .1367135
538.434 .1302910
539.249 .1234403
540.063 .1163759
540.876 .1093387
541.689 .1025564
542.501 .0962110
543.313 .0904542
544.124 .0853327
544.934 .0807842
545.744 .0767503
546.553 .0731539
547.361 .0699707
548.169 .0671487
548.976 .0646474
549.783 .0624266
550.589 .0604602
551.395 .0586879
552.200 .0571194
553.004 .0557158
553.808 .0544531
554.611 .0533256
555.414 .0523115
556.216 .0513996
557.018 .0505783
557.819 .0498282
558.619 .0491409
559.419 .0484958
560.218 .0478903
561.017 .0472932
561.815 .0467137
562.613 .0461430
563.410 .0455681
564.207 .0449873
565.003 .0444131
565.799 .0438432
566.594 .0432799
567.388 .0427350
568.182 .0422056
568.976 .0416918
569.769 .0411971
570.562 .0407220
571.354 .0402609
572.145 .0398160
572.936 .0393843
573.727 .0389506
574.517 .0385237
575.307 .0380994
576.096 .0376781
576.885 .0372718
577.673 .0368860
578.461 .0365227
579.248 .0361830
580.035 .0358703
580.821 .0355803
581.607 .0353062
582.392 .0350481
583.177 .0347983
583.962 .0345591
584.746 .0343325
585.529 .0341169
586.313 .0339155
587.095 .0337327
587.878 .0335695
588.660 .0334237
589.441 .0332950
590.222 .0331803
591.003 .0330771
591.783 .0329828
592.563 .0328935
593.342 .0328103
594.121 .0327318
594.899 .0326603
595.678 .0325936
596.455 .0325329
597.233 .0324776
598.009 .0324270
598.786 .0323814
599.562 .0323387
600.338 .0322987
601.113 .0322611
601.888 .0322250
602.663 .0321909
603.437 .0321578
604.211 .0321263
604.984 .0320954
605.757 .0320661
606.530 .0320377
607.302 .0320106
608.074 .0319844
608.845 .0319594
609.616 .0319352
610.387 .0319131
611.158 .0318929
611.928 .0318735
612.697 .0318558
613.467 .0318401
614.236 .0318248
615.004 .0318097
615.773 .0317951
616.541 .0317816
617.308 .0317688
618.076 .0317577
618.843 .0317475
619.609 .0317390
620.375 .0317327
621.141 .0317268
621.907 .0317207
622.672 .0317149
623.437 .0317071
624.202 .0316967
624.966 .0316842
625.730 .0316697
626.493 .0316526
627.257 .0316340
628.020 .0316142
628.782 .0315923
629.545 .0315682
630.307 .0315419
631.068 .0315123
631.830 .0314802
632.591 .0314450
633.352 .0314064
634.112 .0313664
634.872 .0313267
635.632 .0312866
636.392 .0312482
637.151 .0312128
637.910 .0311801
638.668 .0311492
639.427 .0311205
640.185 .0310926
640.943 .0310655
641.700 .0310388
642.457 .0310121
643.214 .0309860
643.971 .0309605
644.727 .0309354
645.483 .0309106
646.239 .0308862
646.994 .0308616
647.750 .0308367
648.505 .0308120
649.259 .0307871
650.014 .0307618
650.768 .0307365
651.521 .0307113
652.275 .0306862
653.028 .0306608
653.781 .0306355
654.534 .0306108
655.286 .0305869
656.039 .0305634
656.791 .0305418
657.542 .0305214
658.294 .0305028
659.045 .0304855
659.796 .0304696
660.546 .0304547
661.297 .0304399
662.047 .0304250
662.796 .0304091
663.546 .0303925
664.295 .0303752
665.044 .0303570
665.793 .0303389
666.542 .0303210
667.290 .0303039
668.038 .0302878
668.786 .0302728
669.533 .0302581
670.281 .0302439
671.028 .0302295
671.774 .0302148
672.521 .0302001
673.267 .0301849
674.013 .0301700
674.759 .0301554
675.505 .0301414
676.250 .0301280
676.995 .0301156
677.740 .0301047
678.484 .0300948
679.229 .0300863
679.973 .0300790
680.717 .0300722
681.460 .0300658
682.204 .0300597
682.947 .0300536
683.690 .0300472
684.433 .0300401
685.175 .0300319
685.917 .0300234
686.659 .0300145
687.401 .0300053
688.142 .0299957
688.884 .0299863
689.625 .0299769
690.365 .0299668
691.106 .0299556
691.846 .0299429
692.586 .0299284
693.326 .0299120
694.066 .0298933
694.805 .0298727
695.545 .0298508
696.284 .0298282
697.022 .0298053
697.761 .0297824
698.499 .0297594
699.237 .0297366
699.975 .0297136
700.713 .0296910
701.450 .0296678
702.187 .0296443
702.924 .0296204
703.661 .0295964
704.397 .0295722
705.133 .0295475
705.869 .0295231
706.605 .0294987
707.341 .0294749
708.076 .0294512
708.811 .0294273
709.546 .0294039
710.281 .0293806
711.015 .0293568
711.749 .0293326
712.483 .0293078
713.217 .0292820
713.950 .0292558
714.684 .0292290
715.417 .0292020
716.150 .0291757
716.882 .0291502
717.615 .0291258
718.347 .0291027
719.079 .0290813
719.811 .0290608
720.542 .0290415
721.273 .0290233
722.005 .0290048
722.735 .0289862
723.466 .0289676
724.196 .0289486
724.927 .0289292
725.656 .0289098
726.386 .0288902
727.116 .0288707
727.845 .0288520
728.574 .0288338
729.303 .0288163
730.031 .0288002
730.760 .0287852
731.488 .0287708
732.216 .0287569
732.944 .0287439
733.671 .0287312
734.398 .0287195
735.125 .0287087
735.852 .0286996
736.579 .0286922
737.305 .0286869
738.031 .0286837
738.757 .0286823
739.483 .0286819
740.208 .0286821
740.933 .0286817
741.658 .0286806
742.383 .0286779
743.108 .0286744
743.832 .0286699
744.556 .0286658
745.280 .0286619
746.004 .0286588
746.727 .0286569
747.450 .0286564
748.173 .0286561
748.896 .0286559
749.618 .0286554
750.340 .0286544
751.062 .0286523
751.784 .0286498
752.506 .0286468
753.227 .0286435
753.948 .0286402
754.669 .0286365
755.389 .0286320
756.110 .0286272
756.830 .0286214
757.550 .0286144
758.269 .0286063
758.989 .0285972
759.708 .0285865
760.427 .0285745
761.146 .0285615
761.864 .0285472
762.582 .0285326
763.300 .0285177
764.018 .0285033
764.736 .0284894
765.453 .0284767
766.170 .0284649
766.887 .0284538
767.603 .0284433
768.320 .0284329
769.036 .0284221
769.751 .0284110
770.467 .0283996
771.182 .0283881
771.897 .0283770
772.612 .0283665
773.327 .0283566
774.041 .0283472
774.755 .0283375
775.469 .0283279
776.183 .0283176
776.896 .0283066
777.609 .0282950
778.322 .0282827
779.035 .0282700
779.747 .0282569
780.459 .0282433
781.171 .0282298
781.882 .0282162
782.594 .0282026
783.305 .0281883
784.016 .0281743
784.726 .0281600
785.436 .0281452
786.147 .0281301
786.856 .0281147
787.566 .0280979
788.275 .0280805
788.984 .0280620
789.693 .0280426
790.401 .0280228
791.110 .0280025
791.818 .0279822
792.525 .0279623
793.233 .0279423
793.940 .0279222
794.647 .0279014
795.353 .0278804
796.060 .0278582
796.766 .0278352
797.472 .0278118
798.177 .0277885
798.883 .0277654
799.588 .0277430
800.292 .0277213
800.997 .0277006
801.701 .0276797
802.405 .0276587
803.109 .0276374
803.812 .0276153
804.515 .0275923
805.218 .0275684
805.921 .0275437
806.623 .0275188
807.325 .0274935
808.027 .0274685
808.728 .0274434
809.429 .0274187
810.130 .0273941
810.831 .0273696
811.531 .0273455
812.231 .0273213
812.931 .0272973
813.630 .0272737
814.330 .0272508
815.029 .0272287
815.727 .0272077
816.426 .0271883
817.124 .0271708
817.821 .0271551
818.519 .0271414
819.216 .0271297
819.913 .0271195
820.609 .0271109
821.306 .0271034
822.002 .0270970
822.697 .0270915
823.393 .0270870
824.088 .0270836
824.783 .0270808
825.477 .0270794
826.171 .0270789
826.865 .0270793
827.559 .0270810
828.252 .0270827
828.945 .0270846
829.638 .0270864
830.330 .0270878
831.023 .0270893
831.714 .0270908
832.406 .0270931
833.097 .0270961
833.788 .0271005
834.479 .0271062
835.169 .0271131
835.859 .0271213
836.548 .0271302
837.238 .0271393
837.927 .0271484
838.615 .0271570
839.304 .0271654
839.992 .0271739
840.680 .0271823
841.367 .0271908
842.054 .0272000
842.741 .0272088
843.428 .0272176
844.114 .0272258
844.800 .0272328
845.485 .0272383
846.170 .0272420
846.855 .0272439
847.540 .0272441
848.224 .0272434
848.908 .0272421
849.592 .0272400
850.275 .0272381
850.958 .0272355
851.641 .0272327
852.323 .0272295
853.005 .0272257
853.687 .0272210
854.368 .0272159
855.049 .0272103
855.730 .0272044
856.410 .0271983
857.090 .0271926
857.769 .0271870
858.449 .0271814
859.128 .0271753
859.806 .0271680
860.485 .0271598
861.163 .0271508
861.840 .0271407
862.518 .0271298
863.195 .0271185
863.871 .0271067
864.548 .0270949
865.224 .0270827
865.899 .0270700
866.574 .0270566
867.249 .0270422
867.924 .0270266
868.598 .0270096
869.272 .0269914
869.946 .0269730
870.619 .0269546
871.292 .0269369
871.964 .0269197
872.636 .0269038
873.308 .0268894
873.979 .0268763
874.651 .0268641
875.321 .0268526
875.992 .0268415
876.662 .0268306
877.331 .0268194
878.001 .0268085
878.670 .0267976
879.338 .0267869
880.007 .0267767
880.675 .0267669
881.342 .0267570
882.009 .0267469
882.676 .0267362
883.343 .0267250
884.009 .0267127
884.675 .0266989
885.340 .0266836
886.005 .0266672
886.670 .0266497
887.334 .0266314
887.998 .0266121
888.662 .0265929
889.325 .0265736
889.988 .0265543
890.650 .0265350
891.312 .0265157
891.974 .0264964
892.636 .0264772
893.297 .0264579
893.957 .0264387
894.618 .0264193
895.278 .0264000
895.937 .0263807
896.596 .0263617
897.255 .0263424
897.914 .0263230
898.572 .0263033
899.230 .0262834
899.887 .0262630
900.544 .0262423
901.201 .0262215
901.857 .0262010
902.513 .0261805
903.168 .0261600
903.823 .0261394
904.478 .0261190
905.132 .0260982
905.786 .0260771
906.440 .0260550
907.093 .0260318
907.746 .0260074
908.399 .0259819
909.051 .0259556
909.703 .0259289
910.354 .0259016
911.005 .0258743
911.656 .0258469
912.306 .0258192
912.956 .0257911
913.605 .0257627
914.254 .0257338
914.903 .0257043
915.551 .0256743
916.199 .0256443
916.847 .0256148
917.494 .0255862
918.141 .0255589
918.788 .0255327
919.434 .0255080
920.079 .0254841
920.725 .0254609
921.370 .0254384
922.014 .0254165
922.658 .0253946
923.302 .0253734
923.946 .0253529
924.589 .0253331
925.231 .0253139
925.873 .0252959
926.515 .0252787
927.157 .0252626
927.798 .0252470
928.439 .0252315
929.079 .0252163
929.719 .0252015
930.359 .0251867
930.998 .0251721
931.637 .0251583
932.275 .0251453
932.913 .0251333
933.551 .0251225
934.188 .0251129
934.825 .0251047
935.462 .0250983
936.098 .0250937
936.733 .0250905
937.369 .0250890
938.004 .0250890
938.638 .0250903
939.273 .0250931
939.907 .0250970
940.540 .0251019
941.173 .0251078
941.806 .0251151
942.438 .0251228
943.070 .0251313
943.702 .0251400
944.333 .0251488
944.964 .0251572
945.594 .0251649
946.224 .0251711
946.854 .0251763
947.483 .0251810
948.112 .0251854
948.741 .0251892
949.369 .0251933
949.996 .0251979
950.624 .0252032
951.251 .0252092
951.878 .0252160
952.504 .0252231
953.130 .0252307
953.755 .0252383
954.380 .0252457
955.005 .0252530
955.629 .0252602
956.253 .0252675
956.877 .0252753
957.500 .0252837
958.123 .0252926
958.746 .0253018
959.368 .0253110
959.990 .0253202
960.611 .0253284
961.232 .0253358
961.853 .0253425
962.473 .0253485
963.093 .0253543
963.712 .0253602
964.331 .0253666
964.950 .0253738
965.569 .0253822
966.187 .0253913
966.804 .0254012
967.422 .0254122
968.039 .0254229
968.655 .0254336
969.272 .0254440
969.887 .0254538
970.503 .0254626
971.118 .0254713
971.733 .0254797
972.347 .0254874
972.961 .0254952
973.575 .0255028
974.188 .0255097
974.801 .0255163
975.414 .0255220
976.026 .0255261
976.638 .0255289
977.250 .0255304
977.861 .0255294
978.472 .0255278
979.083 .0255254
979.693 .0255218
980.303 .0255175
980.912 .0255129
981.521 .0255077
982.130 .0255022
982.738 .0254969
983.346 .0254910
983.954 .0254845
984.562 .0254784
985.169 .0254710
985.775 .0254629
986.382 .0254541
986.988 .0254447
987.594 .0254339
988.199 .0254229
988.804 .0254117
989.409 .0254007
990.013 .0253909
990.617 .0253821
991.221 .0253739
991.824 .0253668
992.427 .0253598
993.030 .0253524
993.632 .0253448
994.234 .0253378
994.836 .0253301
995.438 .0253228
996.039 .0253165
996.640 .0253108
997.240 .0253060
997.840 .0253026
998.440 .0252995
999.040 .0252964
999.639 .0252930
1000.238 .0252889
1000.836 .0252842
1001.435 .0252793
1002.033 .0252736
1002.630 .0252672
1003.228 .0252610
1003.825 .0252546
1004.422 .0252471
1005.018 .0252400
1005.614 .0252332
1006.210 .0252257
1006.806 .0252180
1007.401 .0252097
1007.996 .0252009
1008.591 .0251917
1009.186 .0251821
1009.780 .0251717
1010.374 .0251607
1010.967 .0251491
1011.561 .0251369
1012.154 .0251239
1012.746 .0251108
1013.339 .0250972
1013.931 .0250826
1014.523 .0250675
1015.115 .0250516
1015.706 .0250349
1016.298 .0250182
1016.888 .0250016
1017.479 .0249851
1018.069 .0249690
1018.660 .0249541
1019.250 .0249398
1019.839 .0249262
1020.429 .0249137
1021.018 .0249012
1021.607 .0248889
1022.195 .0248768
1022.784 .0248642
1023.372 .0248517
1023.960 .0248405
1024.547 .0248301
1025.135 .0248205
1025.722 .0248123
1026.309 .0248051
1026.896 .0247992
1027.483 .0247950
1028.069 .0247909
1028.655 .0247867
1029.241 .0247821
1029.827 .0247769
1030.412 .0247703
1030.997 .0247629
1031.582 .0247546
1032.167 .0247459
1032.752 .0247374
1033.336 .0247289
1033.921 .0247195
1034.505 .0247106
1035.089 .0247017
1035.672 .0246914
1036.256 .0246797
1036.839 .0246659
1037.422 .0246499
1038.005 .0246333
1038.588 .0246161
1039.171 .0245993
1039.753 .0245831
1040.335 .0245681
1040.918 .0245542
1041.500 .0245409
1042.081 .0245277
1042.663 .0245139
1043.244 .0245000
1043.826 .0244860
1044.407 .0244719
1044.988 .0244579
1045.569 .0244449
1046.150 .0244333
1046.730 .0244235
1047.311 .0244145
1047.891 .0244058
1048.471 .0243976
1049.052 .0243890
1049.632 .0243807
1050.211 .0243730
1050.791 .0243654
1051.371 .0243592
1051.950 .0243544
1052.530 .0243506
1053.109 .0243473
1053.688 .0243436
1054.268 .0243389
1054.847 .0243335
1055.426 .0243268
1056.005 .0243182
1056.583 .0243086
1057.162 .0242987
1057.741 .0242886
1058.319 .0242796
1058.898 .0242719
1059.476 .0242635
1060.055 .0242547
1060.633 .0242460
1061.211 .0242362
1061.790 .0242257
1062.368 .0242162
1062.946 .0242066
1063.524 .0241996
1064.102 .0241948
1064.680 .0241914
1065.258 .0241906
1065.836 .0241936
1066.414 .0241985
1066.992 .0242046
1067.570 .0242125
1068.148 .0242206
1068.726 .0242277
1069.304 .0242348
1069.882 .0242403
1070.460 .0242435
1071.038 .0242448
1071.616 .0242439
1072.194 .0242420
1072.772 .0242400
1073.350 .0242380
1073.928 .0242360
1074.506 .0242348
1075.084 .0242337
1075.662 .0242305
1076.240 .0242251
1076.819 .0242176
1077.397 .0242076
1077.976 .0241950
1078.554 .0241807
1079.133 .0241664
1079.711 .0241539
1080.290 .0241447
1080.869 .0241393
1081.448 .0241382
1082.027 .0241409
1082.606 .0241460
1083.185 .0241530
1083.764 .0241615
1084.343 .0241716
1084.923 .0241822
1085.502 .0241947
1086.082 .0242098
1086.662 .0242289
1087.242 .0242518
1087.822 .0242783
1088.402 .0243095
1088.983 .0243458
1089.563 .0243833
1090.144 .0244215
1090.725 .0244592
1091.306 .0244963
1091.887 .0245302
1092.469 .0245624
1093.050 .0245919
1093.632 .0246208
1094.214 .0246501
1094.796 .0246811
1095.379 .0247135
1095.961 .0247498
1096.544 .0247885
1097.127 .0248281
1097.710 .0248678
1098.294 .0249074
1098.877 .0249424
1099.461 .0249787
1100.046 .0250143
1100.630 .0250502
1101.215 .0250860
1101.800 .0251245
1102.385 .0251644
1102.970 .0252057
1103.556 .0252450
1104.142 .0252825
1104.728 .0253160
1105.315 .0253476
1105.902 .0253728
1106.489 .0253953
1107.077 .0254153
1107.664 .0254362
1108.253 .0254572
1108.841 .0254831
1109.430 .0255111
1110.019 .0255444
1110.609 .0255791
1111.198 .0256157
1111.789 .0256531
1112.379 .0256915
1112.970 .0257326
1113.561 .0257790
1114.153 .0258295
1114.745 .0258869
1115.338 .0259506
1115.931 .0260233
1116.524 .0261010
1117.117 .0261839
1117.712 .0262685
1118.306 .0263521
1118.901 .0264314
1119.496 .0265050
1120.092 .0265725
1120.689 .0266381
1121.285 .0267018
1121.882 .0267639
1122.480 .0268263
1123.078 .0268900
1123.677 .0269561
1124.276 .0270250
1124.875 .0270953
1125.476 .0271636
1126.076 .0272287
1126.677 .0272904
1127.279 .0273464
1127.881 .0274007
1128.484 .0274547
1129.087 .0275111
1129.691 .0275726
1130.295 .0276394
1130.900 .0277123
1131.505 .0277915
1132.111 .0278813
1132.718 .0279782
1133.325 .0280801
1133.933 .0281838
1134.541 .0282864
1135.150 .0283918
1135.760 .0284992
1136.370 .0286069
1136.981 .0287170
1137.592 .0288302
1138.204 .0289471
1138.817 .0290671
1139.431 .0291932
1140.045 .0293263
1140.660 .0294611
1141.275 .0296030
1141.891 .0297376
1142.508 .0299471
1143.126 .0301196
1143.744 .0300682
1144.363 .0303585
1144.983 .0302651
