Measurement Sequence started on: 15-12-46-377
Integration time: 28
Scans to Average: 2 
>>>>>Begin Spectral Data<<<<<
432.689 .0000100
433.621 .0000100
434.552 .0000100
435.482 .0000100
436.410 .0000100
437.337 .0000100
438.262 .0252557
439.187 .0535516
440.110 .0887636
441.031 .1285000
441.952 .1672103
442.871 .1978304
443.789 .2148805
444.705 .2164603
445.621 .2048438
446.535 .1850339
447.447 .1624531
448.359 .1274925
449.269 .1102442
450.178 .0992965
451.086 .0914984
451.993 .0853807
452.898 .0804637
453.803 .0763728
454.706 .0729509
455.608 .0700357
456.508 .0675304
457.408 .0653783
458.306 .0634822
459.204 .0618092
460.100 .0603151
460.995 .0589460
461.888 .0577140
462.781 .0565816
463.673 .0555446
464.563 .0545872
465.452 .0537035
466.340 .0528842
467.228 .0521418
468.114 .0514562
468.999 .0508304
469.882 .0502482
470.765 .0497138
471.647 .0492048
472.528 .0487254
473.407 .0482791
474.286 .0478640
475.163 .0474904
476.040 .0471596
476.915 .0468696
477.790 .0466190
478.663 .0464007
479.535 .0462156
480.407 .0460601
481.277 .0459274
482.147 .0458121
483.015 .0457123
483.883 .0456242
484.749 .0455439
485.615 .0454730
486.479 .0454169
487.343 .0453792
488.206 .0453578
489.067 .0453549
489.928 .0453588
490.788 .0453808
491.647 .0454141
492.505 .0454584
493.362 .0455142
494.218 .0455765
495.073 .0456475
495.928 .0457406
496.781 .0458544
497.634 .0460089
498.486 .0462081
499.337 .0464631
500.187 .0467613
501.036 .0471001
501.884 .0474758
502.731 .0478823
503.578 .0483091
504.424 .0487539
505.268 .0491994
506.113 .0496588
506.956 .0501351
507.798 .0506376
508.640 .0511860
509.480 .0517925
510.320 .0524639
511.160 .0532193
511.998 .0540412
512.836 .0549441
513.672 .0559270
514.508 .0569979
515.344 .0581709
516.178 .0594617
517.012 .0608978
517.845 .0625323
518.677 .0644028
519.508 .0665770
520.339 .0690915
521.169 .0720285
521.998 .0754027
522.826 .0792632
523.654 .0836363
524.481 .0884830
525.307 .0937945
526.133 .0995726
526.958 .1057760
527.782 .1123722
528.605 .1192419
529.428 .1263260
530.250 .1331246
531.072 .1394925
531.892 .1450117
532.712 .1494098
533.532 .1524055
534.350 .1537209
535.168 .1532333
535.986 .1510168
536.802 .1471504
537.618 .1419357
538.434 .1355996
539.249 .1286791
540.063 .1213306
540.876 .1139340
541.689 .1067118
542.501 .0999281
543.313 .0937303
544.124 .0881444
544.934 .0831038
545.744 .0786306
546.553 .0746262
547.361 .0711020
548.169 .0680117
548.976 .0652874
549.783 .0629009
550.589 .0608215
551.395 .0589708
552.200 .0573369
553.004 .0558900
553.808 .0546178
554.611 .0535026
555.414 .0525158
556.216 .0516286
557.018 .0508352
557.819 .0501186
558.619 .0494487
559.419 .0487843
560.218 .0481414
561.017 .0474944
561.815 .0468423
562.613 .0461998
563.410 .0455632
564.207 .0449434
565.003 .0443510
565.799 .0437830
566.594 .0432333
567.388 .0427048
568.182 .0421935
568.976 .0416870
569.769 .0411844
570.562 .0406835
571.354 .0401843
572.145 .0396957
572.936 .0392244
573.727 .0387672
574.517 .0383264
575.307 .0379103
576.096 .0375147
576.885 .0371387
577.673 .0367831
578.461 .0364456
579.248 .0361233
580.035 .0358130
580.821 .0355157
581.607 .0352275
582.392 .0349560
583.177 .0347045
583.962 .0344716
584.746 .0342622
585.529 .0340754
586.313 .0339090
587.095 .0337604
587.878 .0336269
588.660 .0335038
589.441 .0333889
590.222 .0332797
591.003 .0331748
591.783 .0330757
592.563 .0329827
593.342 .0328970
594.121 .0328181
594.899 .0327474
595.678 .0326820
596.455 .0326218
597.233 .0325646
598.009 .0325071
598.786 .0324492
599.562 .0323902
600.338 .0323303
601.113 .0322718
601.888 .0322151
602.663 .0321602
603.437 .0321088
604.211 .0320605
604.984 .0320146
605.757 .0319708
606.530 .0319278
607.302 .0318846
608.074 .0318411
608.845 .0317980
609.616 .0317553
610.387 .0317153
611.158 .0316788
611.928 .0316459
612.697 .0316176
613.467 .0315929
614.236 .0315711
615.004 .0315515
615.773 .0315336
616.541 .0315159
617.308 .0314985
618.076 .0314814
618.843 .0314641
619.609 .0314484
620.375 .0314346
621.141 .0314218
621.907 .0314109
622.672 .0314012
623.437 .0313907
624.202 .0313794
624.966 .0313667
625.730 .0313512
626.493 .0313328
627.257 .0313107
628.020 .0312846
628.782 .0312548
629.545 .0312230
630.307 .0311887
631.068 .0311530
631.830 .0311175
632.591 .0310810
633.352 .0310441
634.112 .0310074
634.872 .0309706
635.632 .0309339
636.392 .0308978
637.151 .0308629
637.910 .0308289
638.668 .0307972
639.427 .0307686
640.185 .0307432
640.943 .0307218
641.700 .0307039
642.457 .0306883
643.214 .0306745
643.971 .0306616
644.727 .0306481
645.483 .0306343
646.239 .0306199
646.994 .0306045
647.750 .0305876
648.505 .0305697
649.259 .0305515
650.014 .0305330
650.768 .0305140
651.521 .0304953
652.275 .0304763
653.028 .0304574
653.781 .0304385
654.534 .0304206
655.286 .0304035
656.039 .0303873
656.791 .0303714
657.542 .0303551
658.294 .0303385
659.045 .0303213
659.796 .0303029
660.546 .0302836
661.297 .0302632
662.047 .0302412
662.796 .0302175
663.546 .0301928
664.295 .0301666
665.044 .0301394
665.793 .0301115
666.542 .0300835
667.290 .0300554
668.038 .0300277
668.786 .0300005
669.533 .0299741
670.281 .0299485
671.028 .0299237
671.774 .0298994
672.521 .0298760
673.267 .0298540
674.013 .0298331
674.759 .0298131
675.505 .0297947
676.250 .0297776
676.995 .0297614
677.740 .0297459
678.484 .0297309
679.229 .0297159
679.973 .0297009
680.717 .0296855
681.460 .0296701
682.204 .0296548
682.947 .0296400
683.690 .0296257
684.433 .0296120
685.175 .0295988
685.917 .0295856
686.659 .0295725
687.401 .0295597
688.142 .0295466
688.884 .0295331
689.625 .0295190
690.365 .0295048
691.106 .0294899
691.846 .0294742
692.586 .0294578
693.326 .0294403
694.066 .0294217
694.805 .0294023
695.545 .0293816
696.284 .0293600
697.022 .0293377
697.761 .0293152
698.499 .0292924
699.237 .0292697
699.975 .0292474
700.713 .0292254
701.450 .0292042
702.187 .0291836
702.924 .0291633
703.661 .0291438
704.397 .0291249
705.133 .0291068
705.869 .0290895
706.605 .0290738
707.341 .0290593
708.076 .0290461
708.811 .0290342
709.546 .0290232
710.281 .0290126
711.015 .0290015
711.749 .0289892
712.483 .0289755
713.217 .0289600
713.950 .0289427
714.684 .0289234
715.417 .0289028
716.150 .0288812
716.882 .0288591
717.615 .0288365
718.347 .0288141
719.079 .0287919
719.811 .0287698
720.542 .0287479
721.273 .0287261
722.005 .0287043
722.735 .0286829
723.466 .0286625
724.196 .0286426
724.927 .0286230
725.656 .0286038
726.386 .0285851
727.116 .0285668
727.845 .0285489
728.574 .0285312
729.303 .0285141
730.031 .0284979
730.760 .0284824
731.488 .0284671
732.216 .0284525
732.944 .0284383
733.671 .0284245
734.398 .0284105
735.125 .0283967
735.852 .0283832
736.579 .0283701
737.305 .0283576
738.031 .0283459
738.757 .0283348
739.483 .0283245
740.208 .0283146
740.933 .0283048
741.658 .0282949
742.383 .0282848
743.108 .0282742
743.832 .0282635
744.556 .0282530
745.280 .0282428
746.004 .0282326
746.727 .0282230
747.450 .0282136
748.173 .0282043
748.896 .0281951
749.618 .0281861
750.340 .0281771
751.062 .0281686
751.784 .0281607
752.506 .0281535
753.227 .0281467
753.948 .0281401
754.669 .0281328
755.389 .0281244
756.110 .0281143
756.830 .0281017
757.550 .0280870
758.269 .0280710
758.989 .0280535
759.708 .0280354
760.427 .0280174
761.146 .0279998
761.864 .0279828
762.582 .0279661
763.300 .0279493
764.018 .0279322
764.736 .0279148
765.453 .0278975
766.170 .0278801
766.887 .0278633
767.603 .0278476
768.320 .0278330
769.036 .0278198
769.751 .0278078
770.467 .0277964
771.182 .0277857
771.897 .0277753
772.612 .0277646
773.327 .0277539
774.041 .0277432
774.755 .0277331
775.469 .0277232
776.183 .0277140
776.896 .0277050
777.609 .0276963
778.322 .0276880
779.035 .0276799
779.747 .0276723
780.459 .0276654
781.171 .0276592
781.882 .0276540
782.594 .0276494
783.305 .0276453
784.016 .0276415
784.726 .0276384
785.436 .0276352
786.147 .0276316
786.856 .0276278
787.566 .0276238
788.275 .0276196
788.984 .0276153
789.693 .0276108
790.401 .0276061
791.110 .0276011
791.818 .0275953
792.525 .0275888
793.233 .0275818
793.940 .0275740
794.647 .0275657
795.353 .0275567
796.060 .0275473
796.766 .0275369
797.472 .0275257
798.177 .0275140
798.883 .0275016
799.588 .0274886
800.292 .0274751
800.997 .0274614
801.701 .0274473
802.405 .0274328
803.109 .0274182
803.812 .0274031
804.515 .0273879
805.218 .0273722
805.921 .0273559
806.623 .0273393
807.325 .0273228
808.027 .0273067
808.728 .0272913
809.429 .0272765
810.130 .0272622
810.831 .0272485
811.531 .0272350
812.231 .0272214
812.931 .0272075
813.630 .0271934
814.330 .0271788
815.029 .0271639
815.727 .0271495
816.426 .0271355
817.124 .0271224
817.821 .0271096
818.519 .0270975
819.216 .0270863
819.913 .0270751
820.609 .0270641
821.306 .0270531
822.002 .0270422
822.697 .0270314
823.393 .0270210
824.088 .0270116
824.783 .0270033
825.477 .0269962
826.171 .0269901
826.865 .0269847
827.559 .0269797
828.252 .0269741
828.945 .0269680
829.638 .0269612
830.330 .0269535
831.023 .0269449
831.714 .0269359
832.406 .0269270
833.097 .0269179
833.788 .0269091
834.479 .0269005
835.169 .0268925
835.859 .0268849
836.548 .0268777
837.238 .0268710
837.927 .0268645
838.615 .0268582
839.304 .0268518
839.992 .0268452
840.680 .0268381
841.367 .0268303
842.054 .0268223
842.741 .0268139
843.428 .0268055
844.114 .0267973
844.800 .0267895
845.485 .0267817
846.170 .0267736
846.855 .0267644
847.540 .0267539
848.224 .0267419
848.908 .0267281
849.592 .0267128
850.275 .0266966
850.958 .0266796
851.641 .0266627
852.323 .0266464
853.005 .0266311
853.687 .0266161
854.368 .0266011
855.049 .0265861
855.730 .0265698
856.410 .0265525
857.090 .0265342
857.769 .0265148
858.449 .0264949
859.128 .0264750
859.806 .0264548
860.485 .0264348
861.163 .0264152
861.840 .0263959
862.518 .0263764
863.195 .0263571
863.871 .0263371
864.548 .0263169
865.224 .0262965
865.899 .0262760
866.574 .0262556
867.249 .0262361
867.924 .0262173
868.598 .0261992
869.272 .0261827
869.946 .0261675
870.619 .0261532
871.292 .0261402
871.964 .0261279
872.636 .0261163
873.308 .0261053
873.979 .0260948
874.651 .0260848
875.321 .0260759
875.992 .0260684
876.662 .0260618
877.331 .0260569
878.001 .0260534
878.670 .0260507
879.338 .0260486
880.007 .0260471
880.675 .0260456
881.342 .0260438
882.009 .0260421
882.676 .0260403
883.343 .0260388
884.009 .0260377
884.675 .0260372
885.340 .0260372
886.005 .0260374
886.670 .0260375
887.334 .0260368
887.998 .0260359
888.662 .0260343
889.325 .0260321
889.988 .0260297
890.650 .0260277
891.312 .0260260
891.974 .0260253
892.636 .0260260
893.297 .0260276
893.957 .0260304
894.618 .0260339
895.278 .0260378
895.937 .0260417
896.596 .0260459
897.255 .0260502
897.914 .0260543
898.572 .0260584
899.230 .0260622
899.887 .0260656
900.544 .0260685
901.201 .0260703
901.857 .0260712
902.513 .0260709
903.168 .0260693
903.823 .0260660
904.478 .0260615
905.132 .0260556
905.786 .0260483
906.440 .0260392
907.093 .0260285
907.746 .0260164
908.399 .0260027
909.051 .0259876
909.703 .0259716
910.354 .0259548
911.005 .0259378
911.656 .0259209
912.306 .0259044
912.956 .0258880
913.605 .0258720
914.254 .0258559
914.903 .0258397
915.551 .0258237
916.199 .0258081
916.847 .0257930
917.494 .0257791
918.141 .0257662
918.788 .0257545
919.434 .0257443
920.079 .0257352
920.725 .0257266
921.370 .0257184
922.014 .0257101
922.658 .0257011
923.302 .0256915
923.946 .0256816
924.589 .0256708
925.231 .0256596
925.873 .0256478
926.515 .0256346
927.157 .0256204
927.798 .0256053
928.439 .0255889
929.079 .0255717
929.719 .0255538
930.359 .0255352
930.998 .0255163
931.637 .0254976
932.275 .0254790
932.913 .0254611
933.551 .0254442
934.188 .0254280
934.825 .0254126
935.462 .0253987
936.098 .0253860
936.733 .0253749
937.369 .0253657
938.004 .0253581
938.638 .0253520
939.273 .0253473
939.907 .0253434
940.540 .0253404
941.173 .0253383
941.806 .0253370
942.438 .0253362
943.070 .0253357
943.702 .0253353
944.333 .0253348
944.964 .0253335
945.594 .0253308
946.224 .0253270
946.854 .0253219
947.483 .0253151
948.112 .0253073
948.741 .0252987
949.369 .0252896
949.996 .0252802
950.624 .0252707
951.251 .0252609
951.878 .0252506
952.504 .0252398
953.130 .0252283
953.755 .0252164
954.380 .0252044
955.005 .0251920
955.629 .0251801
956.253 .0251690
956.877 .0251585
957.500 .0251486
958.123 .0251396
958.746 .0251311
959.368 .0251228
959.990 .0251145
960.611 .0251059
961.232 .0250972
961.853 .0250888
962.473 .0250808
963.093 .0250729
963.712 .0250657
964.331 .0250590
964.950 .0250518
965.569 .0250448
966.187 .0250378
966.804 .0250310
967.422 .0250246
968.039 .0250183
968.655 .0250120
969.272 .0250053
969.887 .0249979
970.503 .0249893
971.118 .0249790
971.733 .0249679
972.347 .0249559
972.961 .0249431
973.575 .0249304
974.188 .0249175
974.801 .0249043
975.414 .0248908
976.026 .0248763
976.638 .0248604
977.250 .0248429
977.861 .0248245
978.472 .0248050
979.083 .0247853
979.693 .0247660
980.303 .0247471
980.912 .0247290
981.521 .0247116
982.130 .0246939
982.738 .0246758
983.346 .0246574
983.954 .0246381
984.562 .0246182
985.169 .0245979
985.775 .0245776
986.382 .0245578
986.988 .0245386
987.594 .0245203
988.199 .0245021
988.804 .0244851
989.409 .0244686
990.013 .0244526
990.617 .0244374
991.221 .0244233
991.824 .0244110
992.427 .0244007
993.030 .0243924
993.632 .0243859
994.234 .0243809
994.836 .0243775
995.438 .0243754
996.039 .0243742
996.640 .0243735
997.240 .0243733
997.840 .0243733
998.440 .0243734
999.040 .0243732
999.639 .0243720
1000.238 .0243699
1000.836 .0243663
1001.435 .0243607
1002.033 .0243529
1002.630 .0243437
1003.228 .0243334
1003.825 .0243224
1004.422 .0243120
1005.018 .0243022
1005.614 .0242935
1006.210 .0242861
1006.806 .0242803
1007.401 .0242755
1007.996 .0242719
1008.591 .0242689
1009.186 .0242668
1009.780 .0242659
1010.374 .0242662
1010.967 .0242669
1011.561 .0242687
1012.154 .0242712
1012.746 .0242731
1013.339 .0242737
1013.931 .0242729
1014.523 .0242701
1015.115 .0242660
1015.706 .0242600
1016.298 .0242532
1016.888 .0242460
1017.479 .0242392
1018.069 .0242325
1018.660 .0242263
1019.250 .0242204
1019.839 .0242138
1020.429 .0242069
1021.018 .0241999
1021.607 .0241930
1022.195 .0241876
1022.784 .0241843
1023.372 .0241842
1023.960 .0241878
1024.547 .0241950
1025.135 .0242049
1025.722 .0242168
1026.309 .0242301
1026.896 .0242434
1027.483 .0242563
1028.069 .0242684
1028.655 .0242803
1029.241 .0242921
1029.827 .0243044
1030.412 .0243176
1030.997 .0243321
1031.582 .0243475
1032.167 .0243627
1032.752 .0243773
1033.336 .0243906
1033.921 .0244020
1034.505 .0244114
1035.089 .0244184
1035.672 .0244233
1036.256 .0244260
1036.839 .0244270
1037.422 .0244263
1038.005 .0244250
1038.588 .0244231
1039.171 .0244207
1039.753 .0244188
1040.335 .0244174
1040.918 .0244172
1041.500 .0244180
1042.081 .0244195
1042.663 .0244216
1043.244 .0244240
1043.826 .0244256
1044.407 .0244269
1044.988 .0244284
1045.569 .0244302
1046.150 .0244326
1046.730 .0244359
1047.311 .0244406
1047.891 .0244467
1048.471 .0244536
1049.052 .0244601
1049.632 .0244661
1050.211 .0244716
1050.791 .0244748
1051.371 .0244764
1051.950 .0244770
1052.530 .0244767
1053.109 .0244762
1053.688 .0244764
1054.268 .0244769
1054.847 .0244792
1055.426 .0244828
1056.005 .0244867
1056.583 .0244919
1057.162 .0244977
1057.741 .0245034
1058.319 .0245097
1058.898 .0245169
1059.476 .0245245
1060.055 .0245325
1060.633 .0245418
1061.211 .0245509
1061.790 .0245604
1062.368 .0245695
1062.946 .0245773
1063.524 .0245843
1064.102 .0245904
1064.680 .0245957
1065.258 .0246011
1065.836 .0246073
1066.414 .0246133
1066.992 .0246192
1067.570 .0246254
1068.148 .0246303
1068.726 .0246338
1069.304 .0246360
1069.882 .0246373
1070.460 .0246382
1071.038 .0246398
1071.616 .0246422
1072.194 .0246461
1072.772 .0246524
1073.350 .0246596
1073.928 .0246669
1074.506 .0246722
1075.084 .0246749
1075.662 .0246745
1076.240 .0246721
1076.819 .0246673
1077.397 .0246615
1077.976 .0246573
1078.554 .0246562
1079.133 .0246577
1079.711 .0246618
1080.290 .0246677
1080.869 .0246760
1081.448 .0246836
1082.027 .0246904
1082.606 .0246959
1083.185 .0247033
1083.764 .0247125
1084.343 .0247245
1084.923 .0247404
1085.502 .0247614
1086.082 .0247866
1086.662 .0248154
1087.242 .0248441
1087.822 .0248724
1088.402 .0248982
1088.983 .0249220
1089.563 .0249416
1090.144 .0249591
1090.725 .0249734
1091.306 .0249866
1091.887 .0249994
1092.469 .0250120
1093.050 .0250237
1093.632 .0250371
1094.214 .0250510
1094.796 .0250653
1095.379 .0250783
1095.961 .0250921
1096.544 .0251057
1097.127 .0251224
1097.710 .0251413
1098.294 .0251638
1098.877 .0251905
1099.461 .0252231
1100.046 .0252583
1100.630 .0252957
1101.215 .0253335
1101.800 .0253721
1102.385 .0254096
1102.970 .0254454
1103.556 .0254766
1104.142 .0255062
1104.728 .0255369
1105.315 .0255683
1105.902 .0255993
1106.489 .0256324
1107.077 .0256653
1107.664 .0256964
1108.253 .0257241
1108.841 .0257473
1109.430 .0257653
1110.019 .0257816
1110.609 .0257966
1111.198 .0258137
1111.789 .0258371
1112.379 .0258678
1112.970 .0259050
1113.561 .0259498
1114.153 .0259974
1114.745 .0260431
1115.338 .0260884
1115.931 .0261302
1116.524 .0261690
1117.117 .0262049
1117.712 .0262408
1118.306 .0262785
1118.901 .0263209
1119.496 .0263649
1120.092 .0264095
1120.689 .0264559
1121.285 .0264995
1121.882 .0265374
1122.480 .0265748
1123.078 .0266091
1123.677 .0266430
1124.276 .0266774
1124.875 .0267139
1125.476 .0267509
1126.076 .0267934
1126.677 .0268377
1127.279 .0268882
1127.881 .0269480
1128.484 .0270161
1129.087 .0270890
1129.691 .0271734
1130.295 .0272665
1130.900 .0273627
1131.505 .0274622
1132.111 .0275617
1132.718 .0276554
1133.325 .0277441
1133.933 .0278248
1134.541 .0279050
1135.150 .0279891
1135.760 .0280804
1136.370 .0281775
1136.981 .0282888
1137.592 .0284087
1138.204 .0285324
1138.817 .0286630
1139.431 .0288018
1140.045 .0289450
1140.660 .0291019
1141.275 .0292751
1141.891 .0294876
1142.508 .0296159
1143.126 .0297837
1143.744 .0301770
1144.363 .0305339
1144.983 .0312998
