Measurement Sequence started on: 15-12-46-377
Integration time: 28
Scans to Average: 2 
>>>>>Begin Spectral Data<<<<<
432.689 .0000100
433.621 .0000100
434.552 .0000100
435.482 .0000100
436.410 .0000100
437.337 .0000100
438.262 .0254288
439.187 .0538620
440.110 .0891707
441.031 .1289659
441.952 .1675707
442.871 .1979474
443.789 .2145333
444.705 .2154955
445.621 .2031610
446.535 .1826373
447.447 .1594806
448.359 .1239992
449.269 .1065461
450.178 .0956264
451.086 .0879654
451.993 .0821100
452.898 .0774448
453.803 .0736302
454.706 .0704237
455.608 .0676706
456.508 .0652544
457.408 .0631132
458.306 .0612200
459.204 .0595172
460.100 .0579506
460.995 .0565270
461.888 .0552312
462.781 .0540385
463.673 .0529443
464.563 .0519483
465.452 .0510357
466.340 .0501953
467.228 .0494382
468.114 .0487438
468.999 .0481160
469.882 .0475402
470.765 .0470075
471.647 .0465213
472.528 .0460746
473.407 .0456642
474.286 .0453003
475.163 .0449869
476.040 .0447217
476.915 .0444952
477.790 .0443089
478.663 .0441566
479.535 .0440334
480.407 .0439325
481.277 .0438542
482.147 .0437896
483.015 .0437420
483.883 .0436994
484.749 .0436676
485.615 .0436473
486.479 .0436351
487.343 .0436389
488.206 .0436550
489.067 .0436773
489.928 .0437088
490.788 .0437442
491.647 .0437899
492.505 .0438386
493.362 .0438893
494.218 .0439397
495.073 .0439910
495.928 .0440512
496.781 .0441153
497.634 .0442028
498.486 .0443185
499.337 .0444562
500.187 .0446238
501.036 .0448264
501.884 .0450598
502.731 .0453284
503.578 .0456286
504.424 .0459616
505.268 .0463220
506.113 .0467037
506.956 .0471025
507.798 .0475308
508.640 .0479922
509.480 .0484872
510.320 .0490254
511.160 .0496468
511.998 .0503422
512.836 .0511475
513.672 .0520902
514.508 .0531779
515.344 .0544068
516.178 .0557926
517.012 .0573471
517.845 .0591135
518.677 .0611146
519.508 .0633793
520.339 .0659708
521.169 .0689686
521.998 .0723957
522.826 .0763269
523.654 .0807822
524.481 .0857780
525.307 .0912728
526.133 .0972395
526.958 .1035660
527.782 .1101572
528.605 .1168853
529.428 .1236619
530.250 .1300055
531.072 .1357342
531.892 .1405039
532.712 .1440878
533.532 .1462944
534.350 .1469679
535.168 .1460120
535.986 .1435235
536.802 .1396395
537.618 .1346188
538.434 .1286411
539.249 .1221995
540.063 .1154814
540.876 .1087698
541.689 .1022789
542.501 .0961828
543.313 .0906102
544.124 .0856223
544.934 .0811641
545.744 .0771644
546.553 .0735419
547.361 .0703117
548.169 .0674396
548.976 .0648446
549.783 .0625379
550.589 .0604899
551.395 .0586482
552.200 .0569961
553.004 .0555025
553.808 .0541284
554.611 .0528726
555.414 .0517157
556.216 .0506449
557.018 .0496623
557.819 .0487719
558.619 .0479493
559.419 .0471901
560.218 .0464847
561.017 .0458086
561.815 .0451432
562.613 .0444831
563.410 .0438134
564.207 .0431349
565.003 .0424626
565.799 .0418079
566.594 .0411742
567.388 .0405853
568.182 .0400398
568.976 .0395319
569.769 .0390565
570.562 .0386038
571.354 .0381642
572.145 .0377324
572.936 .0373128
573.727 .0369038
574.517 .0365099
575.307 .0361363
576.096 .0357842
576.885 .0354557
577.673 .0351531
578.461 .0348683
579.248 .0345997
580.035 .0343462
580.821 .0341026
581.607 .0338681
582.392 .0336444
583.177 .0334344
583.962 .0332364
584.746 .0330543
585.529 .0328850
586.313 .0327279
587.095 .0325853
587.878 .0324515
588.660 .0323255
589.441 .0322105
590.222 .0321032
591.003 .0320060
591.783 .0319162
592.563 .0318324
593.342 .0317541
594.121 .0316790
594.899 .0316061
595.678 .0315339
596.455 .0314631
597.233 .0313929
598.009 .0313239
598.786 .0312586
599.562 .0311957
600.338 .0311366
601.113 .0310812
601.888 .0310298
602.663 .0309814
603.437 .0309362
604.211 .0308923
604.984 .0308514
605.757 .0308127
606.530 .0307749
607.302 .0307383
608.074 .0307035
608.845 .0306694
609.616 .0306362
610.387 .0306046
611.158 .0305746
611.928 .0305458
612.697 .0305193
613.467 .0304932
614.236 .0304687
615.004 .0304446
615.773 .0304205
616.541 .0303962
617.308 .0303720
618.076 .0303479
618.843 .0303239
619.609 .0303015
620.375 .0302815
621.141 .0302631
621.907 .0302477
622.672 .0302345
623.437 .0302230
624.202 .0302127
624.966 .0302032
625.730 .0301939
626.493 .0301845
627.257 .0301750
628.020 .0301659
628.782 .0301566
629.545 .0301478
630.307 .0301393
631.068 .0301310
631.830 .0301230
632.591 .0301143
633.352 .0301039
634.112 .0300928
634.872 .0300806
635.632 .0300667
636.392 .0300515
637.151 .0300351
637.910 .0300178
638.668 .0299994
639.427 .0299797
640.185 .0299598
640.943 .0299390
641.700 .0299187
642.457 .0298973
643.214 .0298757
643.971 .0298535
644.727 .0298307
645.483 .0298074
646.239 .0297838
646.994 .0297600
647.750 .0297355
648.505 .0297113
649.259 .0296877
650.014 .0296647
650.768 .0296424
651.521 .0296204
652.275 .0295993
653.028 .0295778
653.781 .0295558
654.534 .0295320
655.286 .0295072
656.039 .0294807
656.791 .0294522
657.542 .0294221
658.294 .0293907
659.045 .0293588
659.796 .0293272
660.546 .0292956
661.297 .0292646
662.047 .0292338
662.796 .0292032
663.546 .0291723
664.295 .0291413
665.044 .0291096
665.793 .0290774
666.542 .0290452
667.290 .0290131
668.038 .0289816
668.786 .0289518
669.533 .0289239
670.281 .0288987
671.028 .0288763
671.774 .0288564
672.521 .0288387
673.267 .0288234
674.013 .0288098
674.759 .0287969
675.505 .0287843
676.250 .0287716
676.995 .0287591
677.740 .0287472
678.484 .0287358
679.229 .0287254
679.973 .0287169
680.717 .0287105
681.460 .0287054
682.204 .0287014
682.947 .0286976
683.690 .0286938
684.433 .0286887
685.175 .0286819
685.917 .0286741
686.659 .0286654
687.401 .0286568
688.142 .0286492
688.884 .0286426
689.625 .0286374
690.365 .0286331
691.106 .0286297
691.846 .0286261
692.586 .0286221
693.326 .0286173
694.066 .0286115
694.805 .0286051
695.545 .0285985
696.284 .0285913
697.022 .0285845
697.761 .0285782
698.499 .0285718
699.237 .0285650
699.975 .0285580
700.713 .0285503
701.450 .0285422
702.187 .0285337
702.924 .0285249
703.661 .0285154
704.397 .0285058
705.133 .0284957
705.869 .0284852
706.605 .0284743
707.341 .0284635
708.076 .0284524
708.811 .0284419
709.546 .0284316
710.281 .0284214
711.015 .0284112
711.749 .0284009
712.483 .0283891
713.217 .0283756
713.950 .0283598
714.684 .0283415
715.417 .0283206
716.150 .0282981
716.882 .0282741
717.615 .0282491
718.347 .0282232
719.079 .0281971
719.811 .0281702
720.542 .0281427
721.273 .0281145
722.005 .0280853
722.735 .0280555
723.466 .0280248
724.196 .0279935
724.927 .0279623
725.656 .0279316
726.386 .0279018
727.116 .0278730
727.845 .0278457
728.574 .0278196
729.303 .0277950
730.031 .0277718
730.760 .0277498
731.488 .0277285
732.216 .0277079
732.944 .0276878
733.671 .0276680
734.398 .0276488
735.125 .0276299
735.852 .0276118
736.579 .0275945
737.305 .0275775
738.031 .0275613
738.757 .0275454
739.483 .0275300
740.208 .0275146
740.933 .0274992
741.658 .0274837
742.383 .0274676
743.108 .0274511
743.832 .0274345
744.556 .0274178
745.280 .0274008
746.004 .0273835
746.727 .0273662
747.450 .0273490
748.173 .0273316
748.896 .0273144
749.618 .0272977
750.340 .0272815
751.062 .0272661
751.784 .0272512
752.506 .0272372
753.227 .0272240
753.948 .0272113
754.669 .0271996
755.389 .0271885
756.110 .0271782
756.830 .0271685
757.550 .0271599
758.269 .0271517
758.989 .0271439
759.708 .0271364
760.427 .0271294
761.146 .0271231
761.864 .0271175
762.582 .0271125
763.300 .0271087
764.018 .0271063
764.736 .0271045
765.453 .0271031
766.170 .0271023
766.887 .0271012
767.603 .0271001
768.320 .0270992
769.036 .0270983
769.751 .0270979
770.467 .0270986
771.182 .0271003
771.897 .0271031
772.612 .0271068
773.327 .0271108
774.041 .0271153
774.755 .0271195
775.469 .0271234
776.183 .0271268
776.896 .0271305
777.609 .0271346
778.322 .0271393
779.035 .0271447
779.747 .0271508
780.459 .0271576
781.171 .0271649
781.882 .0271718
782.594 .0271784
783.305 .0271838
784.016 .0271886
784.726 .0271927
785.436 .0271962
786.147 .0271993
786.856 .0272026
787.566 .0272053
788.275 .0272075
788.984 .0272085
789.693 .0272082
790.401 .0272061
791.110 .0272024
791.818 .0271963
792.525 .0271879
793.233 .0271781
793.940 .0271673
794.647 .0271553
795.353 .0271434
796.060 .0271309
796.766 .0271179
797.472 .0271037
798.177 .0270885
798.883 .0270716
799.588 .0270536
800.292 .0270347
800.997 .0270151
801.701 .0269952
802.405 .0269756
803.109 .0269562
803.812 .0269374
804.515 .0269188
805.218 .0268995
805.921 .0268790
806.623 .0268571
807.325 .0268330
808.027 .0268070
808.728 .0267793
809.429 .0267502
810.130 .0267199
810.831 .0266888
811.531 .0266572
812.231 .0266247
812.931 .0265922
813.630 .0265591
814.330 .0265254
815.029 .0264915
815.727 .0264573
816.426 .0264233
817.124 .0263897
817.821 .0263566
818.519 .0263243
819.216 .0262931
819.913 .0262632
820.609 .0262345
821.306 .0262072
822.002 .0261819
822.697 .0261586
823.393 .0261370
824.088 .0261172
824.783 .0260986
825.477 .0260810
826.171 .0260638
826.865 .0260465
827.559 .0260292
828.252 .0260117
828.945 .0259943
829.638 .0259772
830.330 .0259607
831.023 .0259448
831.714 .0259297
832.406 .0259151
833.097 .0259008
833.788 .0258861
834.479 .0258715
835.169 .0258569
835.859 .0258430
836.548 .0258297
837.238 .0258175
837.927 .0258067
838.615 .0257972
839.304 .0257892
839.992 .0257819
840.680 .0257751
841.367 .0257687
842.054 .0257626
842.741 .0257568
843.428 .0257514
844.114 .0257465
844.800 .0257423
845.485 .0257385
846.170 .0257346
846.855 .0257303
847.540 .0257257
848.224 .0257205
848.908 .0257149
849.592 .0257090
850.275 .0257032
850.958 .0256980
851.641 .0256937
852.323 .0256904
853.005 .0256881
853.687 .0256864
854.368 .0256846
855.049 .0256828
855.730 .0256810
856.410 .0256789
857.090 .0256772
857.769 .0256756
858.449 .0256746
859.128 .0256747
859.806 .0256757
860.485 .0256778
861.163 .0256810
861.840 .0256856
862.518 .0256904
863.195 .0256954
863.871 .0257006
864.548 .0257057
865.224 .0257110
865.899 .0257169
866.574 .0257233
867.249 .0257304
867.924 .0257388
868.598 .0257482
869.272 .0257586
869.946 .0257703
870.619 .0257818
871.292 .0257934
871.964 .0258042
872.636 .0258141
873.308 .0258227
873.979 .0258307
874.651 .0258380
875.321 .0258448
875.992 .0258515
876.662 .0258580
877.331 .0258648
878.001 .0258720
878.670 .0258792
879.338 .0258862
880.007 .0258930
880.675 .0258993
881.342 .0259046
882.009 .0259097
882.676 .0259143
883.343 .0259189
884.009 .0259230
884.675 .0259269
885.340 .0259306
886.005 .0259345
886.670 .0259385
887.334 .0259425
887.998 .0259464
888.662 .0259504
889.325 .0259537
889.988 .0259567
890.650 .0259589
891.312 .0259606
891.974 .0259614
892.636 .0259613
893.297 .0259602
893.957 .0259581
894.618 .0259547
895.278 .0259505
895.937 .0259451
896.596 .0259385
897.255 .0259308
897.914 .0259224
898.572 .0259129
899.230 .0259030
899.887 .0258925
900.544 .0258809
901.201 .0258684
901.857 .0258551
902.513 .0258399
903.168 .0258235
903.823 .0258059
904.478 .0257873
905.132 .0257676
905.786 .0257476
906.440 .0257268
907.093 .0257057
907.746 .0256839
908.399 .0256616
909.051 .0256382
909.703 .0256141
910.354 .0255882
911.005 .0255607
911.656 .0255322
912.306 .0255025
912.956 .0254715
913.605 .0254399
914.254 .0254079
914.903 .0253756
915.551 .0253426
916.199 .0253097
916.847 .0252766
917.494 .0252435
918.141 .0252100
918.788 .0251762
919.434 .0251423
920.079 .0251080
920.725 .0250735
921.370 .0250391
922.014 .0250053
922.658 .0249720
923.302 .0249392
923.946 .0249068
924.589 .0248748
925.231 .0248422
925.873 .0248088
926.515 .0247743
927.157 .0247384
927.798 .0247010
928.439 .0246625
929.079 .0246231
929.719 .0245834
930.359 .0245428
930.998 .0245023
931.637 .0244621
932.275 .0244221
932.913 .0243824
933.551 .0243431
934.188 .0243046
934.825 .0242679
935.462 .0242330
936.098 .0242009
936.733 .0241715
937.369 .0241453
938.004 .0241217
938.638 .0241003
939.273 .0240815
939.907 .0240644
940.540 .0240493
941.173 .0240365
941.806 .0240251
942.438 .0240152
943.070 .0240065
943.702 .0239988
944.333 .0239912
944.964 .0239831
945.594 .0239741
946.224 .0239636
946.854 .0239521
947.483 .0239400
948.112 .0239275
948.741 .0239154
949.369 .0239042
949.996 .0238932
950.624 .0238829
951.251 .0238726
951.878 .0238621
952.504 .0238511
953.130 .0238395
953.755 .0238276
954.380 .0238151
955.005 .0238032
955.629 .0237925
956.253 .0237831
956.877 .0237757
957.500 .0237697
958.123 .0237647
958.746 .0237602
959.368 .0237555
959.990 .0237505
960.611 .0237450
961.232 .0237391
961.853 .0237336
962.473 .0237286
963.093 .0237251
963.712 .0237230
964.331 .0237220
964.950 .0237225
965.569 .0237236
966.187 .0237248
966.804 .0237262
967.422 .0237278
968.039 .0237299
968.655 .0237324
969.272 .0237360
969.887 .0237406
970.503 .0237460
971.118 .0237527
971.733 .0237602
972.347 .0237683
972.961 .0237773
973.575 .0237865
974.188 .0237961
974.801 .0238061
975.414 .0238163
976.026 .0238267
976.638 .0238369
977.250 .0238472
977.861 .0238574
978.472 .0238676
979.083 .0238784
979.693 .0238891
980.303 .0239004
980.912 .0239119
981.521 .0239233
982.130 .0239343
982.738 .0239448
983.346 .0239546
983.954 .0239634
984.562 .0239717
985.169 .0239799
985.775 .0239877
986.382 .0239957
986.988 .0240044
987.594 .0240135
988.199 .0240225
988.804 .0240317
989.409 .0240401
990.013 .0240483
990.617 .0240563
991.221 .0240643
991.824 .0240733
992.427 .0240842
993.030 .0240970
993.632 .0241113
994.234 .0241279
994.836 .0241461
995.438 .0241650
996.039 .0241846
996.640 .0242043
997.240 .0242240
997.840 .0242437
998.440 .0242637
999.040 .0242839
999.639 .0243047
1000.238 .0243261
1000.836 .0243470
1001.435 .0243676
1002.033 .0243875
1002.630 .0244063
1003.228 .0244244
1003.825 .0244421
1004.422 .0244594
1005.018 .0244768
1005.614 .0244941
1006.210 .0245114
1006.806 .0245279
1007.401 .0245435
1007.996 .0245577
1008.591 .0245703
1009.186 .0245812
1009.780 .0245907
1010.374 .0245995
1010.967 .0246086
1011.561 .0246180
1012.154 .0246276
1012.746 .0246374
1013.339 .0246474
1013.931 .0246565
1014.523 .0246648
1015.115 .0246719
1015.706 .0246789
1016.298 .0246850
1016.888 .0246917
1017.479 .0246994
1018.069 .0247087
1018.660 .0247195
1019.250 .0247317
1019.839 .0247444
1020.429 .0247571
1021.018 .0247686
1021.607 .0247791
1022.195 .0247877
1022.784 .0247948
1023.372 .0248002
1023.960 .0248052
1024.547 .0248107
1025.135 .0248168
1025.722 .0248231
1026.309 .0248308
1026.896 .0248386
1027.483 .0248458
1028.069 .0248518
1028.655 .0248574
1029.241 .0248623
1029.827 .0248668
1030.412 .0248707
1030.997 .0248749
1031.582 .0248799
1032.167 .0248858
1032.752 .0248923
1033.336 .0248994
1033.921 .0249061
1034.505 .0249114
1035.089 .0249150
1035.672 .0249165
1036.256 .0249150
1036.839 .0249118
1037.422 .0249066
1038.005 .0249004
1038.588 .0248931
1039.171 .0248855
1039.753 .0248779
1040.335 .0248705
1040.918 .0248624
1041.500 .0248524
1042.081 .0248409
1042.663 .0248267
1043.244 .0248098
1043.826 .0247912
1044.407 .0247705
1044.988 .0247484
1045.569 .0247257
1046.150 .0247021
1046.730 .0246779
1047.311 .0246535
1047.891 .0246283
1048.471 .0246019
1049.052 .0245748
1049.632 .0245461
1050.211 .0245170
1050.791 .0244878
1051.371 .0244599
1051.950 .0244329
1052.530 .0244082
1053.109 .0243849
1053.688 .0243629
1054.268 .0243419
1054.847 .0243219
1055.426 .0243026
1056.005 .0242850
1056.583 .0242682
1057.162 .0242531
1057.741 .0242386
1058.319 .0242250
1058.898 .0242114
1059.476 .0241972
1060.055 .0241818
1060.633 .0241648
1061.211 .0241457
1061.790 .0241260
1062.368 .0241063
1062.946 .0240878
1063.524 .0240702
1064.102 .0240551
1064.680 .0240415
1065.258 .0240283
1065.836 .0240147
1066.414 .0240003
1066.992 .0239848
1067.570 .0239692
1068.148 .0239528
1068.726 .0239371
1069.304 .0239232
1069.882 .0239114
1070.460 .0239025
1071.038 .0238959
1071.616 .0238915
1072.194 .0238883
1072.772 .0238844
1073.350 .0238794
1073.928 .0238727
1074.506 .0238646
1075.084 .0238551
1075.662 .0238441
1076.240 .0238327
1076.819 .0238194
1077.397 .0238058
1077.976 .0237922
1078.554 .0237776
1079.133 .0237637
1079.711 .0237490
1080.290 .0237325
1080.869 .0237148
1081.448 .0236962
1082.027 .0236767
1082.606 .0236571
1083.185 .0236396
1083.764 .0236229
1084.343 .0236071
1084.923 .0235927
1085.502 .0235789
1086.082 .0235665
1086.662 .0235554
1087.242 .0235446
1087.822 .0235334
1088.402 .0235235
1088.983 .0235139
1089.563 .0235054
1090.144 .0234992
1090.725 .0234953
1091.306 .0234915
1091.887 .0234882
1092.469 .0234863
1093.050 .0234844
1093.632 .0234843
1094.214 .0234865
1094.796 .0234919
1095.379 .0235012
1095.961 .0235145
1096.544 .0235328
1097.127 .0235553
1097.710 .0235820
1098.294 .0236134
1098.877 .0236463
1099.461 .0236810
1100.046 .0237159
1100.630 .0237505
1101.215 .0237841
1101.800 .0238169
1102.385 .0238475
1102.970 .0238777
1103.556 .0239072
1104.142 .0239375
1104.728 .0239673
1105.315 .0239997
1105.902 .0240328
1106.489 .0240646
1107.077 .0240945
1107.664 .0241217
1108.253 .0241427
1108.841 .0241602
1109.430 .0241721
1110.019 .0241795
1110.609 .0241828
1111.198 .0241864
1111.789 .0241907
1112.379 .0241988
1112.970 .0242090
1113.561 .0242217
1114.153 .0242361
1114.745 .0242536
1115.338 .0242696
1115.931 .0242856
1116.524 .0243039
1117.117 .0243257
1117.712 .0243512
1118.306 .0243843
1118.901 .0244244
1119.496 .0244755
1120.092 .0245352
1120.689 .0246014
1121.285 .0246713
1121.882 .0247423
1122.480 .0248126
1123.078 .0248828
1123.677 .0249532
1124.276 .0250229
1124.875 .0250957
1125.476 .0251723
1126.076 .0252536
1126.677 .0253390
1127.279 .0254284
1127.881 .0255206
1128.484 .0256141
1129.087 .0257074
1129.691 .0257982
1130.295 .0258878
1130.900 .0259825
1131.505 .0260784
1132.111 .0261834
1132.718 .0262941
1133.325 .0264103
1133.933 .0265303
1134.541 .0266504
1135.150 .0267670
1135.760 .0268770
1136.370 .0269760
1136.981 .0270690
1137.592 .0271513
1138.204 .0272284
1138.817 .0273013
1139.431 .0273786
1140.045 .0274563
1140.660 .0275382
1141.275 .0276313
1141.891 .0277216
1142.508 .0278830
1143.126 .0278424
1143.744 .0279851
1144.363 .0282998
1144.983 .0280984
