Measurement Sequence started on: 15-12-46-377
Integration time: 28
Scans to Average: 2 
>>>>>Begin Spectral Data<<<<<
432.689 .0000100
433.621 .0000100
434.552 .0000100
435.482 .0000100
436.410 .0000100
437.337 .0000100
438.262 .0278455
439.187 .0590312
440.110 .0977231
441.031 .1413797
441.952 .1837810
442.871 .2171289
443.789 .2353807
444.705 .2364421
445.621 .2228981
446.535 .2003098
447.447 .1747498
448.359 .1356597
449.269 .1162857
450.178 .1041349
451.086 .0955630
451.993 .0890518
452.898 .0839785
453.803 .0798769
454.706 .0765119
455.608 .0736484
456.508 .0711757
457.408 .0690184
458.306 .0671048
459.204 .0653777
460.100 .0638058
460.995 .0623904
461.888 .0610924
462.781 .0599034
463.673 .0588058
464.563 .0577996
465.452 .0568485
466.340 .0559496
467.228 .0551148
468.114 .0543348
468.999 .0536194
469.882 .0529536
470.765 .0523388
471.647 .0517823
472.528 .0512680
473.407 .0508078
474.286 .0503966
475.163 .0500354
476.040 .0497251
476.915 .0494603
477.790 .0492369
478.663 .0490462
479.535 .0488731
480.407 .0487114
481.277 .0485601
482.147 .0484190
483.015 .0482839
483.883 .0481669
484.749 .0480754
485.615 .0480082
486.479 .0479606
487.343 .0479389
488.206 .0479311
489.067 .0479334
489.928 .0479431
490.788 .0479521
491.647 .0479690
492.505 .0480080
493.362 .0480746
494.218 .0481745
495.073 .0483159
495.928 .0484999
496.781 .0487058
497.634 .0489427
498.486 .0491961
499.337 .0494678
500.187 .0497677
501.036 .0500896
501.884 .0504396
502.731 .0508261
503.578 .0512561
504.424 .0517203
505.268 .0522111
506.113 .0527323
506.956 .0532542
507.798 .0537910
508.640 .0543492
509.480 .0549324
510.320 .0555737
511.160 .0562901
511.998 .0570789
512.836 .0579619
513.672 .0589444
514.508 .0600176
515.344 .0612077
516.178 .0625457
517.012 .0640480
517.845 .0657555
518.677 .0677275
519.508 .0700095
520.339 .0726377
521.169 .0757094
521.998 .0792372
522.826 .0832829
523.654 .0878818
524.481 .0929746
525.307 .0986423
526.133 .1048907
526.958 .1116384
527.782 .1188060
528.605 .1262514
529.428 .1338317
530.250 .1409965
531.072 .1475058
531.892 .1529484
532.712 .1570465
533.532 .1596074
534.350 .1604484
535.168 .1594572
535.986 .1568091
536.802 .1526404
537.618 .1472253
538.434 .1408103
539.249 .1338409
540.063 .1265114
540.876 .1191691
541.689 .1120314
542.501 .1053290
543.313 .0991623
544.124 .0936710
544.934 .0887439
545.744 .0843441
546.553 .0803820
547.361 .0768496
548.169 .0737273
548.976 .0709395
549.783 .0684484
550.589 .0662314
551.395 .0642155
552.200 .0623994
553.004 .0607444
553.808 .0592359
554.611 .0578474
555.414 .0565869
556.216 .0554262
557.018 .0543790
557.819 .0534190
558.619 .0525406
559.419 .0517268
560.218 .0509779
561.017 .0502618
561.815 .0495659
562.613 .0488793
563.410 .0482013
564.207 .0475203
565.003 .0468567
565.799 .0462027
566.594 .0455677
567.388 .0449576
568.182 .0443774
568.976 .0438122
569.769 .0432666
570.562 .0427274
571.354 .0421946
572.145 .0416645
572.936 .0411350
573.727 .0406055
574.517 .0400857
575.307 .0395798
576.096 .0390886
576.885 .0386176
577.673 .0381768
578.461 .0377630
579.248 .0373786
580.035 .0370229
580.821 .0366929
581.607 .0363889
582.392 .0361076
583.177 .0358477
583.962 .0356116
584.746 .0353997
585.529 .0352092
586.313 .0350397
587.095 .0348883
587.878 .0347520
588.660 .0346291
589.441 .0345194
590.222 .0344162
591.003 .0343201
591.783 .0342297
592.563 .0341441
593.342 .0340623
594.121 .0339846
594.899 .0339106
595.678 .0338418
596.455 .0337773
597.233 .0337164
598.009 .0336590
598.786 .0336054
599.562 .0335539
600.338 .0335040
601.113 .0334559
601.888 .0334088
602.663 .0333623
603.437 .0333167
604.211 .0332714
604.984 .0332260
605.757 .0331803
606.530 .0331350
607.302 .0330901
608.074 .0330468
608.845 .0330056
609.616 .0329667
610.387 .0329305
611.158 .0328954
611.928 .0328611
612.697 .0328271
613.467 .0327932
614.236 .0327583
615.004 .0327218
615.773 .0326857
616.541 .0326500
617.308 .0326154
618.076 .0325834
618.843 .0325543
619.609 .0325285
620.375 .0325055
621.141 .0324840
621.907 .0324632
622.672 .0324423
623.437 .0324204
624.202 .0323970
624.966 .0323722
625.730 .0323470
626.493 .0323211
627.257 .0322960
628.020 .0322729
628.782 .0322495
629.545 .0322267
630.307 .0322036
631.068 .0321796
631.830 .0321542
632.591 .0321267
633.352 .0320980
634.112 .0320680
634.872 .0320371
635.632 .0320054
636.392 .0319732
637.151 .0319419
637.910 .0319106
638.668 .0318794
639.427 .0318485
640.185 .0318181
640.943 .0317878
641.700 .0317582
642.457 .0317295
643.214 .0317015
643.971 .0316739
644.727 .0316474
645.483 .0316221
646.239 .0315973
646.994 .0315727
647.750 .0315483
648.505 .0315239
649.259 .0314999
650.014 .0314753
650.768 .0314509
651.521 .0314274
652.275 .0314048
653.028 .0313827
653.781 .0313608
654.534 .0313399
655.286 .0313191
656.039 .0312982
656.791 .0312770
657.542 .0312547
658.294 .0312319
659.045 .0312084
659.796 .0311838
660.546 .0311585
661.297 .0311329
662.047 .0311069
662.796 .0310807
663.546 .0310548
664.295 .0310278
665.044 .0310002
665.793 .0309719
666.542 .0309432
667.290 .0309136
668.038 .0308838
668.786 .0308539
669.533 .0308245
670.281 .0307964
671.028 .0307691
671.774 .0307428
672.521 .0307190
673.267 .0306967
674.013 .0306761
674.759 .0306567
675.505 .0306392
676.250 .0306232
676.995 .0306083
677.740 .0305942
678.484 .0305806
679.229 .0305674
679.973 .0305545
680.717 .0305416
681.460 .0305289
682.204 .0305162
682.947 .0305030
683.690 .0304891
684.433 .0304745
685.175 .0304584
685.917 .0304412
686.659 .0304230
687.401 .0304041
688.142 .0303842
688.884 .0303632
689.625 .0303422
690.365 .0303205
691.106 .0302983
691.846 .0302757
692.586 .0302523
693.326 .0302286
694.066 .0302044
694.805 .0301799
695.545 .0301550
696.284 .0301302
697.022 .0301050
697.761 .0300798
698.499 .0300554
699.237 .0300314
699.975 .0300079
700.713 .0299851
701.450 .0299631
702.187 .0299410
702.924 .0299191
703.661 .0298973
704.397 .0298751
705.133 .0298535
705.869 .0298318
706.605 .0298113
707.341 .0297920
708.076 .0297745
708.811 .0297581
709.546 .0297429
710.281 .0297288
711.015 .0297145
711.749 .0296992
712.483 .0296829
713.217 .0296648
713.950 .0296458
714.684 .0296255
715.417 .0296047
716.150 .0295838
716.882 .0295635
717.615 .0295433
718.347 .0295234
719.079 .0295032
719.811 .0294827
720.542 .0294619
721.273 .0294408
722.005 .0294193
722.735 .0293980
723.466 .0293770
724.196 .0293569
724.927 .0293377
725.656 .0293196
726.386 .0293019
727.116 .0292853
727.845 .0292698
728.574 .0292546
729.303 .0292400
730.031 .0292264
730.760 .0292136
731.488 .0292011
732.216 .0291888
732.944 .0291759
733.671 .0291627
734.398 .0291495
735.125 .0291355
735.852 .0291212
736.579 .0291074
737.305 .0290942
738.031 .0290822
738.757 .0290716
739.483 .0290622
740.208 .0290533
740.933 .0290452
741.658 .0290372
742.383 .0290283
743.108 .0290192
743.832 .0290093
744.556 .0289992
745.280 .0289892
746.004 .0289793
746.727 .0289695
747.450 .0289603
748.173 .0289511
748.896 .0289415
749.618 .0289314
750.340 .0289207
751.062 .0289084
751.784 .0288956
752.506 .0288821
753.227 .0288679
753.948 .0288534
754.669 .0288390
755.389 .0288246
756.110 .0288106
756.830 .0287966
757.550 .0287823
758.269 .0287683
758.989 .0287542
759.708 .0287394
760.427 .0287247
761.146 .0287094
761.864 .0286933
762.582 .0286766
763.300 .0286594
764.018 .0286415
764.736 .0286237
765.453 .0286064
766.170 .0285892
766.887 .0285732
767.603 .0285578
768.320 .0285430
769.036 .0285291
769.751 .0285154
770.467 .0285011
771.182 .0284868
771.897 .0284724
772.612 .0284574
773.327 .0284426
774.041 .0284287
774.755 .0284152
775.469 .0284029
776.183 .0283918
776.896 .0283818
777.609 .0283724
778.322 .0283638
779.035 .0283550
779.747 .0283460
780.459 .0283367
781.171 .0283269
781.882 .0283172
782.594 .0283077
783.305 .0282988
784.016 .0282902
784.726 .0282828
785.436 .0282761
786.147 .0282698
786.856 .0282640
787.566 .0282586
788.275 .0282531
788.984 .0282472
789.693 .0282410
790.401 .0282345
791.110 .0282275
791.818 .0282204
792.525 .0282126
793.233 .0282043
793.940 .0281953
794.647 .0281856
795.353 .0281749
796.060 .0281636
796.766 .0281513
797.472 .0281380
798.177 .0281236
798.883 .0281087
799.588 .0280928
800.292 .0280764
800.997 .0280596
801.701 .0280424
802.405 .0280249
803.109 .0280077
803.812 .0279904
804.515 .0279736
805.218 .0279569
805.921 .0279411
806.623 .0279254
807.325 .0279102
808.027 .0278952
808.728 .0278801
809.429 .0278650
810.130 .0278497
810.831 .0278336
811.531 .0278172
812.231 .0278005
812.931 .0277830
813.630 .0277647
814.330 .0277463
815.029 .0277275
815.727 .0277081
816.426 .0276885
817.124 .0276689
817.821 .0276491
818.519 .0276300
819.216 .0276115
819.913 .0275936
820.609 .0275771
821.306 .0275615
822.002 .0275467
822.697 .0275331
823.393 .0275205
824.088 .0275092
824.783 .0274991
825.477 .0274910
826.171 .0274843
826.865 .0274795
827.559 .0274768
828.252 .0274753
828.945 .0274747
829.638 .0274747
830.330 .0274745
831.023 .0274741
831.714 .0274735
832.406 .0274727
833.097 .0274719
833.788 .0274711
834.479 .0274702
835.169 .0274697
835.859 .0274691
836.548 .0274687
837.238 .0274682
837.927 .0274672
838.615 .0274658
839.304 .0274640
839.992 .0274623
840.680 .0274608
841.367 .0274596
842.054 .0274586
842.741 .0274576
843.428 .0274572
844.114 .0274569
844.800 .0274567
845.485 .0274568
846.170 .0274568
846.855 .0274560
847.540 .0274544
848.224 .0274514
848.908 .0274470
849.592 .0274411
850.275 .0274334
850.958 .0274234
851.641 .0274119
852.323 .0273989
853.005 .0273850
853.687 .0273702
854.368 .0273549
855.049 .0273387
855.730 .0273218
856.410 .0273037
857.090 .0272844
857.769 .0272644
858.449 .0272439
859.128 .0272228
859.806 .0272021
860.485 .0271820
861.163 .0271629
861.840 .0271450
862.518 .0271286
863.195 .0271130
863.871 .0270979
864.548 .0270830
865.224 .0270683
865.899 .0270536
866.574 .0270391
867.249 .0270247
867.924 .0270112
868.598 .0269991
869.272 .0269882
869.946 .0269788
870.619 .0269711
871.292 .0269645
871.964 .0269581
872.636 .0269518
873.308 .0269454
873.979 .0269390
874.651 .0269329
875.321 .0269272
875.992 .0269224
876.662 .0269189
877.331 .0269167
878.001 .0269154
878.670 .0269149
879.338 .0269149
880.007 .0269141
880.675 .0269129
881.342 .0269107
882.009 .0269073
882.676 .0269030
883.343 .0268979
884.009 .0268925
884.675 .0268863
885.340 .0268799
886.005 .0268731
886.670 .0268666
887.334 .0268601
887.998 .0268536
888.662 .0268475
889.325 .0268422
889.988 .0268378
890.650 .0268342
891.312 .0268316
891.974 .0268302
892.636 .0268295
893.297 .0268298
893.957 .0268303
894.618 .0268314
895.278 .0268325
895.937 .0268340
896.596 .0268353
897.255 .0268366
897.914 .0268370
898.572 .0268369
899.230 .0268360
899.887 .0268336
900.544 .0268292
901.201 .0268231
901.857 .0268152
902.513 .0268056
903.168 .0267939
903.823 .0267807
904.478 .0267658
905.132 .0267496
905.786 .0267319
906.440 .0267133
907.093 .0266942
907.746 .0266750
908.399 .0266553
909.051 .0266357
909.703 .0266159
910.354 .0265960
911.005 .0265762
911.656 .0265563
912.306 .0265360
912.956 .0265150
913.605 .0264935
914.254 .0264717
914.903 .0264495
915.551 .0264276
916.199 .0264065
916.847 .0263861
917.494 .0263666
918.141 .0263475
918.788 .0263287
919.434 .0263107
920.079 .0262927
920.725 .0262748
921.370 .0262567
922.014 .0262387
922.658 .0262207
923.302 .0262027
923.946 .0261851
924.589 .0261674
925.231 .0261494
925.873 .0261314
926.515 .0261127
927.157 .0260930
927.798 .0260727
928.439 .0260516
929.079 .0260300
929.719 .0260077
930.359 .0259840
930.998 .0259596
931.637 .0259345
932.275 .0259084
932.913 .0258813
933.551 .0258536
934.188 .0258258
934.825 .0257980
935.462 .0257712
936.098 .0257455
936.733 .0257215
937.369 .0256990
938.004 .0256779
938.638 .0256582
939.273 .0256393
939.907 .0256216
940.540 .0256050
941.173 .0255904
941.806 .0255778
942.438 .0255671
943.070 .0255592
943.702 .0255536
944.333 .0255500
944.964 .0255475
945.594 .0255458
946.224 .0255445
946.854 .0255425
947.483 .0255399
948.112 .0255370
948.741 .0255333
949.369 .0255296
949.996 .0255256
950.624 .0255215
951.251 .0255171
951.878 .0255126
952.504 .0255073
953.130 .0255012
953.755 .0254937
954.380 .0254847
955.005 .0254740
955.629 .0254619
956.253 .0254484
956.877 .0254348
957.500 .0254215
958.123 .0254088
958.746 .0253968
959.368 .0253862
959.990 .0253765
960.611 .0253678
961.232 .0253595
961.853 .0253514
962.473 .0253432
963.093 .0253348
963.712 .0253260
964.331 .0253169
964.950 .0253080
965.569 .0252996
966.187 .0252920
966.804 .0252857
967.422 .0252802
968.039 .0252760
968.655 .0252727
969.272 .0252697
969.887 .0252661
970.503 .0252614
971.118 .0252550
971.733 .0252469
972.347 .0252369
972.961 .0252258
973.575 .0252143
974.188 .0252032
974.801 .0251922
975.414 .0251815
976.026 .0251712
976.638 .0251612
977.250 .0251507
977.861 .0251401
978.472 .0251284
979.083 .0251162
979.693 .0251038
980.303 .0250914
980.912 .0250795
981.521 .0250684
982.130 .0250579
982.738 .0250480
983.346 .0250382
983.954 .0250278
984.562 .0250170
985.169 .0250056
985.775 .0249939
986.382 .0249818
986.988 .0249697
987.594 .0249580
988.199 .0249467
988.804 .0249360
989.409 .0249256
990.013 .0249155
990.617 .0249059
991.221 .0248961
991.824 .0248871
992.427 .0248792
993.030 .0248726
993.632 .0248676
994.234 .0248644
994.836 .0248629
995.438 .0248630
996.039 .0248643
996.640 .0248662
997.240 .0248693
997.840 .0248734
998.440 .0248776
999.040 .0248823
999.639 .0248876
1000.238 .0248934
1000.836 .0248992
1001.435 .0249055
1002.033 .0249121
1002.630 .0249191
1003.228 .0249270
1003.825 .0249352
1004.422 .0249439
1005.018 .0249527
1005.614 .0249614
1006.210 .0249695
1006.806 .0249772
1007.401 .0249836
1007.996 .0249883
1008.591 .0249924
1009.186 .0249966
1009.780 .0250006
1010.374 .0250045
1010.967 .0250083
1011.561 .0250124
1012.154 .0250153
1012.746 .0250170
1013.339 .0250169
1013.931 .0250163
1014.523 .0250158
1015.115 .0250153
1015.706 .0250163
1016.298 .0250198
1016.888 .0250260
1017.479 .0250346
1018.069 .0250450
1018.660 .0250564
1019.250 .0250672
1019.839 .0250775
1020.429 .0250867
1021.018 .0250953
1021.607 .0251038
1022.195 .0251121
1022.784 .0251211
1023.372 .0251310
1023.960 .0251412
1024.547 .0251512
1025.135 .0251615
1025.722 .0251715
1026.309 .0251808
1026.896 .0251900
1027.483 .0251992
1028.069 .0252095
1028.655 .0252211
1029.241 .0252329
1029.827 .0252454
1030.412 .0252585
1030.997 .0252723
1031.582 .0252860
1032.167 .0253005
1032.752 .0253152
1033.336 .0253301
1033.921 .0253457
1034.505 .0253617
1035.089 .0253772
1035.672 .0253922
1036.256 .0254062
1036.839 .0254183
1037.422 .0254283
1038.005 .0254365
1038.588 .0254430
1039.171 .0254496
1039.753 .0254564
1040.335 .0254635
1040.918 .0254712
1041.500 .0254800
1042.081 .0254894
1042.663 .0254987
1043.244 .0255072
1043.826 .0255139
1044.407 .0255179
1044.988 .0255188
1045.569 .0255165
1046.150 .0255112
1046.730 .0255038
1047.311 .0254955
1047.891 .0254874
1048.471 .0254795
1049.052 .0254730
1049.632 .0254691
1050.211 .0254679
1050.791 .0254695
1051.371 .0254724
1051.950 .0254770
1052.530 .0254823
1053.109 .0254886
1053.688 .0254949
1054.268 .0255014
1054.847 .0255102
1055.426 .0255196
1056.005 .0255303
1056.583 .0255424
1057.162 .0255552
1057.741 .0255688
1058.319 .0255827
1058.898 .0255961
1059.476 .0256073
1060.055 .0256156
1060.633 .0256198
1061.211 .0256202
1061.790 .0256183
1062.368 .0256153
1062.946 .0256118
1063.524 .0256099
1064.102 .0256109
1064.680 .0256136
1065.258 .0256183
1065.836 .0256242
1066.414 .0256293
1066.992 .0256325
1067.570 .0256326
1068.148 .0256296
1068.726 .0256248
1069.304 .0256201
1069.882 .0256163
1070.460 .0256130
1071.038 .0256107
1071.616 .0256082
1072.194 .0256040
1072.772 .0255983
1073.350 .0255913
1073.928 .0255822
1074.506 .0255723
1075.084 .0255634
1075.662 .0255554
1076.240 .0255505
1076.819 .0255480
1077.397 .0255474
1077.976 .0255481
1078.554 .0255480
1079.133 .0255455
1079.711 .0255409
1080.290 .0255362
1080.869 .0255319
1081.448 .0255271
1082.027 .0255255
1082.606 .0255262
1083.185 .0255315
1083.764 .0255387
1084.343 .0255467
1084.923 .0255541
1085.502 .0255609
1086.082 .0255648
1086.662 .0255670
1087.242 .0255676
1087.822 .0255700
1088.402 .0255753
1088.983 .0255849
1089.563 .0255991
1090.144 .0256192
1090.725 .0256432
1091.306 .0256683
1091.887 .0256924
1092.469 .0257144
1093.050 .0257313
1093.632 .0257473
1094.214 .0257604
1094.796 .0257736
1095.379 .0257881
1095.961 .0258040
1096.544 .0258219
1097.127 .0258409
1097.710 .0258574
1098.294 .0258691
1098.877 .0258760
1099.461 .0258778
1100.046 .0258752
1100.630 .0258726
1101.215 .0258742
1101.800 .0258820
1102.385 .0258950
1102.970 .0259122
1103.556 .0259302
1104.142 .0259498
1104.728 .0259655
1105.315 .0259764
1105.902 .0259830
1106.489 .0259854
1107.077 .0259889
1107.664 .0259969
1108.253 .0260118
1108.841 .0260331
1109.430 .0260605
1110.019 .0260904
1110.609 .0261191
1111.198 .0261444
1111.789 .0261651
1112.379 .0261833
1112.970 .0261993
1113.561 .0262137
1114.153 .0262290
1114.745 .0262506
1115.338 .0262790
1115.931 .0263151
1116.524 .0263574
1117.117 .0264040
1117.712 .0264514
1118.306 .0264969
1118.901 .0265416
1119.496 .0265826
1120.092 .0266211
1120.689 .0266560
1121.285 .0266888
1121.882 .0267198
1122.480 .0267481
1123.078 .0267783
1123.677 .0268101
1124.276 .0268465
1124.875 .0268877
1125.476 .0269311
1126.076 .0269787
1126.677 .0270316
1127.279 .0270849
1127.881 .0271389
1128.484 .0271963
1129.087 .0272538
1129.691 .0273168
1130.295 .0273850
1130.900 .0274628
1131.505 .0275448
1132.111 .0276300
1132.718 .0277181
1133.325 .0278034
1133.933 .0278901
1134.541 .0279752
1135.150 .0280582
1135.760 .0281500
1136.370 .0282523
1136.981 .0283690
1137.592 .0284963
1138.204 .0286383
1138.817 .0287823
1139.431 .0289247
1140.045 .0290837
1140.660 .0292494
1141.275 .0294277
1141.891 .0296315
1142.508 .0294713
1143.126 .0302314
1143.744 .0303911
1144.363 .0306018
1144.983 .0310280
