Measurement Sequence started on: 15-12-46-377
Integration time: 28
Scans to Average: 2 
>>>>>Begin Spectral Data<<<<<
432.689 .0000100
433.621 .0000100
434.552 .0000100
435.482 .0000100
436.410 .0000100
437.337 .0000100
438.262 .0286874
439.187 .0608345
440.110 .1007762
441.031 .1458411
441.952 .1895876
442.871 .2239885
443.789 .2427606
444.705 .2437738
445.621 .2296508
446.535 .2061241
447.447 .1794919
448.359 .1388899
449.269 .1185850
450.178 .1057070
451.086 .0965561
451.993 .0895619
452.898 .0840594
453.803 .0796065
454.706 .0759257
455.608 .0728159
456.508 .0701650
457.408 .0678688
458.306 .0658479
459.204 .0640385
460.100 .0623863
460.995 .0609021
461.888 .0595523
462.781 .0583302
463.673 .0572339
464.563 .0562713
465.452 .0554081
466.340 .0546226
467.228 .0539061
468.114 .0532429
468.999 .0526193
469.882 .0520268
470.765 .0514606
471.647 .0509270
472.528 .0504235
473.407 .0499619
474.286 .0495460
475.163 .0491835
476.040 .0488684
476.915 .0486052
477.790 .0483774
478.663 .0481830
479.535 .0480133
480.407 .0478677
481.277 .0477435
482.147 .0476474
483.015 .0475775
483.883 .0475372
484.749 .0475305
485.615 .0475574
486.479 .0476067
487.343 .0476860
488.206 .0477816
489.067 .0478883
489.928 .0479987
490.788 .0481145
491.647 .0482278
492.505 .0483532
493.362 .0484868
494.218 .0486338
495.073 .0487922
495.928 .0489785
496.781 .0491759
497.634 .0493972
498.486 .0496448
499.337 .0499137
500.187 .0502050
501.036 .0505251
501.884 .0508700
502.731 .0512530
503.578 .0516759
504.424 .0521465
505.268 .0526491
506.113 .0532009
506.956 .0537880
507.798 .0544315
508.640 .0551356
509.480 .0559082
510.320 .0567444
511.160 .0576682
511.998 .0586624
512.836 .0597257
513.672 .0608852
514.508 .0621487
515.344 .0635314
516.178 .0650716
517.012 .0667983
517.845 .0687446
518.677 .0709494
519.508 .0734562
520.339 .0763088
521.169 .0795968
521.998 .0833077
522.826 .0875024
523.654 .0922502
524.481 .0975613
525.307 .1034829
526.133 .1099899
526.958 .1170825
527.782 .1246454
528.605 .1324041
529.428 .1401836
530.250 .1474685
531.072 .1539637
531.892 .1592391
532.712 .1630083
533.532 .1651374
534.350 .1654633
535.168 .1639428
535.986 .1607036
536.802 .1559577
537.618 .1499992
538.434 .1430162
539.249 .1354794
540.063 .1276704
540.876 .1199289
541.689 .1124845
542.501 .1055570
543.313 .0992887
544.124 .0937215
544.934 .0887530
545.744 .0843066
546.553 .0803347
547.361 .0767871
548.169 .0736282
548.976 .0708195
549.783 .0683167
550.589 .0661094
551.395 .0641163
552.200 .0623306
553.004 .0607087
553.808 .0592013
554.611 .0578041
555.414 .0565160
556.216 .0553352
557.018 .0542604
557.819 .0532761
558.619 .0523864
559.419 .0515807
560.218 .0508504
561.017 .0501794
561.815 .0495505
562.613 .0489404
563.410 .0483434
564.207 .0477456
565.003 .0471457
565.799 .0465475
566.594 .0459581
567.388 .0453849
568.182 .0448185
568.976 .0442578
569.769 .0437062
570.562 .0431708
571.354 .0426444
572.145 .0421232
572.936 .0416070
573.727 .0410947
574.517 .0405872
575.307 .0400830
576.096 .0395893
576.885 .0391093
577.673 .0386480
578.461 .0382106
579.248 .0377972
580.035 .0374121
580.821 .0370532
581.607 .0367203
582.392 .0364091
583.177 .0361203
583.962 .0358518
584.746 .0356061
585.529 .0353818
586.313 .0351820
587.095 .0350054
587.878 .0348508
588.660 .0347167
589.441 .0345981
590.222 .0344935
591.003 .0344011
591.783 .0343180
592.563 .0342432
593.342 .0341748
594.121 .0341115
594.899 .0340513
595.678 .0339936
596.455 .0339396
597.233 .0338873
598.009 .0338356
598.786 .0337854
599.562 .0337355
600.338 .0336859
601.113 .0336377
601.888 .0335899
602.663 .0335429
603.437 .0334961
604.211 .0334494
604.984 .0334032
605.757 .0333586
606.530 .0333163
607.302 .0332767
608.074 .0332411
608.845 .0332092
609.616 .0331798
610.387 .0331524
611.158 .0331271
611.928 .0331029
612.697 .0330788
613.467 .0330544
614.236 .0330297
615.004 .0330055
615.773 .0329821
616.541 .0329595
617.308 .0329377
618.076 .0329164
618.843 .0328950
619.609 .0328729
620.375 .0328507
621.141 .0328281
621.907 .0328059
622.672 .0327840
623.437 .0327637
624.202 .0327443
624.966 .0327259
625.730 .0327091
626.493 .0326933
627.257 .0326782
628.020 .0326633
628.782 .0326477
629.545 .0326317
630.307 .0326144
631.068 .0325959
631.830 .0325753
632.591 .0325521
633.352 .0325262
634.112 .0324971
634.872 .0324650
635.632 .0324305
636.392 .0323934
637.151 .0323548
637.910 .0323139
638.668 .0322708
639.427 .0322256
640.185 .0321783
640.943 .0321296
641.700 .0320805
642.457 .0320320
643.214 .0319849
643.971 .0319397
644.727 .0318975
645.483 .0318580
646.239 .0318210
646.994 .0317856
647.750 .0317512
648.505 .0317169
649.259 .0316831
650.014 .0316489
650.768 .0316148
651.521 .0315817
652.275 .0315500
653.028 .0315201
653.781 .0314924
654.534 .0314667
655.286 .0314423
656.039 .0314178
656.791 .0313926
657.542 .0313653
658.294 .0313361
659.045 .0313045
659.796 .0312714
660.546 .0312378
661.297 .0312044
662.047 .0311718
662.796 .0311405
663.546 .0311112
664.295 .0310836
665.044 .0310572
665.793 .0310315
666.542 .0310059
667.290 .0309807
668.038 .0309554
668.786 .0309309
669.533 .0309074
670.281 .0308864
671.028 .0308673
671.774 .0308500
672.521 .0308346
673.267 .0308207
674.013 .0308078
674.759 .0307951
675.505 .0307822
676.250 .0307688
676.995 .0307550
677.740 .0307407
678.484 .0307260
679.229 .0307116
679.973 .0306968
680.717 .0306819
681.460 .0306668
682.204 .0306516
682.947 .0306357
683.690 .0306203
684.433 .0306053
685.175 .0305904
685.917 .0305764
686.659 .0305630
687.401 .0305501
688.142 .0305386
688.884 .0305273
689.625 .0305161
690.365 .0305051
691.106 .0304939
691.846 .0304816
692.586 .0304687
693.326 .0304548
694.066 .0304401
694.805 .0304249
695.545 .0304086
696.284 .0303913
697.022 .0303734
697.761 .0303550
698.499 .0303360
699.237 .0303169
699.975 .0302980
700.713 .0302795
701.450 .0302619
702.187 .0302450
702.924 .0302287
703.661 .0302132
704.397 .0301977
705.133 .0301822
705.869 .0301664
706.605 .0301501
707.341 .0301330
708.076 .0301153
708.811 .0300966
709.546 .0300772
710.281 .0300569
711.015 .0300357
711.749 .0300133
712.483 .0299899
713.217 .0299652
713.950 .0299391
714.684 .0299118
715.417 .0298832
716.150 .0298531
716.882 .0298224
717.615 .0297905
718.347 .0297580
719.079 .0297249
719.811 .0296917
720.542 .0296590
721.273 .0296275
722.005 .0295973
722.735 .0295683
723.466 .0295412
724.196 .0295149
724.927 .0294887
725.656 .0294621
726.386 .0294346
727.116 .0294056
727.845 .0293760
728.574 .0293457
729.303 .0293156
730.031 .0292867
730.760 .0292592
731.488 .0292335
732.216 .0292094
732.944 .0291864
733.671 .0291641
734.398 .0291418
735.125 .0291196
735.852 .0290967
736.579 .0290740
737.305 .0290518
738.031 .0290309
738.757 .0290118
739.483 .0289948
740.208 .0289791
740.933 .0289651
741.658 .0289522
742.383 .0289397
743.108 .0289276
743.832 .0289156
744.556 .0289043
745.280 .0288934
746.004 .0288829
746.727 .0288731
747.450 .0288636
748.173 .0288542
748.896 .0288444
749.618 .0288339
750.340 .0288228
751.062 .0288109
751.784 .0287991
752.506 .0287875
753.227 .0287766
753.948 .0287663
754.669 .0287567
755.389 .0287475
756.110 .0287387
756.830 .0287293
757.550 .0287197
758.269 .0287096
758.989 .0286994
759.708 .0286890
760.427 .0286789
761.146 .0286690
761.864 .0286594
762.582 .0286498
763.300 .0286402
764.018 .0286298
764.736 .0286191
765.453 .0286075
766.170 .0285958
766.887 .0285839
767.603 .0285724
768.320 .0285617
769.036 .0285518
769.751 .0285427
770.467 .0285344
771.182 .0285267
771.897 .0285196
772.612 .0285128
773.327 .0285072
774.041 .0285021
774.755 .0284981
775.469 .0284950
776.183 .0284932
776.896 .0284924
777.609 .0284926
778.322 .0284930
779.035 .0284938
779.747 .0284945
780.459 .0284952
781.171 .0284954
781.882 .0284953
782.594 .0284946
783.305 .0284939
784.016 .0284933
784.726 .0284933
785.436 .0284937
786.147 .0284950
786.856 .0284970
787.566 .0284993
788.275 .0285014
788.984 .0285033
789.693 .0285041
790.401 .0285038
791.110 .0285020
791.818 .0284987
792.525 .0284939
793.233 .0284885
793.940 .0284826
794.647 .0284763
795.353 .0284694
796.060 .0284618
796.766 .0284531
797.472 .0284431
798.177 .0284313
798.883 .0284180
799.588 .0284037
800.292 .0283885
800.997 .0283728
801.701 .0283568
802.405 .0283410
803.109 .0283258
803.812 .0283111
804.515 .0282965
805.218 .0282816
805.921 .0282663
806.623 .0282503
807.325 .0282332
808.027 .0282151
808.728 .0281956
809.429 .0281746
810.130 .0281519
810.831 .0281276
811.531 .0281017
812.231 .0280745
812.931 .0280462
813.630 .0280172
814.330 .0279880
815.029 .0279584
815.727 .0279288
816.426 .0278992
817.124 .0278701
817.821 .0278407
818.519 .0278112
819.216 .0277819
819.913 .0277532
820.609 .0277252
821.306 .0276980
822.002 .0276724
822.697 .0276486
823.393 .0276270
824.088 .0276070
824.783 .0275889
825.477 .0275720
826.171 .0275557
826.865 .0275397
827.559 .0275237
828.252 .0275072
828.945 .0274904
829.638 .0274732
830.330 .0274561
831.023 .0274392
831.714 .0274229
832.406 .0274071
833.097 .0273921
833.788 .0273773
834.479 .0273623
835.169 .0273468
835.859 .0273311
836.548 .0273149
837.238 .0272984
837.927 .0272819
838.615 .0272657
839.304 .0272503
839.992 .0272360
840.680 .0272226
841.367 .0272101
842.054 .0271982
842.741 .0271867
843.428 .0271751
844.114 .0271636
844.800 .0271520
845.485 .0271406
846.170 .0271291
846.855 .0271178
847.540 .0271062
848.224 .0270947
848.908 .0270834
849.592 .0270721
850.275 .0270602
850.958 .0270475
851.641 .0270339
852.323 .0270196
853.005 .0270045
853.687 .0269884
854.368 .0269714
855.049 .0269541
855.730 .0269362
856.410 .0269183
857.090 .0269005
857.769 .0268834
858.449 .0268670
859.128 .0268518
859.806 .0268372
860.485 .0268239
861.163 .0268116
861.840 .0268004
862.518 .0267900
863.195 .0267801
863.871 .0267705
864.548 .0267616
865.224 .0267534
865.899 .0267463
866.574 .0267401
867.249 .0267352
867.924 .0267312
868.598 .0267278
869.272 .0267248
869.946 .0267219
870.619 .0267186
871.292 .0267150
871.964 .0267106
872.636 .0267060
873.308 .0267017
873.979 .0266980
874.651 .0266958
875.321 .0266950
875.992 .0266962
876.662 .0266992
877.331 .0267037
878.001 .0267098
878.670 .0267169
879.338 .0267246
880.007 .0267333
880.675 .0267423
881.342 .0267515
882.009 .0267611
882.676 .0267714
883.343 .0267818
884.009 .0267921
884.675 .0268019
885.340 .0268114
886.005 .0268201
886.670 .0268284
887.334 .0268356
887.998 .0268424
888.662 .0268492
889.325 .0268554
889.988 .0268614
890.650 .0268675
891.312 .0268735
891.974 .0268800
892.636 .0268869
893.297 .0268943
893.957 .0269021
894.618 .0269108
895.278 .0269204
895.937 .0269304
896.596 .0269407
897.255 .0269512
897.914 .0269614
898.572 .0269712
899.230 .0269802
899.887 .0269882
900.544 .0269951
901.201 .0270011
901.857 .0270056
902.513 .0270087
903.168 .0270102
903.823 .0270095
904.478 .0270066
905.132 .0270012
905.786 .0269936
906.440 .0269836
907.093 .0269724
907.746 .0269602
908.399 .0269470
909.051 .0269337
909.703 .0269204
910.354 .0269067
911.005 .0268925
911.656 .0268775
912.306 .0268614
912.956 .0268439
913.605 .0268252
914.254 .0268056
914.903 .0267857
915.551 .0267662
916.199 .0267475
916.847 .0267297
917.494 .0267130
918.141 .0266971
918.788 .0266814
919.434 .0266661
920.079 .0266503
920.725 .0266341
921.370 .0266174
922.014 .0266004
922.658 .0265830
923.302 .0265653
923.946 .0265477
924.589 .0265295
925.231 .0265102
925.873 .0264899
926.515 .0264685
927.157 .0264454
927.798 .0264207
928.439 .0263944
929.079 .0263670
929.719 .0263381
930.359 .0263078
930.998 .0262763
931.637 .0262440
932.275 .0262107
932.913 .0261763
933.551 .0261413
934.188 .0261061
934.825 .0260708
935.462 .0260359
936.098 .0260017
936.733 .0259690
937.369 .0259375
938.004 .0259076
938.638 .0258790
939.273 .0258515
939.907 .0258248
940.540 .0257990
941.173 .0257741
941.806 .0257503
942.438 .0257271
943.070 .0257053
943.702 .0256849
944.333 .0256657
944.964 .0256475
945.594 .0256302
946.224 .0256138
946.854 .0255981
947.483 .0255825
948.112 .0255671
948.741 .0255520
949.369 .0255372
949.996 .0255225
950.624 .0255080
951.251 .0254933
951.878 .0254781
952.504 .0254622
953.130 .0254455
953.755 .0254273
954.380 .0254082
955.005 .0253876
955.629 .0253659
956.253 .0253435
956.877 .0253208
957.500 .0252980
958.123 .0252752
958.746 .0252525
959.368 .0252297
959.990 .0252066
960.611 .0251833
961.232 .0251600
961.853 .0251370
962.473 .0251142
963.093 .0250917
963.712 .0250697
964.331 .0250487
964.950 .0250284
965.569 .0250095
966.187 .0249917
966.804 .0249753
967.422 .0249600
968.039 .0249454
968.655 .0249316
969.272 .0249175
969.887 .0249031
970.503 .0248879
971.118 .0248721
971.733 .0248553
972.347 .0248376
972.961 .0248200
973.575 .0248026
974.188 .0247853
974.801 .0247683
975.414 .0247516
976.026 .0247352
976.638 .0247188
977.250 .0247024
977.861 .0246860
978.472 .0246701
979.083 .0246542
979.693 .0246382
980.303 .0246223
980.912 .0246066
981.521 .0245904
982.130 .0245740
982.738 .0245585
983.346 .0245433
983.954 .0245287
984.562 .0245154
985.169 .0245026
985.775 .0244903
986.382 .0244784
986.988 .0244663
987.594 .0244541
988.199 .0244414
988.804 .0244283
989.409 .0244146
990.013 .0244020
990.617 .0243902
991.221 .0243794
991.824 .0243707
992.427 .0243644
993.030 .0243599
993.632 .0243577
994.234 .0243574
994.836 .0243587
995.438 .0243612
996.039 .0243639
996.640 .0243662
997.240 .0243686
997.840 .0243709
998.440 .0243728
999.040 .0243751
999.639 .0243784
1000.238 .0243824
1000.836 .0243871
1001.435 .0243928
1002.033 .0243991
1002.630 .0244056
1003.228 .0244118
1003.825 .0244176
1004.422 .0244235
1005.018 .0244303
1005.614 .0244379
1006.210 .0244472
1006.806 .0244584
1007.401 .0244708
1007.996 .0244839
1008.591 .0244977
1009.186 .0245112
1009.780 .0245246
1010.374 .0245375
1010.967 .0245506
1011.561 .0245639
1012.154 .0245774
1012.746 .0245914
1013.339 .0246060
1013.931 .0246205
1014.523 .0246343
1015.115 .0246463
1015.706 .0246577
1016.298 .0246687
1016.888 .0246798
1017.479 .0246916
1018.069 .0247051
1018.660 .0247208
1019.250 .0247386
1019.839 .0247580
1020.429 .0247791
1021.018 .0248011
1021.607 .0248243
1022.195 .0248475
1022.784 .0248708
1023.372 .0248941
1023.960 .0249182
1024.547 .0249428
1025.135 .0249679
1025.722 .0249935
1026.309 .0250185
1026.896 .0250431
1027.483 .0250672
1028.069 .0250898
1028.655 .0251117
1029.241 .0251323
1029.827 .0251523
1030.412 .0251718
1030.997 .0251907
1031.582 .0252090
1032.167 .0252274
1032.752 .0252463
1033.336 .0252659
1033.921 .0252858
1034.505 .0253064
1035.089 .0253269
1035.672 .0253477
1036.256 .0253684
1036.839 .0253873
1037.422 .0254050
1038.005 .0254224
1038.588 .0254382
1039.171 .0254540
1039.753 .0254702
1040.335 .0254874
1040.918 .0255061
1041.500 .0255257
1042.081 .0255448
1042.663 .0255623
1043.244 .0255789
1043.826 .0255930
1044.407 .0256039
1044.988 .0256138
1045.569 .0256214
1046.150 .0256277
1046.730 .0256347
1047.311 .0256426
1047.891 .0256511
1048.471 .0256608
1049.052 .0256707
1049.632 .0256788
1050.211 .0256854
1050.791 .0256897
1051.371 .0256916
1051.950 .0256937
1052.530 .0256949
1053.109 .0256960
1053.688 .0256974
1054.268 .0257008
1054.847 .0257048
1055.426 .0257101
1056.005 .0257161
1056.583 .0257225
1057.162 .0257294
1057.741 .0257372
1058.319 .0257458
1058.898 .0257561
1059.476 .0257676
1060.055 .0257796
1060.633 .0257912
1061.211 .0258026
1061.790 .0258131
1062.368 .0258232
1062.946 .0258317
1063.524 .0258401
1064.102 .0258479
1064.680 .0258559
1065.258 .0258648
1065.836 .0258746
1066.414 .0258853
1066.992 .0258961
1067.570 .0259061
1068.148 .0259154
1068.726 .0259241
1069.304 .0259328
1069.882 .0259408
1070.460 .0259495
1071.038 .0259587
1071.616 .0259679
1072.194 .0259780
1072.772 .0259886
1073.350 .0259985
1073.928 .0260076
1074.506 .0260137
1075.084 .0260176
1075.662 .0260189
1076.240 .0260171
1076.819 .0260123
1077.397 .0260060
1077.976 .0259971
1078.554 .0259865
1079.133 .0259755
1079.711 .0259661
1080.290 .0259570
1080.869 .0259493
1081.448 .0259402
1082.027 .0259308
1082.606 .0259212
1083.185 .0259098
1083.764 .0258968
1084.343 .0258852
1084.923 .0258715
1085.502 .0258591
1086.082 .0258496
1086.662 .0258433
1087.242 .0258392
1087.822 .0258381
1088.402 .0258383
1088.983 .0258374
1089.563 .0258353
1090.144 .0258301
1090.725 .0258219
1091.306 .0258135
1091.887 .0258019
1092.469 .0257881
1093.050 .0257761
1093.632 .0257661
1094.214 .0257568
1094.796 .0257498
1095.379 .0257456
1095.961 .0257421
1096.544 .0257408
1097.127 .0257411
1097.710 .0257437
1098.294 .0257488
1098.877 .0257572
1099.461 .0257667
1100.046 .0257804
1100.630 .0257960
1101.215 .0258128
1101.800 .0258315
1102.385 .0258515
1102.970 .0258701
1103.556 .0258862
1104.142 .0258990
1104.728 .0259105
1105.315 .0259179
1105.902 .0259246
1106.489 .0259277
1107.077 .0259303
1107.664 .0259316
1108.253 .0259320
1108.841 .0259335
1109.430 .0259370
1110.019 .0259395
1110.609 .0259429
1111.198 .0259475
1111.789 .0259552
1112.379 .0259650
1112.970 .0259793
1113.561 .0259992
1114.153 .0260248
1114.745 .0260538
1115.338 .0260856
1115.931 .0261175
1116.524 .0261508
1117.117 .0261846
1117.712 .0262145
1118.306 .0262413
1118.901 .0262663
1119.496 .0262868
1120.092 .0263071
1120.689 .0263255
1121.285 .0263429
1121.882 .0263576
1122.480 .0263717
1123.078 .0263865
1123.677 .0264002
1124.276 .0264193
1124.875 .0264451
1125.476 .0264763
1126.076 .0265169
1126.677 .0265634
1127.279 .0266148
1127.881 .0266745
1128.484 .0267419
1129.087 .0268107
1129.691 .0268835
1130.295 .0269564
1130.900 .0270303
1131.505 .0271033
1132.111 .0271765
1132.718 .0272495
1133.325 .0273216
1133.933 .0273975
1134.541 .0274715
1135.150 .0275484
1135.760 .0276320
1136.370 .0277176
1136.981 .0278107
1137.592 .0279036
1138.204 .0279971
1138.817 .0280913
1139.431 .0281915
1140.045 .0283090
1140.660 .0284434
1141.275 .0286111
1141.891 .0288010
1142.508 .0288486
1143.126 .0293213
1143.744 .0295156
1144.363 .0300013
1144.983 .0300093
