Measurement Sequence started on: 09-58-16-132
Integration time: 28
Scans to Average: 2 
>>>>>Begin Spectral Data<<<<<
432.689 .0000100
433.621 .0000100
434.552 .0000100
435.482 .0000100
436.410 .0000100
437.337 .1776769
438.262 .1941044
439.187 .1970133
440.110 .1882216
441.031 .1719721
441.952 .1530072
442.871 .1226714
443.789 .1079802
444.705 .0982098
445.621 .0911819
446.535 .0856710
447.447 .0811938
448.359 .0775082
449.269 .0744100
450.178 .0717963
451.086 .0695592
451.993 .0676158
452.898 .0659197
453.803 .0644447
454.706 .0631609
455.608 .0620306
456.508 .0610186
457.408 .0601007
458.306 .0592578
459.204 .0584729
460.100 .0577192
460.995 .0570036
461.888 .0563135
462.781 .0556683
463.673 .0550701
464.563 .0545107
465.452 .0539929
466.340 .0535192
467.228 .0530766
468.114 .0526565
468.999 .0522530
469.882 .0518483
470.765 .0514481
471.647 .0510688
472.528 .0507062
473.407 .0503645
474.286 .0500632
475.163 .0498026
476.040 .0495816
476.915 .0493985
477.790 .0492415
478.663 .0490961
479.535 .0489725
480.407 .0488519
481.277 .0487351
482.147 .0486301
483.015 .0485415
483.883 .0484731
484.749 .0484310
485.615 .0484042
486.479 .0483864
487.343 .0483678
488.206 .0483499
489.067 .0483162
489.928 .0482752
490.788 .0482273
491.647 .0481884
492.505 .0481657
493.362 .0481670
494.218 .0481921
495.073 .0482503
495.928 .0483379
496.781 .0484456
497.634 .0485628
498.486 .0486866
499.337 .0488149
500.187 .0489633
501.036 .0491331
501.884 .0493359
502.731 .0495721
503.578 .0498503
504.424 .0501670
505.268 .0505075
506.113 .0508651
506.956 .0512295
507.798 .0516022
508.640 .0519783
509.480 .0523519
510.320 .0527245
511.160 .0531149
511.998 .0535386
512.836 .0539870
513.672 .0544731
514.508 .0549854
515.344 .0555167
516.178 .0560883
517.012 .0567027
517.845 .0573764
518.677 .0581120
519.508 .0589361
520.339 .0598452
521.169 .0608458
521.998 .0619372
522.826 .0630917
523.654 .0643383
524.481 .0656532
525.307 .0670175
526.133 .0684290
526.958 .0698612
527.782 .0713160
528.605 .0727753
529.428 .0742203
530.250 .0755696
531.072 .0767809
531.892 .0778061
532.712 .0785961
533.532 .0791214
534.350 .0793535
535.168 .0793107
535.986 .0789956
536.802 .0784265
537.618 .0776021
538.434 .0765655
539.249 .0753704
540.063 .0740347
540.876 .0725974
541.689 .0710634
542.501 .0694899
543.313 .0678997
544.124 .0663038
544.934 .0647412
545.744 .0632033
546.553 .0617104
547.361 .0602716
548.169 .0589188
548.976 .0576432
549.783 .0564650
550.589 .0553971
551.395 .0544204
552.200 .0535375
553.004 .0527366
553.808 .0519993
554.611 .0513292
555.414 .0507293
556.216 .0501866
557.018 .0496932
557.819 .0492602
558.619 .0488572
559.419 .0484824
560.218 .0481340
561.017 .0477855
561.815 .0474236
562.613 .0470573
563.410 .0466704
564.207 .0462660
565.003 .0458552
565.799 .0454384
566.594 .0450200
567.388 .0446116
568.182 .0442181
568.976 .0438352
569.769 .0434705
570.562 .0431279
571.354 .0427937
572.145 .0424805
572.936 .0421825
573.727 .0418990
574.517 .0416383
575.307 .0413955
576.096 .0411682
576.885 .0409559
577.673 .0407559
578.461 .0405653
579.248 .0403814
580.035 .0402047
580.821 .0400270
581.607 .0398500
582.392 .0396703
583.177 .0394859
583.962 .0393020
584.746 .0391222
585.529 .0389485
586.313 .0387865
587.095 .0386389
587.878 .0385047
588.660 .0383835
589.441 .0382719
590.222 .0381670
591.003 .0380682
591.783 .0379742
592.563 .0378822
593.342 .0377923
594.121 .0377059
594.899 .0376211
595.678 .0375371
596.455 .0374554
597.233 .0373754
598.009 .0372974
598.786 .0372226
599.562 .0371510
600.338 .0370828
601.113 .0370193
601.888 .0369600
602.663 .0369054
603.437 .0368554
604.211 .0368088
604.984 .0367653
605.757 .0367262
606.530 .0366908
607.302 .0366587
608.074 .0366312
608.845 .0366089
609.616 .0365908
610.387 .0365763
611.158 .0365646
611.928 .0365534
612.697 .0365419
613.467 .0365289
614.236 .0365120
615.004 .0364920
615.773 .0364687
616.541 .0364424
617.308 .0364147
618.076 .0363870
618.843 .0363587
619.609 .0363306
620.375 .0363032
621.141 .0362753
621.907 .0362465
622.672 .0362171
623.437 .0361864
624.202 .0361549
624.966 .0361240
625.730 .0360935
626.493 .0360634
627.257 .0360358
628.020 .0360098
628.782 .0359847
629.545 .0359605
630.307 .0359362
631.068 .0359105
631.830 .0358838
632.591 .0358552
633.352 .0358244
634.112 .0357923
634.872 .0357593
635.632 .0357249
636.392 .0356898
637.151 .0356541
637.910 .0356171
638.668 .0355789
639.427 .0355407
640.185 .0355014
640.943 .0354611
641.700 .0354211
642.457 .0353811
643.214 .0353418
643.971 .0353027
644.727 .0352644
645.483 .0352282
646.239 .0351942
646.994 .0351625
647.750 .0351337
648.505 .0351085
649.259 .0350873
650.014 .0350689
650.768 .0350532
651.521 .0350398
652.275 .0350275
653.028 .0350155
653.781 .0350034
654.534 .0349909
655.286 .0349781
656.039 .0349651
656.791 .0349525
657.542 .0349397
658.294 .0349265
659.045 .0349130
659.796 .0348986
660.546 .0348829
661.297 .0348658
662.047 .0348467
662.796 .0348265
663.546 .0348056
664.295 .0347837
665.044 .0347616
665.793 .0347395
666.542 .0347171
667.290 .0346942
668.038 .0346697
668.786 .0346430
669.533 .0346141
670.281 .0345827
671.028 .0345489
671.774 .0345126
672.521 .0344749
673.267 .0344363
674.013 .0343973
674.759 .0343581
675.505 .0343189
676.250 .0342800
676.995 .0342418
677.740 .0342040
678.484 .0341667
679.229 .0341306
679.973 .0340958
680.717 .0340631
681.460 .0340323
682.204 .0340029
682.947 .0339752
683.690 .0339491
684.433 .0339250
685.175 .0339017
685.917 .0338800
686.659 .0338596
687.401 .0338406
688.142 .0338229
688.884 .0338059
689.625 .0337890
690.365 .0337727
691.106 .0337565
691.846 .0337402
692.586 .0337242
693.326 .0337091
694.066 .0336949
694.805 .0336824
695.545 .0336711
696.284 .0336606
697.022 .0336502
697.761 .0336408
698.499 .0336307
699.237 .0336200
699.975 .0336090
700.713 .0335973
701.450 .0335856
702.187 .0335736
702.924 .0335613
703.661 .0335491
704.397 .0335366
705.133 .0335239
705.869 .0335102
706.605 .0334959
707.341 .0334812
708.076 .0334663
708.811 .0334516
709.546 .0334368
710.281 .0334217
711.015 .0334060
711.749 .0333893
712.483 .0333710
713.217 .0333510
713.950 .0333292
714.684 .0333061
715.417 .0332815
716.150 .0332560
716.882 .0332301
717.615 .0332034
718.347 .0331758
719.079 .0331477
719.811 .0331182
720.542 .0330875
721.273 .0330551
722.005 .0330216
722.735 .0329872
723.466 .0329520
724.196 .0329160
724.927 .0328789
725.656 .0328416
726.386 .0328036
727.116 .0327648
727.845 .0327262
728.574 .0326878
729.303 .0326500
730.031 .0326131
730.760 .0325778
731.488 .0325437
732.216 .0325114
732.944 .0324810
733.671 .0324521
734.398 .0324250
735.125 .0323990
735.852 .0323742
736.579 .0323504
737.305 .0323286
738.031 .0323080
738.757 .0322888
739.483 .0322719
740.208 .0322563
740.933 .0322419
741.658 .0322283
742.383 .0322156
743.108 .0322033
743.832 .0321916
744.556 .0321803
745.280 .0321688
746.004 .0321579
746.727 .0321474
747.450 .0321376
748.173 .0321290
748.896 .0321217
749.618 .0321157
750.340 .0321110
751.062 .0321077
751.784 .0321049
752.506 .0321026
753.227 .0321002
753.948 .0320975
754.669 .0320945
755.389 .0320908
756.110 .0320870
756.830 .0320836
757.550 .0320807
758.269 .0320782
758.989 .0320758
759.708 .0320736
760.427 .0320708
761.146 .0320674
761.864 .0320626
762.582 .0320566
763.300 .0320488
764.018 .0320394
764.736 .0320282
765.453 .0320159
766.170 .0320023
766.887 .0319874
767.603 .0319710
768.320 .0319529
769.036 .0319326
769.751 .0319108
770.467 .0318868
771.182 .0318611
771.897 .0318332
772.612 .0318037
773.327 .0317729
774.041 .0317410
774.755 .0317083
775.469 .0316753
776.183 .0316424
776.896 .0316102
777.609 .0315784
778.322 .0315474
779.035 .0315173
779.747 .0314881
780.459 .0314593
781.171 .0314308
781.882 .0314025
782.594 .0313742
783.305 .0313461
784.016 .0313186
784.726 .0312914
785.436 .0312646
786.147 .0312383
786.856 .0312121
787.566 .0311858
788.275 .0311596
788.984 .0311330
789.693 .0311061
790.401 .0310791
791.110 .0310514
791.818 .0310238
792.525 .0309963
793.233 .0309693
793.940 .0309424
794.647 .0309165
795.353 .0308916
796.060 .0308678
796.766 .0308450
797.472 .0308236
798.177 .0308035
798.883 .0307852
799.588 .0307684
800.292 .0307536
800.997 .0307405
801.701 .0307294
802.405 .0307195
803.109 .0307112
803.812 .0307041
804.515 .0306982
805.218 .0306932
805.921 .0306892
806.623 .0306857
807.325 .0306829
808.027 .0306806
808.728 .0306792
809.429 .0306780
810.130 .0306774
810.831 .0306772
811.531 .0306777
812.231 .0306781
812.931 .0306780
813.630 .0306776
814.330 .0306767
815.029 .0306750
815.727 .0306726
816.426 .0306691
817.124 .0306652
817.821 .0306605
818.519 .0306553
819.216 .0306499
819.913 .0306449
820.609 .0306401
821.306 .0306353
822.002 .0306303
822.697 .0306249
823.393 .0306187
824.088 .0306117
824.783 .0306038
825.477 .0305943
826.171 .0305840
826.865 .0305731
827.559 .0305617
828.252 .0305501
828.945 .0305382
829.638 .0305261
830.330 .0305132
831.023 .0304988
831.714 .0304824
832.406 .0304639
833.097 .0304435
833.788 .0304209
834.479 .0303966
835.169 .0303710
835.859 .0303447
836.548 .0303184
837.238 .0302921
837.927 .0302661
838.615 .0302403
839.304 .0302149
839.992 .0301895
840.680 .0301638
841.367 .0301376
842.054 .0301115
842.741 .0300855
843.428 .0300599
844.114 .0300344
844.800 .0300093
845.485 .0299838
846.170 .0299580
846.855 .0299311
847.540 .0299027
848.224 .0298729
848.908 .0298421
849.592 .0298102
850.275 .0297779
850.958 .0297454
851.641 .0297136
852.323 .0296822
853.005 .0296515
853.687 .0296208
854.368 .0295899
855.049 .0295582
855.730 .0295261
856.410 .0294930
857.090 .0294598
857.769 .0294266
858.449 .0293941
859.128 .0293627
859.806 .0293325
860.485 .0293038
861.163 .0292758
861.840 .0292484
862.518 .0292214
863.195 .0291940
863.871 .0291667
864.548 .0291395
865.224 .0291131
865.899 .0290881
866.574 .0290653
867.249 .0290447
867.924 .0290266
868.598 .0290111
869.272 .0289976
869.946 .0289860
870.619 .0289754
871.292 .0289655
871.964 .0289562
872.636 .0289470
873.308 .0289382
873.979 .0289297
874.651 .0289221
875.321 .0289154
875.992 .0289097
876.662 .0289050
877.331 .0289007
878.001 .0288971
878.670 .0288942
879.338 .0288917
880.007 .0288898
880.675 .0288883
881.342 .0288874
882.009 .0288874
882.676 .0288884
883.343 .0288902
884.009 .0288932
884.675 .0288976
885.340 .0289027
886.005 .0289086
886.670 .0289154
887.334 .0289234
887.998 .0289321
888.662 .0289416
889.325 .0289512
889.988 .0289603
890.650 .0289688
891.312 .0289766
891.974 .0289837
892.636 .0289903
893.297 .0289968
893.957 .0290034
894.618 .0290105
895.278 .0290182
895.937 .0290260
896.596 .0290340
897.255 .0290415
897.914 .0290481
898.572 .0290531
899.230 .0290567
899.887 .0290590
900.544 .0290605
901.201 .0290616
901.857 .0290621
902.513 .0290618
903.168 .0290606
903.823 .0290580
904.478 .0290536
905.132 .0290471
905.786 .0290380
906.440 .0290263
907.093 .0290122
907.746 .0289957
908.399 .0289773
909.051 .0289571
909.703 .0289360
910.354 .0289141
911.005 .0288916
911.656 .0288686
912.306 .0288456
912.956 .0288228
913.605 .0288003
914.254 .0287781
914.903 .0287558
915.551 .0287337
916.199 .0287114
916.847 .0286888
917.494 .0286659
918.141 .0286424
918.788 .0286189
919.434 .0285950
920.079 .0285709
920.725 .0285459
921.370 .0285199
922.014 .0284926
922.658 .0284634
923.302 .0284320
923.946 .0283982
924.589 .0283620
925.231 .0283235
925.873 .0282834
926.515 .0282418
927.157 .0281991
927.798 .0281555
928.439 .0281111
929.079 .0280659
929.719 .0280198
930.359 .0279733
930.998 .0279258
931.637 .0278784
932.275 .0278313
932.913 .0277843
933.551 .0277383
934.188 .0276936
934.825 .0276506
935.462 .0276097
936.098 .0275709
936.733 .0275345
937.369 .0275001
938.004 .0274682
938.638 .0274381
939.273 .0274097
939.907 .0273830
940.540 .0273576
941.173 .0273334
941.806 .0273106
942.438 .0272889
943.070 .0272685
943.702 .0272493
944.333 .0272311
944.964 .0272135
945.594 .0271964
946.224 .0271794
946.854 .0271623
947.483 .0271448
948.112 .0271264
948.741 .0271071
949.369 .0270866
949.996 .0270655
950.624 .0270435
951.251 .0270215
951.878 .0269994
952.504 .0269775
953.130 .0269561
953.755 .0269350
954.380 .0269141
955.005 .0268941
955.629 .0268744
956.253 .0268554
956.877 .0268368
957.500 .0268195
958.123 .0268033
958.746 .0267886
959.368 .0267754
959.990 .0267642
960.611 .0267549
961.232 .0267479
961.853 .0267428
962.473 .0267400
963.093 .0267394
963.712 .0267407
964.331 .0267430
964.950 .0267466
965.569 .0267511
966.187 .0267567
966.804 .0267629
967.422 .0267705
968.039 .0267790
968.655 .0267890
969.272 .0268003
969.887 .0268128
970.503 .0268266
971.118 .0268413
971.733 .0268564
972.347 .0268715
972.961 .0268865
973.575 .0269013
974.188 .0269154
974.801 .0269294
975.414 .0269433
976.026 .0269574
976.638 .0269712
977.250 .0269852
977.861 .0269993
978.472 .0270129
979.083 .0270258
979.693 .0270371
980.303 .0270472
980.912 .0270560
981.521 .0270634
982.130 .0270700
982.738 .0270762
983.346 .0270823
983.954 .0270875
984.562 .0270924
985.169 .0270963
985.775 .0270982
986.382 .0270979
986.988 .0270956
987.594 .0270913
988.199 .0270859
988.804 .0270804
989.409 .0270754
990.013 .0270724
990.617 .0270715
991.221 .0270719
991.824 .0270738
992.427 .0270769
993.030 .0270804
993.632 .0270837
994.234 .0270876
994.836 .0270916
995.438 .0270959
996.039 .0271012
996.640 .0271076
997.240 .0271145
997.840 .0271222
998.440 .0271296
999.040 .0271365
999.639 .0271430
1000.238 .0271488
1000.836 .0271535
1001.435 .0271578
1002.033 .0271617
1002.630 .0271643
1003.228 .0271660
1003.825 .0271665
1004.422 .0271654
1005.018 .0271633
1005.614 .0271598
1006.210 .0271549
1006.806 .0271487
1007.401 .0271418
1007.996 .0271337
1008.591 .0271250
1009.186 .0271151
1009.780 .0271036
1010.374 .0270904
1010.967 .0270756
1011.561 .0270588
1012.154 .0270398
1012.746 .0270196
1013.339 .0269982
1013.931 .0269757
1014.523 .0269527
1015.115 .0269288
1015.706 .0269052
1016.298 .0268822
1016.888 .0268594
1017.479 .0268371
1018.069 .0268152
1018.660 .0267941
1019.250 .0267737
1019.839 .0267540
1020.429 .0267354
1021.018 .0267177
1021.607 .0267012
1022.195 .0266855
1022.784 .0266705
1023.372 .0266571
1023.960 .0266455
1024.547 .0266353
1025.135 .0266273
1025.722 .0266208
1026.309 .0266155
1026.896 .0266108
1027.483 .0266060
1028.069 .0266009
1028.655 .0265945
1029.241 .0265859
1029.827 .0265752
1030.412 .0265621
1030.997 .0265474
1031.582 .0265311
1032.167 .0265140
1032.752 .0264969
1033.336 .0264787
1033.921 .0264592
1034.505 .0264382
1035.089 .0264156
1035.672 .0263909
1036.256 .0263650
1036.839 .0263387
1037.422 .0263126
1038.005 .0262877
1038.588 .0262651
1039.171 .0262453
1039.753 .0262285
1040.335 .0262139
1040.918 .0262004
1041.500 .0261871
1042.081 .0261743
1042.663 .0261602
1043.244 .0261466
1043.826 .0261333
1044.407 .0261211
1044.988 .0261092
1045.569 .0260981
1046.150 .0260871
1046.730 .0260763
1047.311 .0260653
1047.891 .0260539
1048.471 .0260414
1049.052 .0260290
1049.632 .0260162
1050.211 .0260047
1050.791 .0259945
1051.371 .0259864
1051.950 .0259806
1052.530 .0259776
1053.109 .0259761
1053.688 .0259760
1054.268 .0259779
1054.847 .0259817
1055.426 .0259876
1056.005 .0259954
1056.583 .0260049
1057.162 .0260157
1057.741 .0260280
1058.319 .0260408
1058.898 .0260539
1059.476 .0260671
1060.055 .0260799
1060.633 .0260927
1061.211 .0261057
1061.790 .0261194
1062.368 .0261337
1062.946 .0261491
1063.524 .0261653
1064.102 .0261804
1064.680 .0261947
1065.258 .0262073
1065.836 .0262178
1066.414 .0262254
1066.992 .0262305
1067.570 .0262347
1068.148 .0262374
1068.726 .0262396
1069.304 .0262419
1069.882 .0262444
1070.460 .0262478
1071.038 .0262504
1071.616 .0262522
1072.194 .0262541
1072.772 .0262564
1073.350 .0262592
1073.928 .0262639
1074.506 .0262719
1075.084 .0262840
1075.662 .0262994
1076.240 .0263197
1076.819 .0263446
1077.397 .0263722
1077.976 .0264030
1078.554 .0264362
1079.133 .0264699
1079.711 .0265037
1080.290 .0265364
1080.869 .0265681
1081.448 .0265965
1082.027 .0266219
1082.606 .0266433
1083.185 .0266609
1083.764 .0266764
1084.343 .0266880
1084.923 .0266960
1085.502 .0267041
1086.082 .0267118
1086.662 .0267191
1087.242 .0267257
1087.822 .0267340
1088.402 .0267416
1088.983 .0267491
1089.563 .0267558
1090.144 .0267612
1090.725 .0267670
1091.306 .0267737
1091.887 .0267813
1092.469 .0267905
1093.050 .0268034
1093.632 .0268191
1094.214 .0268353
1094.796 .0268528
1095.379 .0268689
1095.961 .0268838
1096.544 .0268971
1097.127 .0269077
1097.710 .0269153
1098.294 .0269224
1098.877 .0269308
1099.461 .0269405
1100.046 .0269521
1100.630 .0269655
1101.215 .0269812
1101.800 .0269989
1102.385 .0270176
1102.970 .0270354
1103.556 .0270545
1104.142 .0270761
1104.728 .0270992
1105.315 .0271239
1105.902 .0271507
1106.489 .0271807
1107.077 .0272160
1107.664 .0272526
1108.253 .0272911
1108.841 .0273329
1109.430 .0273770
1110.019 .0274231
1110.609 .0274709
1111.198 .0275197
1111.789 .0275669
1112.379 .0276104
1112.970 .0276502
1113.561 .0276821
1114.153 .0277103
1114.745 .0277366
1115.338 .0277594
1115.931 .0277839
1116.524 .0278065
1117.117 .0278270
1117.712 .0278483
1118.306 .0278693
1118.901 .0278828
1119.496 .0278915
1120.092 .0278945
1120.689 .0278947
1121.285 .0278940
1121.882 .0278984
1122.480 .0279059
1123.078 .0279234
1123.677 .0279506
1124.276 .0279806
1124.875 .0280125
1125.476 .0280483
1126.076 .0280790
1126.677 .0281109
1127.279 .0281414
1127.881 .0281709
1128.484 .0281995
1129.087 .0282322
1129.691 .0282636
1130.295 .0282959
1130.900 .0283274
1131.505 .0283578
1132.111 .0283855
1132.718 .0284192
1133.325 .0284541
1133.933 .0284925
1134.541 .0285427
1135.150 .0286048
1135.760 .0286761
1136.370 .0287564
1136.981 .0288440
1137.592 .0289380
1138.204 .0290390
1138.817 .0291486
1139.431 .0292657
1140.045 .0293947
1140.660 .0295325
1141.275 .0296808
1141.891 .0298360
1142.508 .0300837
1143.126 .0302172
1143.744 .0302495
1144.363 .0305519
1144.983 .0306402
