BestFit value for E:\RC_data\Compressed_For_Future_Analysis_Full\0007_2025-12-10_09-57-49\Interpretation_History\2025-12-10_17-34-38\ResultsGraphs\BestFit\(Run)spectra_09-58-26-753_BestFit.txt
600.338 0.0362302
601.113 0.0361843
601.888 0.0361386
602.663 0.0360932
603.437 0.0360481
604.211 0.0360032
604.984 0.0359588
605.757 0.0359147
606.530 0.0358709
607.302 0.0358275
608.074 0.0357844
608.845 0.0357418
609.616 0.0356995
610.387 0.0356576
611.158 0.0356159
611.928 0.0355747
612.697 0.0355339
613.467 0.0354933
614.236 0.0354530
615.004 0.0354130
615.773 0.0353733
616.541 0.0353338
617.308 0.0352946
618.076 0.0352554
618.843 0.0352165
619.609 0.0351777
620.375 0.0351391
621.141 0.0351004
621.907 0.0350619
622.672 0.0350234
623.437 0.0349849
624.202 0.0349463
624.966 0.0349078
625.730 0.0348692
626.493 0.0348306
627.257 0.0347919
628.020 0.0347532
628.782 0.0347144
629.545 0.0346755
630.307 0.0346366
631.068 0.0345977
631.830 0.0345587
632.591 0.0345197
633.352 0.0344807
634.112 0.0344417
634.872 0.0344028
635.632 0.0343640
636.392 0.0343252
637.151 0.0342866
637.910 0.0342481
638.668 0.0342098
639.427 0.0341717
640.185 0.0341338
640.943 0.0340962
641.700 0.0340590
642.457 0.0340220
643.214 0.0339853
643.971 0.0339490
644.727 0.0339131
645.483 0.0338776
646.239 0.0338425
646.994 0.0338078
647.750 0.0337734
648.505 0.0337395
649.259 0.0337061
650.014 0.0336730
650.768 0.0336403
651.521 0.0336080
652.275 0.0335761
653.028 0.0335445
653.781 0.0335132
654.534 0.0334822
655.286 0.0334516
656.039 0.0334211
656.791 0.0333908
657.542 0.0333608
658.294 0.0333308
659.045 0.0333010
659.796 0.0332713
660.546 0.0332416
661.297 0.0332119
662.047 0.0331822
662.796 0.0331524
663.546 0.0331226
664.295 0.0330926
665.044 0.0330625
665.793 0.0330322
666.542 0.0330018
667.290 0.0329712
668.038 0.0329403
668.786 0.0329093
669.533 0.0328780
670.281 0.0328465
671.028 0.0328148
671.774 0.0327829
672.521 0.0327508
673.267 0.0327185
674.013 0.0326860
674.759 0.0326534
675.505 0.0326207
676.250 0.0325878
676.995 0.0325549
677.740 0.0325220
678.484 0.0324891
679.229 0.0324561
679.973 0.0324233
680.717 0.0323905
681.460 0.0323579
682.204 0.0323255
682.947 0.0322932
683.690 0.0322612
684.433 0.0322295
685.175 0.0321982
685.917 0.0321671
686.659 0.0321365
687.401 0.0321062
688.142 0.0320764
688.884 0.0320470
689.625 0.0320181
690.365 0.0319897
691.106 0.0319617
691.846 0.0319343
692.586 0.0319074
693.326 0.0318809
694.066 0.0318549
694.805 0.0318295
695.545 0.0318045
696.284 0.0317799
697.022 0.0317559
697.761 0.0317322
698.499 0.0317089
699.237 0.0316860
699.975 0.0316634
700.713 0.0316411
701.450 0.0316191
702.187 0.0315972
702.924 0.0315756
703.661 0.0315541
704.397 0.0315327
705.133 0.0315114
705.869 0.0314901
706.605 0.0314687
707.341 0.0314473
708.076 0.0314258
708.811 0.0314042
709.546 0.0313823
710.281 0.0313603
711.015 0.0313380
711.749 0.0313155
712.483 0.0312926
713.217 0.0312694
713.950 0.0312459
714.684 0.0312220
715.417 0.0311977
716.150 0.0311731
716.882 0.0311481
717.615 0.0311226
718.347 0.0310968
719.079 0.0310707
719.811 0.0310441
720.542 0.0310172
721.273 0.0309900
722.005 0.0309623
722.735 0.0309345
723.466 0.0309064
724.196 0.0308780
724.927 0.0308494
725.656 0.0308207
726.386 0.0307918
727.116 0.0307629
727.845 0.0307339
728.574 0.0307049
729.303 0.0306759
730.031 0.0306470
730.760 0.0306182
731.488 0.0305896
732.216 0.0305612
732.944 0.0305330
733.671 0.0305052
734.398 0.0304777
735.125 0.0304506
735.852 0.0304238
736.579 0.0303975
737.305 0.0303717
738.031 0.0303464
738.757 0.0303217
739.483 0.0302974
740.208 0.0302738
740.933 0.0302508
741.658 0.0302283
742.383 0.0302065
743.108 0.0301852
743.832 0.0301646
744.556 0.0301446
745.280 0.0301252
746.004 0.0301064
746.727 0.0300882
747.450 0.0300706
748.173 0.0300535
748.896 0.0300369
749.618 0.0300209
750.340 0.0300053
751.062 0.0299901
751.784 0.0299753
752.506 0.0299609
753.227 0.0299468
753.948 0.0299330
754.669 0.0299194
755.389 0.0299060
756.110 0.0298927
756.830 0.0298796
757.550 0.0298664
758.269 0.0298534
758.989 0.0298402
759.708 0.0298270
760.427 0.0298136
761.146 0.0298000
761.864 0.0297862
762.582 0.0297722
763.300 0.0297579
764.018 0.0297432
764.736 0.0297281
765.453 0.0297127
766.170 0.0296968
766.887 0.0296804
767.603 0.0296636
768.320 0.0296462
769.036 0.0296284
769.751 0.0296100
770.467 0.0295910
771.182 0.0295715
771.897 0.0295514
772.612 0.0295308
773.327 0.0295096
774.041 0.0294879
774.755 0.0294656
775.469 0.0294428
776.183 0.0294195
776.896 0.0293958
777.609 0.0293716
778.322 0.0293469
779.035 0.0293219
779.747 0.0292965
780.459 0.0292708
781.171 0.0292447
781.882 0.0292185
782.594 0.0291920
783.305 0.0291653
784.016 0.0291385
784.726 0.0291117
785.436 0.0290848
786.147 0.0290579
786.856 0.0290311
787.566 0.0290043
788.275 0.0289778
788.984 0.0289514
789.693 0.0289253
790.401 0.0288995
791.110 0.0288740
791.818 0.0288489
792.525 0.0288243
793.233 0.0288001
793.940 0.0287763
794.647 0.0287531
795.353 0.0287305
796.060 0.0287085
796.766 0.0286871
797.472 0.0286663
798.177 0.0286463
798.883 0.0286268
799.588 0.0286082
800.292 0.0285902
800.997 0.0285729
801.701 0.0285564
802.405 0.0285406
803.109 0.0285255
803.812 0.0285112
804.515 0.0284976
805.218 0.0284847
805.921 0.0284725
806.623 0.0284610
807.325 0.0284501
808.027 0.0284399
808.728 0.0284303
809.429 0.0284213
810.130 0.0284128
810.831 0.0284048
811.531 0.0283974
812.231 0.0283903
812.931 0.0283837
813.630 0.0283775
814.330 0.0283716
815.029 0.0283659
815.727 0.0283605
816.426 0.0283553
817.124 0.0283503
817.821 0.0283453
818.519 0.0283404
819.216 0.0283355
819.913 0.0283306
820.609 0.0283255
821.306 0.0283203
822.002 0.0283150
822.697 0.0283094
823.393 0.0283036
824.088 0.0282974
824.783 0.0282909
825.477 0.0282840
826.171 0.0282767
826.865 0.0282689
827.559 0.0282606
828.252 0.0282518
828.945 0.0282425
829.638 0.0282325
830.330 0.0282220
831.023 0.0282108
831.714 0.0281990
832.406 0.0281865
833.097 0.0281734
833.788 0.0281596
834.479 0.0281451
835.169 0.0281299
835.859 0.0281140
836.548 0.0280974
837.238 0.0280801
837.927 0.0280622
838.615 0.0280436
839.304 0.0280243
839.992 0.0280045
840.680 0.0279839
841.367 0.0279628
842.054 0.0279411
842.741 0.0279189
843.428 0.0278961
844.114 0.0278729
844.800 0.0278492
845.485 0.0278251
846.170 0.0278006
846.855 0.0277757
847.540 0.0277505
848.224 0.0277250
848.908 0.0276994
849.592 0.0276735
850.275 0.0276475
850.958 0.0276213
851.641 0.0275951
852.323 0.0275689
853.005 0.0275428
853.687 0.0275167
854.368 0.0274907
855.049 0.0274649
855.730 0.0274393
856.410 0.0274140
857.090 0.0273889
857.769 0.0273643
858.449 0.0273399
859.128 0.0273160
859.806 0.0272925
860.485 0.0272695
861.163 0.0272471
861.840 0.0272252
862.518 0.0272039
863.195 0.0271832
863.871 0.0271632
864.548 0.0271438
865.224 0.0271251
865.899 0.0271072
866.574 0.0270899
867.249 0.0270735
867.924 0.0270578
868.598 0.0270429
869.272 0.0270287
869.946 0.0270154
870.619 0.0270028
871.292 0.0269911
871.964 0.0269802
872.636 0.0269701
873.308 0.0269607
873.979 0.0269522
874.651 0.0269444
875.321 0.0269374
875.992 0.0269311
876.662 0.0269256
877.331 0.0269208
878.001 0.0269167
878.670 0.0269132
879.338 0.0269105
880.007 0.0269083
880.675 0.0269067
881.342 0.0269057
882.009 0.0269052
882.676 0.0269052
883.343 0.0269057
884.009 0.0269066
884.675 0.0269079
885.340 0.0269096
886.005 0.0269115
886.670 0.0269138
887.334 0.0269163
887.998 0.0269189
888.662 0.0269218
889.325 0.0269247
889.988 0.0269278
890.650 0.0269308
891.312 0.0269339
891.974 0.0269369
892.636 0.0269398
893.297 0.0269426
893.957 0.0269452
894.618 0.0269477
895.278 0.0269498
895.937 0.0269517
896.596 0.0269533
897.255 0.0269545
897.914 0.0269553
898.572 0.0269557
899.230 0.0269556
899.887 0.0269551
900.544 0.0269540
901.201 0.0269524
901.857 0.0269502
902.513 0.0269474
903.168 0.0269441
903.823 0.0269400
904.478 0.0269353
905.132 0.0269300
905.786 0.0269239
906.440 0.0269172
907.093 0.0269097
907.746 0.0269015
908.399 0.0268926
909.051 0.0268829
909.703 0.0268725
910.354 0.0268614
911.005 0.0268495
911.656 0.0268368
912.306 0.0268235
912.956 0.0268094
913.605 0.0267945
914.254 0.0267790
914.903 0.0267627
915.551 0.0267458
916.199 0.0267281
916.847 0.0267098
917.494 0.0266909
918.141 0.0266713
918.788 0.0266511
919.434 0.0266303
920.079 0.0266090
920.725 0.0265871
921.370 0.0265648
922.014 0.0265420
922.658 0.0265187
923.302 0.0264949
923.946 0.0264708
924.589 0.0264463
925.231 0.0264216
925.873 0.0263965
926.515 0.0263711
927.157 0.0263455
927.798 0.0263197
928.439 0.0262938
929.079 0.0262677
929.719 0.0262416
930.359 0.0262154
930.998 0.0261892
931.637 0.0261630
932.275 0.0261368
932.913 0.0261108
933.551 0.0260849
934.188 0.0260591
934.825 0.0260335
935.462 0.0260082
936.098 0.0259831
936.733 0.0259584
937.369 0.0259339
938.004 0.0259099
938.638 0.0258862
939.273 0.0258629
939.907 0.0258401
940.540 0.0258178
941.173 0.0257960
941.806 0.0257747
942.438 0.0257540
943.070 0.0257338
943.702 0.0257143
944.333 0.0256953
944.964 0.0256771
945.594 0.0256595
946.224 0.0256425
946.854 0.0256263
947.483 0.0256108
948.112 0.0255960
948.741 0.0255819
949.369 0.0255686
949.996 0.0255561
950.624 0.0255443
951.251 0.0255333
951.878 0.0255231
952.504 0.0255136
953.130 0.0255049
953.755 0.0254970
954.380 0.0254899
955.005 0.0254835
955.629 0.0254780
956.253 0.0254731
956.877 0.0254691
957.500 0.0254658
958.123 0.0254632
958.746 0.0254614
959.368 0.0254602
959.990 0.0254598
960.611 0.0254626
961.232 0.0254662
961.853 0.0254703
962.473 0.0254751
963.093 0.0254805
963.712 0.0254865
964.331 0.0254931
964.950 0.0255002
965.569 0.0255078
966.187 0.0255159
966.804 0.0255245
967.422 0.0255336
968.039 0.0255430
968.655 0.0255529
969.272 0.0255631
969.887 0.0255737
970.503 0.0255846
971.118 0.0255958
971.733 0.0256072
972.347 0.0256189
972.961 0.0256307
973.575 0.0256428
974.188 0.0256549
974.801 0.0256672
975.414 0.0256796
976.026 0.0256920
976.638 0.0257045
977.250 0.0257169
977.861 0.0257293
978.472 0.0257416
979.083 0.0257539
979.693 0.0257660
980.303 0.0257779
980.912 0.0257897
981.521 0.0258012
982.130 0.0258126
982.738 0.0258236
983.346 0.0258344
983.954 0.0258448
984.562 0.0258549
985.169 0.0258647
985.775 0.0258740
986.382 0.0258829
986.988 0.0258914
987.594 0.0258995
988.199 0.0259070
988.804 0.0259141
989.409 0.0259206
990.013 0.0259266
990.617 0.0259321
991.221 0.0259369
991.824 0.0259412
992.427 0.0259449
993.030 0.0259480
993.632 0.0259504
994.234 0.0259522
994.836 0.0259533
995.438 0.0259538
996.039 0.0259536
996.640 0.0259528
997.240 0.0259512
997.840 0.0259490
998.440 0.0259461
999.040 0.0259424
999.639 0.0259381
1000.238 0.0259321
1000.836 0.0259241
1001.435 0.0259153
1002.033 0.0259058
1002.63 0.0258957
1003.228 0.0258848
1003.825 0.0258732
1004.422 0.0258610
1005.018 0.0258481
1005.614 0.0258345
1006.21 0.0258202
1006.806 0.0258053
1007.401 0.0257898
1007.996 0.0257736
1008.591 0.0257568
1009.186 0.0257394
1009.78 0.0257214
1010.374 0.0257028
1010.967 0.0256837
1011.561 0.0256640
1012.154 0.0256437
1012.746 0.0256230
1013.339 0.0256017
1013.931 0.0255800
1014.523 0.0255578
1015.115 0.0255352
1015.706 0.0255122
1016.298 0.0254887
1016.888 0.0254649
1017.479 0.0254407
1018.069 0.0254162
1018.66 0.0253913
1019.25 0.0253662
1019.839 0.0253409
1020.429 0.0253152
1021.018 0.0252894
1021.607 0.0252633
1022.195 0.0252371
1022.784 0.0252107
1023.372 0.0251842
1023.96 0.0251576
1024.547 0.0251310
1025.135 0.0251043
1025.722 0.0250775
1026.309 0.0250508
1026.896 0.0250241
1027.483 0.0249974
1028.069 0.0249708
1028.655 0.0249443
1029.241 0.0249179
1029.827 0.0248917
1030.412 0.0248656
1030.997 0.0248398
1031.582 0.0248141
1032.167 0.0247887
1032.752 0.0247635
1033.336 0.0247386
1033.921 0.0247140
1034.505 0.0246898
1035.089 0.0246659
1035.672 0.0246424
1036.256 0.0246192
1036.839 0.0245965
1037.422 0.0245742
1038.005 0.0245523
1038.588 0.0245309
1039.171 0.0245099
1039.753 0.0244895
1040.335 0.0244696
1040.918 0.0244502
1041.50 0.0244313
1042.081 0.0244130
1042.663 0.0243953
1043.244 0.0243782
1043.826 0.0243616
1044.407 0.0243457
1044.988 0.0243304
1045.569 0.0243157
1046.15 0.0243016
1046.73 0.0242882
1047.311 0.0242755
1047.891 0.0242634
1048.471 0.0242520
1049.052 0.0242412
1049.632 0.0242311
1050.211 0.0242218
1050.791 0.0242131
1051.371 0.0242051
1051.95 0.0241978
1052.53 0.0241911
1053.109 0.0241852
1053.688 0.0241800
1054.268 0.0241755
1054.847 0.0241716
1055.426 0.0241685
1056.005 0.0241660
1056.583 0.0241642
1057.162 0.0241631
1057.741 0.0241627
1058.319 0.0241629
1058.898 0.0241638
1059.476 0.0241654
1060.055 0.0241675
1060.633 0.0241704
1061.211 0.0241738
1061.79 0.0241779
1062.368 0.0241826
1062.946 0.0241879
1063.524 0.0241937
1064.102 0.0242002
1064.68 0.0242072
1065.258 0.0242147
1065.836 0.0242228
1066.414 0.0242314
1066.992 0.0242405
1067.57 0.0242501
1068.148 0.0242601
1068.726 0.0242707
1069.304 0.0242816
1069.882 0.0242930
1070.46 0.0243048
1071.038 0.0243169
1071.616 0.0243295
1072.194 0.0243424
1072.772 0.0243556
1073.35 0.0243691
1073.928 0.0243829
1074.506 0.0243970
1075.084 0.0244114
1075.662 0.0244259
1076.24 0.0244407
1076.819 0.0244557
1077.397 0.0244709
1077.976 0.0244862
1078.554 0.0245016
1079.133 0.0245172
1079.711 0.0245328
1080.29 0.0245485
1080.869 0.0245643
1081.448 0.0245800
1082.027 0.0245958
1082.606 0.0246115
1083.185 0.0246272
1083.764 0.0246429
1084.343 0.0246584
1084.923 0.0246739
1085.502 0.0246892
1086.082 0.0247044
1086.662 0.0247195
1087.242 0.0247343
1087.822 0.0247489
1088.402 0.0247633
1088.983 0.0247775
1089.563 0.0247914
1090.144 0.0248050
1090.725 0.0248183
1091.306 0.0248313
1091.887 0.0248439
1092.469 0.0248562
1093.05 0.0248681
1093.632 0.0248796
1094.214 0.0248907
1094.796 0.0249014
1095.379 0.0249116
1095.961 0.0249214
1096.544 0.0249307
1097.127 0.0249395
1097.71 0.0249477
1098.294 0.0249555
1098.877 0.0249627
1099.461 0.0249694
1100.046 0.0249756
1100.63 0.0249811
1101.215 0.0249861
1101.80 0.0249905
1102.385 0.0249942
1102.97 0.0249974
1103.556 0.0249999
1104.142 0.0250018
1104.728 0.0250031
1105.315 0.0250037
1105.902 0.0250036
1106.489 0.0250029
1107.077 0.0250015
1107.664 0.0249995
1108.253 0.0249967
1108.841 0.0249933
1109.43 0.0249892
1110.019 0.0249844
1110.609 0.0249788
1111.198 0.0249727
1111.789 0.0249657
1112.379 0.0249581
1112.97 0.0249498
1113.561 0.0249408
1114.153 0.0249311
1114.745 0.0249208
1115.338 0.0249097
1115.931 0.0248979
1116.524 0.0248854
1117.117 0.0248723
1117.712 0.0248584
1118.306 0.0248440
1118.901 0.0248288
1119.496 0.0248130
1120.092 0.0247965
1120.689 0.0247794
1121.285 0.0247616
1121.882 0.0247433
1122.48 0.0247243
1123.078 0.0247047
1123.677 0.0246844
1124.276 0.0246637
1124.875 0.0246423
1125.476 0.0246203
1126.076 0.0245979
1126.677 0.0245749
1127.279 0.0245513
1127.881 0.0245273
1128.484 0.0245027
1129.087 0.0244777
1129.691 0.0244523
1130.295 0.0244263
1130.90 0.0244000
1131.505 0.0243732
1132.111 0.0243461
1132.718 0.0243185
1133.325 0.0242906
1133.933 0.0242624
1134.541 0.0242338
1135.15 0.0242050
1135.76 0.0241758
1136.37 0.0241464
1136.981 0.0241167
1137.592 0.0240869
1138.204 0.0240568
1138.817 0.0240265
1139.431 0.0239961
1140.045 0.0239656
1140.66 0.0239349
1141.275 0.0239041
1141.891 0.0238733
1142.508 0.0238424
1143.126 0.0238115
1143.744 0.0237805
1144.363 0.0237496
1144.983 0.0237187
