Measurement Sequence started on: 21-50-40-182
Integration time: 36
Scans to Average: 2 
>>>>>Begin Spectral Data<<<<<
433.946 .0415761
434.870 .0535226
435.793 .0592617
436.715 .0557623
437.635 .0538217
438.555 .0522066
439.473 .0518861
440.389 .0511497
441.305 .0503507
442.219 .0497482
443.132 .0492603
444.044 .0488588
444.954 .0484823
445.863 .0481425
446.771 .0478690
447.678 .0476577
448.584 .0475055
449.488 .0474176
450.391 .0473742
451.293 .0473567
452.194 .0473435
453.094 .0473091
453.992 .0472594
454.890 .0471923
455.786 .0471075
456.681 .0470073
457.575 .0469001
458.468 .0467923
459.360 .0466854
460.250 .0465826
461.140 .0464850
462.028 .0463830
462.915 .0462747
463.801 .0461653
464.687 .0460452
465.571 .0459189
466.454 .0457895
467.335 .0456572
468.216 .0455290
469.096 .0454028
469.975 .0452823
470.853 .0451677
471.729 .0450614
472.605 .0449671
473.479 .0448753
474.353 .0447962
475.226 .0447260
476.097 .0446635
476.968 .0446104
477.838 .0445646
478.706 .0445255
479.574 .0444921
480.441 .0444588
481.306 .0444271
482.171 .0443965
483.035 .0443693
483.898 .0443426
484.760 .0443213
485.621 .0443018
486.481 .0442902
487.340 .0442795
488.198 .0442717
489.055 .0442628
489.912 .0442550
490.767 .0442387
491.622 .0442178
492.476 .0441927
493.329 .0441600
494.180 .0441215
495.032 .0440877
495.882 .0440509
496.731 .0440221
497.580 .0439997
498.427 .0439881
499.274 .0439855
500.120 .0440003
500.965 .0440190
501.809 .0440430
502.653 .0440740
503.495 .0441031
504.337 .0441273
505.178 .0441548
506.018 .0441809
506.858 .0442106
507.696 .0442449
508.534 .0442882
509.371 .0443359
510.208 .0444009
511.043 .0444711
511.878 .0445458
512.712 .0446278
513.545 .0447109
514.377 .0447942
515.209 .0448851
516.040 .0449810
516.870 .0450797
517.699 .0451890
518.528 .0453031
519.356 .0454220
520.183 .0455474
521.010 .0456744
521.836 .0458077
522.661 .0459465
523.485 .0460865
524.309 .0462195
525.132 .0463480
525.954 .0464782
526.776 .0465917
527.597 .0466950
528.417 .0467797
529.237 .0468492
530.056 .0469111
530.874 .0469686
531.692 .0470162
532.508 .0470675
533.325 .0471128
534.140 .0471504
534.955 .0471620
535.770 .0471423
536.583 .0470844
537.397 .0469859
538.209 .0468426
539.021 .0466528
539.832 .0464167
540.643 .0461615
541.453 .0458841
542.262 .0455953
543.071 .0452964
543.879 .0450016
544.687 .0447162
545.494 .0444427
546.300 .0441766
547.106 .0439278
547.911 .0436927
548.716 .0434756
549.520 .0432663
550.323 .0430577
551.126 .0428535
551.929 .0426506
552.731 .0424456
553.532 .0422419
554.332 .0420380
555.133 .0418402
555.932 .0416486
556.731 .0414657
557.530 .0412874
558.328 .0411125
559.125 .0409447
559.922 .0407826
560.719 .0406221
561.515 .0404703
562.310 .0403269
563.105 .0401957
563.899 .0400791
564.693 .0399752
565.487 .0398819
566.280 .0397982
567.072 .0397206
567.864 .0396423
568.655 .0395588
569.446 .0394732
570.236 .0393809
571.026 .0392841
571.816 .0391823
572.605 .0390767
573.393 .0389660
574.181 .0388558
574.969 .0387433
575.756 .0386300
576.543 .0385192
577.329 .0384110
578.115 .0383025
578.900 .0381978
579.685 .0380994
580.469 .0380070
581.253 .0379202
582.036 .0378409
582.820 .0377655
583.602 .0376965
584.384 .0376295
585.166 .0375647
585.947 .0375004
586.728 .0374387
587.509 .0373766
588.289 .0373148
589.069 .0372530
589.848 .0371923
590.627 .0371329
591.405 .0370753
592.183 .0370194
592.961 .0369660
593.738 .0369135
594.515 .0368643
595.291 .0368166
596.067 .0367705
596.843 .0367253
597.618 .0366800
598.393 .0366338
599.167 .0365868
599.941 .0365398
600.715 .0364927
601.488 .0364470
602.261 .0364041
603.034 .0363641
603.806 .0363279
604.578 .0362951
605.349 .0362638
606.121 .0362331
606.891 .0362023
607.662 .0361703
608.432 .0361368
609.201 .0361025
609.971 .0360675
610.740 .0360328
611.508 .0359994
612.277 .0359680
613.045 .0359388
613.812 .0359112
614.579 .0358844
615.346 .0358576
616.113 .0358303
616.879 .0358018
617.645 .0357728
618.411 .0357442
619.176 .0357169
619.941 .0356906
620.705 .0356658
621.470 .0356425
622.233 .0356200
622.997 .0355981
623.760 .0355768
624.523 .0355551
625.286 .0355331
626.048 .0355098
626.810 .0354867
627.572 .0354634
628.333 .0354399
629.095 .0354164
629.855 .0353924
630.616 .0353675
631.376 .0353414
632.136 .0353132
632.895 .0352846
633.655 .0352556
634.414 .0352272
635.172 .0351991
635.931 .0351721
636.689 .0351454
637.447 .0351188
638.204 .0350918
638.962 .0350639
639.718 .0350334
640.475 .0350008
641.231 .0349656
641.988 .0349289
642.743 .0348912
643.499 .0348529
644.254 .0348141
645.009 .0347755
645.764 .0347364
646.518 .0346960
647.272 .0346540
648.026 .0346111
648.780 .0345672
649.533 .0345229
650.286 .0344782
651.039 .0344335
651.792 .0343902
652.544 .0343493
653.296 .0343099
654.048 .0342733
654.799 .0342385
655.550 .0342060
656.301 .0341749
657.052 .0341456
657.802 .0341180
658.552 .0340916
659.302 .0340665
660.052 .0340418
660.801 .0340173
661.550 .0339934
662.299 .0339686
663.048 .0339440
663.796 .0339195
664.544 .0338944
665.292 .0338684
666.040 .0338422
666.787 .0338158
667.534 .0337895
668.281 .0337629
669.028 .0337362
669.774 .0337100
670.521 .0336840
671.266 .0336584
672.012 .0336334
672.758 .0336100
673.503 .0335877
674.248 .0335662
674.992 .0335460
675.737 .0335273
676.481 .0335100
677.225 .0334936
677.969 .0334777
678.712 .0334620
679.455 .0334453
680.199 .0334272
680.941 .0334082
681.684 .0333880
682.426 .0333665
683.168 .0333446
683.910 .0333223
684.652 .0333001
685.393 .0332782
686.134 .0332567
686.875 .0332354
687.616 .0332138
688.356 .0331911
689.097 .0331670
689.837 .0331418
690.576 .0331155
691.316 .0330884
692.055 .0330614
692.794 .0330348
693.533 .0330089
694.272 .0329843
695.010 .0329609
695.748 .0329382
696.486 .0329161
697.224 .0328938
697.962 .0328710
698.699 .0328473
699.436 .0328229
700.173 .0327989
700.909 .0327750
701.646 .0327518
702.382 .0327292
703.118 .0327079
703.853 .0326883
704.589 .0326696
705.324 .0326520
706.059 .0326351
706.794 .0326181
707.529 .0326010
708.263 .0325829
708.997 .0325640
709.731 .0325441
710.465 .0325237
711.198 .0325022
711.931 .0324802
712.664 .0324574
713.397 .0324346
714.130 .0324118
714.862 .0323890
715.594 .0323660
716.326 .0323425
717.058 .0323188
717.789 .0322938
718.520 .0322679
719.251 .0322414
719.982 .0322142
720.713 .0321866
721.443 .0321586
722.173 .0321305
722.903 .0321027
723.633 .0320752
724.362 .0320482
725.091 .0320212
725.820 .0319948
726.549 .0319683
727.278 .0319424
728.006 .0319171
728.734 .0318925
729.462 .0318685
730.190 .0318454
730.917 .0318226
731.644 .0317994
732.371 .0317765
733.098 .0317543
733.825 .0317325
734.551 .0317117
735.277 .0316919
736.003 .0316732
736.728 .0316557
737.454 .0316392
738.179 .0316226
738.904 .0316058
739.629 .0315881
740.353 .0315691
741.077 .0315486
741.801 .0315273
742.525 .0315054
743.249 .0314837
743.972 .0314630
744.695 .0314427
745.418 .0314234
746.141 .0314048
746.863 .0313866
747.585 .0313684
748.307 .0313499
749.029 .0313306
749.750 .0313109
750.472 .0312914
751.193 .0312725
751.913 .0312543
752.634 .0312377
753.354 .0312219
754.074 .0312071
754.794 .0311927
755.514 .0311787
756.233 .0311643
756.952 .0311500
757.671 .0311350
758.390 .0311195
759.108 .0311035
759.826 .0310876
760.544 .0310712
761.262 .0310553
761.979 .0310393
762.697 .0310229
763.414 .0310060
764.130 .0309886
764.847 .0309708
765.563 .0309529
766.279 .0309348
766.995 .0309166
767.710 .0308981
768.426 .0308796
769.141 .0308606
769.855 .0308411
770.570 .0308211
771.284 .0308006
771.998 .0307794
772.712 .0307583
773.426 .0307373
774.139 .0307169
774.852 .0306971
775.565 .0306784
776.277 .0306608
776.990 .0306437
777.702 .0306270
778.414 .0306108
779.125 .0305948
779.836 .0305789
780.547 .0305633
781.258 .0305481
781.969 .0305335
782.679 .0305199
783.389 .0305069
784.099 .0304947
784.808 .0304832
785.517 .0304722
786.226 .0304607
786.935 .0304491
787.643 .0304370
788.352 .0304239
789.060 .0304103
789.767 .0303960
790.475 .0303814
791.182 .0303667
791.889 .0303522
792.595 .0303374
793.301 .0303231
794.008 .0303090
794.713 .0302947
795.419 .0302806
796.124 .0302665
796.829 .0302526
797.534 .0302387
798.238 .0302250
798.942 .0302113
799.646 .0301976
800.350 .0301845
801.053 .0301714
801.756 .0301584
802.459 .0301451
803.162 .0301317
803.864 .0301180
804.566 .0301041
805.267 .0300895
805.969 .0300743
806.670 .0300584
807.371 .0300420
808.071 .0300246
808.772 .0300060
809.472 .0299866
810.171 .0299665
810.871 .0299455
811.570 .0299243
812.269 .0299026
812.967 .0298807
813.666 .0298592
814.364 .0298379
815.061 .0298168
815.759 .0297960
816.456 .0297754
817.153 .0297545
817.849 .0297334
818.545 .0297120
819.241 .0296899
819.937 .0296674
820.632 .0296444
821.327 .0296204
822.022 .0295958
822.717 .0295709
823.411 .0295456
824.105 .0295201
824.798 .0294945
825.491 .0294684
826.184 .0294417
826.877 .0294146
827.569 .0293870
828.261 .0293589
828.953 .0293308
829.645 .0293033
830.336 .0292765
831.027 .0292511
831.717 .0292276
832.407 .0292059
833.097 .0291859
833.787 .0291670
834.476 .0291489
835.165 .0291315
835.854 .0291147
836.542 .0290982
837.230 .0290825
837.918 .0290680
838.605 .0290545
839.292 .0290425
839.979 .0290321
840.665 .0290228
841.352 .0290141
842.037 .0290051
842.723 .0289954
843.408 .0289844
844.093 .0289719
844.777 .0289581
845.462 .0289429
846.145 .0289270
846.829 .0289104
847.512 .0288937
848.195 .0288773
848.878 .0288611
849.560 .0288449
850.242 .0288286
850.923 .0288119
851.605 .0287951
852.286 .0287780
852.966 .0287605
853.646 .0287433
854.326 .0287262
855.006 .0287094
855.685 .0286929
856.364 .0286769
857.043 .0286613
857.721 .0286461
858.399 .0286311
859.077 .0286159
859.754 .0286005
860.431 .0285853
861.107 .0285701
861.784 .0285550
862.459 .0285402
863.135 .0285255
863.810 .0285111
864.485 .0284971
865.160 .0284836
865.834 .0284711
866.508 .0284599
867.181 .0284500
867.854 .0284420
868.527 .0284353
869.199 .0284303
869.872 .0284259
870.543 .0284218
871.215 .0284178
871.886 .0284134
872.557 .0284078
873.227 .0284019
873.897 .0283954
874.567 .0283885
875.236 .0283811
875.905 .0283737
876.573 .0283658
877.242 .0283573
877.909 .0283481
878.577 .0283376
879.244 .0283261
879.911 .0283137
880.577 .0283001
881.243 .0282860
881.909 .0282716
882.575 .0282567
883.240 .0282414
883.904 .0282259
884.569 .0282100
885.232 .0281933
885.896 .0281763
886.559 .0281591
887.222 .0281419
887.885 .0281254
888.547 .0281099
889.208 .0280961
889.870 .0280847
890.531 .0280749
891.192 .0280671
891.852 .0280611
892.512 .0280569
893.171 .0280541
893.830 .0280529
894.489 .0280530
895.148 .0280542
895.806 .0280563
896.464 .0280592
897.121 .0280622
897.778 .0280656
898.434 .0280685
899.091 .0280706
899.747 .0280715
900.402 .0280710
901.057 .0280692
901.712 .0280668
902.366 .0280633
903.020 .0280590
903.674 .0280542
904.327 .0280491
904.980 .0280431
905.633 .0280365
906.285 .0280296
906.936 .0280222
907.588 .0280147
908.239 .0280072
908.889 .0279991
909.540 .0279910
910.190 .0279827
910.839 .0279736
911.488 .0279633
912.137 .0279521
912.785 .0279390
913.433 .0279246
914.081 .0279094
914.728 .0278934
915.375 .0278775
916.021 .0278621
916.668 .0278474
917.313 .0278329
917.959 .0278192
918.604 .0278058
919.248 .0277923
919.892 .0277792
920.536 .0277658
921.180 .0277521
921.823 .0277387
922.465 .0277251
923.108 .0277114
923.750 .0276972
924.391 .0276825
925.032 .0276663
925.673 .0276486
926.313 .0276291
926.953 .0276082
927.593 .0275859
928.232 .0275632
928.871 .0275400
929.510 .0275175
930.148 .0274950
930.786 .0274734
931.423 .0274518
932.060 .0274306
932.697 .0274095
933.333 .0273885
933.969 .0273674
934.604 .0273473
935.239 .0273273
935.874 .0273078
936.508 .0272887
937.142 .0272697
937.776 .0272497
938.409 .0272286
939.042 .0272055
939.674 .0271805
940.306 .0271535
940.938 .0271254
941.569 .0270960
942.200 .0270666
942.830 .0270373
943.460 .0270080
944.090 .0269789
944.720 .0269496
945.349 .0269196
945.977 .0268893
946.606 .0268587
947.233 .0268279
947.861 .0267972
948.488 .0267676
949.115 .0267396
949.741 .0267132
950.367 .0266882
950.993 .0266641
951.618 .0266403
952.243 .0266164
952.868 .0265916
953.492 .0265657
954.115 .0265393
954.739 .0265131
955.362 .0264874
955.984 .0264632
956.607 .0264412
957.229 .0264214
957.850 .0264038
958.471 .0263880
959.092 .0263733
959.713 .0263588
960.333 .0263444
960.952 .0263297
961.572 .0263152
962.191 .0263015
962.809 .0262884
963.428 .0262766
964.045 .0262665
964.663 .0262577
965.280 .0262494
965.897 .0262415
966.513 .0262331
967.129 .0262236
967.745 .0262134
968.361 .0262020
968.976 .0261901
969.590 .0261786
970.205 .0261678
970.818 .0261582
971.432 .0261500
972.045 .0261438
972.658 .0261389
973.271 .0261356
973.883 .0261331
974.495 .0261309
975.106 .0261295
975.717 .0261288
976.328 .0261286
976.938 .0261298
977.548 .0261324
978.158 .0261363
978.768 .0261412
979.377 .0261465
979.985 .0261514
980.594 .0261556
981.202 .0261584
981.809 .0261599
982.417 .0261596
983.024 .0261584
983.631 .0261565
984.237 .0261545
984.843 .0261534
985.449 .0261525
986.054 .0261520
986.659 .0261516
987.264 .0261505
987.868 .0261485
988.472 .0261455
989.076 .0261423
989.679 .0261389
990.282 .0261358
990.885 .0261328
991.487 .0261308
992.090 .0261303
992.691 .0261312
993.293 .0261330
993.894 .0261361
994.495 .0261404
995.095 .0261453
995.696 .0261511
996.296 .0261572
996.895 .0261641
997.494 .0261719
998.093 .0261802
998.692 .0261888
999.291 .0261978
999.889 .0262071
1000.487 .0262162
1001.084 .0262248
1001.681 .0262329
1002.278 .0262399
1002.875 .0262460
1003.471 .0262513
1004.067 .0262560
1004.663 .0262602
1005.258 .0262641
1005.854 .0262675
1006.449 .0262707
1007.043 .0262736
1007.638 .0262762
1008.232 .0262784
1008.826 .0262814
1009.419 .0262852
1010.012 .0262897
1010.605 .0262953
1011.198 .0263030
1011.791 .0263118
1012.383 .0263216
1012.975 .0263314
1013.566 .0263410
1014.158 .0263502
1014.749 .0263590
1015.340 .0263665
1015.931 .0263731
1016.521 .0263797
1017.111 .0263863
1017.701 .0263930
1018.291 .0264006
1018.880 .0264081
1019.470 .0264160
1020.059 .0264238
1020.647 .0264313
1021.236 .0264382
1021.824 .0264454
1022.412 .0264533
1023.000 .0264618
1023.588 .0264712
1024.175 .0264811
1024.762 .0264914
1025.349 .0265023
1025.936 .0265132
1026.523 .0265239
1027.109 .0265350
1027.695 .0265456
1028.281 .0265566
1028.867 .0265682
1029.452 .0265800
1030.038 .0265919
1030.623 .0266035
1031.208 .0266147
1031.792 .0266244
1032.377 .0266318
1032.961 .0266372
1033.546 .0266408
1034.130 .0266433
1034.714 .0266444
1035.297 .0266436
1035.881 .0266420
1036.464 .0266398
1037.047 .0266369
1037.630 .0266338
1038.213 .0266302
1038.796 .0266265
1039.378 .0266229
1039.961 .0266195
1040.543 .0266164
1041.125 .0266133
1041.707 .0266112
1042.289 .0266096
1042.871 .0266079
1043.452 .0266065
1044.034 .0266054
1044.615 .0266048
1045.196 .0266055
1045.777 .0266060
1046.358 .0266068
1046.939 .0266068
1047.520 .0266064
1048.101 .0266048
1048.681 .0266021
1049.262 .0265985
1049.842 .0265941
1050.422 .0265897
1051.002 .0265856
1051.582 .0265806
1052.162 .0265758
1052.742 .0265713
1053.322 .0265666
1053.902 .0265619
1054.482 .0265574
1055.061 .0265532
1055.641 .0265502
1056.220 .0265473
1056.800 .0265448
1057.379 .0265412
1057.958 .0265375
1058.538 .0265335
1059.117 .0265283
1059.696 .0265237
1060.275 .0265185
1060.854 .0265129
1061.433 .0265078
1062.012 .0265031
1062.592 .0264986
1063.171 .0264940
1063.750 .0264905
1064.329 .0264867
1064.908 .0264829
1065.487 .0264801
1066.066 .0264784
1066.645 .0264772
1067.224 .0264779
1067.803 .0264781
1068.382 .0264777
1068.961 .0264778
1069.540 .0264772
1070.119 .0264759
1070.698 .0264743
1071.278 .0264723
1071.857 .0264693
1072.436 .0264657
1073.016 .0264627
1073.595 .0264566
1074.175 .0264511
1074.754 .0264435
1075.334 .0264335
1075.913 .0264214
1076.493 .0264072
1077.073 .0263897
1077.653 .0263709
1078.233 .0263509
1078.813 .0263288
1079.393 .0263061
1079.974 .0262847
1080.554 .0262624
1081.135 .0262428
1081.716 .0262266
1082.296 .0262132
1082.877 .0262015
1083.458 .0261935
1084.040 .0261849
1084.621 .0261770
1085.202 .0261701
1085.784 .0261618
1086.366 .0261532
1086.948 .0261462
1087.530 .0261389
1088.112 .0261310
1088.695 .0261237
1089.277 .0261160
1089.860 .0261066
1090.443 .0260983
1091.026 .0260886
1091.610 .0260759
1092.193 .0260626
1092.777 .0260486
1093.361 .0260319
1093.946 .0260144
1094.530 .0259968
1095.115 .0259777
1095.700 .0259598
1096.285 .0259429
1096.871 .0259270
1097.456 .0259150
1098.042 .0259077
1098.628 .0259029
1099.215 .0259009
1099.802 .0259028
1100.389 .0259061
1100.976 .0259090
1101.564 .0259128
1102.152 .0259149
1102.740 .0259162
1103.329 .0259174
1103.917 .0259196
1104.507 .0259235
1105.096 .0259295
1105.686 .0259377
1106.276 .0259473
1106.867 .0259594
1107.457 .0259733
1108.049 .0259879
1108.640 .0260036
1109.232 .0260181
1109.825 .0260296
1110.417 .0260384
1111.010 .0260436
1111.604 .0260478
1112.198 .0260505
1112.792 .0260541
1113.387 .0260597
1113.982 .0260684
1114.577 .0260803
1115.173 .0260963
1115.769 .0261150
1116.366 .0261383
1116.963 .0261628
1117.561 .0261884
1118.159 .0262129
1118.758 .0262399
1119.357 .0262678
1119.957 .0262994
1120.557 .0263330
1121.157 .0263700
1121.758 .0264083
1122.360 .0264501
1122.962 .0264914
1123.564 .0265341
1124.167 .0265747
1124.771 .0266146
1125.375 .0266492
1125.980 .0266812
1126.585 .0267090
1127.191 .0267355
1127.797 .0267620
1128.404 .0267923
1129.012 .0268250
1129.620 .0268625
1130.229 .0269024
1130.838 .0269484
1131.448 .0269978
1132.058 .0270513
1132.669 .0271071
1133.281 .0271629
1133.894 .0272187
1134.507 .0272774
1135.120 .0273377
1135.735 .0274027
1136.350 .0274723
1136.965 .0275508
1137.582 .0276326
1138.199 .0277169
1138.816 .0278018
1139.435 .0278850
1140.054 .0279685
1140.674 .0280606
1141.294 .0281569
1141.916 .0282691
1142.538 .0282323
1143.160 .0283700
1143.784 .0287539
1144.408 .0288740
1145.033 .0291415
