BestFit value for E:\RC_data\Compressed_For_Future_Analysis_Lite\run\0009_2025-09-03_21-49-49\Interpretation_History\2025-09-07_13-20-10\ResultsGraphs\BestFit\(Run)spectra_21-50-57-802_BestFit.txt
600.715 0.0393545
601.488 0.0393032
602.261 0.0392519
603.034 0.0392007
603.806 0.0391497
604.578 0.0390988
605.349 0.0390480
606.121 0.0389974
606.891 0.0389469
607.662 0.0388966
608.432 0.0388464
609.201 0.0387965
609.971 0.0387467
610.740 0.0386971
611.508 0.0386478
612.277 0.0385987
613.045 0.0385498
613.812 0.0385013
614.579 0.0384530
615.346 0.0384049
616.113 0.0383572
616.879 0.0383098
617.645 0.0382626
618.411 0.0382158
619.176 0.0381694
619.941 0.0381232
620.705 0.0380775
621.470 0.0380320
622.233 0.0379869
622.997 0.0379421
623.760 0.0378977
624.523 0.0378535
625.286 0.0378097
626.048 0.0377662
626.810 0.0377231
627.572 0.0376802
628.333 0.0376376
629.095 0.0375952
629.855 0.0375532
630.616 0.0375113
631.376 0.0374697
632.136 0.0374282
632.895 0.0373870
633.655 0.0373459
634.414 0.0373050
635.172 0.0372643
635.931 0.0372236
636.689 0.0371830
637.447 0.0371425
638.204 0.0371021
638.962 0.0370617
639.718 0.0370214
640.475 0.0369810
641.231 0.0369407
641.988 0.0369003
642.743 0.0368600
643.499 0.0368196
644.254 0.0367792
645.009 0.0367388
645.764 0.0366982
646.518 0.0366577
647.272 0.0366172
648.026 0.0365766
648.780 0.0365359
649.533 0.0364953
650.286 0.0364546
651.039 0.0364139
651.792 0.0363732
652.544 0.0363325
653.296 0.0362918
654.048 0.0362512
654.799 0.0362107
655.550 0.0361702
656.301 0.0361298
657.052 0.0360895
657.802 0.0360494
658.552 0.0360094
659.302 0.0359695
660.052 0.0359298
660.801 0.0358904
661.550 0.0358512
662.299 0.0358122
663.048 0.0357735
663.796 0.0357351
664.544 0.0356969
665.292 0.0356591
666.040 0.0356216
666.787 0.0355844
667.534 0.0355476
668.281 0.0355111
669.028 0.0354750
669.774 0.0354393
670.521 0.0354038
671.266 0.0353689
672.012 0.0353342
672.758 0.0353000
673.503 0.0352661
674.248 0.0352326
674.992 0.0351994
675.737 0.0351666
676.481 0.0351341
677.225 0.0351020
677.969 0.0350701
678.712 0.0350386
679.455 0.0350073
680.199 0.0349763
680.941 0.0349455
681.684 0.0349149
682.426 0.0348846
683.168 0.0348544
683.910 0.0348244
684.652 0.0347944
685.393 0.0347646
686.134 0.0347349
686.875 0.0347052
687.616 0.0346756
688.356 0.0346460
689.097 0.0346163
689.837 0.0345867
690.576 0.0345570
691.316 0.0345271
692.055 0.0344973
692.794 0.0344673
693.533 0.0344371
694.272 0.0344068
695.010 0.0343764
695.748 0.0343458
696.486 0.0343151
697.224 0.0342841
697.962 0.0342529
698.699 0.0342216
699.436 0.0341901
700.173 0.0341583
700.909 0.0341264
701.646 0.0340942
702.382 0.0340619
703.118 0.0340294
703.853 0.0339968
704.589 0.0339639
705.324 0.0339310
706.059 0.0338978
706.794 0.0338646
707.529 0.0338313
708.263 0.0337979
708.997 0.0337644
709.731 0.0337309
710.465 0.0336973
711.198 0.0336638
711.931 0.0336303
712.664 0.0335969
713.397 0.0335635
714.130 0.0335302
714.862 0.0334971
715.594 0.0334641
716.326 0.0334313
717.058 0.0333987
717.789 0.0333663
718.520 0.0333342
719.251 0.0333023
719.982 0.0332708
720.713 0.0332395
721.443 0.0332086
722.173 0.0331780
722.903 0.0331479
723.633 0.0331180
724.362 0.0330887
725.091 0.0330597
725.820 0.0330311
726.549 0.0330030
727.278 0.0329753
728.006 0.0329481
728.734 0.0329213
729.462 0.0328950
730.190 0.0328691
730.917 0.0328437
731.644 0.0328187
732.371 0.0327942
733.098 0.0327701
733.825 0.0327464
734.551 0.0327231
735.277 0.0327003
736.003 0.0326778
736.728 0.0326557
737.454 0.0326339
738.179 0.0326125
738.904 0.0325914
739.629 0.0325705
740.353 0.0325500
741.077 0.0325296
741.801 0.0325095
742.525 0.0324896
743.249 0.0324698
743.972 0.0324502
744.695 0.0324307
745.418 0.0324113
746.141 0.0323919
746.863 0.0323726
747.585 0.0323532
748.307 0.0323339
749.029 0.0323144
749.750 0.0322949
750.472 0.0322753
751.193 0.0322555
751.913 0.0322356
752.634 0.0322155
753.354 0.0321952
754.074 0.0321747
754.794 0.0321539
755.514 0.0321329
756.233 0.0321116
756.952 0.0320900
757.671 0.0320681
758.390 0.0320459
759.108 0.0320233
759.826 0.0320004
760.544 0.0319772
761.262 0.0319536
761.979 0.0319296
762.697 0.0319053
763.414 0.0318807
764.130 0.0318557
764.847 0.0318303
765.563 0.0318046
766.279 0.0317786
766.995 0.0317522
767.710 0.0317255
768.426 0.0316985
769.141 0.0316713
769.855 0.0316438
770.570 0.0316160
771.284 0.0315879
771.998 0.0315597
772.712 0.0315312
773.426 0.0315026
774.139 0.0314739
774.852 0.0314450
775.565 0.0314160
776.277 0.0313870
776.990 0.0313578
777.702 0.0313287
778.414 0.0312996
779.125 0.0312705
779.836 0.0312415
780.547 0.0312126
781.258 0.0311838
781.969 0.0311552
782.679 0.0311267
783.389 0.0310984
784.099 0.0310704
784.808 0.0310426
785.517 0.0310151
786.226 0.0309879
786.935 0.0309610
787.643 0.0309346
788.352 0.0309084
789.060 0.0308827
789.767 0.0308574
790.475 0.0308325
791.182 0.0308081
791.889 0.0307841
792.595 0.0307607
793.301 0.0307377
794.008 0.0307152
794.713 0.0306933
795.419 0.0306718
796.124 0.0306510
796.829 0.0306306
797.534 0.0306108
798.238 0.0305916
798.942 0.0305729
799.646 0.0305547
800.350 0.0305370
801.053 0.0305200
801.756 0.0305034
802.459 0.0304873
803.162 0.0304718
803.864 0.0304567
804.566 0.0304422
805.267 0.0304281
805.969 0.0304144
806.670 0.0304013
807.371 0.0303885
808.071 0.0303761
808.772 0.0303641
809.472 0.0303525
810.171 0.0303412
810.871 0.0303302
811.570 0.0303195
812.269 0.0303091
812.967 0.0302989
813.666 0.0302889
814.364 0.0302791
815.061 0.0302694
815.759 0.0302599
816.456 0.0302505
817.153 0.0302411
817.849 0.0302318
818.545 0.0302225
819.241 0.0302132
819.937 0.0302039
820.632 0.0301945
821.327 0.0301850
822.022 0.0301753
822.717 0.0301656
823.411 0.0301556
824.105 0.0301454
824.798 0.0301351
825.491 0.0301244
826.184 0.0301135
826.877 0.0301023
827.569 0.0300908
828.261 0.0300790
828.953 0.0300668
829.645 0.0300542
830.336 0.0300413
831.027 0.0300279
831.717 0.0300142
832.407 0.0300000
833.097 0.0299853
833.787 0.0299702
834.476 0.0299547
835.165 0.0299387
835.854 0.0299222
836.542 0.0299052
837.230 0.0298878
837.918 0.0298699
838.605 0.0298515
839.292 0.0298326
839.979 0.0298133
840.665 0.0297935
841.352 0.0297732
842.037 0.0297524
842.723 0.0297312
843.408 0.0297096
844.093 0.0296876
844.777 0.0296651
845.462 0.0296422
846.145 0.0296190
846.829 0.0295953
847.512 0.0295713
848.195 0.0295470
848.878 0.0295223
849.560 0.0294974
850.242 0.0294722
850.923 0.0294467
851.605 0.0294210
852.286 0.0293950
852.966 0.0293690
853.646 0.0293427
854.326 0.0293163
855.006 0.0292897
855.685 0.0292631
856.364 0.0292364
857.043 0.0292096
857.721 0.0291829
858.399 0.0291562
859.077 0.0291295
859.754 0.0291029
860.431 0.0290763
861.107 0.0290499
861.784 0.0290237
862.459 0.0289976
863.135 0.0289717
863.810 0.0289460
864.485 0.0289206
865.160 0.0288954
865.834 0.0288705
866.508 0.0288460
867.181 0.0288218
867.854 0.0287979
868.527 0.0287744
869.199 0.0287513
869.872 0.0287287
870.543 0.0287065
871.215 0.0286847
871.886 0.0286634
872.557 0.0286426
873.227 0.0286223
873.897 0.0286025
874.567 0.0285832
875.236 0.0285645
875.905 0.0285463
876.573 0.0285287
877.242 0.0285116
877.909 0.0284951
878.577 0.0284792
879.244 0.0284639
879.911 0.0284492
880.577 0.0284350
881.243 0.0284215
881.909 0.0284085
882.575 0.0283961
883.240 0.0283843
883.904 0.0283731
884.569 0.0283625
885.232 0.0283525
885.896 0.0283430
886.559 0.0283340
887.222 0.0283257
887.885 0.0283178
888.547 0.0283105
889.208 0.0283037
889.870 0.0282974
890.531 0.0282917
891.192 0.0282863
891.852 0.0282815
892.512 0.0282771
893.171 0.0282731
893.830 0.0282695
894.489 0.0282663
895.148 0.0282635
895.806 0.0282611
896.464 0.0282590
897.121 0.0282572
897.778 0.0282557
898.434 0.0282544
899.091 0.0282534
899.747 0.0282527
900.402 0.0282521
901.057 0.0282517
901.712 0.0282515
902.366 0.0282514
903.020 0.0282515
903.674 0.0282516
904.327 0.0282518
904.980 0.0282520
905.633 0.0282522
906.285 0.0282525
906.936 0.0282527
907.588 0.0282528
908.239 0.0282529
908.889 0.0282529
909.540 0.0282527
910.190 0.0282525
910.839 0.0282520
911.488 0.0282514
912.137 0.0282505
912.785 0.0282495
913.433 0.0282482
914.081 0.0282466
914.728 0.0282447
915.375 0.0282426
916.021 0.0282401
916.668 0.0282373
917.313 0.0282341
917.959 0.0282305
918.604 0.0282266
919.248 0.0282223
919.892 0.0282175
920.536 0.0282124
921.180 0.0282068
921.823 0.0282007
922.465 0.0281942
923.108 0.0281872
923.750 0.0281798
924.391 0.0281718
925.032 0.0281634
925.673 0.0281545
926.313 0.0281450
926.953 0.0281351
927.593 0.0281246
928.232 0.0281137
928.871 0.0281022
929.510 0.0280902
930.148 0.0280777
930.786 0.0280646
931.423 0.0280511
932.060 0.0280370
932.697 0.0280224
933.333 0.0280074
933.969 0.0279918
934.604 0.0279757
935.239 0.0279592
935.874 0.0279421
936.508 0.0279246
937.142 0.0279066
937.776 0.0278881
938.409 0.0278693
939.042 0.0278499
939.674 0.0278302
940.306 0.0278100
940.938 0.0277894
941.569 0.0277685
942.200 0.0277471
942.830 0.0277254
943.460 0.0277034
944.090 0.0276810
944.720 0.0276583
945.349 0.0276353
945.977 0.0276121
946.606 0.0275885
947.233 0.0275647
947.861 0.0275407
948.488 0.0275164
949.115 0.0274920
949.741 0.0274674
950.367 0.0274426
950.993 0.0274177
951.618 0.0273926
952.243 0.0273675
952.868 0.0273423
953.492 0.0273170
954.115 0.0272917
954.739 0.0272663
955.362 0.0272409
955.984 0.0272156
956.607 0.0271902
957.229 0.0271649
957.850 0.0271397
958.471 0.0271146
959.092 0.0270896
959.713 0.0270647
960.333 0.0270417
960.952 0.0270204
961.572 0.0269992
962.191 0.0269782
962.809 0.0269574
963.428 0.0269368
964.045 0.0269165
964.663 0.0268964
965.280 0.0268766
965.897 0.0268571
966.513 0.0268379
967.129 0.0268190
967.745 0.0268004
968.361 0.0267822
968.976 0.0267643
969.590 0.0267468
970.205 0.0267297
970.818 0.0267130
971.432 0.0266966
972.045 0.0266807
972.658 0.0266653
973.271 0.0266502
973.883 0.0266357
974.495 0.0266215
975.106 0.0266079
975.717 0.0265947
976.328 0.0265821
976.938 0.0265699
977.548 0.0265582
978.158 0.0265470
978.768 0.0265363
979.377 0.0265261
979.985 0.0265165
980.594 0.0265074
981.202 0.0264988
981.809 0.0264907
982.417 0.0264831
983.024 0.0264761
983.631 0.0264696
984.237 0.0264637
984.843 0.0264582
985.449 0.0264534
986.054 0.0264490
986.659 0.0264451
987.264 0.0264418
987.868 0.0264390
988.472 0.0264368
989.076 0.0264350
989.679 0.0264337
990.282 0.0264330
990.885 0.0264327
991.487 0.0264329
992.090 0.0264336
992.691 0.0264348
993.293 0.0264365
993.894 0.0264386
994.495 0.0264411
995.095 0.0264441
995.696 0.0264476
996.296 0.0264514
996.895 0.0264557
997.494 0.0264604
998.093 0.0264655
998.692 0.0264709
999.291 0.0264767
999.889 0.0264829
1000.487 0.0264872
1001.084 0.0264913
1001.681 0.0264958
1002.278 0.0265006
1002.875 0.0265056
1003.471 0.0265110
1004.067 0.0265166
1004.663 0.0265225
1005.258 0.0265286
1005.854 0.0265350
1006.449 0.0265416
1007.043 0.0265483
1007.638 0.0265553
1008.232 0.0265624
1008.826 0.0265697
1009.419 0.0265771
1010.012 0.0265846
1010.605 0.0265923
1011.198 0.0266000
1011.791 0.0266078
1012.383 0.0266157
1012.975 0.0266236
1013.566 0.0266316
1014.158 0.0266396
1014.749 0.0266475
1015.34 0.0266555
1015.931 0.0266634
1016.521 0.0266713
1017.111 0.0266791
1017.701 0.0266868
1018.291 0.0266945
1018.88 0.0267020
1019.47 0.0267094
1020.059 0.0267167
1020.647 0.0267238
1021.236 0.0267308
1021.824 0.0267376
1022.412 0.0267442
1023000 0.0267506
1023.588 0.0267568
1024.175 0.0267627
1024.762 0.0267685
1025.349 0.0267739
1025.936 0.0267791
1026.523 0.0267840
1027.109 0.0267886
1027.695 0.0267930
1028.281 0.0267970
1028.867 0.0268007
1029.452 0.0268040
1030.038 0.0268070
1030.623 0.0268097
1031.208 0.0268120
1031.792 0.0268139
1032.377 0.0268154
1032.961 0.0268166
1033.546 0.0268173
1034.13 0.0268177
1034.714 0.0268176
1035.297 0.0268172
1035.881 0.0268163
1036.464 0.0268149
1037.047 0.0268132
1037.63 0.0268110
1038.213 0.0268083
1038.796 0.0268052
1039.378 0.0268016
1039.961 0.0267976
1040.543 0.0267931
1041.125 0.0267882
1041.707 0.0267827
1042.289 0.0267768
1042.871 0.0267705
1043.452 0.0267636
1044.034 0.0267563
1044.615 0.0267485
1045.196 0.0267403
1045.777 0.0267315
1046.358 0.0267223
1046.939 0.0267126
1047.52 0.0267024
1048.101 0.0266917
1048.681 0.0266806
1049.262 0.0266690
1049.842 0.0266570
1050.422 0.0266445
1051.002 0.0266315
1051.582 0.0266181
1052.162 0.0266042
1052.742 0.0265898
1053.322 0.0265750
1053.902 0.0265598
1054.482 0.0265441
1055.061 0.0265281
1055.641 0.0265115
1056.22 0.0264946
1056.80 0.0264773
1057.379 0.0264596
1057.958 0.0264414
1058.538 0.0264229
1059.117 0.0264040
1059.696 0.0263847
1060.275 0.0263651
1060.854 0.0263451
1061.433 0.0263248
1062.012 0.0263041
1062.592 0.0262831
1063.171 0.0262618
1063.75 0.0262401
1064.329 0.0262182
1064.908 0.0261960
1065.487 0.0261735
1066.066 0.0261507
1066.645 0.0261277
1067.224 0.0261044
1067.803 0.0260809
1068.382 0.0260572
1068.961 0.0260332
1069.54 0.0260091
1070.119 0.0259848
1070.698 0.0259603
1071.278 0.0259355
1071.857 0.0259107
1072.436 0.0258858
1073.016 0.0258606
1073.595 0.0258354
1074.175 0.0258100
1074.754 0.0257846
1075.334 0.0257591
1075.913 0.0257336
1076.493 0.0257079
1077.073 0.0256822
1077.653 0.0256565
1078.233 0.0256308
1078.813 0.0256051
1079.393 0.0255794
1079.974 0.0255536
1080.554 0.0255280
1081.135 0.0255023
1081.716 0.0254768
1082.296 0.0254513
1082.877 0.0254259
1083.458 0.0254006
1084.04 0.0253753
1084.621 0.0253503
1085.202 0.0253253
1085.784 0.0253005
1086.366 0.0252758
1086.948 0.0252514
1087.53 0.0252271
1088.112 0.0252030
1088.695 0.0251790
1089.277 0.0251554
1089.86 0.0251319
1090.443 0.0251087
1091.026 0.0250857
1091.61 0.0250630
1092.193 0.0250406
1092.777 0.0250184
1093.361 0.0249966
1093.946 0.0249750
1094.53 0.0249538
1095.115 0.0249328
1095.70 0.0249122
1096.285 0.0248920
1096.871 0.0248721
1097.456 0.0248526
1098.042 0.0248334
1098.628 0.0248147
1099.215 0.0247962
1099.802 0.0247782
1100.389 0.0247606
1100.976 0.0247435
1101.564 0.0247267
1102.152 0.0247104
1102.74 0.0246945
1103.329 0.0246790
1103.917 0.0246640
1104.507 0.0246494
1105.096 0.0246353
1105.686 0.0246217
1106.276 0.0246085
1106.867 0.0245958
1107.457 0.0245836
1108.049 0.0245719
1108.64 0.0245606
1109.232 0.0245499
1109.825 0.0245396
1110.417 0.0245299
1111.01 0.0245206
1111.604 0.0245119
1112.198 0.0245037
1112.792 0.0244959
1113.387 0.0244887
1113.982 0.0244820
1114.577 0.0244759
1115.173 0.0244702
1115.769 0.0244650
1116.366 0.0244604
1116.963 0.0244563
1117.561 0.0244527
1118.159 0.0244496
1118.758 0.0244470
1119.357 0.0244450
1119.957 0.0244435
1120.557 0.0244424
1121.157 0.0244419
1121.758 0.0244419
1122.36 0.0244424
1122.962 0.0244434
1123.564 0.0244449
1124.167 0.0244468
1124.771 0.0244493
1125.375 0.0244523
1125.98 0.0244557
1126.585 0.0244596
1127.191 0.0244640
1127.797 0.0244688
1128.404 0.0244741
1129.012 0.0244799
1129.62 0.0244861
1130.229 0.0244927
1130.838 0.0244998
1131.448 0.0245073
1132.058 0.0245152
1132.669 0.0245235
1133.281 0.0245322
1133.894 0.0245413
1134.507 0.0245508
1135.12 0.0245607
1135.735 0.0245710
1136.35 0.0245816
1136.965 0.0245925
1137.582 0.0246038
1138.199 0.0246154
1138.816 0.0246273
1139.435 0.0246396
1140.054 0.0246521
1140.674 0.0246649
1141.294 0.0246780
1141.916 0.0246914
1142.538 0.0247050
1143.16 0.0247188
1143.784 0.0247329
1144.408 0.0247471
1145.033 0.0247616
