BestFit value for E:\RC_data\Compressed_For_Future_Analysis_Full\0007_2025-12-09_12-08-33\Interpretation_History\2025-12-09_15-23-24\ResultsGraphs\BestFit\(Run)spectra_12-09-10-861_BestFit.txt
600.338 0.0256605
601.113 0.0256423
601.888 0.0256241
602.663 0.0256058
603.437 0.0255876
604.211 0.0255694
604.984 0.0255512
605.757 0.0255330
606.530 0.0255148
607.302 0.0254967
608.074 0.0254787
608.845 0.0254607
609.616 0.0254429
610.387 0.0254250
611.158 0.0254073
611.928 0.0253898
612.697 0.0253723
613.467 0.0253550
614.236 0.0253378
615.004 0.0253208
615.773 0.0253040
616.541 0.0252873
617.308 0.0252708
618.076 0.0252545
618.843 0.0252384
619.609 0.0252225
620.375 0.0252068
621.141 0.0251914
621.907 0.0251761
622.672 0.0251610
623.437 0.0251461
624.202 0.0251315
624.966 0.0251170
625.730 0.0251027
626.493 0.0250887
627.257 0.0250747
628.020 0.0250610
628.782 0.0250474
629.545 0.0250340
630.307 0.0250207
631.068 0.0250075
631.830 0.0249944
632.591 0.0249814
633.352 0.0249685
634.112 0.0249557
634.872 0.0249429
635.632 0.0249301
636.392 0.0249174
637.151 0.0249047
637.910 0.0248919
638.668 0.0248792
639.427 0.0248664
640.185 0.0248535
640.943 0.0248406
641.700 0.0248276
642.457 0.0248145
643.214 0.0248014
643.971 0.0247881
644.727 0.0247747
645.483 0.0247612
646.239 0.0247476
646.994 0.0247338
647.750 0.0247200
648.505 0.0247060
649.259 0.0246919
650.014 0.0246776
650.768 0.0246633
651.521 0.0246488
652.275 0.0246343
653.028 0.0246196
653.781 0.0246048
654.534 0.0245900
655.286 0.0245751
656.039 0.0245602
656.791 0.0245452
657.542 0.0245302
658.294 0.0245152
659.045 0.0245002
659.796 0.0244852
660.546 0.0244703
661.297 0.0244554
662.047 0.0244406
662.796 0.0244259
663.546 0.0244112
664.295 0.0243967
665.044 0.0243824
665.793 0.0243682
666.542 0.0243541
667.290 0.0243403
668.038 0.0243267
668.786 0.0243132
669.533 0.0243000
670.281 0.0242870
671.028 0.0242743
671.774 0.0242618
672.521 0.0242496
673.267 0.0242377
674.013 0.0242260
674.759 0.0242145
675.505 0.0242034
676.250 0.0241925
676.995 0.0241819
677.740 0.0241716
678.484 0.0241615
679.229 0.0241517
679.973 0.0241421
680.717 0.0241328
681.460 0.0241237
682.204 0.0241148
682.947 0.0241061
683.690 0.0240977
684.433 0.0240894
685.175 0.0240812
685.917 0.0240732
686.659 0.0240654
687.401 0.0240576
688.142 0.0240500
688.884 0.0240424
689.625 0.0240348
690.365 0.0240273
691.106 0.0240198
691.846 0.0240124
692.586 0.0240048
693.326 0.0239973
694.066 0.0239896
694.805 0.0239819
695.545 0.0239741
696.284 0.0239662
697.022 0.0239581
697.761 0.0239499
698.499 0.0239415
699.237 0.0239330
699.975 0.0239242
700.713 0.0239153
701.450 0.0239061
702.187 0.0238967
702.924 0.0238871
703.661 0.0238773
704.397 0.0238672
705.133 0.0238568
705.869 0.0238463
706.605 0.0238354
707.341 0.0238243
708.076 0.0238130
708.811 0.0238015
709.546 0.0237897
710.281 0.0237776
711.015 0.0237654
711.749 0.0237530
712.483 0.0237403
713.217 0.0237275
713.950 0.0237145
714.684 0.0237014
715.417 0.0236881
716.150 0.0236746
716.882 0.0236611
717.615 0.0236475
718.347 0.0236338
719.079 0.0236201
719.811 0.0236063
720.542 0.0235926
721.273 0.0235788
722.005 0.0235651
722.735 0.0235515
723.466 0.0235379
724.196 0.0235244
724.927 0.0235110
725.656 0.0234978
726.386 0.0234847
727.116 0.0234718
727.845 0.0234591
728.574 0.0234466
729.303 0.0234344
730.031 0.0234224
730.760 0.0234107
731.488 0.0233993
732.216 0.0233881
732.944 0.0233773
733.671 0.0233668
734.398 0.0233566
735.125 0.0233468
735.852 0.0233373
736.579 0.0233282
737.305 0.0233194
738.031 0.0233110
738.757 0.0233030
739.483 0.0232953
740.208 0.0232880
740.933 0.0232811
741.658 0.0232745
742.383 0.0232683
743.108 0.0232624
743.832 0.0232569
744.556 0.0232517
745.280 0.0232468
746.004 0.0232422
746.727 0.0232380
747.450 0.0232340
748.173 0.0232303
748.896 0.0232268
749.618 0.0232236
750.340 0.0232206
751.062 0.0232178
751.784 0.0232151
752.506 0.0232126
753.227 0.0232103
753.948 0.0232081
754.669 0.0232059
755.389 0.0232038
756.110 0.0232018
756.830 0.0231998
757.550 0.0231978
758.269 0.0231958
758.989 0.0231938
759.708 0.0231916
760.427 0.0231894
761.146 0.0231871
761.864 0.0231846
762.582 0.0231820
763.300 0.0231792
764.018 0.0231763
764.736 0.0231731
765.453 0.0231697
766.170 0.0231660
766.887 0.0231621
767.603 0.0231579
768.320 0.0231534
769.036 0.0231485
769.751 0.0231434
770.467 0.0231380
771.182 0.0231322
771.897 0.0231260
772.612 0.0231195
773.327 0.0231127
774.041 0.0231055
774.755 0.0230979
775.469 0.0230899
776.183 0.0230816
776.896 0.0230729
777.609 0.0230638
778.322 0.0230544
779.035 0.0230446
779.747 0.0230344
780.459 0.0230239
781.171 0.0230131
781.882 0.0230019
782.594 0.0229905
783.305 0.0229787
784.016 0.0229666
784.726 0.0229543
785.436 0.0229417
786.147 0.0229288
786.856 0.0229157
787.566 0.0229024
788.275 0.0228890
788.984 0.0228753
789.693 0.0228615
790.401 0.0228476
791.110 0.0228335
791.818 0.0228194
792.525 0.0228052
793.233 0.0227910
793.940 0.0227767
794.647 0.0227625
795.353 0.0227483
796.060 0.0227341
796.766 0.0227200
797.472 0.0227059
798.177 0.0226920
798.883 0.0226783
799.588 0.0226647
800.292 0.0226513
800.997 0.0226380
801.701 0.0226251
802.405 0.0226123
803.109 0.0225998
803.812 0.0225876
804.515 0.0225758
805.218 0.0225642
805.921 0.0225529
806.623 0.0225420
807.325 0.0225315
808.027 0.0225214
808.728 0.0225116
809.429 0.0225023
810.130 0.0224933
810.831 0.0224848
811.531 0.0224767
812.231 0.0224691
812.931 0.0224619
813.630 0.0224551
814.330 0.0224488
815.029 0.0224430
815.727 0.0224376
816.426 0.0224327
817.124 0.0224282
817.821 0.0224242
818.519 0.0224207
819.216 0.0224176
819.913 0.0224149
820.609 0.0224127
821.306 0.0224109
822.002 0.0224095
822.697 0.0224085
823.393 0.0224079
824.088 0.0224077
824.783 0.0224079
825.477 0.0224085
826.171 0.0224094
826.865 0.0224106
827.559 0.0224121
828.252 0.0224139
828.945 0.0224161
829.638 0.0224184
830.330 0.0224210
831.023 0.0224239
831.714 0.0224269
832.406 0.0224302
833.097 0.0224335
833.788 0.0224371
834.479 0.0224407
835.169 0.0224445
835.859 0.0224483
836.548 0.0224521
837.238 0.0224560
837.927 0.0224600
838.615 0.0224638
839.304 0.0224677
839.992 0.0224715
840.680 0.0224752
841.367 0.0224789
842.054 0.0224824
842.741 0.0224857
843.428 0.0224889
844.114 0.0224920
844.800 0.0224948
845.485 0.0224974
846.170 0.0224997
846.855 0.0225018
847.540 0.0225036
848.224 0.0225051
848.908 0.0225063
849.592 0.0225072
850.275 0.0225078
850.958 0.0225080
851.641 0.0225078
852.323 0.0225072
853.005 0.0225063
853.687 0.0225049
854.368 0.0225032
855.049 0.0225010
855.730 0.0224984
856.410 0.0224954
857.090 0.0224919
857.769 0.0224880
858.449 0.0224836
859.128 0.0224788
859.806 0.0224735
860.485 0.0224678
861.163 0.0224616
861.840 0.0224549
862.518 0.0224478
863.195 0.0224403
863.871 0.0224323
864.548 0.0224239
865.224 0.0224150
865.899 0.0224057
866.574 0.0223960
867.249 0.0223859
867.924 0.0223753
868.598 0.0223644
869.272 0.0223531
869.946 0.0223413
870.619 0.0223293
871.292 0.0223169
871.964 0.0223041
872.636 0.0222911
873.308 0.0222777
873.979 0.0222640
874.651 0.0222501
875.321 0.0222359
875.992 0.0222214
876.662 0.0222067
877.331 0.0221918
878.001 0.0221767
878.670 0.0221615
879.338 0.0221461
880.007 0.0221305
880.675 0.0221149
881.342 0.0220991
882.009 0.0220833
882.676 0.0220674
883.343 0.0220515
884.009 0.0220355
884.675 0.0220196
885.340 0.0220037
886.005 0.0219878
886.670 0.0219720
887.334 0.0219562
887.998 0.0219406
888.662 0.0219251
889.325 0.0219097
889.988 0.0218945
890.650 0.0218794
891.312 0.0218646
891.974 0.0218500
892.636 0.0218355
893.297 0.0218214
893.957 0.0218075
894.618 0.0217939
895.278 0.0217806
895.937 0.0217676
896.596 0.0217549
897.255 0.0217425
897.914 0.0217305
898.572 0.0217189
899.230 0.0217077
899.887 0.0216968
900.544 0.0216864
901.201 0.0216764
901.857 0.0216667
902.513 0.0216576
903.168 0.0216488
903.823 0.0216405
904.478 0.0216327
905.132 0.0216253
905.786 0.0216184
906.440 0.0216120
907.093 0.0216060
907.746 0.0216005
908.399 0.0215955
909.051 0.0215910
909.703 0.0215870
910.354 0.0215835
911.005 0.0215804
911.656 0.0215779
912.306 0.0215758
912.956 0.0215742
913.605 0.0215731
914.254 0.0215725
914.903 0.0215723
915.551 0.0215726
916.199 0.0215734
916.847 0.0215746
917.494 0.0215762
918.141 0.0215784
918.788 0.0215809
919.434 0.0215839
920.079 0.0215872
920.725 0.0215910
921.370 0.0215952
922.014 0.0215998
922.658 0.0216047
923.302 0.0216100
923.946 0.0216157
924.589 0.0216217
925.231 0.0216280
925.873 0.0216346
926.515 0.0216415
927.157 0.0216487
927.798 0.0216562
928.439 0.0216639
929.079 0.0216719
929.719 0.0216801
930.359 0.0216885
930.998 0.0216971
931.637 0.0217058
932.275 0.0217147
932.913 0.0217238
933.551 0.0217330
934.188 0.0217423
934.825 0.0217517
935.462 0.0217611
936.098 0.0217707
936.733 0.0217802
937.369 0.0217898
938.004 0.0217994
938.638 0.0218090
939.273 0.0218186
939.907 0.0218281
940.540 0.0218376
941.173 0.0218470
941.806 0.0218563
942.438 0.0218655
943.070 0.0218746
943.702 0.0218836
944.333 0.0218924
944.964 0.0219011
945.594 0.0219095
946.224 0.0219178
946.854 0.0219258
947.483 0.0219337
948.112 0.0219413
948.741 0.0219486
949.369 0.0219557
949.996 0.0219625
950.624 0.0219690
951.251 0.0219752
951.878 0.0219811
952.504 0.0219867
953.130 0.0219920
953.755 0.0219969
954.380 0.0220014
955.005 0.0220056
955.629 0.0220095
956.253 0.0220129
956.877 0.0220160
957.500 0.0220186
958.123 0.0220209
958.746 0.0220228
959.368 0.0220242
959.990 0.0220252
960.611 0.0220267
961.232 0.0220278
961.853 0.0220285
962.473 0.0220287
963.093 0.0220285
963.712 0.0220279
964.331 0.0220268
964.950 0.0220252
965.569 0.0220232
966.187 0.0220208
966.804 0.0220179
967.422 0.0220146
968.039 0.0220108
968.655 0.0220066
969.272 0.0220019
969.887 0.0219968
970.503 0.0219912
971.118 0.0219853
971.733 0.0219788
972.347 0.0219720
972.961 0.0219647
973.575 0.0219570
974.188 0.0219489
974.801 0.0219404
975.414 0.0219315
976.026 0.0219222
976.638 0.0219125
977.250 0.0219024
977.861 0.0218919
978.472 0.0218811
979.083 0.0218699
979.693 0.0218584
980.303 0.0218465
980.912 0.0218343
981.521 0.0218218
982.130 0.0218089
982.738 0.0217958
983.346 0.0217824
983.954 0.0217686
984.562 0.0217546
985.169 0.0217404
985.775 0.0217259
986.382 0.0217111
986.988 0.0216962
987.594 0.0216810
988.199 0.0216656
988.804 0.0216500
989.409 0.0216342
990.013 0.0216183
990.617 0.0216023
991.221 0.0215860
991.824 0.0215697
992.427 0.0215532
993.030 0.0215366
993.632 0.0215200
994.234 0.0215033
994.836 0.0214864
995.438 0.0214696
996.039 0.0214527
996.640 0.0214357
997.240 0.0214188
997.840 0.0214019
998.440 0.0213850
999.040 0.0213680
999.639 0.0213512
1000.238 0.0213340
1000.836 0.0213164
1001.435 0.0212989
1002.033 0.0212815
1002.63 0.0212641
1003.228 0.0212469
1003.825 0.0212298
1004.422 0.0212129
1005.018 0.0211961
1005.614 0.0211795
1006.21 0.0211630
1006.806 0.0211467
1007.401 0.0211306
1007.996 0.0211148
1008.591 0.0210991
1009.186 0.0210837
1009.78 0.0210685
1010.374 0.0210535
1010.967 0.0210389
1011.561 0.0210244
1012.154 0.0210103
1012.746 0.0209965
1013.339 0.0209829
1013.931 0.0209697
1014.523 0.0209568
1015.115 0.0209442
1015.706 0.0209319
1016.298 0.0209199
1016.888 0.0209083
1017.479 0.0208971
1018.069 0.0208862
1018.66 0.0208757
1019.25 0.0208655
1019.839 0.0208557
1020.429 0.0208463
1021.018 0.0208373
1021.607 0.0208287
1022.195 0.0208205
1022.784 0.0208127
1023.372 0.0208052
1023.96 0.0207982
1024.547 0.0207916
1025.135 0.0207854
1025.722 0.0207797
1026.309 0.0207743
1026.896 0.0207694
1027.483 0.0207649
1028.069 0.0207608
1028.655 0.0207571
1029.241 0.0207539
1029.827 0.0207511
1030.412 0.0207487
1030.997 0.0207468
1031.582 0.0207452
1032.167 0.0207441
1032.752 0.0207435
1033.336 0.0207432
1033.921 0.0207434
1034.505 0.0207440
1035.089 0.0207450
1035.672 0.0207464
1036.256 0.0207482
1036.839 0.0207505
1037.422 0.0207531
1038.005 0.0207562
1038.588 0.0207596
1039.171 0.0207635
1039.753 0.0207677
1040.335 0.0207723
1040.918 0.0207773
1041.50 0.0207827
1042.081 0.0207885
1042.663 0.0207946
1043.244 0.0208011
1043.826 0.0208079
1044.407 0.0208151
1044.988 0.0208226
1045.569 0.0208304
1046.15 0.0208386
1046.73 0.0208471
1047.311 0.0208559
1047.891 0.0208650
1048.471 0.0208744
1049.052 0.0208841
1049.632 0.0208941
1050.211 0.0209043
1050.791 0.0209148
1051.371 0.0209256
1051.95 0.0209366
1052.53 0.0209479
1053.109 0.0209593
1053.688 0.0209710
1054.268 0.0209830
1054.847 0.0209951
1055.426 0.0210074
1056.005 0.0210199
1056.583 0.0210326
1057.162 0.0210454
1057.741 0.0210584
1058.319 0.0210715
1058.898 0.0210848
1059.476 0.0210982
1060.055 0.0211117
1060.633 0.0211253
1061.211 0.0211390
1061.79 0.0211529
1062.368 0.0211667
1062.946 0.0211807
1063.524 0.0211947
1064.102 0.0212087
1064.68 0.0212228
1065.258 0.0212369
1065.836 0.0212510
1066.414 0.0212651
1066.992 0.0212792
1067.57 0.0212933
1068.148 0.0213074
1068.726 0.0213214
1069.304 0.0213354
1069.882 0.0213493
1070.46 0.0213631
1071.038 0.0213769
1071.616 0.0213906
1072.194 0.0214042
1072.772 0.0214177
1073.35 0.0214311
1073.928 0.0214443
1074.506 0.0214574
1075.084 0.0214704
1075.662 0.0214832
1076.24 0.0214959
1076.819 0.0215084
1077.397 0.0215207
1077.976 0.0215328
1078.554 0.0215447
1079.133 0.0215564
1079.711 0.0215679
1080.29 0.0215792
1080.869 0.0215902
1081.448 0.0216010
1082.027 0.0216115
1082.606 0.0216218
1083.185 0.0216318
1083.764 0.0216416
1084.343 0.0216511
1084.923 0.0216603
1085.502 0.0216692
1086.082 0.0216778
1086.662 0.0216860
1087.242 0.0216940
1087.822 0.0217017
1088.402 0.0217090
1088.983 0.0217160
1089.563 0.0217227
1090.144 0.0217290
1090.725 0.0217350
1091.306 0.0217406
1091.887 0.0217458
1092.469 0.0217507
1093.05 0.0217553
1093.632 0.0217594
1094.214 0.0217632
1094.796 0.0217666
1095.379 0.0217696
1095.961 0.0217722
1096.544 0.0217745
1097.127 0.0217763
1097.71 0.0217777
1098.294 0.0217788
1098.877 0.0217794
1099.461 0.0217796
1100.046 0.0217794
1100.63 0.0217788
1101.215 0.0217778
1101.80 0.0217764
1102.385 0.0217746
1102.97 0.0217723
1103.556 0.0217697
1104.142 0.0217666
1104.728 0.0217631
1105.315 0.0217591
1105.902 0.0217548
1106.489 0.0217500
1107.077 0.0217449
1107.664 0.0217393
1108.253 0.0217333
1108.841 0.0217268
1109.43 0.0217200
1110.019 0.0217127
1110.609 0.0217051
1111.198 0.0216970
1111.789 0.0216885
1112.379 0.0216796
1112.97 0.0216703
1113.561 0.0216606
1114.153 0.0216505
1114.745 0.0216401
1115.338 0.0216292
1115.931 0.0216179
1116.524 0.0216063
1117.117 0.0215943
1117.712 0.0215819
1118.306 0.0215691
1118.901 0.0215560
1119.496 0.0215425
1120.092 0.0215287
1120.689 0.0215145
1121.285 0.0214999
1121.882 0.0214851
1122.48 0.0214699
1123.078 0.0214543
1123.677 0.0214384
1124.276 0.0214223
1124.875 0.0214058
1125.476 0.0213890
1126.076 0.0213719
1126.677 0.0213545
1127.279 0.0213369
1127.881 0.0213189
1128.484 0.0213007
1129.087 0.0212823
1129.691 0.0212636
1130.295 0.0212446
1130.90 0.0212254
1131.505 0.0212060
1132.111 0.0211864
1132.718 0.0211665
1133.325 0.0211465
1133.933 0.0211262
1134.541 0.0211058
1135.15 0.0210852
1135.76 0.0210644
1136.37 0.0210435
1136.981 0.0210224
1137.592 0.0210012
1138.204 0.0209799
1138.817 0.0209584
1139.431 0.0209368
1140.045 0.0209151
1140.66 0.0208933
1141.275 0.0208715
1141.891 0.0208496
1142.508 0.0208276
1143.126 0.0208056
1143.744 0.0207835
1144.363 0.0207614
1144.983 0.0207393
