Measurement Sequence started on: 11-53-31-212
Integration time: 28
Scans to Average: 2 
>>>>>Begin Spectral Data<<<<<
432.689 .0000100
433.621 .0000100
434.552 .0000100
435.482 .0000100
436.410 .0000100
437.337 .1790971
438.262 .1942150
439.187 .1955830
440.110 .1853766
441.031 .1681221
441.952 .1486362
442.871 .1175770
443.789 .1035595
444.705 .0945766
445.621 .0879679
446.535 .0826933
447.447 .0783632
448.359 .0747288
449.269 .0716861
450.178 .0691426
451.086 .0670249
451.993 .0652605
452.898 .0637325
453.803 .0624201
454.706 .0612619
455.608 .0602063
456.508 .0592155
457.408 .0582929
458.306 .0574091
459.204 .0565782
460.100 .0558008
460.995 .0550653
461.888 .0543752
462.781 .0537268
463.673 .0531088
464.563 .0525181
465.452 .0519493
466.340 .0513874
467.228 .0508347
468.114 .0502944
468.999 .0497675
469.882 .0492591
470.765 .0487831
471.647 .0483443
472.528 .0479513
473.407 .0476088
474.286 .0473050
475.163 .0470477
476.040 .0468326
476.915 .0466554
477.790 .0465080
478.663 .0463810
479.535 .0462780
480.407 .0461993
481.277 .0461390
482.147 .0460974
483.015 .0460759
483.883 .0460672
484.749 .0460675
485.615 .0460666
486.479 .0460557
487.343 .0460336
488.206 .0459984
489.067 .0459481
489.928 .0458826
490.788 .0458192
491.647 .0457506
492.505 .0456904
493.362 .0456490
494.218 .0456184
495.073 .0455986
495.928 .0456018
496.781 .0456164
497.634 .0456469
498.486 .0456952
499.337 .0457627
500.187 .0458581
501.036 .0459881
501.884 .0461573
502.731 .0463567
503.578 .0466001
504.424 .0468748
505.268 .0471625
506.113 .0474767
506.956 .0478080
507.798 .0481608
508.640 .0485397
509.480 .0489486
510.320 .0493992
511.160 .0498920
511.998 .0504412
512.836 .0510463
513.672 .0517236
514.508 .0524517
515.344 .0532425
516.178 .0540795
517.012 .0549886
517.845 .0559597
518.677 .0570005
519.508 .0581241
520.339 .0593308
521.169 .0606108
521.998 .0619527
522.826 .0633636
523.654 .0648590
524.481 .0663732
525.307 .0679349
526.133 .0695219
526.958 .0711003
527.782 .0726055
528.605 .0740279
529.428 .0753251
530.250 .0764587
531.072 .0773752
531.892 .0780465
532.712 .0784542
533.532 .0786152
534.350 .0785139
535.168 .0781574
535.986 .0775898
536.802 .0768133
537.618 .0757811
538.434 .0745403
539.249 .0731234
540.063 .0715423
540.876 .0698464
541.689 .0680729
542.501 .0662860
543.313 .0645173
544.124 .0628023
544.934 .0611770
545.744 .0596664
546.553 .0582802
547.361 .0569933
548.169 .0557850
548.976 .0546672
549.783 .0536062
550.589 .0526083
551.395 .0516634
552.200 .0507740
553.004 .0499370
553.808 .0491611
554.611 .0484428
555.414 .0477970
556.216 .0472172
557.018 .0467129
557.819 .0462736
558.619 .0458804
559.419 .0455207
560.218 .0451782
561.017 .0448554
561.815 .0445434
562.613 .0442264
563.410 .0439050
564.207 .0435693
565.003 .0432284
565.799 .0428791
566.594 .0425237
567.388 .0421696
568.182 .0418209
568.976 .0414758
569.769 .0411283
570.562 .0407853
571.354 .0404427
572.145 .0401094
572.936 .0397847
573.727 .0394748
574.517 .0391812
575.307 .0389128
576.096 .0386722
576.885 .0384600
577.673 .0382735
578.461 .0381101
579.248 .0379594
580.035 .0378167
580.821 .0376748
581.607 .0375317
582.392 .0373881
583.177 .0372463
583.962 .0371022
584.746 .0369647
585.529 .0368310
586.313 .0367049
587.095 .0365852
587.878 .0364724
588.660 .0363637
589.441 .0362587
590.222 .0361583
591.003 .0360618
591.783 .0359708
592.563 .0358847
593.342 .0358031
594.121 .0357272
594.899 .0356573
595.678 .0355916
596.455 .0355317
597.233 .0354769
598.009 .0354262
598.786 .0353804
599.562 .0353381
600.338 .0352992
601.113 .0352635
601.888 .0352298
602.663 .0351989
603.437 .0351692
604.211 .0351409
604.984 .0351118
605.757 .0350832
606.530 .0350542
607.302 .0350245
608.074 .0349946
608.845 .0349654
609.616 .0349370
610.387 .0349098
611.158 .0348833
611.928 .0348573
612.697 .0348325
613.467 .0348073
614.236 .0347809
615.004 .0347539
615.773 .0347253
616.541 .0346960
617.308 .0346659
618.076 .0346372
618.843 .0346099
619.609 .0345845
620.375 .0345612
621.141 .0345396
621.907 .0345193
622.672 .0344983
623.437 .0344766
624.202 .0344541
624.966 .0344307
625.730 .0344061
626.493 .0343811
627.257 .0343565
628.020 .0343328
628.782 .0343094
629.545 .0342853
630.307 .0342604
631.068 .0342339
631.830 .0342055
632.591 .0341756
633.352 .0341436
634.112 .0341105
634.872 .0340761
635.632 .0340424
636.392 .0340091
637.151 .0339763
637.910 .0339439
638.668 .0339119
639.427 .0338794
640.185 .0338465
640.943 .0338126
641.700 .0337785
642.457 .0337441
643.214 .0337103
643.971 .0336768
644.727 .0336451
645.483 .0336150
646.239 .0335867
646.994 .0335595
647.750 .0335335
648.505 .0335074
649.259 .0334813
650.014 .0334550
650.768 .0334288
651.521 .0334018
652.275 .0333752
653.028 .0333494
653.781 .0333254
654.534 .0333028
655.286 .0332828
656.039 .0332643
656.791 .0332471
657.542 .0332300
658.294 .0332124
659.045 .0331938
659.796 .0331740
660.546 .0331531
661.297 .0331308
662.047 .0331075
662.796 .0330842
663.546 .0330604
664.295 .0330374
665.044 .0330150
665.793 .0329923
666.542 .0329692
667.290 .0329459
668.038 .0329223
668.786 .0328984
669.533 .0328750
670.281 .0328518
671.028 .0328289
671.774 .0328073
672.521 .0327872
673.267 .0327685
674.013 .0327522
674.759 .0327375
675.505 .0327242
676.250 .0327119
676.995 .0327000
677.740 .0326881
678.484 .0326759
679.229 .0326626
679.973 .0326480
680.717 .0326319
681.460 .0326147
682.204 .0325963
682.947 .0325771
683.690 .0325578
684.433 .0325383
685.175 .0325184
685.917 .0324985
686.659 .0324784
687.401 .0324580
688.142 .0324367
688.884 .0324151
689.625 .0323932
690.365 .0323713
691.106 .0323500
691.846 .0323298
692.586 .0323109
693.326 .0322927
694.066 .0322752
694.805 .0322581
695.545 .0322409
696.284 .0322233
697.022 .0322047
697.761 .0321851
698.499 .0321646
699.237 .0321432
699.975 .0321212
700.713 .0320994
701.450 .0320776
702.187 .0320559
702.924 .0320343
703.661 .0320125
704.397 .0319901
705.133 .0319676
705.869 .0319445
706.605 .0319209
707.341 .0318966
708.076 .0318719
708.811 .0318474
709.546 .0318238
710.281 .0318011
711.015 .0317793
711.749 .0317586
712.483 .0317390
713.217 .0317197
713.950 .0317010
714.684 .0316831
715.417 .0316655
716.150 .0316487
716.882 .0316325
717.615 .0316169
718.347 .0316026
719.079 .0315893
719.811 .0315770
720.542 .0315656
721.273 .0315547
722.005 .0315440
722.735 .0315330
723.466 .0315223
724.196 .0315112
724.927 .0314997
725.656 .0314883
726.386 .0314763
727.116 .0314639
727.845 .0314512
728.574 .0314380
729.303 .0314249
730.031 .0314121
730.760 .0313998
731.488 .0313879
732.216 .0313772
732.944 .0313675
733.671 .0313585
734.398 .0313504
735.125 .0313432
735.852 .0313359
736.579 .0313288
737.305 .0313216
738.031 .0313141
738.757 .0313066
739.483 .0312989
740.208 .0312910
740.933 .0312828
741.658 .0312740
742.383 .0312642
743.108 .0312535
743.832 .0312424
744.556 .0312305
745.280 .0312181
746.004 .0312054
746.727 .0311921
747.450 .0311785
748.173 .0311645
748.896 .0311501
749.618 .0311353
750.340 .0311200
751.062 .0311046
751.784 .0310887
752.506 .0310730
753.227 .0310580
753.948 .0310434
754.669 .0310293
755.389 .0310153
756.110 .0310009
756.830 .0309861
757.550 .0309707
758.269 .0309546
758.989 .0309380
759.708 .0309215
760.427 .0309050
761.146 .0308886
761.864 .0308728
762.582 .0308573
763.300 .0308416
764.018 .0308260
764.736 .0308104
765.453 .0307942
766.170 .0307779
766.887 .0307615
767.603 .0307452
768.320 .0307287
769.036 .0307118
769.751 .0306946
770.467 .0306763
771.182 .0306572
771.897 .0306365
772.612 .0306146
773.327 .0305928
774.041 .0305711
774.755 .0305499
775.469 .0305296
776.183 .0305104
776.896 .0304920
777.609 .0304743
778.322 .0304575
779.035 .0304411
779.747 .0304253
780.459 .0304101
781.171 .0303957
781.882 .0303821
782.594 .0303699
783.305 .0303589
784.016 .0303489
784.726 .0303401
785.436 .0303310
786.147 .0303222
786.856 .0303134
787.566 .0303047
788.275 .0302957
788.984 .0302870
789.693 .0302787
790.401 .0302707
791.110 .0302632
791.818 .0302565
792.525 .0302506
793.233 .0302460
793.940 .0302420
794.647 .0302390
795.353 .0302367
796.060 .0302355
796.766 .0302349
797.472 .0302351
798.177 .0302356
798.883 .0302362
799.588 .0302367
800.292 .0302370
800.997 .0302366
801.701 .0302356
802.405 .0302338
803.109 .0302322
803.812 .0302303
804.515 .0302284
805.218 .0302265
805.921 .0302250
806.623 .0302234
807.325 .0302217
808.027 .0302198
808.728 .0302175
809.429 .0302143
810.130 .0302106
810.831 .0302064
811.531 .0302020
812.231 .0301982
812.931 .0301953
813.630 .0301928
814.330 .0301913
815.029 .0301898
815.727 .0301886
816.426 .0301874
817.124 .0301852
817.821 .0301817
818.519 .0301770
819.216 .0301710
819.913 .0301636
820.609 .0301557
821.306 .0301474
822.002 .0301390
822.697 .0301306
823.393 .0301222
824.088 .0301133
824.783 .0301039
825.477 .0300936
826.171 .0300818
826.865 .0300687
827.559 .0300545
828.252 .0300388
828.945 .0300228
829.638 .0300068
830.330 .0299915
831.023 .0299770
831.714 .0299634
832.406 .0299505
833.097 .0299381
833.788 .0299250
834.479 .0299113
835.169 .0298961
835.859 .0298796
836.548 .0298613
837.238 .0298417
837.927 .0298207
838.615 .0297989
839.304 .0297761
839.992 .0297531
840.680 .0297294
841.367 .0297053
842.054 .0296804
842.741 .0296549
843.428 .0296293
844.114 .0296040
844.800 .0295789
845.485 .0295549
846.170 .0295317
846.855 .0295100
847.540 .0294893
848.224 .0294705
848.908 .0294528
849.592 .0294361
850.275 .0294203
850.958 .0294050
851.641 .0293897
852.323 .0293742
853.005 .0293584
853.687 .0293417
854.368 .0293241
855.049 .0293055
855.730 .0292858
856.410 .0292660
857.090 .0292456
857.769 .0292252
858.449 .0292042
859.128 .0291833
859.806 .0291615
860.485 .0291395
861.163 .0291176
861.840 .0290952
862.518 .0290730
863.195 .0290510
863.871 .0290296
864.548 .0290091
865.224 .0289893
865.899 .0289705
866.574 .0289523
867.249 .0289349
867.924 .0289177
868.598 .0289016
869.272 .0288868
869.946 .0288737
870.619 .0288621
871.292 .0288525
871.964 .0288444
872.636 .0288373
873.308 .0288315
873.979 .0288261
874.651 .0288214
875.321 .0288171
875.992 .0288131
876.662 .0288102
877.331 .0288082
878.001 .0288075
878.670 .0288070
879.338 .0288072
880.007 .0288071
880.675 .0288062
881.342 .0288047
882.009 .0288022
882.676 .0287991
883.343 .0287959
884.009 .0287925
884.675 .0287891
885.340 .0287860
886.005 .0287834
886.670 .0287809
887.334 .0287788
887.998 .0287773
888.662 .0287763
889.325 .0287758
889.988 .0287761
890.650 .0287771
891.312 .0287788
891.974 .0287814
892.636 .0287844
893.297 .0287883
893.957 .0287927
894.618 .0287975
895.278 .0288028
895.937 .0288090
896.596 .0288166
897.255 .0288252
897.914 .0288345
898.572 .0288448
899.230 .0288552
899.887 .0288657
900.544 .0288757
901.201 .0288852
901.857 .0288940
902.513 .0289017
903.168 .0289082
903.823 .0289137
904.478 .0289183
905.132 .0289223
905.786 .0289250
906.440 .0289271
907.093 .0289279
907.746 .0289268
908.399 .0289241
909.051 .0289203
909.703 .0289152
910.354 .0289091
911.005 .0289021
911.656 .0288947
912.306 .0288873
912.956 .0288798
913.605 .0288720
914.254 .0288642
914.903 .0288563
915.551 .0288481
916.199 .0288393
916.847 .0288308
917.494 .0288223
918.141 .0288138
918.788 .0288052
919.434 .0287962
920.079 .0287862
920.725 .0287752
921.370 .0287628
922.014 .0287486
922.658 .0287328
923.302 .0287156
923.946 .0286974
924.589 .0286784
925.231 .0286585
925.873 .0286377
926.515 .0286156
927.157 .0285925
927.798 .0285672
928.439 .0285396
929.079 .0285097
929.719 .0284777
930.359 .0284436
930.998 .0284078
931.637 .0283709
932.275 .0283334
932.913 .0282952
933.551 .0282565
934.188 .0282168
934.825 .0281764
935.462 .0281354
936.098 .0280940
936.733 .0280522
937.369 .0280109
938.004 .0279698
938.638 .0279296
939.273 .0278909
939.907 .0278540
940.540 .0278184
941.173 .0277849
941.806 .0277537
942.438 .0277243
943.070 .0276964
943.702 .0276704
944.333 .0276453
944.964 .0276214
945.594 .0275976
946.224 .0275737
946.854 .0275503
947.483 .0275268
948.112 .0275028
948.741 .0274786
949.369 .0274543
949.996 .0274293
950.624 .0274038
951.251 .0273780
951.878 .0273514
952.504 .0273241
953.130 .0272960
953.755 .0272666
954.380 .0272367
955.005 .0272065
955.629 .0271758
956.253 .0271451
956.877 .0271151
957.500 .0270851
958.123 .0270558
958.746 .0270272
959.368 .0269991
959.990 .0269717
960.611 .0269452
961.232 .0269198
961.853 .0268956
962.473 .0268734
963.093 .0268531
963.712 .0268346
964.331 .0268182
964.950 .0268030
965.569 .0267891
966.187 .0267766
966.804 .0267653
967.422 .0267549
968.039 .0267458
968.655 .0267378
969.272 .0267312
969.887 .0267257
970.503 .0267214
971.118 .0267174
971.733 .0267136
972.347 .0267092
972.961 .0267037
973.575 .0266969
974.188 .0266893
974.801 .0266808
975.414 .0266721
976.026 .0266634
976.638 .0266546
977.250 .0266464
977.861 .0266390
978.472 .0266319
979.083 .0266250
979.693 .0266176
980.303 .0266102
980.912 .0266024
981.521 .0265947
982.130 .0265873
982.738 .0265810
983.346 .0265762
983.954 .0265728
984.562 .0265708
985.169 .0265706
985.775 .0265715
986.382 .0265735
986.988 .0265761
987.594 .0265785
988.199 .0265814
988.804 .0265851
989.409 .0265898
990.013 .0265962
990.617 .0266040
991.221 .0266136
991.824 .0266250
992.427 .0266382
993.030 .0266525
993.632 .0266680
994.234 .0266851
994.836 .0267032
995.438 .0267219
996.039 .0267416
996.640 .0267614
997.240 .0267817
997.840 .0268019
998.440 .0268221
999.040 .0268417
999.639 .0268613
1000.238 .0268809
1000.836 .0269005
1001.435 .0269198
1002.033 .0269384
1002.630 .0269558
1003.228 .0269725
1003.825 .0269878
1004.422 .0270018
1005.018 .0270149
1005.614 .0270283
1006.210 .0270414
1006.806 .0270550
1007.401 .0270694
1007.996 .0270852
1008.591 .0271019
1009.186 .0271192
1009.780 .0271364
1010.374 .0271529
1010.967 .0271685
1011.561 .0271830
1012.154 .0271968
1012.746 .0272103
1013.339 .0272234
1013.931 .0272364
1014.523 .0272491
1015.115 .0272618
1015.706 .0272733
1016.298 .0272839
1016.888 .0272934
1017.479 .0273013
1018.069 .0273075
1018.660 .0273124
1019.250 .0273174
1019.839 .0273228
1020.429 .0273297
1021.018 .0273382
1021.607 .0273480
1022.195 .0273589
1022.784 .0273700
1023.372 .0273802
1023.960 .0273896
1024.547 .0273979
1025.135 .0274048
1025.722 .0274104
1026.309 .0274163
1026.896 .0274227
1027.483 .0274300
1028.069 .0274385
1028.655 .0274483
1029.241 .0274581
1029.827 .0274673
1030.412 .0274741
1030.997 .0274791
1031.582 .0274820
1032.167 .0274839
1032.752 .0274851
1033.336 .0274873
1033.921 .0274912
1034.505 .0274969
1035.089 .0275040
1035.672 .0275123
1036.256 .0275203
1036.839 .0275278
1037.422 .0275333
1038.005 .0275373
1038.588 .0275396
1039.171 .0275403
1039.753 .0275406
1040.335 .0275410
1040.918 .0275409
1041.500 .0275402
1042.081 .0275385
1042.663 .0275358
1043.244 .0275318
1043.826 .0275271
1044.407 .0275212
1044.988 .0275155
1045.569 .0275101
1046.150 .0275043
1046.730 .0274984
1047.311 .0274927
1047.891 .0274859
1048.471 .0274770
1049.052 .0274665
1049.632 .0274531
1050.211 .0274386
1050.791 .0274236
1051.371 .0274079
1051.950 .0273933
1052.530 .0273797
1053.109 .0273673
1053.688 .0273552
1054.268 .0273433
1054.847 .0273307
1055.426 .0273164
1056.005 .0273016
1056.583 .0272846
1057.162 .0272676
1057.741 .0272513
1058.319 .0272364
1058.898 .0272227
1059.476 .0272103
1060.055 .0271987
1060.633 .0271882
1061.211 .0271786
1061.790 .0271683
1062.368 .0271574
1062.946 .0271454
1063.524 .0271319
1064.102 .0271177
1064.680 .0271017
1065.258 .0270851
1065.836 .0270679
1066.414 .0270507
1066.992 .0270323
1067.570 .0270133
1068.148 .0269933
1068.726 .0269717
1069.304 .0269489
1069.882 .0269225
1070.460 .0268923
1071.038 .0268587
1071.616 .0268229
1072.194 .0267855
1072.772 .0267487
1073.350 .0267146
1073.928 .0266835
1074.506 .0266571
1075.084 .0266350
1075.662 .0266154
1076.240 .0265989
1076.819 .0265847
1077.397 .0265716
1077.976 .0265590
1078.554 .0265491
1079.133 .0265416
1079.711 .0265377
1080.290 .0265376
1080.869 .0265417
1081.448 .0265463
1082.027 .0265512
1082.606 .0265527
1083.185 .0265496
1083.764 .0265423
1084.343 .0265303
1084.923 .0265143
1085.502 .0264968
1086.082 .0264785
1086.662 .0264611
1087.242 .0264443
1087.822 .0264303
1088.402 .0264158
1088.983 .0264007
1089.563 .0263847
1090.144 .0263663
1090.725 .0263469
1091.306 .0263284
1091.887 .0263111
1092.469 .0262971
1093.050 .0262861
1093.632 .0262782
1094.214 .0262729
1094.796 .0262696
1095.379 .0262670
1095.961 .0262634
1096.544 .0262586
1097.127 .0262531
1097.710 .0262461
1098.294 .0262407
1098.877 .0262358
1099.461 .0262339
1100.046 .0262363
1100.630 .0262415
1101.215 .0262506
1101.800 .0262639
1102.385 .0262815
1102.970 .0263024
1103.556 .0263267
1104.142 .0263529
1104.728 .0263800
1105.315 .0264078
1105.902 .0264341
1106.489 .0264593
1107.077 .0264846
1107.664 .0265098
1108.253 .0265343
1108.841 .0265631
1109.430 .0265937
1110.019 .0266226
1110.609 .0266517
1111.198 .0266782
1111.789 .0267019
1112.379 .0267228
1112.970 .0267406
1113.561 .0267553
1114.153 .0267703
1114.745 .0267892
1115.338 .0268111
1115.931 .0268405
1116.524 .0268761
1117.117 .0269138
1117.712 .0269523
1118.306 .0269906
1118.901 .0270259
1119.496 .0270594
1120.092 .0270939
1120.689 .0271286
1121.285 .0271639
1121.882 .0272001
1122.480 .0272400
1123.078 .0272824
1123.677 .0273272
1124.276 .0273734
1124.875 .0274162
1125.476 .0274576
1126.076 .0274973
1126.677 .0275362
1127.279 .0275741
1127.881 .0276134
1128.484 .0276541
1129.087 .0276943
1129.691 .0277417
1130.295 .0277932
1130.900 .0278495
1131.505 .0279128
1132.111 .0279819
1132.718 .0280479
1133.325 .0281118
1133.933 .0281740
1134.541 .0282301
1135.150 .0282863
1135.760 .0283422
1136.370 .0283991
1136.981 .0284657
1137.592 .0285445
1138.204 .0286374
1138.817 .0287319
1139.431 .0288399
1140.045 .0289572
1140.660 .0290909
1141.275 .0292456
1141.891 .0294291
1142.508 .0294012
1143.126 .0296929
1143.744 .0301212
1144.363 .0304257
1144.983 .0309267
