Measurement Sequence started on: 09-46-08-630
Integration time: 30
Scans to Average: 2 
>>>>>Begin Spectral Data<<<<<
434.745 .1080077
435.665 .1002460
436.585 .0926594
437.503 .0872183
438.420 .0830967
439.335 .0820540
440.249 .0787610
441.162 .0760727
442.074 .0738914
442.984 .0721004
443.894 .0706119
444.802 .0693655
445.708 .0683162
446.614 .0674238
447.518 .0666478
448.422 .0659419
449.324 .0652912
450.224 .0646870
451.124 .0641170
452.022 .0635923
452.920 .0631096
453.816 .0626826
454.711 .0623144
455.605 .0620090
456.497 .0617603
457.389 .0615551
458.279 .0613841
459.169 .0612321
460.057 .0610887
460.944 .0609503
461.830 .0608122
462.715 .0606777
463.599 .0605542
464.482 .0604463
465.363 .0603606
466.244 .0602970
467.124 .0602508
468.002 .0602190
468.880 .0601939
469.756 .0601718
470.632 .0601511
471.506 .0601312
472.379 .0601151
473.252 .0600997
474.123 .0600916
474.994 .0600921
475.863 .0600991
476.731 .0601101
477.599 .0601254
478.465 .0601444
479.331 .0601644
480.195 .0601883
481.059 .0602169
481.921 .0602512
482.783 .0602937
483.643 .0603416
484.503 .0603916
485.362 .0604403
486.220 .0604888
487.077 .0605298
487.933 .0605721
488.788 .0606107
489.642 .0606434
490.496 .0606797
491.348 .0607190
492.200 .0607596
493.050 .0608007
493.900 .0608465
494.749 .0608908
495.597 .0609302
496.445 .0609694
497.291 .0609994
498.136 .0610219
498.981 .0610407
499.825 .0610508
500.668 .0610549
501.510 .0610596
502.352 .0610652
503.192 .0610755
504.032 .0611021
504.871 .0611382
505.709 .0611876
506.546 .0612505
507.383 .0613223
508.219 .0613987
509.054 .0614816
509.888 .0615739
510.722 .0616712
511.554 .0617820
512.386 .0619132
513.217 .0620639
514.048 .0622447
514.877 .0624462
515.706 .0626702
516.535 .0629111
517.362 .0631649
518.189 .0634205
519.015 .0636796
519.840 .0639336
520.665 .0641864
521.489 .0644435
522.312 .0647002
523.134 .0649583
523.956 .0652298
524.777 .0655147
525.598 .0658163
526.417 .0661308
527.236 .0664522
528.055 .0667694
528.872 .0670780
529.690 .0673621
530.506 .0676135
531.322 .0678344
532.137 .0680309
532.951 .0682031
533.765 .0683651
534.578 .0685058
535.391 .0686232
536.203 .0687134
537.014 .0687711
537.824 .0687723
538.634 .0687060
539.444 .0685717
540.253 .0683839
541.061 .0681416
541.868 .0678667
542.675 .0675603
543.482 .0672512
544.288 .0669422
545.093 .0666344
545.897 .0663211
546.702 .0660166
547.505 .0657126
548.308 .0654034
549.110 .0650905
549.912 .0647739
550.713 .0644457
551.514 .0641263
552.314 .0638121
553.114 .0635081
553.913 .0632174
554.711 .0629451
555.509 .0626864
556.306 .0624550
557.103 .0622350
557.900 .0620151
558.695 .0617900
559.491 .0615591
560.285 .0613089
561.080 .0610440
561.873 .0607777
562.667 .0605177
563.459 .0602696
564.252 .0600426
565.043 .0598230
565.835 .0596184
566.625 .0594148
567.416 .0592051
568.205 .0589766
568.995 .0587315
569.783 .0584702
570.572 .0582057
571.360 .0579448
572.147 .0576967
572.934 .0574631
573.720 .0572432
574.506 .0570353
575.292 .0568339
576.077 .0566327
576.862 .0564334
577.646 .0562312
578.429 .0560332
579.213 .0558358
579.996 .0556487
580.778 .0554695
581.560 .0553037
582.341 .0551518
583.123 .0550111
583.903 .0548793
584.684 .0547590
585.463 .0546441
586.243 .0545372
587.022 .0544380
587.800 .0543465
588.578 .0542634
589.356 .0541882
590.134 .0541187
590.911 .0540560
591.687 .0539981
592.463 .0539451
593.239 .0538936
594.014 .0538457
594.789 .0538006
595.564 .0537561
596.338 .0537126
597.112 .0536699
597.885 .0536262
598.658 .0535801
599.431 .0535292
600.203 .0534748
600.975 .0534175
601.747 .0533584
602.518 .0532991
603.289 .0532413
604.059 .0531867
604.829 .0531354
605.599 .0530872
606.369 .0530406
607.138 .0529952
607.906 .0529492
608.675 .0529015
609.443 .0528516
610.210 .0527999
610.977 .0527475
611.744 .0526967
612.511 .0526488
613.277 .0526033
614.043 .0525599
614.809 .0525187
615.574 .0524785
616.339 .0524389
617.104 .0523992
617.868 .0523589
618.632 .0523182
619.395 .0522795
620.159 .0522423
620.922 .0522084
621.684 .0521792
622.447 .0521545
623.209 .0521343
623.970 .0521181
624.732 .0521053
625.493 .0520952
626.254 .0520875
627.014 .0520822
627.774 .0520783
628.534 .0520757
629.294 .0520744
630.053 .0520744
630.812 .0520772
631.571 .0520814
632.329 .0520866
633.087 .0520926
633.845 .0520986
634.602 .0521042
635.359 .0521083
636.116 .0521103
636.873 .0521102
637.629 .0521076
638.385 .0521026
639.141 .0520950
639.897 .0520845
640.652 .0520710
641.407 .0520553
642.161 .0520362
642.916 .0520124
643.670 .0519834
644.424 .0519499
645.177 .0519122
645.931 .0518702
646.684 .0518245
647.436 .0517758
648.189 .0517264
648.941 .0516765
649.693 .0516256
650.445 .0515751
651.196 .0515246
651.947 .0514736
652.698 .0514219
653.449 .0513690
654.199 .0513151
654.949 .0512608
655.699 .0512069
656.449 .0511529
657.198 .0510992
657.947 .0510462
658.696 .0509938
659.445 .0509425
660.193 .0508918
660.941 .0508408
661.689 .0507905
662.436 .0507407
663.184 .0506918
663.931 .0506447
664.678 .0506000
665.424 .0505580
666.171 .0505192
666.917 .0504837
667.663 .0504506
668.408 .0504201
669.154 .0503919
669.899 .0503646
670.644 .0503381
671.388 .0503118
672.133 .0502860
672.877 .0502612
673.621 .0502378
674.365 .0502157
675.108 .0501960
675.851 .0501784
676.594 .0501623
677.337 .0501482
678.080 .0501358
678.822 .0501244
679.564 .0501141
680.306 .0501047
681.047 .0500963
681.789 .0500889
682.530 .0500832
683.271 .0500786
684.012 .0500754
684.752 .0500724
685.492 .0500688
686.232 .0500642
686.972 .0500581
687.712 .0500497
688.451 .0500386
689.190 .0500245
689.929 .0500073
690.667 .0499873
691.406 .0499648
692.144 .0499402
692.882 .0499137
693.620 .0498847
694.357 .0498533
695.095 .0498193
695.832 .0497824
696.569 .0497424
697.305 .0496992
698.042 .0496529
698.778 .0496035
699.514 .0495514
700.249 .0494964
700.985 .0494396
701.720 .0493815
702.455 .0493216
703.190 .0492603
703.925 .0491981
704.659 .0491347
705.393 .0490706
706.127 .0490064
706.861 .0489427
707.595 .0488801
708.328 .0488193
709.061 .0487605
709.794 .0487040
710.527 .0486501
711.259 .0485982
711.991 .0485478
712.723 .0484987
713.455 .0484502
714.186 .0484019
714.918 .0483539
715.649 .0483060
716.380 .0482585
717.110 .0482113
717.841 .0481642
718.571 .0481174
719.301 .0480708
720.031 .0480247
720.760 .0479792
721.490 .0479345
722.219 .0478905
722.948 .0478477
723.676 .0478064
724.405 .0477671
725.133 .0477300
725.861 .0476955
726.589 .0476638
727.317 .0476355
728.044 .0476104
728.771 .0475875
729.498 .0475674
730.225 .0475496
730.951 .0475329
731.677 .0475170
732.403 .0475015
733.129 .0474867
733.855 .0474725
734.580 .0474596
735.305 .0474475
736.030 .0474367
736.755 .0474268
737.479 .0474175
738.203 .0474081
738.927 .0473983
739.651 .0473873
740.375 .0473753
741.098 .0473623
741.821 .0473482
742.544 .0473332
743.267 .0473183
743.989 .0473035
744.711 .0472891
745.433 .0472746
746.155 .0472594
746.877 .0472437
747.598 .0472263
748.319 .0472073
749.040 .0471860
749.760 .0471627
750.481 .0471372
751.201 .0471094
751.921 .0470796
752.640 .0470478
753.360 .0470143
754.079 .0469792
754.798 .0469420
755.517 .0469029
756.235 .0468610
756.953 .0468167
757.671 .0467701
758.389 .0467214
759.107 .0466709
759.824 .0466192
760.541 .0465663
761.258 .0465128
761.974 .0464590
762.691 .0464051
763.407 .0463515
764.123 .0462978
764.838 .0462440
765.554 .0461898
766.269 .0461357
766.984 .0460817
767.699 .0460280
768.413 .0459756
769.127 .0459236
769.841 .0458722
770.555 .0458212
771.268 .0457707
771.982 .0457205
772.694 .0456713
773.407 .0456229
774.120 .0455757
774.832 .0455297
775.544 .0454850
776.256 .0454419
776.967 .0454005
777.678 .0453606
778.389 .0453212
779.100 .0452825
779.810 .0452449
780.521 .0452079
781.231 .0451719
781.940 .0451375
782.650 .0451048
783.359 .0450733
784.068 .0450427
784.776 .0450129
785.485 .0449837
786.193 .0449550
786.901 .0449264
787.609 .0448981
788.316 .0448704
789.023 .0448439
789.730 .0448190
790.436 .0447963
791.143 .0447758
791.849 .0447576
792.555 .0447410
793.260 .0447263
793.965 .0447125
794.670 .0446999
795.375 .0446881
796.080 .0446776
796.784 .0446675
797.488 .0446581
798.191 .0446497
798.895 .0446423
799.598 .0446358
800.301 .0446300
801.003 .0446249
801.705 .0446204
802.408 .0446157
803.109 .0446112
803.811 .0446059
804.512 .0446003
805.213 .0445934
805.913 .0445852
806.614 .0445759
807.314 .0445654
808.014 .0445540
808.713 .0445419
809.412 .0445292
810.111 .0445157
810.810 .0445012
811.508 .0444857
812.206 .0444688
812.904 .0444501
813.602 .0444296
814.299 .0444084
814.996 .0443865
815.692 .0443646
816.389 .0443436
817.085 .0443234
817.781 .0443041
818.476 .0442854
819.171 .0442674
819.866 .0442493
820.561 .0442311
821.255 .0442122
821.949 .0441924
822.643 .0441723
823.336 .0441518
824.029 .0441301
824.722 .0441070
825.415 .0440818
826.107 .0440538
826.799 .0440223
827.490 .0439878
828.182 .0439499
828.873 .0439093
829.563 .0438669
830.254 .0438232
830.944 .0437782
831.634 .0437330
832.323 .0436880
833.012 .0436428
833.701 .0435971
834.390 .0435510
835.078 .0435044
835.766 .0434588
836.453 .0434147
837.141 .0433727
837.828 .0433328
838.514 .0432955
839.201 .0432601
839.887 .0432254
840.572 .0431912
841.258 .0431565
841.943 .0431206
842.628 .0430835
843.312 .0430450
843.996 .0430057
844.680 .0429657
845.363 .0429256
846.046 .0428848
846.729 .0428432
847.412 .0427995
848.094 .0427543
848.776 .0427075
849.457 .0426597
850.139 .0426108
850.819 .0425618
851.500 .0425139
852.180 .0424675
852.860 .0424226
853.540 .0423796
854.219 .0423384
854.898 .0422986
855.576 .0422588
856.254 .0422201
856.932 .0421819
857.610 .0421451
858.287 .0421098
858.964 .0420770
859.640 .0420470
860.317 .0420192
860.993 .0419936
861.668 .0419700
862.343 .0419481
863.018 .0419271
863.693 .0419065
864.367 .0418875
865.041 .0418701
865.714 .0418544
866.387 .0418409
867.060 .0418307
867.732 .0418233
868.404 .0418179
869.076 .0418145
869.748 .0418129
870.419 .0418122
871.089 .0418118
871.760 .0418119
872.430 .0418123
873.099 .0418129
873.769 .0418134
874.438 .0418135
875.106 .0418133
875.774 .0418121
876.442 .0418097
877.110 .0418060
877.777 .0418015
878.444 .0417955
879.110 .0417886
879.776 .0417819
880.442 .0417757
881.108 .0417700
881.773 .0417656
882.437 .0417616
883.102 .0417580
883.766 .0417546
884.429 .0417515
885.093 .0417483
885.755 .0417450
886.418 .0417422
887.080 .0417400
887.742 .0417383
888.403 .0417373
889.064 .0417367
889.725 .0417373
890.385 .0417384
891.045 .0417393
891.705 .0417400
892.364 .0417405
893.023 .0417405
893.682 .0417396
894.340 .0417379
894.998 .0417357
895.655 .0417328
896.312 .0417295
896.969 .0417262
897.625 .0417227
898.281 .0417191
898.937 .0417153
899.592 .0417108
900.247 .0417055
900.901 .0416986
901.555 .0416901
902.209 .0416799
902.862 .0416674
903.515 .0416525
904.168 .0416349
904.820 .0416156
905.472 .0415946
906.123 .0415721
906.774 .0415486
907.425 .0415242
908.076 .0414991
908.726 .0414736
909.375 .0414478
910.024 .0414220
910.673 .0413960
911.322 .0413704
911.970 .0413449
912.618 .0413194
913.265 .0412942
913.912 .0412691
914.558 .0412439
915.205 .0412188
915.850 .0411931
916.496 .0411669
917.141 .0411401
917.786 .0411127
918.430 .0410838
919.074 .0410536
919.718 .0410217
920.361 .0409877
921.004 .0409517
921.646 .0409136
922.288 .0408730
922.930 .0408308
923.571 .0407867
924.212 .0407406
924.853 .0406931
925.493 .0406444
926.133 .0405952
926.772 .0405463
927.411 .0404974
928.050 .0404483
928.688 .0403991
929.326 .0403498
929.963 .0402995
930.600 .0402488
931.237 .0401973
931.874 .0401453
932.510 .0400939
933.145 .0400425
933.780 .0399912
934.415 .0399409
935.050 .0398918
935.684 .0398432
936.318 .0397955
936.951 .0397484
937.584 .0397013
938.217 .0396547
938.849 .0396081
939.481 .0395612
940.112 .0395148
940.743 .0394690
941.374 .0394233
942.004 .0393781
942.634 .0393337
943.264 .0392895
943.893 .0392458
944.522 .0392023
945.150 .0391584
945.778 .0391141
946.406 .0390696
947.033 .0390255
947.660 .0389819
948.287 .0389391
948.913 .0388970
949.539 .0388562
950.165 .0388169
950.790 .0387788
951.414 .0387423
952.039 .0387072
952.663 .0386737
953.286 .0386417
953.910 .0386111
954.533 .0385823
955.155 .0385557
955.777 .0385316
956.399 .0385102
957.020 .0384917
957.641 .0384756
958.262 .0384621
958.882 .0384508
959.502 .0384418
960.122 .0384344
960.741 .0384286
961.360 .0384246
961.979 .0384224
962.597 .0384223
963.214 .0384239
963.832 .0384271
964.449 .0384318
965.066 .0384370
965.682 .0384431
966.298 .0384492
966.914 .0384554
967.529 .0384619
968.144 .0384679
968.758 .0384735
969.373 .0384781
969.986 .0384816
970.600 .0384846
971.213 .0384872
971.826 .0384896
972.438 .0384922
973.050 .0384952
973.662 .0384989
974.274 .0385025
974.885 .0385061
975.495 .0385094
976.106 .0385117
976.716 .0385136
977.325 .0385145
977.935 .0385152
978.544 .0385165
979.152 .0385184
979.761 .0385221
980.369 .0385271
980.976 .0385329
981.584 .0385393
982.191 .0385455
982.797 .0385512
983.404 .0385561
984.010 .0385601
984.615 .0385638
985.221 .0385670
985.826 .0385704
986.430 .0385740
987.035 .0385778
987.639 .0385821
988.243 .0385861
988.846 .0385896
989.449 .0385924
990.052 .0385937
990.654 .0385940
991.256 .0385938
991.858 .0385938
992.460 .0385938
993.061 .0385947
993.662 .0385969
994.262 .0386005
994.863 .0386051
995.463 .0386106
996.062 .0386161
996.662 .0386221
997.261 .0386277
997.860 .0386332
998.458 .0386390
999.056 .0386458
999.654 .0386534
1000.252 .0386620
1000.849 .0386712
1001.446 .0386799
1002.043 .0386872
1002.639 .0386924
1003.235 .0386944
1003.831 .0386932
1004.427 .0386893
1005.022 .0386831
1005.617 .0386755
1006.212 .0386676
1006.806 .0386589
1007.401 .0386505
1007.995 .0386423
1008.588 .0386335
1009.182 .0386245
1009.775 .0386150
1010.368 .0386053
1010.960 .0385948
1011.553 .0385844
1012.145 .0385743
1012.737 .0385650
1013.328 .0385572
1013.920 .0385500
1014.511 .0385436
1015.102 .0385381
1015.692 .0385324
1016.283 .0385260
1016.873 .0385193
1017.463 .0385120
1018.052 .0385033
1018.642 .0384931
1019.231 .0384809
1019.820 .0384674
1020.409 .0384528
1020.997 .0384375
1021.585 .0384216
1022.173 .0384051
1022.761 .0383891
1023.349 .0383729
1023.936 .0383567
1024.524 .0383401
1025.111 .0383222
1025.697 .0383029
1026.284 .0382821
1026.870 .0382599
1027.457 .0382361
1028.043 .0382126
1028.628 .0381900
1029.214 .0381684
1029.800 .0381477
1030.385 .0381274
1030.970 .0381081
1031.555 .0380885
1032.139 .0380684
1032.724 .0380455
1033.308 .0380203
1033.893 .0379926
1034.477 .0379615
1035.060 .0379271
1035.644 .0378900
1036.228 .0378510
1036.811 .0378103
1037.394 .0377675
1037.977 .0377233
1038.560 .0376769
1039.143 .0376303
1039.726 .0375818
1040.308 .0375316
1040.891 .0374796
1041.473 .0374268
1042.055 .0373725
1042.637 .0373192
1043.219 .0372665
1043.801 .0372158
1044.382 .0371675
1044.964 .0371232
1045.545 .0370819
1046.127 .0370448
1046.708 .0370102
1047.289 .0369779
1047.870 .0369465
1048.451 .0369168
1049.032 .0368854
1049.612 .0368549
1050.193 .0368249
1050.774 .0367957
1051.354 .0367675
1051.935 .0367412
1052.515 .0367158
1053.095 .0366917
1053.675 .0366681
1054.256 .0366452
1054.836 .0366221
1055.416 .0366006
1055.996 .0365788
1056.576 .0365584
1057.156 .0365407
1057.735 .0365246
1058.315 .0365096
1058.895 .0364970
1059.475 .0364854
1060.055 .0364741
1060.634 .0364633
1061.214 .0364532
1061.794 .0364443
1062.373 .0364363
1062.953 .0364301
1063.533 .0364256
1064.113 .0364242
1064.692 .0364237
1065.272 .0364230
1065.852 .0364220
1066.431 .0364200
1067.011 .0364159
1067.591 .0364098
1068.171 .0364030
1068.751 .0363952
1069.331 .0363861
1069.910 .0363767
1070.490 .0363658
1071.071 .0363549
1071.651 .0363416
1072.231 .0363275
1072.811 .0363125
1073.391 .0362966
1073.972 .0362815
1074.552 .0362682
1075.133 .0362567
1075.713 .0362464
1076.294 .0362369
1076.875 .0362273
1077.456 .0362168
1078.037 .0362055
1078.618 .0361927
1079.199 .0361803
1079.780 .0361711
1080.362 .0361658
1080.943 .0361629
1081.525 .0361657
1082.107 .0361714
1082.689 .0361784
1083.271 .0361859
1083.853 .0361910
1084.436 .0361940
1085.018 .0361964
1085.601 .0361995
1086.184 .0362049
1086.767 .0362148
1087.351 .0362317
1087.934 .0362535
1088.518 .0362808
1089.102 .0363115
1089.686 .0363436
1090.270 .0363755
1090.855 .0364068
1091.439 .0364357
1092.024 .0364629
1092.609 .0364885
1093.195 .0365127
1093.780 .0365356
1094.366 .0365574
1094.952 .0365796
1095.539 .0366025
1096.125 .0366253
1096.712 .0366492
1097.299 .0366724
1097.887 .0366954
1098.475 .0367162
1099.063 .0367332
1099.651 .0367454
1100.239 .0367532
1100.828 .0367591
1101.417 .0367625
1102.007 .0367675
1102.597 .0367758
1103.187 .0367899
1103.777 .0368112
1104.368 .0368379
1104.959 .0368668
1105.551 .0368960
1106.143 .0369238
1106.735 .0369469
1107.328 .0369641
1107.921 .0369785
1108.514 .0369930
1109.108 .0370108
1109.702 .0370293
1110.296 .0370503
1110.891 .0370727
1111.486 .0370975
1112.082 .0371192
1112.678 .0371356
1113.275 .0371470
1113.872 .0371517
1114.469 .0371535
1115.067 .0371526
1115.665 .0371526
1116.264 .0371579
1116.864 .0371688
1117.463 .0371868
1118.063 .0372088
1118.664 .0372375
1119.265 .0372714
1119.867 .0373131
1120.469 .0373622
1121.072 .0374143
1121.675 .0374709
1122.279 .0375321
1122.883 .0375996
1123.488 .0376694
1124.093 .0377452
1124.699 .0378270
1125.305 .0379143
1125.912 .0380070
1126.520 .0381036
1127.128 .0382062
1127.737 .0383150
1128.346 .0384271
1128.956 .0385372
1129.567 .0386430
1130.178 .0387457
1130.790 .0388399
1131.402 .0389302
1132.015 .0390171
1132.629 .0391057
1133.243 .0391931
1133.858 .0392832
1134.474 .0393728
1135.090 .0394624
1135.707 .0395508
1136.325 .0396396
1136.943 .0397280
1137.562 .0398141
1138.182 .0398990
1138.802 .0399877
1139.423 .0400864
1140.045 .0401931
1140.668 .0403151
1141.291 .0404726
1141.916 .0406786
1142.540 .0407907
1143.166 .0408291
1143.793 .0411902
1144.420 .0419122
1145.048 .0426880
