BestFit value for E:\RC_data\Compressed_For_Future_Analysis_Lite\test_shlomo\aqueous_test\GoodSpectraLarge_Full\0012_2025-06-24_09-45-30\Interpretation_History\2025-07-21_16-23-34\ResultsGraphs\BestFit\(Run)spectra_09-46-28-833_BestFit.txt
600.203 0.0468361
600.975 0.0467734
601.747 0.0467108
602.518 0.0466485
603.289 0.0465865
604.059 0.0465248
604.829 0.0464633
605.599 0.0464021
606.369 0.0463412
607.138 0.0462807
607.906 0.0462206
608.675 0.0461608
609.443 0.0461014
610.210 0.0460424
610.977 0.0459838
611.744 0.0459256
612.511 0.0458678
613.277 0.0458104
614.043 0.0457534
614.809 0.0456967
615.574 0.0456406
616.339 0.0455847
617.104 0.0455293
617.868 0.0454742
618.632 0.0454195
619.395 0.0453652
620.159 0.0453111
620.922 0.0452573
621.684 0.0452039
622.447 0.0451506
623.209 0.0450977
623.970 0.0450450
624.732 0.0449923
625.493 0.0449399
626.254 0.0448876
627.014 0.0448355
627.774 0.0447835
628.534 0.0447315
629.294 0.0446795
630.053 0.0446276
630.812 0.0445757
631.571 0.0445237
632.329 0.0444718
633.087 0.0444198
633.845 0.0443677
634.602 0.0443156
635.359 0.0442634
636.116 0.0442112
636.873 0.0441588
637.629 0.0441064
638.385 0.0440539
639.141 0.0440012
639.897 0.0439485
640.652 0.0438958
641.407 0.0438430
642.161 0.0437903
642.916 0.0437374
643.670 0.0436846
644.424 0.0436317
645.177 0.0435790
645.931 0.0435262
646.684 0.0434735
647.436 0.0434210
648.189 0.0433685
648.941 0.0433163
649.693 0.0432642
650.445 0.0432123
651.196 0.0431607
651.947 0.0431093
652.698 0.0430582
653.449 0.0430074
654.199 0.0429569
654.949 0.0429068
655.699 0.0428571
656.449 0.0428077
657.198 0.0427588
657.947 0.0427103
658.696 0.0426623
659.445 0.0426146
660.193 0.0425675
660.941 0.0425208
661.689 0.0424746
662.436 0.0424289
663.184 0.0423836
663.931 0.0423388
664.678 0.0422944
665.424 0.0422505
666.171 0.0422070
666.917 0.0421640
667.663 0.0421213
668.408 0.0420791
669.154 0.0420372
669.899 0.0419957
670.644 0.0419545
671.388 0.0419136
672.133 0.0418730
672.877 0.0418326
673.621 0.0417924
674.365 0.0417524
675.108 0.0417126
675.851 0.0416729
676.594 0.0416333
677.337 0.0415938
678.080 0.0415542
678.822 0.0415147
679.564 0.0414752
680.306 0.0414356
681.047 0.0413959
681.789 0.0413561
682.530 0.0413161
683.271 0.0412761
684.012 0.0412358
684.752 0.0411953
685.492 0.0411547
686.232 0.0411138
686.972 0.0410726
687.712 0.0410312
688.451 0.0409896
689.190 0.0409476
689.929 0.0409055
690.667 0.0408631
691.406 0.0408203
692.144 0.0407774
692.882 0.0407341
693.620 0.0406907
694.357 0.0406470
695.095 0.0406031
695.832 0.0405590
696.569 0.0405148
697.305 0.0404704
698.042 0.0404258
698.778 0.0403812
699.514 0.0403365
700.249 0.0402918
700.985 0.0402470
701.720 0.0402022
702.455 0.0401575
703.190 0.0401128
703.925 0.0400683
704.659 0.0400239
705.393 0.0399797
706.127 0.0399357
706.861 0.0398919
707.595 0.0398483
708.328 0.0398051
709.061 0.0397623
709.794 0.0397197
710.527 0.0396776
711.259 0.0396359
711.991 0.0395946
712.723 0.0395538
713.455 0.0395134
714.186 0.0394736
714.918 0.0394343
715.649 0.0393955
716.380 0.0393573
717.110 0.0393196
717.841 0.0392825
718.571 0.0392460
719.301 0.0392100
720.031 0.0391746
720.760 0.0391398
721.490 0.0391055
722.219 0.0390718
722.948 0.0390387
723.676 0.0390061
724.405 0.0389740
725.133 0.0389424
725.861 0.0389113
726.589 0.0388807
727.317 0.0388505
728.044 0.0388207
728.771 0.0387914
729.498 0.0387624
730.225 0.0387337
730.951 0.0387053
731.677 0.0386772
732.403 0.0386493
733.129 0.0386216
733.855 0.0385941
734.580 0.0385668
735.305 0.0385395
736.030 0.0385123
736.755 0.0384851
737.479 0.0384579
738.203 0.0384307
738.927 0.0384034
739.651 0.0383759
740.375 0.0383483
741.098 0.0383206
741.821 0.0382926
742.544 0.0382644
743.267 0.0382360
743.989 0.0382072
744.711 0.0381782
745.433 0.0381487
746.155 0.0381190
746.877 0.0380888
747.598 0.0380583
748.319 0.0380273
749.040 0.0379959
749.760 0.0379642
750.481 0.0379319
751.201 0.0378992
751.921 0.0378661
752.640 0.0378325
753.360 0.0377985
754.079 0.0377640
754.798 0.0377291
755.517 0.0376938
756.235 0.0376580
756.953 0.0376219
757.671 0.0375854
758.389 0.0375485
759.107 0.0375112
759.824 0.0374736
760.541 0.0374358
761.258 0.0373976
761.974 0.0373592
762.691 0.0373206
763.407 0.0372818
764.123 0.0372428
764.838 0.0372037
765.554 0.0371645
766.269 0.0371252
766.984 0.0370859
767.699 0.0370466
768.413 0.0370074
769.127 0.0369682
769.841 0.0369291
770.555 0.0368902
771.268 0.0368515
771.982 0.0368130
772.694 0.0367748
773.407 0.0367368
774.120 0.0366991
774.832 0.0366619
775.544 0.0366250
776.256 0.0365885
776.967 0.0365525
777.678 0.0365169
778.389 0.0364819
779.100 0.0364473
779.810 0.0364134
780.521 0.0363799
781.231 0.0363471
781.940 0.0363149
782.650 0.0362833
783.359 0.0362524
784.068 0.0362221
784.776 0.0361925
785.485 0.0361635
786.193 0.0361353
786.901 0.0361077
787.609 0.0360807
788.316 0.0360545
789.023 0.0360290
789.730 0.0360041
790.436 0.0359799
791.143 0.0359563
791.849 0.0359334
792.555 0.0359111
793.260 0.0358894
793.965 0.0358683
794.670 0.0358479
795.375 0.0358279
796.080 0.0358085
796.784 0.0357896
797.488 0.0357712
798.191 0.0357533
798.895 0.0357358
799.598 0.0357187
800.301 0.0357020
801.003 0.0356856
801.705 0.0356696
802.408 0.0356537
803.109 0.0356382
803.811 0.0356228
804.512 0.0356077
805.213 0.0355926
805.913 0.0355777
806.614 0.0355628
807.314 0.0355480
808.014 0.0355332
808.713 0.0355183
809.412 0.0355033
810.111 0.0354883
810.810 0.0354730
811.508 0.0354577
812.206 0.0354421
812.904 0.0354262
813.602 0.0354101
814.299 0.0353937
814.996 0.0353769
815.692 0.0353598
816.389 0.0353423
817.085 0.0353244
817.781 0.0353061
818.476 0.0352873
819.171 0.0352680
819.866 0.0352483
820.561 0.0352280
821.255 0.0352072
821.949 0.0351858
822.643 0.0351639
823.336 0.0351415
824.029 0.0351185
824.722 0.0350948
825.415 0.0350706
826.107 0.0350459
826.799 0.0350205
827.490 0.0349946
828.182 0.0349680
828.873 0.0349409
829.563 0.0349132
830.254 0.0348849
830.944 0.0348561
831.634 0.0348268
832.323 0.0347969
833.012 0.0347665
833.701 0.0347356
834.390 0.0347042
835.078 0.0346723
835.766 0.0346400
836.453 0.0346073
837.141 0.0345742
837.828 0.0345407
838.514 0.0345069
839.201 0.0344727
839.887 0.0344382
840.572 0.0344036
841.258 0.0343686
841.943 0.0343334
842.628 0.0342981
843.312 0.0342626
843.996 0.0342270
844.680 0.0341913
845.363 0.0341556
846.046 0.0341199
846.729 0.0340841
847.412 0.0340484
848.094 0.0340128
848.776 0.0339773
849.457 0.0339420
850.139 0.0339068
850.819 0.0338719
851.500 0.0338372
852.180 0.0338028
852.860 0.0337687
853.540 0.0337349
854.219 0.0337015
854.898 0.0336684
855.576 0.0336359
856.254 0.0336037
856.932 0.0335720
857.610 0.0335408
858.287 0.0335102
858.964 0.0334801
859.640 0.0334506
860.317 0.0334216
860.993 0.0333932
861.668 0.0333655
862.343 0.0333385
863.018 0.0333120
863.693 0.0332863
864.367 0.0332612
865.041 0.0332368
865.714 0.0332132
866.387 0.0331902
867.060 0.0331679
867.732 0.0331464
868.404 0.0331256
869.076 0.0331056
869.748 0.0330862
870.419 0.0330676
871.089 0.0330497
871.760 0.0330325
872.430 0.0330161
873.099 0.0330003
873.769 0.0329853
874.438 0.0329709
875.106 0.0329573
875.774 0.0329443
876.442 0.0329320
877.110 0.0329203
877.777 0.0329092
878.444 0.0328987
879.110 0.0328889
879.776 0.0328796
880.442 0.0328708
881.108 0.0328626
881.773 0.0328549
882.437 0.0328477
883.102 0.0328410
883.766 0.0328347
884.429 0.0328288
885.093 0.0328233
885.755 0.0328182
886.418 0.0328134
887.080 0.0328089
887.742 0.0328047
888.403 0.0328007
889.064 0.0327970
889.725 0.0327934
890.385 0.0327900
891.045 0.0327868
891.705 0.0327837
892.364 0.0327806
893.023 0.0327776
893.682 0.0327746
894.340 0.0327716
894.998 0.0327686
895.655 0.0327655
896.312 0.0327623
896.969 0.0327590
897.625 0.0327555
898.281 0.0327519
898.937 0.0327480
899.592 0.0327439
900.247 0.0327396
900.901 0.0327349
901.555 0.0327300
902.209 0.0327247
902.862 0.0327191
903.515 0.0327131
904.168 0.0327067
904.820 0.0326999
905.472 0.0326927
906.123 0.0326850
906.774 0.0326768
907.425 0.0326681
908.076 0.0326589
908.726 0.0326492
909.375 0.0326390
910.024 0.0326282
910.673 0.0326168
911.322 0.0326049
911.970 0.0325924
912.618 0.0325793
913.265 0.0325656
913.912 0.0325513
914.558 0.0325364
915.205 0.0325209
915.850 0.0325047
916.496 0.0324880
917.141 0.0324706
917.786 0.0324525
918.430 0.0324339
919.074 0.0324147
919.718 0.0323948
920.361 0.0323743
921.004 0.0323532
921.646 0.0323315
922.288 0.0323092
922.930 0.0322863
923.571 0.0322629
924.212 0.0322389
924.853 0.0322143
925.493 0.0321891
926.133 0.0321635
926.772 0.0321373
927.411 0.0321106
928.050 0.0320835
928.688 0.0320558
929.326 0.0320277
929.963 0.0319992
930.600 0.0319702
931.237 0.0319408
931.874 0.0319111
932.510 0.0318809
933.145 0.0318505
933.780 0.0318197
934.415 0.0317886
935.050 0.0317572
935.684 0.0317256
936.318 0.0316937
936.951 0.0316616
937.584 0.0316293
938.217 0.0315968
938.849 0.0315642
939.481 0.0315315
940.112 0.0314987
940.743 0.0314658
941.374 0.0314328
942.004 0.0313999
942.634 0.0313669
943.264 0.0313339
943.893 0.0313010
944.522 0.0312681
945.150 0.0312354
945.778 0.0312028
946.406 0.0311702
947.033 0.0311379
947.660 0.0311057
948.287 0.0310738
948.913 0.0310421
949.539 0.0310106
950.165 0.0309793
950.790 0.0309484
951.414 0.0309179
952.039 0.0308876
952.663 0.0308577
953.286 0.0308282
953.910 0.0307990
954.533 0.0307703
955.155 0.0307420
955.777 0.0307142
956.399 0.0306868
957.020 0.0306599
957.641 0.0306335
958.262 0.0306076
958.882 0.0305822
959.502 0.0305574
960.122 0.0305340
960.741 0.0305150
961.360 0.0304965
961.979 0.0304786
962.597 0.0304613
963.214 0.0304445
963.832 0.0304284
964.449 0.0304128
965.066 0.0303978
965.682 0.0303835
966.298 0.0303698
966.914 0.0303567
967.529 0.0303442
968.144 0.0303324
968.758 0.0303212
969.373 0.0303106
969.986 0.0303007
970.600 0.0302914
971.213 0.0302828
971.826 0.0302748
972.438 0.0302674
973.050 0.0302607
973.662 0.0302546
974.274 0.0302491
974.885 0.0302443
975.495 0.0302401
976.106 0.0302365
976.716 0.0302335
977.325 0.0302311
977.935 0.0302293
978.544 0.0302281
979.152 0.0302274
979.761 0.0302274
980.369 0.0302279
980.976 0.0302289
981.584 0.0302305
982.191 0.0302326
982.797 0.0302352
983.404 0.0302383
984.010 0.0302419
984.615 0.0302460
985.221 0.0302505
985.826 0.0302555
986.430 0.0302609
987.035 0.0302668
987.639 0.0302730
988.243 0.0302797
988.846 0.0302867
989.449 0.0302940
990.052 0.0303017
990.654 0.0303097
991.256 0.0303180
991.858 0.0303266
992.460 0.0303355
993.061 0.0303446
993.662 0.0303540
994.262 0.0303636
994.863 0.0303733
995.463 0.0303833
996.062 0.0303934
996.662 0.0304036
997.261 0.0304140
997.860 0.0304245
998.458 0.0304350
999.056 0.0304456
999.654 0.0304563
1000.252 0.0304653
1000.849 0.0304720
1001.446 0.0304787
1002.043 0.0304854
1002.639 0.0304920
1003.235 0.0304985
1003.831 0.0305050
1004.427 0.0305115
1005.022 0.0305177
1005.617 0.0305239
1006.212 0.0305299
1006.806 0.0305358
1007.401 0.0305415
1007.995 0.0305469
1008.588 0.0305522
1009.182 0.0305572
1009.775 0.0305620
1010.368 0.0305665
1010.96 0.0305708
1011.553 0.0305747
1012.145 0.0305784
1012.737 0.0305817
1013.328 0.0305847
1013.92 0.0305873
1014.511 0.0305896
1015.102 0.0305915
1015.692 0.0305930
1016.283 0.0305942
1016.873 0.0305949
1017.463 0.0305951
1018.052 0.0305950
1018.642 0.0305944
1019.231 0.0305933
1019.82 0.0305918
1020.409 0.0305898
1020.997 0.0305874
1021.585 0.0305844
1022.173 0.0305809
1022.761 0.0305770
1023.349 0.0305725
1023.936 0.0305675
1024.524 0.0305620
1025.111 0.0305559
1025.697 0.0305494
1026.284 0.0305422
1026.87 0.0305346
1027.457 0.0305264
1028.043 0.0305176
1028.628 0.0305083
1029.214 0.0304984
1029.80 0.0304880
1030.385 0.0304770
1030.97 0.0304655
1031.555 0.0304534
1032.139 0.0304408
1032.724 0.0304276
1033.308 0.0304138
1033.893 0.0303995
1034.477 0.0303846
1035.06 0.0303693
1035.644 0.0303533
1036.228 0.0303368
1036.811 0.0303198
1037.394 0.0303022
1037.977 0.0302841
1038.56 0.0302655
1039.143 0.0302463
1039.726 0.0302267
1040.308 0.0302065
1040.891 0.0301859
1041.473 0.0301647
1042.055 0.0301431
1042.637 0.0301210
1043.219 0.0300984
1043.801 0.0300753
1044.382 0.0300519
1044.964 0.0300279
1045.545 0.0300036
1046.127 0.0299788
1046.708 0.0299536
1047.289 0.0299280
1047.87 0.0299020
1048.451 0.0298756
1049.032 0.0298488
1049.612 0.0298218
1050.193 0.0297943
1050.774 0.0297665
1051.354 0.0297384
1051.935 0.0297100
1052.515 0.0296813
1053.095 0.0296524
1053.675 0.0296231
1054.256 0.0295936
1054.836 0.0295638
1055.416 0.0295338
1055.996 0.0295036
1056.576 0.0294732
1057.156 0.0294426
1057.735 0.0294119
1058.315 0.0293810
1058.895 0.0293499
1059.475 0.0293187
1060.055 0.0292874
1060.634 0.0292560
1061.214 0.0292245
1061.794 0.0291929
1062.373 0.0291613
1062.953 0.0291296
1063.533 0.0290979
1064.113 0.0290662
1064.692 0.0290345
1065.272 0.0290028
1065.852 0.0289712
1066.431 0.0289396
1067.011 0.0289080
1067.591 0.0288766
1068.171 0.0288452
1068.751 0.0288139
1069.331 0.0287827
1069.91 0.0287517
1070.49 0.0287209
1071.071 0.0286901
1071.651 0.0286596
1072.231 0.0286292
1072.811 0.0285991
1073.391 0.0285692
1073.972 0.0285395
1074.552 0.0285101
1075.133 0.0284808
1075.713 0.0284520
1076.294 0.0284233
1076.875 0.0283950
1077.456 0.0283669
1078.037 0.0283392
1078.618 0.0283118
1079.199 0.0282848
1079.78 0.0282582
1080.362 0.0282318
1080.943 0.0282059
1081.525 0.0281804
1082.107 0.0281553
1082.689 0.0281305
1083.271 0.0281062
1083.853 0.0280824
1084.436 0.0280589
1085.018 0.0280360
1085.601 0.0280134
1086.184 0.0279914
1086.767 0.0279698
1087.351 0.0279487
1087.934 0.0279281
1088.518 0.0279080
1089.102 0.0278884
1089.686 0.0278693
1090.27 0.0278507
1090.855 0.0278327
1091.439 0.0278152
1092.024 0.0277982
1092.609 0.0277818
1093.195 0.0277659
1093.78 0.0277506
1094.366 0.0277358
1094.952 0.0277216
1095.539 0.0277080
1096.125 0.0276949
1096.712 0.0276824
1097.299 0.0276705
1097.887 0.0276591
1098.475 0.0276483
1099.063 0.0276381
1099.651 0.0276285
1100.239 0.0276195
1100.828 0.0276110
1101.417 0.0276032
1102.007 0.0275959
1102.597 0.0275892
1103.187 0.0275830
1103.777 0.0275775
1104.368 0.0275725
1104.959 0.0275681
1105.551 0.0275643
1106.143 0.0275611
1106.735 0.0275584
1107.328 0.0275563
1107.921 0.0275547
1108.514 0.0275537
1109.108 0.0275532
1109.702 0.0275533
1110.296 0.0275540
1110.891 0.0275552
1111.486 0.0275569
1112.082 0.0275591
1112.678 0.0275618
1113.275 0.0275651
1113.872 0.0275689
1114.469 0.0275731
1115.067 0.0275779
1115.665 0.0275831
1116.264 0.0275888
1116.864 0.0275950
1117.463 0.0276017
1118.063 0.0276087
1118.664 0.0276163
1119.265 0.0276242
1119.867 0.0276326
1120.469 0.0276414
1121.072 0.0276506
1121.675 0.0276601
1122.279 0.0276701
1122.883 0.0276804
1123.488 0.0276911
1124.093 0.0277021
1124.699 0.0277134
1125.305 0.0277251
1125.912 0.0277370
1126.52 0.0277493
1127.128 0.0277618
1127.737 0.0277747
1128.346 0.0277877
1128.956 0.0278010
1129.567 0.0278146
1130.178 0.0278283
1130.79 0.0278423
1131.402 0.0278564
1132.015 0.0278707
1132.629 0.0278852
1133.243 0.0278998
1133.858 0.0279146
1134.474 0.0279295
1135.09 0.0279444
1135.707 0.0279595
1136.325 0.0279746
1136.943 0.0279898
1137.562 0.0280050
1138.182 0.0280202
1138.802 0.0280355
1139.423 0.0280507
1140.045 0.0280659
1140.668 0.0280811
1141.291 0.0280963
1141.916 0.0281114
1142.54 0.0281263
1143.166 0.0281412
1143.793 0.0281560
1144.42 0.0281707
1145.048 0.0281852
