Measurement Sequence started on: 12-08-58-817
Integration time: 28
Scans to Average: 2 
>>>>>Begin Spectral Data<<<<<
432.689 .0000100
433.621 .0000100
434.552 .0000100
435.482 .0000100
436.410 .6279963
437.337 .1599869
438.262 .1569704
439.187 .1442467
440.110 .1262195
441.031 .1073379
441.952 .0783966
442.871 .0674228
443.789 .0604778
444.705 .0557148
445.621 .0523175
446.535 .0497252
447.447 .0476572
448.359 .0459535
449.269 .0445568
450.178 .0434029
451.086 .0424153
451.993 .0415674
452.898 .0408473
453.803 .0402270
454.706 .0396840
455.608 .0391778
456.508 .0387125
457.408 .0382825
458.306 .0378631
459.204 .0374320
460.100 .0370034
460.995 .0365828
461.888 .0361734
462.781 .0357785
463.673 .0354145
464.563 .0350643
465.452 .0347337
466.340 .0344249
467.228 .0341314
468.114 .0338492
468.999 .0335938
469.882 .0333464
470.765 .0331242
471.647 .0329232
472.528 .0327402
473.407 .0325765
474.286 .0324425
475.163 .0323331
476.040 .0322514
476.915 .0321895
477.790 .0321454
478.663 .0321041
479.535 .0320723
480.407 .0320325
481.277 .0319849
482.147 .0319350
483.015 .0318817
483.883 .0318228
484.749 .0317717
485.615 .0317241
486.479 .0316891
487.343 .0316664
488.206 .0316526
489.067 .0316442
489.928 .0316356
490.788 .0316296
491.647 .0316221
492.505 .0316196
493.362 .0316299
494.218 .0316485
495.073 .0316900
495.928 .0317545
496.781 .0318394
497.634 .0319517
498.486 .0320891
499.337 .0322511
500.187 .0324359
501.036 .0326396
501.884 .0328643
502.731 .0331122
503.578 .0333850
504.424 .0336822
505.268 .0339988
506.113 .0343393
506.956 .0347035
507.798 .0350902
508.640 .0355093
509.480 .0359600
510.320 .0364543
511.160 .0370063
511.998 .0376272
512.836 .0383297
513.672 .0391242
514.508 .0400248
515.344 .0410506
516.178 .0422195
517.012 .0435370
517.845 .0450296
518.677 .0467113
519.508 .0486075
520.339 .0507438
521.169 .0531775
521.998 .0559489
522.826 .0591018
523.654 .0626559
524.481 .0666439
525.307 .0710346
526.133 .0757889
526.958 .0807880
527.782 .0858772
528.605 .0908718
529.428 .0955360
530.250 .0995227
531.072 .1026722
531.892 .1047459
532.712 .1056388
533.532 .1052884
534.350 .1037787
535.168 .1012191
535.986 .0978143
536.802 .0937842
537.618 .0893487
538.434 .0847076
539.249 .0800872
540.063 .0755543
540.876 .0712547
541.689 .0672477
542.501 .0635792
543.313 .0602513
544.124 .0572759
544.934 .0546035
545.744 .0522110
546.553 .0500554
547.361 .0481221
548.169 .0463938
548.976 .0448235
549.783 .0434123
550.589 .0421358
551.395 .0409662
552.200 .0399050
553.004 .0389271
553.808 .0380209
554.611 .0371794
555.414 .0363929
556.216 .0356582
557.018 .0349695
557.819 .0343335
558.619 .0337328
559.419 .0331690
560.218 .0326561
561.017 .0321803
561.815 .0317484
562.613 .0313620
563.410 .0310020
564.207 .0306682
565.003 .0303533
565.799 .0300389
566.594 .0297274
567.388 .0294233
568.182 .0291274
568.976 .0288437
569.769 .0285771
570.562 .0283289
571.354 .0280952
572.145 .0278814
572.936 .0276830
573.727 .0274952
574.517 .0273256
575.307 .0271680
576.096 .0270222
576.885 .0268876
577.673 .0267627
578.461 .0266490
579.248 .0265458
580.035 .0264508
580.821 .0263613
581.607 .0262772
582.392 .0262027
583.177 .0261370
583.962 .0260816
584.746 .0260381
585.529 .0260051
586.313 .0259801
587.095 .0259602
587.878 .0259436
588.660 .0259303
589.441 .0259170
590.222 .0259041
591.003 .0258916
591.783 .0258778
592.563 .0258633
593.342 .0258473
594.121 .0258284
594.899 .0258069
595.678 .0257832
596.455 .0257573
597.233 .0257297
598.009 .0257010
598.786 .0256713
599.562 .0256408
600.338 .0256109
601.113 .0255807
601.888 .0255490
602.663 .0255170
603.437 .0254835
604.211 .0254482
604.984 .0254121
605.757 .0253753
606.530 .0253382
607.302 .0253020
608.074 .0252681
608.845 .0252361
609.616 .0252064
610.387 .0251796
611.158 .0251552
611.928 .0251334
612.697 .0251136
613.467 .0250950
614.236 .0250773
615.004 .0250607
615.773 .0250446
616.541 .0250294
617.308 .0250160
618.076 .0250047
618.843 .0249954
619.609 .0249885
620.375 .0249834
621.141 .0249792
621.907 .0249761
622.672 .0249728
623.437 .0249684
624.202 .0249631
624.966 .0249567
625.730 .0249491
626.493 .0249407
627.257 .0249320
628.020 .0249233
628.782 .0249145
629.545 .0249062
630.307 .0248980
631.068 .0248908
631.830 .0248845
632.591 .0248791
633.352 .0248753
634.112 .0248727
634.872 .0248705
635.632 .0248688
636.392 .0248664
637.151 .0248630
637.910 .0248578
638.668 .0248510
639.427 .0248428
640.185 .0248335
640.943 .0248229
641.700 .0248111
642.457 .0247985
643.214 .0247848
643.971 .0247693
644.727 .0247525
645.483 .0247344
646.239 .0247151
646.994 .0246942
647.750 .0246727
648.505 .0246507
649.259 .0246294
650.014 .0246086
650.768 .0245895
651.521 .0245719
652.275 .0245553
653.028 .0245396
653.781 .0245246
654.534 .0245102
655.286 .0244963
656.039 .0244820
656.791 .0244675
657.542 .0244527
658.294 .0244383
659.045 .0244232
659.796 .0244088
660.546 .0243948
661.297 .0243817
662.047 .0243693
662.796 .0243576
663.546 .0243461
664.295 .0243350
665.044 .0243246
665.793 .0243142
666.542 .0243038
667.290 .0242939
668.038 .0242841
668.786 .0242754
669.533 .0242672
670.281 .0242605
671.028 .0242541
671.774 .0242491
672.521 .0242447
673.267 .0242402
674.013 .0242355
674.759 .0242308
675.505 .0242262
676.250 .0242218
676.995 .0242173
677.740 .0242127
678.484 .0242079
679.229 .0242039
679.973 .0241994
680.717 .0241950
681.460 .0241904
682.204 .0241862
682.947 .0241817
683.690 .0241780
684.433 .0241746
685.175 .0241715
685.917 .0241695
686.659 .0241679
687.401 .0241665
688.142 .0241653
688.884 .0241640
689.625 .0241629
690.365 .0241621
691.106 .0241617
691.846 .0241612
692.586 .0241615
693.326 .0241618
694.066 .0241620
694.805 .0241617
695.545 .0241603
696.284 .0241577
697.022 .0241539
697.761 .0241484
698.499 .0241410
699.237 .0241326
699.975 .0241237
700.713 .0241147
701.450 .0241057
702.187 .0240968
702.924 .0240885
703.661 .0240805
704.397 .0240720
705.133 .0240633
705.869 .0240543
706.605 .0240450
707.341 .0240349
708.076 .0240244
708.811 .0240135
709.546 .0240025
710.281 .0239911
711.015 .0239797
711.749 .0239674
712.483 .0239543
713.217 .0239397
713.950 .0239239
714.684 .0239065
715.417 .0238879
716.150 .0238684
716.882 .0238486
717.615 .0238287
718.347 .0238093
719.079 .0237903
719.811 .0237725
720.542 .0237558
721.273 .0237397
722.005 .0237246
722.735 .0237105
723.466 .0236973
724.196 .0236845
724.927 .0236723
725.656 .0236607
726.386 .0236494
727.116 .0236387
727.845 .0236283
728.574 .0236180
729.303 .0236087
730.031 .0235998
730.760 .0235914
731.488 .0235834
732.216 .0235755
732.944 .0235675
733.671 .0235594
734.398 .0235508
735.125 .0235422
735.852 .0235339
736.579 .0235263
737.305 .0235196
738.031 .0235141
738.757 .0235101
739.483 .0235072
740.208 .0235053
740.933 .0235042
741.658 .0235028
742.383 .0235014
743.108 .0234996
743.832 .0234972
744.556 .0234948
745.280 .0234924
746.004 .0234907
746.727 .0234901
747.450 .0234905
748.173 .0234919
748.896 .0234942
749.618 .0234972
750.340 .0235005
751.062 .0235040
751.784 .0235080
752.506 .0235119
753.227 .0235162
753.948 .0235214
754.669 .0235272
755.389 .0235337
756.110 .0235414
756.830 .0235496
757.550 .0235581
758.269 .0235666
758.989 .0235743
759.708 .0235811
760.427 .0235869
761.146 .0235915
761.864 .0235948
762.582 .0235973
763.300 .0235990
764.018 .0235993
764.736 .0235991
765.453 .0235984
766.170 .0235969
766.887 .0235950
767.603 .0235934
768.320 .0235917
769.036 .0235902
769.751 .0235889
770.467 .0235875
771.182 .0235863
771.897 .0235847
772.612 .0235825
773.327 .0235801
774.041 .0235775
774.755 .0235741
775.469 .0235704
776.183 .0235667
776.896 .0235623
777.609 .0235569
778.322 .0235504
779.035 .0235424
779.747 .0235327
780.459 .0235219
781.171 .0235102
781.882 .0234983
782.594 .0234862
783.305 .0234741
784.016 .0234625
784.726 .0234510
785.436 .0234393
786.147 .0234273
786.856 .0234148
787.566 .0234018
788.275 .0233883
788.984 .0233750
789.693 .0233621
790.401 .0233502
791.110 .0233388
791.818 .0233282
792.525 .0233177
793.233 .0233064
793.940 .0232935
794.647 .0232795
795.353 .0232636
796.060 .0232463
796.766 .0232277
797.472 .0232084
798.177 .0231891
798.883 .0231699
799.588 .0231509
800.292 .0231321
800.997 .0231133
801.701 .0230942
802.405 .0230744
803.109 .0230546
803.812 .0230348
804.515 .0230152
805.218 .0229966
805.921 .0229791
806.623 .0229628
807.325 .0229482
808.027 .0229350
808.728 .0229233
809.429 .0229128
810.130 .0229029
810.831 .0228936
811.531 .0228846
812.231 .0228759
812.931 .0228674
813.630 .0228594
814.330 .0228521
815.029 .0228453
815.727 .0228391
816.426 .0228334
817.124 .0228281
817.821 .0228234
818.519 .0228188
819.216 .0228143
819.913 .0228099
820.609 .0228058
821.306 .0228020
822.002 .0227987
822.697 .0227962
823.393 .0227947
824.088 .0227939
824.783 .0227938
825.477 .0227945
826.171 .0227962
826.865 .0227989
827.559 .0228023
828.252 .0228067
828.945 .0228120
829.638 .0228183
830.330 .0228256
831.023 .0228339
831.714 .0228432
832.406 .0228537
833.097 .0228647
833.788 .0228758
834.479 .0228870
835.169 .0228987
835.859 .0229102
836.548 .0229217
837.238 .0229328
837.927 .0229433
838.615 .0229530
839.304 .0229621
839.992 .0229702
840.680 .0229774
841.367 .0229834
842.054 .0229886
842.741 .0229927
843.428 .0229960
844.114 .0229985
844.800 .0230002
845.485 .0230012
846.170 .0230014
846.855 .0230005
847.540 .0229995
848.224 .0229984
848.908 .0229975
849.592 .0229969
850.275 .0229964
850.958 .0229963
851.641 .0229963
852.323 .0229962
853.005 .0229961
853.687 .0229957
854.368 .0229953
855.049 .0229945
855.730 .0229940
856.410 .0229940
857.090 .0229946
857.769 .0229960
858.449 .0229981
859.128 .0230003
859.806 .0230027
860.485 .0230049
861.163 .0230065
861.840 .0230075
862.518 .0230077
863.195 .0230067
863.871 .0230048
864.548 .0230021
865.224 .0229988
865.899 .0229952
866.574 .0229915
867.249 .0229869
867.924 .0229812
868.598 .0229745
869.272 .0229661
869.946 .0229558
870.619 .0229439
871.292 .0229301
871.964 .0229149
872.636 .0228987
873.308 .0228817
873.979 .0228643
874.651 .0228470
875.321 .0228295
875.992 .0228114
876.662 .0227925
877.331 .0227730
878.001 .0227524
878.670 .0227313
879.338 .0227101
880.007 .0226890
880.675 .0226686
881.342 .0226491
882.009 .0226306
882.676 .0226131
883.343 .0225960
884.009 .0225789
884.675 .0225614
885.340 .0225435
886.005 .0225248
886.670 .0225057
887.334 .0224870
887.998 .0224688
888.662 .0224513
889.325 .0224346
889.988 .0224185
890.650 .0224028
891.312 .0223867
891.974 .0223699
892.636 .0223526
893.297 .0223345
893.957 .0223159
894.618 .0222976
895.278 .0222799
895.937 .0222634
896.596 .0222478
897.255 .0222335
897.914 .0222202
898.572 .0222075
899.230 .0221949
899.887 .0221819
900.544 .0221685
901.201 .0221545
901.857 .0221400
902.513 .0221255
903.168 .0221110
903.823 .0220968
904.478 .0220828
905.132 .0220689
905.786 .0220549
906.440 .0220408
907.093 .0220259
907.746 .0220102
908.399 .0219940
909.051 .0219773
909.703 .0219606
910.354 .0219442
911.005 .0219288
911.656 .0219146
912.306 .0219018
912.956 .0218906
913.605 .0218806
914.254 .0218720
914.903 .0218642
915.551 .0218570
916.199 .0218508
916.847 .0218451
917.494 .0218400
918.141 .0218355
918.788 .0218323
919.434 .0218303
920.079 .0218290
920.725 .0218287
921.370 .0218289
922.014 .0218291
922.658 .0218291
923.302 .0218287
923.946 .0218277
924.589 .0218265
925.231 .0218248
925.873 .0218229
926.515 .0218211
927.157 .0218195
927.798 .0218181
928.439 .0218174
929.079 .0218176
929.719 .0218186
930.359 .0218204
930.998 .0218237
931.637 .0218279
932.275 .0218329
932.913 .0218383
933.551 .0218436
934.188 .0218482
934.825 .0218521
935.462 .0218547
936.098 .0218566
936.733 .0218587
937.369 .0218614
938.004 .0218648
938.638 .0218692
939.273 .0218746
939.907 .0218805
940.540 .0218867
941.173 .0218927
941.806 .0218977
942.438 .0219024
943.070 .0219062
943.702 .0219097
944.333 .0219136
944.964 .0219190
945.594 .0219257
946.224 .0219346
946.854 .0219453
947.483 .0219572
948.112 .0219700
948.741 .0219828
949.369 .0219954
949.996 .0220074
950.624 .0220181
951.251 .0220281
951.878 .0220371
952.504 .0220460
953.130 .0220546
953.755 .0220632
954.380 .0220718
955.005 .0220799
955.629 .0220872
956.253 .0220933
956.877 .0220980
957.500 .0221017
958.123 .0221038
958.746 .0221047
959.368 .0221048
959.990 .0221035
960.611 .0221016
961.232 .0220996
961.853 .0220973
962.473 .0220950
963.093 .0220926
963.712 .0220900
964.331 .0220869
964.950 .0220838
965.569 .0220804
966.187 .0220769
966.804 .0220741
967.422 .0220718
968.039 .0220692
968.655 .0220675
969.272 .0220656
969.887 .0220634
970.503 .0220608
971.118 .0220573
971.733 .0220526
972.347 .0220472
972.961 .0220414
973.575 .0220351
974.188 .0220285
974.801 .0220221
975.414 .0220150
976.026 .0220081
976.638 .0220006
977.250 .0219921
977.861 .0219827
978.472 .0219730
979.083 .0219621
979.693 .0219501
980.303 .0219372
980.912 .0219237
981.521 .0219094
982.130 .0218948
982.738 .0218797
983.346 .0218641
983.954 .0218481
984.562 .0218315
985.169 .0218136
985.775 .0217953
986.382 .0217761
986.988 .0217568
987.594 .0217370
988.199 .0217175
988.804 .0216983
989.409 .0216796
990.013 .0216622
990.617 .0216459
991.221 .0216302
991.824 .0216157
992.427 .0216018
993.030 .0215883
993.632 .0215749
994.234 .0215618
994.836 .0215484
995.438 .0215350
996.039 .0215216
996.640 .0215078
997.240 .0214933
997.840 .0214794
998.440 .0214652
999.040 .0214511
999.639 .0214372
1000.238 .0214235
1000.836 .0214100
1001.435 .0213971
1002.033 .0213835
1002.630 .0213690
1003.228 .0213538
1003.825 .0213380
1004.422 .0213210
1005.018 .0213039
1005.614 .0212877
1006.210 .0212721
1006.806 .0212574
1007.401 .0212440
1007.996 .0212307
1008.591 .0212182
1009.186 .0212058
1009.780 .0211929
1010.374 .0211794
1010.967 .0211654
1011.561 .0211505
1012.154 .0211356
1012.746 .0211212
1013.339 .0211068
1013.931 .0210920
1014.523 .0210777
1015.115 .0210634
1015.706 .0210495
1016.298 .0210356
1016.888 .0210222
1017.479 .0210089
1018.069 .0209962
1018.660 .0209831
1019.250 .0209701
1019.839 .0209573
1020.429 .0209450
1021.018 .0209331
1021.607 .0209220
1022.195 .0209117
1022.784 .0209026
1023.372 .0208953
1023.960 .0208902
1024.547 .0208869
1025.135 .0208848
1025.722 .0208834
1026.309 .0208825
1026.896 .0208817
1027.483 .0208809
1028.069 .0208800
1028.655 .0208793
1029.241 .0208792
1029.827 .0208798
1030.412 .0208811
1030.997 .0208834
1031.582 .0208869
1032.167 .0208913
1032.752 .0208965
1033.336 .0209017
1033.921 .0209067
1034.505 .0209114
1035.089 .0209161
1035.672 .0209198
1036.256 .0209230
1036.839 .0209262
1037.422 .0209293
1038.005 .0209330
1038.588 .0209377
1039.171 .0209426
1039.753 .0209480
1040.335 .0209542
1040.918 .0209603
1041.500 .0209664
1042.081 .0209726
1042.663 .0209788
1043.244 .0209857
1043.826 .0209930
1044.407 .0210006
1044.988 .0210087
1045.569 .0210185
1046.150 .0210286
1046.730 .0210391
1047.311 .0210504
1047.891 .0210623
1048.471 .0210746
1049.052 .0210874
1049.632 .0210998
1050.211 .0211114
1050.791 .0211218
1051.371 .0211308
1051.950 .0211392
1052.530 .0211476
1053.109 .0211561
1053.688 .0211654
1054.268 .0211763
1054.847 .0211880
1055.426 .0212001
1056.005 .0212131
1056.583 .0212258
1057.162 .0212368
1057.741 .0212470
1058.319 .0212558
1058.898 .0212640
1059.476 .0212729
1060.055 .0212824
1060.633 .0212929
1061.211 .0213053
1061.790 .0213186
1062.368 .0213323
1062.946 .0213467
1063.524 .0213610
1064.102 .0213742
1064.680 .0213877
1065.258 .0214003
1065.836 .0214120
1066.414 .0214250
1066.992 .0214390
1067.570 .0214531
1068.148 .0214679
1068.726 .0214837
1069.304 .0214993
1069.882 .0215149
1070.460 .0215306
1071.038 .0215456
1071.616 .0215601
1072.194 .0215739
1072.772 .0215866
1073.350 .0216013
1073.928 .0216173
1074.506 .0216344
1075.084 .0216531
1075.662 .0216742
1076.240 .0216960
1076.819 .0217174
1077.397 .0217379
1077.976 .0217570
1078.554 .0217722
1079.133 .0217842
1079.711 .0217934
1080.290 .0218015
1080.869 .0218091
1081.448 .0218180
1082.027 .0218280
1082.606 .0218404
1083.185 .0218534
1083.764 .0218672
1084.343 .0218807
1084.923 .0218945
1085.502 .0219067
1086.082 .0219172
1086.662 .0219290
1087.242 .0219415
1087.822 .0219555
1088.402 .0219742
1088.983 .0219964
1089.563 .0220222
1090.144 .0220498
1090.725 .0220798
1091.306 .0221101
1091.887 .0221404
1092.469 .0221689
1093.050 .0221934
1093.632 .0222148
1094.214 .0222316
1094.796 .0222425
1095.379 .0222498
1095.961 .0222552
1096.544 .0222584
1097.127 .0222615
1097.710 .0222666
1098.294 .0222745
1098.877 .0222863
1099.461 .0223032
1100.046 .0223234
1100.630 .0223445
1101.215 .0223674
1101.800 .0223883
1102.385 .0224059
1102.970 .0224214
1103.556 .0224329
1104.142 .0224418
1104.728 .0224502
1105.315 .0224589
1105.902 .0224659
1106.489 .0224755
1107.077 .0224893
1107.664 .0225034
1108.253 .0225171
1108.841 .0225300
1109.430 .0225402
1110.019 .0225479
1110.609 .0225526
1111.198 .0225513
1111.789 .0225478
1112.379 .0225449
1112.970 .0225418
1113.561 .0225407
1114.153 .0225459
1114.745 .0225583
1115.338 .0225760
1115.931 .0225994
1116.524 .0226243
1117.117 .0226465
1117.712 .0226653
1118.306 .0226789
1118.901 .0226845
1119.496 .0226807
1120.092 .0226716
1120.689 .0226588
1121.285 .0226448
1121.882 .0226320
1122.480 .0226207
1123.078 .0226149
1123.677 .0226188
1124.276 .0226281
1124.875 .0226412
1125.476 .0226584
1126.076 .0226806
1126.677 .0227003
1127.279 .0227180
1127.881 .0227343
1128.484 .0227456
1129.087 .0227546
1129.691 .0227637
1130.295 .0227731
1130.900 .0227862
1131.505 .0228049
1132.111 .0228273
1132.718 .0228532
1133.325 .0228823
1133.933 .0229053
1134.541 .0229264
1135.150 .0229463
1135.760 .0229628
1136.370 .0229747
1136.981 .0229874
1137.592 .0230035
1138.204 .0230265
1138.817 .0230584
1139.431 .0230919
1140.045 .0231354
1140.660 .0231795
1141.275 .0232167
1141.891 .0232395
1142.508 .0232482
1143.126 .0234584
1143.744 .0232747
1144.363 .0232433
1144.983 .0230380
