Measurement Sequence started on: 15-12-46-377
Integration time: 28
Scans to Average: 2 
>>>>>Begin Spectral Data<<<<<
432.689 .0000100
433.621 .0000100
434.552 .0000100
435.482 .0000100
436.410 .0000100
437.337 .0000100
438.262 .0000100
439.187 .0000100
440.110 .0000100
441.031 .0000100
441.952 .0000100
442.871 .1003713
443.789 .1038357
444.705 .1071575
445.621 .1083018
446.535 .1111561
447.447 .1139131
448.359 .1166013
449.269 .1192090
450.178 .1217302
451.086 .1241996
451.993 .1266202
452.898 .0973245
453.803 .0846235
454.706 .0769943
455.608 .0758019
456.508 .0707861
457.408 .0669546
458.306 .0639361
459.204 .0614043
460.100 .0593040
460.995 .0575032
461.888 .0559501
462.781 .0545779
463.673 .0533490
464.563 .0522392
465.452 .0512153
466.340 .0502891
467.228 .0494430
468.114 .0486783
468.999 .0479757
469.882 .0473411
470.765 .0467856
471.647 .0462713
472.528 .0458064
473.407 .0453816
474.286 .0450073
475.163 .0446565
476.040 .0443393
476.915 .0440455
477.790 .0437809
478.663 .0435467
479.535 .0433444
480.407 .0431764
481.277 .0430373
482.147 .0429350
483.015 .0428405
483.883 .0427673
484.749 .0427013
485.615 .0426598
486.479 .0426475
487.343 .0426473
488.206 .0426691
489.067 .0427065
489.928 .0427587
490.788 .0428302
491.647 .0429194
492.505 .0430216
493.362 .0431461
494.218 .0432795
495.073 .0434244
495.928 .0435979
496.781 .0437795
497.634 .0440011
498.486 .0442496
499.337 .0445303
500.187 .0448180
501.036 .0451243
501.884 .0454466
502.731 .0458133
503.578 .0462209
504.424 .0466762
505.268 .0471747
506.113 .0477250
506.956 .0483367
507.798 .0490048
508.640 .0497594
509.480 .0505982
510.320 .0515016
511.160 .0525064
511.998 .0536205
512.836 .0558192
513.672 .0573205
514.508 .0590115
515.344 .0609273
516.178 .0630633
517.012 .0654347
517.845 .0680733
518.677 .0709531
519.508 .0741904
520.339 .0776523
521.169 .0814176
521.998 .0853634
522.826 .0880030
523.654 .0921871
524.481 .0961973
525.307 .1001090
526.133 .1038485
526.958 .1073893
527.782 .1107196
528.605 .1136548
529.428 .1160933
530.250 .1181053
531.072 .1197136
531.892 .1209301
532.712 .1217520
533.532 .1221806
534.350 .1223242
535.168 .1220634
535.986 .1214127
536.802 .1204064
537.618 .1190086
538.434 .1172169
539.249 .1150549
540.063 .1124403
540.876 .1094910
541.689 .1061635
542.501 .1025565
543.313 .0986768
544.124 .0945245
544.934 .0904598
545.744 .0864015
546.553 .0824193
547.361 .0785341
548.169 .0747477
548.976 .0712480
549.783 .0681351
550.589 .0653468
551.395 .0628289
552.200 .0605705
553.004 .0585461
553.808 .0567308
554.611 .0550297
555.414 .0535137
556.216 .0521282
557.018 .0508572
557.819 .0496979
558.619 .0486304
559.419 .0476535
560.218 .0467568
561.017 .0459359
561.815 .0451562
562.613 .0444225
563.410 .0437225
564.207 .0430617
565.003 .0424328
565.799 .0418281
566.594 .0412434
567.388 .0406922
568.182 .0401817
568.976 .0396805
569.769 .0391945
570.562 .0387248
571.354 .0382778
572.145 .0378379
572.936 .0374160
573.727 .0370078
574.517 .0366177
575.307 .0362496
576.096 .0358946
576.885 .0355564
577.673 .0352323
578.461 .0349224
579.248 .0346245
580.035 .0343373
580.821 .0340682
581.607 .0338139
582.392 .0335751
583.177 .0333582
583.962 .0331553
584.746 .0329633
585.529 .0327864
586.313 .0326234
587.095 .0324680
587.878 .0323215
588.660 .0321807
589.441 .0320506
590.222 .0319300
591.003 .0318182
591.783 .0317144
592.563 .0316199
593.342 .0315352
594.121 .0314561
594.899 .0313823
595.678 .0313147
596.455 .0312505
597.233 .0311928
598.009 .0311385
598.786 .0310855
599.562 .0310351
600.338 .0309874
601.113 .0309416
601.888 .0309008
602.663 .0308616
603.437 .0308237
604.211 .0307872
604.984 .0307526
605.757 .0307190
606.530 .0306861
607.302 .0306522
608.074 .0306204
608.845 .0305738
609.616 .0305441
610.387 .0305142
611.158 .0304855
611.928 .0304579
612.697 .0304312
613.467 .0304058
614.236 .0303801
615.004 .0303541
615.773 .0303290
616.541 .0303044
617.308 .0302814
618.076 .0302583
618.843 .0302475
619.609 .0302253
620.375 .0302036
621.141 .0301823
621.907 .0301600
622.672 .0301371
623.437 .0301137
624.202 .0300909
624.966 .0300677
625.730 .0300444
626.493 .0300205
627.257 .0299979
628.020 .0299746
628.782 .0299512
629.545 .0299282
630.307 .0299048
631.068 .0298808
631.830 .0298571
632.591 .0298316
633.352 .0298056
634.112 .0297798
634.872 .0297550
635.632 .0297313
636.392 .0297067
637.151 .0296825
637.910 .0296574
638.668 .0296328
639.427 .0296090
640.185 .0295835
640.943 .0295591
641.700 .0295353
642.457 .0295117
643.214 .0294894
643.971 .0294681
644.727 .0294459
645.483 .0294244
646.239 .0294030
646.994 .0293825
647.750 .0293613
648.505 .0293406
649.259 .0293205
650.014 .0293001
650.768 .0292799
651.521 .0292596
652.275 .0292389
653.028 .0292195
653.781 .0291993
654.534 .0291787
655.286 .0291580
656.039 .0291358
656.791 .0291138
657.542 .0290926
658.294 .0290725
659.045 .0290528
659.796 .0290326
660.546 .0290136
661.297 .0289937
662.047 .0289736
662.796 .0289539
663.546 .0289341
664.295 .0289142
665.044 .0288951
665.793 .0288761
666.542 .0288581
667.290 .0288402
668.038 .0288227
668.786 .0288058
669.533 .0287893
670.281 .0287729
671.028 .0287557
671.774 .0287389
672.521 .0287223
673.267 .0287056
674.013 .0286899
674.759 .0286747
675.505 .0286595
676.250 .0286448
676.995 .0286308
677.740 .0286166
678.484 .0286017
679.229 .0285868
679.973 .0285721
680.717 .0285569
681.460 .0285417
682.204 .0285265
682.947 .0285110
683.690 .0284957
684.433 .0284798
685.175 .0284640
685.917 .0284482
686.659 .0284321
687.401 .0284159
688.142 .0283992
688.884 .0283827
689.625 .0283656
690.365 .0283485
691.106 .0283324
691.846 .0283159
692.586 .0282993
693.326 .0282828
694.066 .0282659
694.805 .0282482
695.545 .0282303
696.284 .0282130
697.022 .0281959
697.761 .0281787
698.499 .0281615
699.237 .0281444
699.975 .0281276
700.713 .0281112
701.450 .0280951
702.187 .0280790
702.924 .0280633
703.661 .0280474
704.397 .0280322
705.133 .0280171
705.869 .0280021
706.605 .0279872
707.341 .0279726
708.076 .0279587
708.811 .0279443
709.546 .0279300
710.281 .0279157
711.015 .0279010
711.749 .0278863
712.483 .0278712
713.217 .0278559
713.950 .0278406
714.684 .0278255
715.417 .0278103
716.150 .0277942
716.882 .0277778
717.615 .0277608
718.347 .0277437
719.079 .0277260
719.811 .0277080
720.542 .0276896
721.273 .0276711
722.005 .0276525
722.735 .0276330
723.466 .0276132
724.196 .0275930
724.927 .0275724
725.656 .0275514
726.386 .0275300
727.116 .0275082
727.845 .0274859
728.574 .0274640
729.303 .0274417
730.031 .0274194
730.760 .0273970
731.488 .0273753
732.216 .0273540
732.944 .0273327
733.671 .0273115
734.398 .0272902
735.125 .0272701
735.852 .0272504
736.579 .0272307
737.305 .0272121
738.031 .0271941
738.757 .0271763
739.483 .0271585
740.208 .0271407
740.933 .0271228
741.658 .0271051
742.383 .0270881
743.108 .0270714
743.832 .0270549
744.556 .0270387
745.280 .0270229
746.004 .0270072
746.727 .0269914
747.450 .0269754
748.173 .0269595
748.896 .0269440
749.618 .0269282
750.340 .0269124
751.062 .0268966
751.784 .0268811
752.506 .0268655
753.227 .0268495
753.948 .0268333
754.669 .0268161
755.389 .0267993
756.110 .0267820
756.830 .0267640
757.550 .0267455
758.269 .0267266
758.989 .0267078
759.708 .0266892
760.427 .0266703
761.146 .0266514
761.864 .0266322
762.582 .0266124
763.300 .0265924
764.018 .0265717
764.736 .0265513
765.453 .0265319
766.170 .0265129
766.887 .0264946
767.603 .0264759
768.320 .0264570
769.036 .0264302
769.751 .0264131
770.467 .0263966
771.182 .0263799
771.897 .0263634
772.612 .0263475
773.327 .0263323
774.041 .0263181
774.755 .0263044
775.469 .0262914
776.183 .0262792
776.896 .0262671
777.609 .0262557
778.322 .0262449
779.035 .0262416
779.747 .0262317
780.459 .0262225
781.171 .0262139
781.882 .0262059
782.594 .0261985
783.305 .0261917
784.016 .0261859
784.726 .0261805
785.436 .0261749
786.147 .0261692
786.856 .0261634
787.566 .0261581
788.275 .0261533
788.984 .0261487
789.693 .0261449
790.401 .0261401
791.110 .0261347
791.818 .0261294
792.525 .0261242
793.233 .0261192
793.940 .0261142
794.647 .0261083
795.353 .0261017
796.060 .0260947
796.766 .0260873
797.472 .0260796
798.177 .0260719
798.883 .0260637
799.588 .0260550
800.292 .0260457
800.997 .0260364
801.701 .0260269
802.405 .0260174
803.109 .0260079
803.812 .0259984
804.515 .0259888
805.218 .0259788
805.921 .0259681
806.623 .0259575
807.325 .0259471
808.027 .0259367
808.728 .0259261
809.429 .0259156
810.130 .0259048
810.831 .0258943
811.531 .0258838
812.231 .0258733
812.931 .0258626
813.630 .0258517
814.330 .0258404
815.029 .0258292
815.727 .0258183
816.426 .0258077
817.124 .0257972
817.821 .0257874
818.519 .0257775
819.216 .0257676
819.913 .0257577
820.609 .0257483
821.306 .0257392
822.002 .0257300
822.697 .0257211
823.393 .0257128
824.088 .0257047
824.783 .0256969
825.477 .0256892
826.171 .0256824
826.865 .0256759
827.559 .0256693
828.252 .0256625
828.945 .0256557
829.638 .0256489
830.330 .0256424
831.023 .0256366
831.714 .0256312
832.406 .0256259
833.097 .0256207
833.788 .0256160
834.479 .0256112
835.169 .0256061
835.859 .0256011
836.548 .0255956
837.238 .0255903
837.927 .0255845
838.615 .0255784
839.304 .0255724
839.992 .0255662
840.680 .0255595
841.367 .0255522
842.054 .0255442
842.741 .0255352
843.428 .0255253
844.114 .0255147
844.800 .0255035
845.485 .0254918
846.170 .0254794
846.855 .0254664
847.540 .0254528
848.224 .0254386
848.908 .0254240
849.592 .0254088
850.275 .0253927
850.958 .0253755
851.641 .0253573
852.323 .0253388
853.005 .0253198
853.687 .0253002
854.368 .0252804
855.049 .0252606
855.730 .0252402
856.410 .0252194
857.090 .0251978
857.769 .0251757
858.449 .0251536
859.128 .0251314
859.806 .0251091
860.485 .0250865
861.163 .0250640
861.840 .0250416
862.518 .0250196
863.195 .0249976
863.871 .0249754
864.548 .0249530
865.224 .0249309
865.899 .0249085
866.574 .0248860
867.249 .0248637
867.924 .0248418
868.598 .0248199
869.272 .0247984
869.946 .0247769
870.619 .0247556
871.292 .0247349
871.964 .0247143
872.636 .0246940
873.308 .0246741
873.979 .0246543
874.651 .0246353
875.321 .0246169
875.992 .0245994
876.662 .0245826
877.331 .0245667
878.001 .0245450
878.670 .0245301
879.338 .0245159
880.007 .0245023
880.675 .0244895
881.342 .0244771
882.009 .0244651
882.676 .0244533
883.343 .0244423
884.009 .0244316
884.675 .0244212
885.340 .0244116
886.005 .0244027
886.670 .0243939
887.334 .0243854
887.998 .0243817
888.662 .0243731
889.325 .0243649
889.988 .0243573
890.650 .0243495
891.312 .0243417
891.974 .0243334
892.636 .0243255
893.297 .0243170
893.957 .0243086
894.618 .0242998
895.278 .0242908
895.937 .0242813
896.596 .0242714
897.255 .0242608
897.914 .0242501
898.572 .0242392
899.230 .0242284
899.887 .0242174
900.544 .0242059
901.201 .0241937
901.857 .0241810
902.513 .0241680
903.168 .0241554
903.823 .0241419
904.478 .0241286
905.132 .0241148
905.786 .0241007
906.440 .0240862
907.093 .0240717
907.746 .0240569
908.399 .0240417
909.051 .0240266
909.703 .0240108
910.354 .0239945
911.005 .0239786
911.656 .0239625
912.306 .0239465
912.956 .0239305
913.605 .0239146
914.254 .0238983
914.903 .0238825
915.551 .0238663
916.199 .0238501
916.847 .0238340
917.494 .0238180
918.141 .0238016
918.788 .0237855
919.434 .0237696
920.079 .0237532
920.725 .0237369
921.370 .0237203
922.014 .0237037
922.658 .0236874
923.302 .0236709
923.946 .0236549
924.589 .0236389
925.231 .0236233
925.873 .0236078
926.515 .0235924
927.157 .0235771
927.798 .0235624
928.439 .0235486
929.079 .0235352
929.719 .0235221
930.359 .0235095
930.998 .0234974
931.637 .0234858
932.275 .0234752
932.913 .0234648
933.551 .0234549
934.188 .0234458
934.825 .0234372
935.462 .0234293
936.098 .0234217
936.733 .0234149
937.369 .0234087
938.004 .0234033
938.638 .0233980
939.273 .0233925
939.907 .0233877
940.540 .0233834
941.173 .0233803
941.806 .0233774
942.438 .0233746
943.070 .0233719
943.702 .0233695
944.333 .0233672
944.964 .0233651
945.594 .0233631
946.224 .0233613
946.854 .0233601
947.483 .0233590
948.112 .0233578
948.741 .0233568
949.369 .0233560
949.996 .0233562
950.624 .0233562
951.251 .0233559
951.878 .0233553
952.504 .0233552
953.130 .0233554
953.755 .0233555
954.380 .0233553
955.005 .0233554
955.629 .0233557
956.253 .0233559
956.877 .0233558
957.500 .0233554
958.123 .0233554
958.746 .0233561
959.368 .0233571
959.990 .0233580
960.611 .0233589
961.232 .0233596
961.853 .0233610
962.473 .0233628
963.093 .0233644
963.712 .0233660
964.331 .0233676
964.950 .0233694
965.569 .0233713
966.187 .0233737
966.804 .0233760
967.422 .0233780
968.039 .0233800
968.655 .0233821
969.272 .0233831
969.887 .0233837
970.503 .0233839
971.118 .0233837
971.733 .0233839
972.347 .0233834
972.961 .0233825
973.575 .0233815
974.188 .0233805
974.801 .0233798
975.414 .0233790
976.026 .0233785
976.638 .0233780
977.250 .0233775
977.861 .0233778
978.472 .0233779
979.083 .0233771
979.693 .0233764
980.303 .0233761
980.912 .0233757
981.521 .0233756
982.130 .0233757
982.738 .0233756
983.346 .0233758
983.954 .0233758
984.562 .0233756
985.169 .0233751
985.775 .0233748
986.382 .0233739
986.988 .0233727
987.594 .0233716
988.199 .0233702
988.804 .0233687
989.409 .0233683
990.013 .0233681
990.617 .0233680
991.221 .0233684
991.824 .0233688
992.427 .0233693
993.030 .0233702
993.632 .0233711
994.234 .0233718
994.836 .0233724
995.438 .0233729
996.039 .0233730
996.640 .0233731
997.240 .0233733
997.840 .0233727
998.440 .0233724
999.040 .0233726
999.639 .0233721
1000.238 .0233715
1000.836 .0233707
1001.435 .0233692
1002.033 .0233671
1002.630 .0233649
1003.228 .0233628
1003.825 .0233607
1004.422 .0233591
1005.018 .0233578
1005.614 .0233568
1006.210 .0233562
1006.806 .0233561
1007.401 .0233563
1007.996 .0233576
1008.591 .0233593
1009.186 .0233610
1009.780 .0233629
1010.374 .0233649
1010.967 .0233667
1011.561 .0233690
1012.154 .0233722
1012.746 .0233753
1013.339 .0233785
1013.931 .0233820
1014.523 .0233855
1015.115 .0233892
1015.706 .0233929
1016.298 .0233964
1016.888 .0234001
1017.479 .0234039
1018.069 .0234091
1018.660 .0234122
1019.250 .0234155
1019.839 .0234189
1020.429 .0234220
1021.018 .0234253
1021.607 .0234286
1022.195 .0234319
1022.784 .0234353
1023.372 .0234390
1023.960 .0234421
1024.547 .0234451
1025.135 .0234480
1025.722 .0234506
1026.309 .0234529
1026.896 .0234543
1027.483 .0234544
1028.069 .0234524
1028.655 .0234514
1029.241 .0234499
1029.827 .0234480
1030.412 .0234467
1030.997 .0234451
1031.582 .0234425
1032.167 .0234397
1032.752 .0234363
1033.336 .0234326
1033.921 .0234281
1034.505 .0234233
1035.089 .0234182
1035.672 .0234129
1036.256 .0234077
1036.839 .0234026
1037.422 .0233982
1038.005 .0233942
1038.588 .0233899
1039.171 .0233854
1039.753 .0233807
1040.335 .0233757
1040.918 .0233708
1041.500 .0233665
1042.081 .0233615
1042.663 .0233567
1043.244 .0233515
1043.826 .0233463
1044.407 .0233414
1044.988 .0233365
1045.569 .0233307
1046.150 .0233241
1046.730 .0233173
1047.311 .0233107
1047.891 .0233050
1048.471 .0233003
1049.052 .0232951
1049.632 .0232899
1050.211 .0232841
1050.791 .0232778
1051.371 .0232713
1051.950 .0232657
1052.530 .0232596
1053.109 .0232536
1053.688 .0232477
1054.268 .0232413
1054.847 .0232351
1055.426 .0232298
1056.005 .0232249
1056.583 .0232207
1057.162 .0232158
1057.741 .0232088
1058.319 .0232008
1058.898 .0231934
1059.476 .0231864
1060.055 .0231801
1060.633 .0231741
1061.211 .0231676
1061.790 .0231598
1062.368 .0231528
1062.946 .0231452
1063.524 .0231372
1064.102 .0231295
1064.680 .0231199
1065.258 .0231104
1065.836 .0231011
1066.414 .0230910
1066.992 .0230812
1067.570 .0230721
1068.148 .0230624
1068.726 .0230519
1069.304 .0230425
1069.882 .0230328
1070.460 .0230228
1071.038 .0230135
1071.616 .0230048
1072.194 .0229963
1072.772 .0229876
1073.350 .0229801
1073.928 .0229721
1074.506 .0229655
1075.084 .0229580
1075.662 .0229502
1076.240 .0229426
1076.819 .0229344
1077.397 .0229267
1077.976 .0229208
1078.554 .0229154
1079.133 .0229086
1079.711 .0229011
1080.290 .0228930
1080.869 .0228834
1081.448 .0228744
1082.027 .0228657
1082.606 .0228575
1083.185 .0228496
1083.764 .0228431
1084.343 .0228378
1084.923 .0228343
1085.502 .0228309
1086.082 .0228292
1086.662 .0228290
1087.242 .0228295
1087.822 .0228302
1088.402 .0228306
1088.983 .0228323
1089.563 .0228354
1090.144 .0228395
1090.725 .0228454
1091.306 .0228516
1091.887 .0228575
1092.469 .0228639
1093.050 .0228707
1093.632 .0228772
1094.214 .0228834
1094.796 .0228900
1095.379 .0228971
1095.961 .0229047
1096.544 .0229116
1097.127 .0229172
1097.710 .0229230
1098.294 .0229306
1098.877 .0229374
1099.461 .0229447
1100.046 .0229535
1100.630 .0229630
1101.215 .0229740
1101.800 .0229853
1102.385 .0229965
1102.970 .0230058
1103.556 .0230138
1104.142 .0230229
1104.728 .0230317
1105.315 .0230406
1105.902 .0230516
1106.489 .0230613
1107.077 .0230726
1107.664 .0230850
1108.253 .0230976
1108.841 .0231128
1109.430 .0231272
1110.019 .0231397
1110.609 .0231525
1111.198 .0231662
1111.789 .0231782
1112.379 .0231939
1112.970 .0232083
1113.561 .0232300
1114.153 .0232490
1114.745 .0232675
1115.338 .0232883
1115.931 .0233087
1116.524 .0233288
1117.117 .0233523
1117.712 .0233770
1118.306 .0233996
1118.901 .0234229
1119.496 .0234509
1120.092 .0234798
1120.689 .0235085
1121.285 .0235381
1121.882 .0235699
1122.480 .0236005
1123.078 .0236342
1123.677 .0236710
1124.276 .0237104
1124.875 .0237507
1125.476 .0237919
1126.076 .0238373
1126.677 .0238866
1127.279 .0239382
1127.881 .0239900
1128.484 .0240454
1129.087 .0241043
1129.691 .0241680
1130.295 .0242354
1130.900 .0243024
1131.505 .0243776
1132.111 .0244596
1132.718 .0245495
1133.325 .0246445
1133.933 .0247412
1134.541 .0248476
1135.150 .0245535
1135.760 .0246816
1136.370 .0248633
1136.981 .0250046
1137.592 .0250369
1138.204 .0252229
1138.817 .0253471
1139.431 .0255023
1140.045 .0256571
1140.660 .0256950
1141.275 .0259382
1141.891 .0262985
1142.508 .0265462
1143.126 .0268334
1143.744 .0268953
1144.363 .0272193
1144.983 .0274180
