Measurement Sequence started on: 15-12-46-377
Integration time: 28
Scans to Average: 2 
>>>>>Begin Spectral Data<<<<<
432.689 .0000100
433.621 .0000100
434.552 .0000100
435.482 .0000100
436.410 .0000100
437.337 .0000100
438.262 .0000100
439.187 .0000100
440.110 .0000100
441.031 .0000100
441.952 .0000100
442.871 .0875398
443.789 .0905515
444.705 .0933982
445.621 .0943308
446.535 .0967803
447.447 .0991515
448.359 .1014715
449.269 .1037228
450.178 .1059129
451.086 .1080631
451.993 .1101758
452.898 .0843794
453.803 .0733506
454.706 .0666915
455.608 .0656797
456.508 .0613680
457.408 .0580670
458.306 .0554828
459.204 .0533318
460.100 .0515467
460.995 .0500222
461.888 .0486733
462.781 .0475005
463.673 .0464575
464.563 .0455551
465.452 .0447254
466.340 .0439762
467.228 .0433018
468.114 .0426926
468.999 .0421290
469.882 .0416293
470.765 .0411867
471.647 .0407810
472.528 .0404105
473.407 .0400526
474.286 .0397352
475.163 .0394485
476.040 .0391944
476.915 .0389711
477.790 .0387707
478.663 .0385881
479.535 .0384207
480.407 .0382797
481.277 .0381639
482.147 .0380735
483.015 .0379985
483.883 .0379395
484.749 .0378921
485.615 .0378584
486.479 .0378418
487.343 .0378410
488.206 .0378616
489.067 .0378893
489.928 .0379178
490.788 .0379610
491.647 .0380175
492.505 .0380924
493.362 .0381866
494.218 .0382966
495.073 .0384151
495.928 .0385363
496.781 .0386697
497.634 .0388195
498.486 .0389836
499.337 .0391634
500.187 .0393533
501.036 .0395606
501.884 .0397856
502.731 .0400444
503.578 .0403375
504.424 .0406858
505.268 .0410532
506.113 .0414605
506.956 .0418930
507.798 .0423625
508.640 .0428885
509.480 .0434938
510.320 .0441686
511.160 .0449385
511.998 .0458074
512.836 .0475879
513.672 .0488009
514.508 .0501617
515.344 .0517000
516.178 .0534208
517.012 .0553445
517.845 .0574823
518.677 .0598568
519.508 .0625317
520.339 .0655040
521.169 .0687951
521.998 .0723466
522.826 .0747353
523.654 .0784723
524.481 .0820130
525.307 .0854854
526.133 .0888357
526.958 .0919801
527.782 .0949452
528.605 .0975895
529.428 .0998363
530.250 .1016850
531.072 .1031575
531.892 .1042977
532.712 .1051020
533.532 .1055416
534.350 .1057054
535.168 .1055482
535.986 .1050317
536.802 .1042314
537.618 .1030915
538.434 .1016453
539.249 .0998840
540.063 .0977509
540.876 .0952462
541.689 .0923507
542.501 .0891130
543.313 .0857150
544.124 .0820360
544.934 .0784738
545.744 .0749085
546.553 .0713941
547.361 .0680245
548.169 .0647578
548.976 .0617345
549.783 .0590294
550.589 .0566193
551.395 .0544653
552.200 .0525168
553.004 .0507564
553.808 .0492059
554.611 .0477830
555.414 .0465137
556.216 .0454097
557.018 .0443834
557.819 .0434710
558.619 .0426258
559.419 .0418367
560.218 .0411037
561.017 .0404274
561.815 .0397941
562.613 .0392010
563.410 .0386324
564.207 .0380909
565.003 .0375708
565.799 .0370829
566.594 .0366126
567.388 .0361676
568.182 .0357419
568.976 .0353299
569.769 .0349122
570.562 .0345105
571.354 .0341233
572.145 .0337499
572.936 .0334032
573.727 .0330660
574.517 .0327386
575.307 .0324236
576.096 .0321269
576.885 .0318437
577.673 .0315750
578.461 .0313223
579.248 .0310815
580.035 .0308543
580.821 .0306351
581.607 .0304313
582.392 .0302436
583.177 .0300702
583.962 .0299093
584.746 .0297511
585.529 .0296048
586.313 .0294660
587.095 .0293369
587.878 .0292180
588.660 .0291060
589.441 .0290036
590.222 .0289118
591.003 .0288256
591.783 .0287423
592.563 .0286660
593.342 .0285968
594.121 .0285317
594.899 .0284712
595.678 .0284116
596.455 .0283562
597.233 .0283024
598.009 .0282531
598.786 .0282047
599.562 .0281587
600.338 .0281140
601.113 .0280716
601.888 .0280322
602.663 .0279929
603.437 .0279527
604.211 .0279150
604.984 .0278803
605.757 .0278471
606.530 .0278146
607.302 .0277842
608.074 .0277550
608.845 .0277202
609.616 .0276961
610.387 .0276740
611.158 .0276547
611.928 .0276378
612.697 .0276223
613.467 .0276091
614.236 .0275970
615.004 .0275861
615.773 .0275775
616.541 .0275705
617.308 .0275647
618.076 .0275599
618.843 .0275601
619.609 .0275560
620.375 .0275533
621.141 .0275507
621.907 .0275488
622.672 .0275457
623.437 .0275445
624.202 .0275433
624.966 .0275405
625.730 .0275371
626.493 .0275330
627.257 .0275290
628.020 .0275250
628.782 .0275211
629.545 .0275172
630.307 .0275115
631.068 .0275053
631.830 .0274977
632.591 .0274891
633.352 .0274801
634.112 .0274720
634.872 .0274637
635.632 .0274560
636.392 .0274467
637.151 .0274372
637.910 .0274275
638.668 .0274180
639.427 .0274084
640.185 .0273993
640.943 .0273898
641.700 .0273807
642.457 .0273704
643.214 .0273615
643.971 .0273516
644.727 .0273411
645.483 .0273315
646.239 .0273216
646.994 .0273109
647.750 .0272996
648.505 .0272874
649.259 .0272746
650.014 .0272609
650.768 .0272476
651.521 .0272334
652.275 .0272196
653.028 .0272048
653.781 .0271887
654.534 .0271703
655.286 .0271523
656.039 .0271325
656.791 .0271129
657.542 .0270935
658.294 .0270739
659.045 .0270535
659.796 .0270333
660.546 .0270127
661.297 .0269917
662.047 .0269705
662.796 .0269501
663.546 .0269290
664.295 .0269084
665.044 .0268888
665.793 .0268688
666.542 .0268500
667.290 .0268332
668.038 .0268164
668.786 .0268008
669.533 .0267859
670.281 .0267712
671.028 .0267566
671.774 .0267427
672.521 .0267288
673.267 .0267163
674.013 .0267050
674.759 .0266953
675.505 .0266858
676.250 .0266778
676.995 .0266708
677.740 .0266634
678.484 .0266565
679.229 .0266505
679.973 .0266440
680.717 .0266380
681.460 .0266329
682.204 .0266282
682.947 .0266246
683.690 .0266215
684.433 .0266192
685.175 .0266168
685.917 .0266145
686.659 .0266121
687.401 .0266092
688.142 .0266068
688.884 .0266041
689.625 .0266015
690.365 .0265994
691.106 .0265978
691.846 .0265959
692.586 .0265945
693.326 .0265926
694.066 .0265903
694.805 .0265874
695.545 .0265838
696.284 .0265796
697.022 .0265747
697.761 .0265700
698.499 .0265650
699.237 .0265591
699.975 .0265524
700.713 .0265449
701.450 .0265362
702.187 .0265269
702.924 .0265155
703.661 .0265032
704.397 .0264893
705.133 .0264743
705.869 .0264589
706.605 .0264424
707.341 .0264252
708.076 .0264071
708.811 .0263876
709.546 .0263675
710.281 .0263467
711.015 .0263250
711.749 .0263032
712.483 .0262808
713.217 .0262581
713.950 .0262346
714.684 .0262101
715.417 .0261852
716.150 .0261601
716.882 .0261347
717.615 .0261088
718.347 .0260824
719.079 .0260555
719.811 .0260289
720.542 .0260022
721.273 .0259759
722.005 .0259492
722.735 .0259225
723.466 .0258959
724.196 .0258692
724.927 .0258433
725.656 .0258168
726.386 .0257908
727.116 .0257654
727.845 .0257408
728.574 .0257171
729.303 .0256939
730.031 .0256712
730.760 .0256492
731.488 .0256281
732.216 .0256075
732.944 .0255877
733.671 .0255687
734.398 .0255515
735.125 .0255355
735.852 .0255201
736.579 .0255059
737.305 .0254923
738.031 .0254799
738.757 .0254688
739.483 .0254589
740.208 .0254499
740.933 .0254414
741.658 .0254340
742.383 .0254279
743.108 .0254223
743.832 .0254176
744.556 .0254135
745.280 .0254102
746.004 .0254080
746.727 .0254058
747.450 .0254036
748.173 .0254021
748.896 .0254012
749.618 .0254006
750.340 .0254002
751.062 .0253999
751.784 .0253993
752.506 .0253987
753.227 .0253984
753.948 .0253975
754.669 .0253961
755.389 .0253946
756.110 .0253925
756.830 .0253903
757.550 .0253876
758.269 .0253843
758.989 .0253803
759.708 .0253766
760.427 .0253724
761.146 .0253674
761.864 .0253618
762.582 .0253565
763.300 .0253507
764.018 .0253448
764.736 .0253386
765.453 .0253317
766.170 .0253248
766.887 .0253178
767.603 .0253103
768.320 .0253020
769.036 .0252876
769.751 .0252782
770.467 .0252679
771.182 .0252569
771.897 .0252450
772.612 .0252325
773.327 .0252196
774.041 .0252063
774.755 .0251921
775.469 .0251773
776.183 .0251619
776.896 .0251460
777.609 .0251299
778.322 .0251135
779.035 .0251037
779.747 .0250865
780.459 .0250685
781.171 .0250508
781.882 .0250326
782.594 .0250138
783.305 .0249948
784.016 .0249751
784.726 .0249556
785.436 .0249354
786.147 .0249146
786.856 .0248931
787.566 .0248711
788.275 .0248490
788.984 .0248262
789.693 .0248030
790.401 .0247784
791.110 .0247535
791.818 .0247287
792.525 .0247035
793.233 .0246775
793.940 .0246509
794.647 .0246240
795.353 .0245966
796.060 .0245694
796.766 .0245416
797.472 .0245135
798.177 .0244852
798.883 .0244562
799.588 .0244272
800.292 .0243979
800.997 .0243692
801.701 .0243401
802.405 .0243112
803.109 .0242823
803.812 .0242531
804.515 .0242245
805.218 .0241957
805.921 .0241673
806.623 .0241392
807.325 .0241113
808.027 .0240837
808.728 .0240566
809.429 .0240303
810.130 .0240044
810.831 .0239800
811.531 .0239560
812.231 .0239327
812.931 .0239102
813.630 .0238885
814.330 .0238678
815.029 .0238480
815.727 .0238294
816.426 .0238119
817.124 .0237960
817.821 .0237809
818.519 .0237670
819.216 .0237544
819.913 .0237428
820.609 .0237324
821.306 .0237227
822.002 .0237143
822.697 .0237065
823.393 .0237003
824.088 .0236953
824.783 .0236911
825.477 .0236885
826.171 .0236872
826.865 .0236874
827.559 .0236888
828.252 .0236913
828.945 .0236950
829.638 .0236998
830.330 .0237057
831.023 .0237123
831.714 .0237195
832.406 .0237275
833.097 .0237360
833.788 .0237456
834.479 .0237562
835.169 .0237672
835.859 .0237789
836.548 .0237908
837.238 .0238026
837.927 .0238147
838.615 .0238266
839.304 .0238386
839.992 .0238500
840.680 .0238610
841.367 .0238714
842.054 .0238812
842.741 .0238912
843.428 .0239005
844.114 .0239091
844.800 .0239174
845.485 .0239242
846.170 .0239302
846.855 .0239346
847.540 .0239382
848.224 .0239406
848.908 .0239416
849.592 .0239412
850.275 .0239398
850.958 .0239374
851.641 .0239345
852.323 .0239306
853.005 .0239257
853.687 .0239196
854.368 .0239122
855.049 .0239040
855.730 .0238950
856.410 .0238848
857.090 .0238740
857.769 .0238622
858.449 .0238503
859.128 .0238375
859.806 .0238239
860.485 .0238100
861.163 .0237958
861.840 .0237810
862.518 .0237652
863.195 .0237486
863.871 .0237316
864.548 .0237143
865.224 .0236966
865.899 .0236782
866.574 .0236597
867.249 .0236405
867.924 .0236213
868.598 .0236017
869.272 .0235816
869.946 .0235609
870.619 .0235399
871.292 .0235188
871.964 .0234974
872.636 .0234758
873.308 .0234540
873.979 .0234322
874.651 .0234101
875.321 .0233876
875.992 .0233650
876.662 .0233424
877.331 .0233199
878.001 .0232862
878.670 .0232631
879.338 .0232406
880.007 .0232182
880.675 .0231962
881.342 .0231745
882.009 .0231529
882.676 .0231315
883.343 .0231104
884.009 .0230891
884.675 .0230677
885.340 .0230470
886.005 .0230265
886.670 .0230064
887.334 .0229861
887.998 .0229769
888.662 .0229569
889.325 .0229376
889.988 .0229190
890.650 .0229002
891.312 .0228811
891.974 .0228622
892.636 .0228432
893.297 .0228244
893.957 .0228054
894.618 .0227866
895.278 .0227683
895.937 .0227495
896.596 .0227305
897.255 .0227113
897.914 .0226920
898.572 .0226731
899.230 .0226546
899.887 .0226361
900.544 .0226167
901.201 .0225968
901.857 .0225774
902.513 .0225580
903.168 .0225386
903.823 .0225190
904.478 .0224995
905.132 .0224804
905.786 .0224607
906.440 .0224409
907.093 .0224215
907.746 .0224024
908.399 .0223836
909.051 .0223649
909.703 .0223460
910.354 .0223267
911.005 .0223078
911.656 .0222895
912.306 .0222715
912.956 .0222542
913.605 .0222373
914.254 .0222210
914.903 .0222052
915.551 .0221893
916.199 .0221741
916.847 .0221597
917.494 .0221459
918.141 .0221323
918.788 .0221193
919.434 .0221070
920.079 .0220952
920.725 .0220849
921.370 .0220754
922.014 .0220663
922.658 .0220579
923.302 .0220509
923.946 .0220442
924.589 .0220381
925.231 .0220326
925.873 .0220283
926.515 .0220252
927.157 .0220227
927.798 .0220212
928.439 .0220205
929.079 .0220206
929.719 .0220216
930.359 .0220237
930.998 .0220266
931.637 .0220302
932.275 .0220347
932.913 .0220399
933.551 .0220459
934.188 .0220524
934.825 .0220596
935.462 .0220676
936.098 .0220764
936.733 .0220858
937.369 .0220958
938.004 .0221062
938.638 .0221169
939.273 .0221280
939.907 .0221394
940.540 .0221512
941.173 .0221635
941.806 .0221756
942.438 .0221878
943.070 .0221993
943.702 .0222114
944.333 .0222242
944.964 .0222367
945.594 .0222489
946.224 .0222609
946.854 .0222726
947.483 .0222841
948.112 .0222952
948.741 .0223063
949.369 .0223217
949.996 .0223325
950.624 .0223433
951.251 .0223535
951.878 .0223634
952.504 .0223730
953.130 .0223822
953.755 .0223912
954.380 .0223994
955.005 .0224074
955.629 .0224152
956.253 .0224224
956.877 .0224288
957.500 .0224344
958.123 .0224399
958.746 .0224450
959.368 .0224459
959.990 .0224501
960.611 .0224537
961.232 .0224566
961.853 .0224588
962.473 .0224608
963.093 .0224624
963.712 .0224636
964.331 .0224635
964.950 .0224632
965.569 .0224625
966.187 .0224613
966.804 .0224596
967.422 .0224572
968.039 .0224542
968.655 .0224504
969.272 .0224457
969.887 .0224403
970.503 .0224339
971.118 .0224268
971.733 .0224191
972.347 .0224110
972.961 .0224018
973.575 .0223913
974.188 .0223802
974.801 .0223687
975.414 .0223562
976.026 .0223429
976.638 .0223294
977.250 .0223158
977.861 .0223021
978.472 .0222880
979.083 .0222733
979.693 .0222582
980.303 .0222425
980.912 .0222268
981.521 .0222106
982.130 .0221941
982.738 .0221771
983.346 .0221599
983.954 .0221428
984.562 .0221251
985.169 .0221071
985.775 .0220889
986.382 .0220703
986.988 .0220509
987.594 .0220314
988.199 .0220116
988.804 .0219914
989.409 .0219709
990.013 .0219500
990.617 .0219294
991.221 .0219081
991.824 .0218869
992.427 .0218653
993.030 .0218442
993.632 .0218236
994.234 .0218027
994.836 .0217822
995.438 .0217617
996.039 .0217413
996.640 .0217206
997.240 .0217001
997.840 .0216792
998.440 .0216583
999.040 .0216376
999.639 .0216170
1000.238 .0215968
1000.836 .0215759
1001.435 .0215551
1002.033 .0215344
1002.630 .0215142
1003.228 .0214939
1003.825 .0214727
1004.422 .0214521
1005.018 .0214312
1005.614 .0214110
1006.210 .0213907
1006.806 .0213708
1007.401 .0213508
1007.996 .0213316
1008.591 .0213130
1009.186 .0212951
1009.780 .0212777
1010.374 .0212603
1010.967 .0212437
1011.561 .0212279
1012.154 .0212124
1012.746 .0211973
1013.339 .0211824
1013.931 .0211684
1014.523 .0211547
1015.115 .0211416
1015.706 .0211286
1016.298 .0211167
1016.888 .0211054
1017.479 .0210953
1018.069 .0210814
1018.660 .0210710
1019.250 .0210611
1019.839 .0210517
1020.429 .0210431
1021.018 .0210350
1021.607 .0210273
1022.195 .0210199
1022.784 .0210129
1023.372 .0210066
1023.960 .0210004
1024.547 .0209948
1025.135 .0209883
1025.722 .0209820
1026.309 .0209764
1026.896 .0209712
1027.483 .0209661
1028.069 .0209638
1028.655 .0209596
1029.241 .0209560
1029.827 .0209521
1030.412 .0209490
1030.997 .0209461
1031.582 .0209430
1032.167 .0209401
1032.752 .0209368
1033.336 .0209341
1033.921 .0209320
1034.505 .0209300
1035.089 .0209296
1035.672 .0209296
1036.256 .0209291
1036.839 .0209285
1037.422 .0209288
1038.005 .0209301
1038.588 .0209319
1039.171 .0209338
1039.753 .0209367
1040.335 .0209394
1040.918 .0209424
1041.500 .0209462
1042.081 .0209502
1042.663 .0209557
1043.244 .0209619
1043.826 .0209685
1044.407 .0209758
1044.988 .0209832
1045.569 .0209924
1046.150 .0210027
1046.730 .0210135
1047.311 .0210243
1047.891 .0210349
1048.471 .0210461
1049.052 .0210580
1049.632 .0210700
1050.211 .0210831
1050.791 .0210963
1051.371 .0211106
1051.950 .0211257
1052.530 .0211406
1053.109 .0211565
1053.688 .0211731
1054.268 .0211900
1054.847 .0212074
1055.426 .0212242
1056.005 .0212419
1056.583 .0212606
1057.162 .0212798
1057.741 .0212985
1058.319 .0213171
1058.898 .0213353
1059.476 .0213542
1060.055 .0213726
1060.633 .0213919
1061.211 .0214108
1061.790 .0214296
1062.368 .0214491
1062.946 .0214675
1063.524 .0214854
1064.102 .0215033
1064.680 .0215215
1065.258 .0215401
1065.836 .0215576
1066.414 .0215746
1066.992 .0215916
1067.570 .0216092
1068.148 .0216272
1068.726 .0216452
1069.304 .0216631
1069.882 .0216804
1070.460 .0216974
1071.038 .0217143
1071.616 .0217305
1072.194 .0217460
1072.772 .0217621
1073.350 .0217782
1073.928 .0217932
1074.506 .0218071
1075.084 .0218203
1075.662 .0218328
1076.240 .0218452
1076.819 .0218570
1077.397 .0218693
1077.976 .0218821
1078.554 .0218950
1079.133 .0219092
1079.711 .0219238
1080.290 .0219392
1080.869 .0219552
1081.448 .0219719
1082.027 .0219892
1082.606 .0220049
1083.185 .0220216
1083.764 .0220397
1084.343 .0220585
1084.923 .0220786
1085.502 .0220994
1086.082 .0221223
1086.662 .0221460
1087.242 .0221699
1087.822 .0221941
1088.402 .0222193
1088.983 .0222439
1089.563 .0222689
1090.144 .0222947
1090.725 .0223199
1091.306 .0223452
1091.887 .0223708
1092.469 .0223995
1093.050 .0224267
1093.632 .0224543
1094.214 .0224829
1094.796 .0225117
1095.379 .0225417
1095.961 .0225713
1096.544 .0226001
1097.127 .0226298
1097.710 .0226599
1098.294 .0226892
1098.877 .0227183
1099.461 .0227474
1100.046 .0227757
1100.630 .0228042
1101.215 .0228330
1101.800 .0228624
1102.385 .0228910
1102.970 .0229214
1103.556 .0229375
1104.142 .0229661
1104.728 .0229949
1105.315 .0230243
1105.902 .0230522
1106.489 .0230789
1107.077 .0231062
1107.664 .0231319
1108.253 .0231572
1108.841 .0231826
1109.430 .0232086
1110.019 .0232319
1110.609 .0232555
1111.198 .0232800
1111.789 .0233048
1112.379 .0233305
1112.970 .0233531
1113.561 .0233919
1114.153 .0234187
1114.745 .0234472
1115.338 .0234747
1115.931 .0235042
1116.524 .0235343
1117.117 .0235638
1117.712 .0235924
1118.306 .0236222
1118.901 .0236506
1119.496 .0236792
1120.092 .0237123
1120.689 .0237448
1121.285 .0237787
1121.882 .0238126
1122.480 .0238449
1123.078 .0238790
1123.677 .0239140
1124.276 .0239490
1124.875 .0239831
1125.476 .0240187
1126.076 .0240587
1126.677 .0240998
1127.279 .0241450
1127.881 .0241941
1128.484 .0242443
1129.087 .0242990
1129.691 .0243607
1130.295 .0244244
1130.900 .0244885
1131.505 .0245551
1132.111 .0246257
1132.718 .0247018
1133.325 .0247838
1133.933 .0248577
1134.541 .0249363
1135.150 .0246950
1135.760 .0248550
1136.370 .0249502
1136.981 .0250683
1137.592 .0251979
1138.204 .0252855
1138.817 .0254573
1139.431 .0256342
1140.045 .0257392
1140.660 .0257679
1141.275 .0258893
1141.891 .0260638
1142.508 .0262474
1143.126 .0265313
1143.744 .0263227
1144.363 .0265297
1144.983 .0270659
