Measurement Sequence started on: 15-12-46-377
Integration time: 28
Scans to Average: 2 
>>>>>Begin Spectral Data<<<<<
432.689 .0000100
433.621 .0000100
434.552 .0000100
435.482 .0000100
436.410 .0000100
437.337 .0000100
438.262 .0000100
439.187 .0000100
440.110 .0000100
441.031 .0000100
441.952 .0000100
442.871 .0746456
443.789 .0772985
444.705 .0798372
445.621 .0808055
446.535 .0829853
447.447 .0851085
448.359 .0871730
449.269 .0892075
450.178 .0911992
451.086 .0931553
451.993 .0950761
452.898 .0735021
453.803 .0642725
454.706 .0587696
455.608 .0579473
456.508 .0543481
457.408 .0516229
458.306 .0494817
459.204 .0477057
460.100 .0462628
460.995 .0450460
461.888 .0439632
462.781 .0430168
463.673 .0421718
464.563 .0414155
465.452 .0407240
466.340 .0400974
467.228 .0395325
468.114 .0390139
468.999 .0385418
469.882 .0380921
470.765 .0376794
471.647 .0372922
472.528 .0369390
473.407 .0366013
474.286 .0362946
475.163 .0360099
476.040 .0357467
476.915 .0355068
477.790 .0352916
478.663 .0350980
479.535 .0349219
480.407 .0347642
481.277 .0346290
482.147 .0345153
483.015 .0344187
483.883 .0343313
484.749 .0342664
485.615 .0342155
486.479 .0341877
487.343 .0341741
488.206 .0341818
489.067 .0342069
489.928 .0342478
490.788 .0342996
491.647 .0343673
492.505 .0344433
493.362 .0345436
494.218 .0346511
495.073 .0347681
495.928 .0348918
496.781 .0350269
497.634 .0351667
498.486 .0353359
499.337 .0355133
500.187 .0357053
501.036 .0359093
501.884 .0361277
502.731 .0363718
503.578 .0366592
504.424 .0369730
505.268 .0373142
506.113 .0376942
506.956 .0381157
507.798 .0385753
508.640 .0391034
509.480 .0396844
510.320 .0403435
511.160 .0410829
511.998 .0419320
512.836 .0436329
513.672 .0448068
514.508 .0461100
515.344 .0475664
516.178 .0491943
517.012 .0509880
517.845 .0529744
518.677 .0551806
519.508 .0576375
520.339 .0602940
521.169 .0631702
521.998 .0662676
522.826 .0683260
523.654 .0715308
524.481 .0745943
525.307 .0775166
526.133 .0803362
526.958 .0829793
527.782 .0854189
528.605 .0875733
529.428 .0894155
530.250 .0909458
531.072 .0921627
531.892 .0930763
532.712 .0937074
533.532 .0940177
534.350 .0940631
535.168 .0938339
535.986 .0933247
536.802 .0925456
537.618 .0914935
538.434 .0901619
539.249 .0885638
540.063 .0866332
540.876 .0844267
541.689 .0819391
542.501 .0791562
543.313 .0761701
544.124 .0729904
544.934 .0698824
545.744 .0668524
546.553 .0638544
547.361 .0609669
548.169 .0582095
548.976 .0556408
549.783 .0533031
550.589 .0511796
551.395 .0492686
552.200 .0475325
553.004 .0459484
553.808 .0445358
554.611 .0432507
555.414 .0420898
556.216 .0410448
557.018 .0400823
557.819 .0392129
558.619 .0383994
559.419 .0376238
560.218 .0369158
561.017 .0362614
561.815 .0356470
562.613 .0350787
563.410 .0345558
564.207 .0340848
565.003 .0336437
565.799 .0332298
566.594 .0328351
567.388 .0324576
568.182 .0320931
568.976 .0317480
569.769 .0314189
570.562 .0311025
571.354 .0308020
572.145 .0305167
572.936 .0302540
573.727 .0299991
574.517 .0297440
575.307 .0295036
576.096 .0292702
576.885 .0290437
577.673 .0288241
578.461 .0286184
579.248 .0284181
580.035 .0282226
580.821 .0280369
581.607 .0278625
582.392 .0276998
583.177 .0275498
583.962 .0274092
584.746 .0272755
585.529 .0271512
586.313 .0270352
587.095 .0269259
587.878 .0268279
588.660 .0267354
589.441 .0266490
590.222 .0265677
591.003 .0264902
591.783 .0264168
592.563 .0263526
593.342 .0262973
594.121 .0262473
594.899 .0262022
595.678 .0261587
596.455 .0261187
597.233 .0260810
598.009 .0260470
598.786 .0260153
599.562 .0259856
600.338 .0259586
601.113 .0259342
601.888 .0259122
602.663 .0258913
603.437 .0258720
604.211 .0258535
604.984 .0258371
605.757 .0258220
606.530 .0258079
607.302 .0257959
608.074 .0257851
608.845 .0257715
609.616 .0257633
610.387 .0257561
611.158 .0257501
611.928 .0257450
612.697 .0257404
613.467 .0257361
614.236 .0257307
615.004 .0257262
615.773 .0257223
616.541 .0257196
617.308 .0257172
618.076 .0257153
618.843 .0257139
619.609 .0257126
620.375 .0257112
621.141 .0257096
621.907 .0257064
622.672 .0257033
623.437 .0256996
624.202 .0256967
624.966 .0256933
625.730 .0256894
626.493 .0256848
627.257 .0256802
628.020 .0256754
628.782 .0256715
629.545 .0256671
630.307 .0256621
631.068 .0256565
631.830 .0256496
632.591 .0256419
633.352 .0256340
634.112 .0256264
634.872 .0256196
635.632 .0256124
636.392 .0256046
637.151 .0255955
637.910 .0255860
638.668 .0255768
639.427 .0255683
640.185 .0255590
640.943 .0255502
641.700 .0255404
642.457 .0255303
643.214 .0255205
643.971 .0255103
644.727 .0254997
645.483 .0254892
646.239 .0254784
646.994 .0254680
647.750 .0254567
648.505 .0254449
649.259 .0254328
650.014 .0254206
650.768 .0254090
651.521 .0253970
652.275 .0253842
653.028 .0253715
653.781 .0253582
654.534 .0253448
655.286 .0253323
656.039 .0253193
656.791 .0253067
657.542 .0252951
658.294 .0252843
659.045 .0252736
659.796 .0252621
660.546 .0252514
661.297 .0252409
662.047 .0252310
662.796 .0252218
663.546 .0252124
664.295 .0252037
665.044 .0251958
665.793 .0251879
666.542 .0251806
667.290 .0251738
668.038 .0251676
668.786 .0251623
669.533 .0251577
670.281 .0251533
671.028 .0251482
671.774 .0251437
672.521 .0251402
673.267 .0251374
674.013 .0251355
674.759 .0251340
675.505 .0251326
676.250 .0251314
676.995 .0251305
677.740 .0251297
678.484 .0251293
679.229 .0251282
679.973 .0251271
680.717 .0251254
681.460 .0251233
682.204 .0251208
682.947 .0251181
683.690 .0251155
684.433 .0251121
685.175 .0251081
685.917 .0251037
686.659 .0250989
687.401 .0250940
688.142 .0250884
688.884 .0250827
689.625 .0250767
690.365 .0250703
691.106 .0250637
691.846 .0250573
692.586 .0250509
693.326 .0250440
694.066 .0250362
694.805 .0250280
695.545 .0250191
696.284 .0250099
697.022 .0250005
697.761 .0249907
698.499 .0249800
699.237 .0249695
699.975 .0249584
700.713 .0249473
701.450 .0249358
702.187 .0249238
702.924 .0249119
703.661 .0248993
704.397 .0248872
705.133 .0248746
705.869 .0248617
706.605 .0248486
707.341 .0248349
708.076 .0248210
708.811 .0248064
709.546 .0247915
710.281 .0247771
711.015 .0247627
711.749 .0247473
712.483 .0247313
713.217 .0247147
713.950 .0246981
714.684 .0246813
715.417 .0246639
716.150 .0246466
716.882 .0246286
717.615 .0246106
718.347 .0245930
719.079 .0245748
719.811 .0245569
720.542 .0245391
721.273 .0245214
722.005 .0245040
722.735 .0244861
723.466 .0244684
724.196 .0244506
724.927 .0244332
725.656 .0244161
726.386 .0243989
727.116 .0243821
727.845 .0243659
728.574 .0243502
729.303 .0243348
730.031 .0243191
730.760 .0243033
731.488 .0242883
732.216 .0242742
732.944 .0242607
733.671 .0242480
734.398 .0242352
735.125 .0242233
735.852 .0242117
736.579 .0242010
737.305 .0241908
738.031 .0241809
738.757 .0241718
739.483 .0241628
740.208 .0241540
740.933 .0241449
741.658 .0241363
742.383 .0241281
743.108 .0241206
743.832 .0241134
744.556 .0241063
745.280 .0240997
746.004 .0240929
746.727 .0240864
747.450 .0240800
748.173 .0240737
748.896 .0240677
749.618 .0240618
750.340 .0240565
751.062 .0240509
751.784 .0240457
752.506 .0240403
753.227 .0240350
753.948 .0240300
754.669 .0240246
755.389 .0240191
756.110 .0240137
756.830 .0240080
757.550 .0240018
758.269 .0239954
758.989 .0239895
759.708 .0239834
760.427 .0239774
761.146 .0239711
761.864 .0239646
762.582 .0239575
763.300 .0239503
764.018 .0239422
764.736 .0239336
765.453 .0239248
766.170 .0239156
766.887 .0239063
767.603 .0238963
768.320 .0238856
769.036 .0238684
769.751 .0238572
770.467 .0238455
771.182 .0238327
771.897 .0238192
772.612 .0238048
773.327 .0237900
774.041 .0237747
774.755 .0237584
775.469 .0237419
776.183 .0237250
776.896 .0237081
777.609 .0236910
778.322 .0236730
779.035 .0236632
779.747 .0236448
780.459 .0236256
781.171 .0236058
781.882 .0235859
782.594 .0235660
783.305 .0235458
784.016 .0235260
784.726 .0235061
785.436 .0234860
786.147 .0234657
786.856 .0234453
787.566 .0234246
788.275 .0234035
788.984 .0233817
789.693 .0233594
790.401 .0233366
791.110 .0233140
791.818 .0232912
792.525 .0232686
793.233 .0232461
793.940 .0232236
794.647 .0232010
795.353 .0231784
796.060 .0231554
796.766 .0231324
797.472 .0231092
798.177 .0230855
798.883 .0230619
799.588 .0230388
800.292 .0230160
800.997 .0229940
801.701 .0229728
802.405 .0229521
803.109 .0229312
803.812 .0229112
804.515 .0228915
805.218 .0228721
805.921 .0228532
806.623 .0228343
807.325 .0228158
808.027 .0227978
808.728 .0227806
809.429 .0227638
810.130 .0227477
810.831 .0227323
811.531 .0227171
812.231 .0227024
812.931 .0226880
813.630 .0226738
814.330 .0226596
815.029 .0226459
815.727 .0226323
816.426 .0226192
817.124 .0226066
817.821 .0225941
818.519 .0225824
819.216 .0225713
819.913 .0225603
820.609 .0225498
821.306 .0225396
822.002 .0225297
822.697 .0225200
823.393 .0225112
824.088 .0225024
824.783 .0224938
825.477 .0224856
826.171 .0224780
826.865 .0224711
827.559 .0224648
828.252 .0224586
828.945 .0224528
829.638 .0224476
830.330 .0224429
831.023 .0224386
831.714 .0224346
832.406 .0224310
833.097 .0224278
833.788 .0224256
834.479 .0224242
835.169 .0224229
835.859 .0224226
836.548 .0224227
837.238 .0224229
837.927 .0224234
838.615 .0224241
839.304 .0224248
839.992 .0224259
840.680 .0224268
841.367 .0224276
842.054 .0224281
842.741 .0224287
843.428 .0224290
844.114 .0224289
844.800 .0224284
845.485 .0224276
846.170 .0224261
846.855 .0224239
847.540 .0224211
848.224 .0224184
848.908 .0224153
849.592 .0224119
850.275 .0224078
850.958 .0224035
851.641 .0223990
852.323 .0223943
853.005 .0223890
853.687 .0223827
854.368 .0223758
855.049 .0223688
855.730 .0223614
856.410 .0223536
857.090 .0223452
857.769 .0223363
858.449 .0223272
859.128 .0223174
859.806 .0223071
860.485 .0222961
861.163 .0222847
861.840 .0222727
862.518 .0222596
863.195 .0222457
863.871 .0222312
864.548 .0222166
865.224 .0222021
865.899 .0221869
866.574 .0221712
867.249 .0221550
867.924 .0221380
868.598 .0221207
869.272 .0221030
869.946 .0220842
870.619 .0220653
871.292 .0220457
871.964 .0220255
872.636 .0220049
873.308 .0219841
873.979 .0219635
874.651 .0219425
875.321 .0219209
875.992 .0218987
876.662 .0218764
877.331 .0218544
878.001 .0218210
878.670 .0217987
879.338 .0217763
880.007 .0217538
880.675 .0217313
881.342 .0217092
882.009 .0216870
882.676 .0216647
883.343 .0216429
884.009 .0216209
884.675 .0215986
885.340 .0215761
886.005 .0215540
886.670 .0215318
887.334 .0215096
887.998 .0214988
888.662 .0214769
889.325 .0214550
889.988 .0214338
890.650 .0214126
891.312 .0213916
891.974 .0213709
892.636 .0213508
893.297 .0213313
893.957 .0213122
894.618 .0212929
895.278 .0212741
895.937 .0212556
896.596 .0212375
897.255 .0212197
897.914 .0212021
898.572 .0211851
899.230 .0211683
899.887 .0211516
900.544 .0211352
901.201 .0211185
901.857 .0211023
902.513 .0210866
903.168 .0210714
903.823 .0210562
904.478 .0210411
905.132 .0210265
905.786 .0210124
906.440 .0209986
907.093 .0209854
907.746 .0209731
908.399 .0209611
909.051 .0209496
909.703 .0209386
910.354 .0209279
911.005 .0209177
911.656 .0209082
912.306 .0208993
912.956 .0208907
913.605 .0208822
914.254 .0208739
914.903 .0208662
915.551 .0208587
916.199 .0208519
916.847 .0208456
917.494 .0208397
918.141 .0208340
918.788 .0208288
919.434 .0208241
920.079 .0208198
920.725 .0208160
921.370 .0208125
922.014 .0208097
922.658 .0208078
923.302 .0208066
923.946 .0208062
924.589 .0208063
925.231 .0208071
925.873 .0208087
926.515 .0208112
927.157 .0208142
927.798 .0208176
928.439 .0208214
929.079 .0208258
929.719 .0208305
930.359 .0208356
930.998 .0208409
931.637 .0208467
932.275 .0208526
932.913 .0208587
933.551 .0208645
934.188 .0208703
934.825 .0208763
935.462 .0208828
936.098 .0208893
936.733 .0208956
937.369 .0209015
938.004 .0209069
938.638 .0209121
939.273 .0209178
939.907 .0209234
940.540 .0209292
941.173 .0209352
941.806 .0209410
942.438 .0209459
943.070 .0209506
943.702 .0209549
944.333 .0209591
944.964 .0209632
945.594 .0209669
946.224 .0209697
946.854 .0209722
947.483 .0209739
948.112 .0209756
948.741 .0209771
949.369 .0209778
949.996 .0209784
950.624 .0209787
951.251 .0209785
951.878 .0209777
952.504 .0209768
953.130 .0209758
953.755 .0209746
954.380 .0209731
955.005 .0209708
955.629 .0209682
956.253 .0209651
956.877 .0209620
957.500 .0209591
958.123 .0209560
958.746 .0209521
959.368 .0209493
959.990 .0209451
960.611 .0209401
961.232 .0209348
961.853 .0209286
962.473 .0209228
963.093 .0209164
963.712 .0209097
964.331 .0209026
964.950 .0208948
965.569 .0208865
966.187 .0208780
966.804 .0208695
967.422 .0208608
968.039 .0208517
968.655 .0208418
969.272 .0208315
969.887 .0208210
970.503 .0208101
971.118 .0207987
971.733 .0207870
972.347 .0207757
972.961 .0207634
973.575 .0207507
974.188 .0207379
974.801 .0207249
975.414 .0207116
976.026 .0206986
976.638 .0206853
977.250 .0206717
977.861 .0206579
978.472 .0206433
979.083 .0206284
979.693 .0206129
980.303 .0205977
980.912 .0205820
981.521 .0205665
982.130 .0205507
982.738 .0205339
983.346 .0205172
983.954 .0205006
984.562 .0204838
985.169 .0204667
985.775 .0204501
986.382 .0204331
986.988 .0204156
987.594 .0203978
988.199 .0203798
988.804 .0203618
989.409 .0203439
990.013 .0203261
990.617 .0203081
991.221 .0202909
991.824 .0202737
992.427 .0202564
993.030 .0202394
993.632 .0202221
994.234 .0202049
994.836 .0201876
995.438 .0201708
996.039 .0201531
996.640 .0201355
997.240 .0201180
997.840 .0201006
998.440 .0200837
999.040 .0200672
999.639 .0200504
1000.238 .0200334
1000.836 .0200164
1001.435 .0199994
1002.033 .0199828
1002.630 .0199666
1003.228 .0199504
1003.825 .0199346
1004.422 .0199185
1005.018 .0199026
1005.614 .0198866
1006.210 .0198708
1006.806 .0198557
1007.401 .0198413
1007.996 .0198274
1008.591 .0198137
1009.186 .0197997
1009.780 .0197863
1010.374 .0197732
1010.967 .0197596
1011.561 .0197458
1012.154 .0197318
1012.746 .0197183
1013.339 .0197057
1013.931 .0196927
1014.523 .0196802
1015.115 .0196681
1015.706 .0196563
1016.298 .0196456
1016.888 .0196350
1017.479 .0196249
1018.069 .0196119
1018.660 .0196025
1019.250 .0195942
1019.839 .0195867
1020.429 .0195806
1021.018 .0195749
1021.607 .0195698
1022.195 .0195658
1022.784 .0195625
1023.372 .0195593
1023.960 .0195568
1024.547 .0195546
1025.135 .0195532
1025.722 .0195522
1026.309 .0195515
1026.896 .0195507
1027.483 .0195496
1028.069 .0195504
1028.655 .0195502
1029.241 .0195505
1029.827 .0195507
1030.412 .0195514
1030.997 .0195522
1031.582 .0195536
1032.167 .0195548
1032.752 .0195560
1033.336 .0195578
1033.921 .0195606
1034.505 .0195637
1035.089 .0195669
1035.672 .0195707
1036.256 .0195745
1036.839 .0195783
1037.422 .0195828
1038.005 .0195880
1038.588 .0195933
1039.171 .0195988
1039.753 .0196045
1040.335 .0196106
1040.918 .0196169
1041.500 .0196239
1042.081 .0196318
1042.663 .0196396
1043.244 .0196474
1043.826 .0196558
1044.407 .0196649
1044.988 .0196752
1045.569 .0196860
1046.150 .0196971
1046.730 .0197090
1047.311 .0197219
1047.891 .0197361
1048.471 .0197505
1049.052 .0197658
1049.632 .0197829
1050.211 .0198005
1050.791 .0198184
1051.371 .0198369
1051.950 .0198563
1052.530 .0198772
1053.109 .0198988
1053.688 .0199206
1054.268 .0199429
1054.847 .0199653
1055.426 .0199878
1056.005 .0200111
1056.583 .0200342
1057.162 .0200581
1057.741 .0200807
1058.319 .0201035
1058.898 .0201261
1059.476 .0201479
1060.055 .0201703
1060.633 .0201928
1061.211 .0202144
1061.790 .0202351
1062.368 .0202549
1062.946 .0202745
1063.524 .0202941
1064.102 .0203124
1064.680 .0203302
1065.258 .0203473
1065.836 .0203632
1066.414 .0203805
1066.992 .0203973
1067.570 .0204138
1068.148 .0204298
1068.726 .0204456
1069.304 .0204606
1069.882 .0204738
1070.460 .0204874
1071.038 .0205013
1071.616 .0205155
1072.194 .0205298
1072.772 .0205436
1073.350 .0205567
1073.928 .0205693
1074.506 .0205821
1075.084 .0205952
1075.662 .0206088
1076.240 .0206212
1076.819 .0206335
1077.397 .0206462
1077.976 .0206603
1078.554 .0206744
1079.133 .0206883
1079.711 .0207037
1080.290 .0207179
1080.869 .0207321
1081.448 .0207472
1082.027 .0207628
1082.606 .0207782
1083.185 .0207938
1083.764 .0208118
1084.343 .0208296
1084.923 .0208482
1085.502 .0208676
1086.082 .0208888
1086.662 .0209091
1087.242 .0209289
1087.822 .0209481
1088.402 .0209673
1088.983 .0209873
1089.563 .0210073
1090.144 .0210281
1090.725 .0210478
1091.306 .0210670
1091.887 .0210847
1092.469 .0211019
1093.050 .0211187
1093.632 .0211336
1094.214 .0211491
1094.796 .0211629
1095.379 .0211756
1095.961 .0211866
1096.544 .0211971
1097.127 .0212078
1097.710 .0212173
1098.294 .0212262
1098.877 .0212341
1099.461 .0212418
1100.046 .0212475
1100.630 .0212553
1101.215 .0212618
1101.800 .0212684
1102.385 .0212762
1102.970 .0212834
1103.556 .0212895
1104.142 .0212959
1104.728 .0213025
1105.315 .0213091
1105.902 .0213145
1106.489 .0213187
1107.077 .0213240
1107.664 .0213309
1108.253 .0213400
1108.841 .0213483
1109.430 .0213573
1110.019 .0213671
1110.609 .0213790
1111.198 .0213905
1111.789 .0214038
1112.379 .0214201
1112.970 .0214366
1113.561 .0214605
1114.153 .0214846
1114.745 .0215137
1115.338 .0215433
1115.931 .0215766
1116.524 .0216121
1117.117 .0216487
1117.712 .0216844
1118.306 .0217212
1118.901 .0217609
1119.496 .0218019
1120.092 .0218429
1120.689 .0218835
1121.285 .0219253
1121.882 .0219671
1122.480 .0220084
1123.078 .0220521
1123.677 .0220957
1124.276 .0221395
1124.875 .0221802
1125.476 .0222246
1126.076 .0222688
1126.677 .0223141
1127.279 .0223615
1127.881 .0224075
1128.484 .0224568
1129.087 .0225088
1129.691 .0225599
1130.295 .0226157
1130.900 .0226723
1131.505 .0227324
1132.111 .0227920
1132.718 .0228546
1133.325 .0229193
1133.933 .0229845
1134.541 .0230535
1135.150 .0228521
1135.760 .0228709
1136.370 .0229563
1136.981 .0230994
1137.592 .0231182
1138.204 .0232117
1138.817 .0233594
1139.431 .0233780
1140.045 .0236314
1140.660 .0236330
1141.275 .0238234
1141.891 .0238856
1142.508 .0240111
1143.126 .0241840
1143.744 .0242868
1144.363 .0245592
1144.983 .0240480
