Measurement Sequence started on: 15-12-46-377
Integration time: 28
Scans to Average: 2 
>>>>>Begin Spectral Data<<<<<
432.689 .0000100
433.621 .0000100
434.552 .0000100
435.482 .0000100
436.410 .0000100
437.337 .0000100
438.262 .0000100
439.187 .0000100
440.110 .0000100
441.031 .0000100
441.952 .0000100
442.871 .0712384
443.789 .0737864
444.705 .0762195
445.621 .0771998
446.535 .0793037
447.447 .0813501
448.359 .0833362
449.269 .0852723
450.178 .0871608
451.086 .0890229
451.993 .0908372
452.898 .0704630
453.803 .0615939
454.706 .0563210
455.608 .0554863
456.508 .0520235
457.408 .0493431
458.306 .0472486
459.204 .0455016
460.100 .0440132
460.995 .0427385
461.888 .0416208
462.781 .0406220
463.673 .0397390
464.563 .0389437
465.452 .0381965
466.340 .0375057
467.228 .0368826
468.114 .0363011
468.999 .0357715
469.882 .0352878
470.765 .0348448
471.647 .0344196
472.528 .0340445
473.407 .0336861
474.286 .0333697
475.163 .0330810
476.040 .0328206
476.915 .0325880
477.790 .0323813
478.663 .0321944
479.535 .0320265
480.407 .0318808
481.277 .0317540
482.147 .0316498
483.015 .0315679
483.883 .0314895
484.749 .0314269
485.615 .0313816
486.479 .0313623
487.343 .0313468
488.206 .0313495
489.067 .0313601
489.928 .0313846
490.788 .0314238
491.647 .0314711
492.505 .0315278
493.362 .0315927
494.218 .0316688
495.073 .0317641
495.928 .0318639
496.781 .0319781
497.634 .0321071
498.486 .0322636
499.337 .0324336
500.187 .0326143
501.036 .0328080
501.884 .0330311
502.731 .0332746
503.578 .0335585
504.424 .0338702
505.268 .0342050
506.113 .0345834
506.956 .0350060
507.798 .0354691
508.640 .0359743
509.480 .0365113
510.320 .0371003
511.160 .0377525
511.998 .0384645
512.836 .0398360
513.672 .0408115
514.508 .0418832
515.344 .0430617
516.178 .0443420
517.012 .0457803
517.845 .0473695
518.677 .0491200
519.508 .0510664
520.339 .0531990
521.169 .0555294
521.998 .0581414
522.826 .0599131
523.654 .0626764
524.481 .0653426
525.307 .0679959
526.133 .0705303
526.958 .0729244
527.782 .0751761
528.605 .0772011
529.428 .0789725
530.250 .0804251
531.072 .0815795
531.892 .0824516
532.712 .0830760
533.532 .0834249
534.350 .0835329
535.168 .0833883
535.986 .0829803
536.802 .0823843
537.618 .0815331
538.434 .0804402
539.249 .0791041
540.063 .0775191
540.876 .0756795
541.689 .0735659
542.501 .0711157
543.313 .0685201
544.124 .0657126
544.934 .0629502
545.744 .0601580
546.553 .0574189
547.361 .0547563
548.169 .0521648
548.976 .0497528
549.783 .0475462
550.589 .0455889
551.395 .0438603
552.200 .0423273
553.004 .0409483
553.808 .0397339
554.611 .0386274
555.414 .0376507
556.216 .0368144
557.018 .0360345
557.819 .0353387
558.619 .0346956
559.419 .0341141
560.218 .0335685
561.017 .0330677
561.815 .0326099
562.613 .0321744
563.410 .0317646
564.207 .0313719
565.003 .0309971
565.799 .0306257
566.594 .0302632
567.388 .0299143
568.182 .0295843
568.976 .0292501
569.769 .0289182
570.562 .0285906
571.354 .0282673
572.145 .0279568
572.936 .0276599
573.727 .0273677
574.517 .0270795
575.307 .0268023
576.096 .0265388
576.885 .0262855
577.673 .0260379
578.461 .0258057
579.248 .0255842
580.035 .0253773
580.821 .0251806
581.607 .0249957
582.392 .0248277
583.177 .0246692
583.962 .0245215
584.746 .0243816
585.529 .0242531
586.313 .0241323
587.095 .0240238
587.878 .0239256
588.660 .0238368
589.441 .0237527
590.222 .0236769
591.003 .0236072
591.783 .0235425
592.563 .0234832
593.342 .0234303
594.121 .0233826
594.899 .0233397
595.678 .0233014
596.455 .0232675
597.233 .0232375
598.009 .0232120
598.786 .0231881
599.562 .0231650
600.338 .0231432
601.113 .0231231
601.888 .0231055
602.663 .0230912
603.437 .0230761
604.211 .0230628
604.984 .0230503
605.757 .0230388
606.530 .0230281
607.302 .0230172
608.074 .0230066
608.845 .0229878
609.616 .0229755
610.387 .0229641
611.158 .0229524
611.928 .0229412
612.697 .0229312
613.467 .0229215
614.236 .0229113
615.004 .0229000
615.773 .0228885
616.541 .0228779
617.308 .0228678
618.076 .0228573
618.843 .0228534
619.609 .0228443
620.375 .0228366
621.141 .0228296
621.907 .0228226
622.672 .0228144
623.437 .0228072
624.202 .0228001
624.966 .0227926
625.730 .0227861
626.493 .0227784
627.257 .0227721
628.020 .0227664
628.782 .0227624
629.545 .0227584
630.307 .0227540
631.068 .0227497
631.830 .0227458
632.591 .0227407
633.352 .0227354
634.112 .0227296
634.872 .0227242
635.632 .0227197
636.392 .0227146
637.151 .0227090
637.910 .0227028
638.668 .0226970
639.427 .0226908
640.185 .0226833
640.943 .0226754
641.700 .0226665
642.457 .0226570
643.214 .0226492
643.971 .0226410
644.727 .0226324
645.483 .0226238
646.239 .0226142
646.994 .0226054
647.750 .0225952
648.505 .0225846
649.259 .0225735
650.014 .0225626
650.768 .0225521
651.521 .0225410
652.275 .0225307
653.028 .0225210
653.781 .0225101
654.534 .0224988
655.286 .0224879
656.039 .0224754
656.791 .0224630
657.542 .0224509
658.294 .0224393
659.045 .0224279
659.796 .0224166
660.546 .0224062
661.297 .0223958
662.047 .0223860
662.796 .0223771
663.546 .0223676
664.295 .0223583
665.044 .0223492
665.793 .0223403
666.542 .0223322
667.290 .0223248
668.038 .0223177
668.786 .0223111
669.533 .0223046
670.281 .0222979
671.028 .0222907
671.774 .0222835
672.521 .0222760
673.267 .0222687
674.013 .0222621
674.759 .0222561
675.505 .0222497
676.250 .0222438
676.995 .0222385
677.740 .0222328
678.484 .0222264
679.229 .0222203
679.973 .0222141
680.717 .0222079
681.460 .0222020
682.204 .0221960
682.947 .0221895
683.690 .0221827
684.433 .0221760
685.175 .0221694
685.917 .0221629
686.659 .0221563
687.401 .0221490
688.142 .0221416
688.884 .0221344
689.625 .0221264
690.365 .0221186
691.106 .0221113
691.846 .0221036
692.586 .0220956
693.326 .0220869
694.066 .0220776
694.805 .0220677
695.545 .0220581
696.284 .0220487
697.022 .0220388
697.761 .0220290
698.499 .0220190
699.237 .0220083
699.975 .0219973
700.713 .0219859
701.450 .0219736
702.187 .0219615
702.924 .0219495
703.661 .0219368
704.397 .0219241
705.133 .0219107
705.869 .0218971
706.605 .0218833
707.341 .0218694
708.076 .0218555
708.811 .0218413
709.546 .0218277
710.281 .0218142
711.015 .0218002
711.749 .0217865
712.483 .0217728
713.217 .0217592
713.950 .0217460
714.684 .0217328
715.417 .0217192
716.150 .0217053
716.882 .0216914
717.615 .0216779
718.347 .0216644
719.079 .0216506
719.811 .0216369
720.542 .0216230
721.273 .0216094
722.005 .0215947
722.735 .0215796
723.466 .0215646
724.196 .0215493
724.927 .0215346
725.656 .0215192
726.386 .0215036
727.116 .0214879
727.845 .0214717
728.574 .0214559
729.303 .0214396
730.031 .0214232
730.760 .0214069
731.488 .0213910
732.216 .0213756
732.944 .0213603
733.671 .0213451
734.398 .0213304
735.125 .0213159
735.852 .0213019
736.579 .0212882
737.305 .0212739
738.031 .0212603
738.757 .0212470
739.483 .0212340
740.208 .0212211
740.933 .0212081
741.658 .0211958
742.383 .0211835
743.108 .0211718
743.832 .0211602
744.556 .0211482
745.280 .0211368
746.004 .0211255
746.727 .0211145
747.450 .0211037
748.173 .0210928
748.896 .0210819
749.618 .0210714
750.340 .0210614
751.062 .0210512
751.784 .0210407
752.506 .0210306
753.227 .0210209
753.948 .0210106
754.669 .0210006
755.389 .0209901
756.110 .0209793
756.830 .0209690
757.550 .0209582
758.269 .0209476
758.989 .0209368
759.708 .0209263
760.427 .0209158
761.146 .0209053
761.864 .0208949
762.582 .0208835
763.300 .0208724
764.018 .0208614
764.736 .0208500
765.453 .0208385
766.170 .0208271
766.887 .0208157
767.603 .0208044
768.320 .0207932
769.036 .0207746
769.751 .0207623
770.467 .0207495
771.182 .0207362
771.897 .0207223
772.612 .0207076
773.327 .0206928
774.041 .0206777
774.755 .0206628
775.469 .0206476
776.183 .0206320
776.896 .0206168
777.609 .0206013
778.322 .0205856
779.035 .0205775
779.747 .0205613
780.459 .0205451
781.171 .0205287
781.882 .0205120
782.594 .0204957
783.305 .0204789
784.016 .0204620
784.726 .0204451
785.436 .0204284
786.147 .0204115
786.856 .0203944
787.566 .0203771
788.275 .0203595
788.984 .0203420
789.693 .0203244
790.401 .0203064
791.110 .0202884
791.818 .0202708
792.525 .0202533
793.233 .0202361
793.940 .0202188
794.647 .0202010
795.353 .0201833
796.060 .0201656
796.766 .0201480
797.472 .0201300
798.177 .0201116
798.883 .0200929
799.588 .0200739
800.292 .0200553
800.997 .0200367
801.701 .0200180
802.405 .0199995
803.109 .0199805
803.812 .0199617
804.515 .0199427
805.218 .0199236
805.921 .0199047
806.623 .0198857
807.325 .0198670
808.027 .0198482
808.728 .0198296
809.429 .0198111
810.130 .0197928
810.831 .0197748
811.531 .0197569
812.231 .0197387
812.931 .0197204
813.630 .0197018
814.330 .0196832
815.029 .0196649
815.727 .0196464
816.426 .0196278
817.124 .0196088
817.821 .0195899
818.519 .0195710
819.216 .0195524
819.913 .0195338
820.609 .0195149
821.306 .0194965
822.002 .0194780
822.697 .0194593
823.393 .0194410
824.088 .0194230
824.783 .0194055
825.477 .0193884
826.171 .0193719
826.865 .0193554
827.559 .0193391
828.252 .0193232
828.945 .0193077
829.638 .0192928
830.330 .0192783
831.023 .0192644
831.714 .0192509
832.406 .0192380
833.097 .0192250
833.788 .0192125
834.479 .0192009
835.169 .0191896
835.859 .0191787
836.548 .0191680
837.238 .0191580
837.927 .0191481
838.615 .0191387
839.304 .0191295
839.992 .0191211
840.680 .0191129
841.367 .0191043
842.054 .0190958
842.741 .0190875
843.428 .0190796
844.114 .0190716
844.800 .0190633
845.485 .0190549
846.170 .0190463
846.855 .0190376
847.540 .0190291
848.224 .0190207
848.908 .0190120
849.592 .0190028
850.275 .0189934
850.958 .0189841
851.641 .0189745
852.323 .0189648
853.005 .0189554
853.687 .0189457
854.368 .0189361
855.049 .0189264
855.730 .0189168
856.410 .0189074
857.090 .0188978
857.769 .0188882
858.449 .0188788
859.128 .0188694
859.806 .0188597
860.485 .0188500
861.163 .0188406
861.840 .0188313
862.518 .0188217
863.195 .0188125
863.871 .0188031
864.548 .0187939
865.224 .0187850
865.899 .0187757
866.574 .0187662
867.249 .0187563
867.924 .0187465
868.598 .0187368
869.272 .0187271
869.946 .0187173
870.619 .0187068
871.292 .0186962
871.964 .0186856
872.636 .0186751
873.308 .0186647
873.979 .0186540
874.651 .0186430
875.321 .0186321
875.992 .0186210
876.662 .0186097
877.331 .0185985
878.001 .0185819
878.670 .0185708
879.338 .0185596
880.007 .0185483
880.675 .0185369
881.342 .0185255
882.009 .0185141
882.676 .0185024
883.343 .0184907
884.009 .0184788
884.675 .0184665
885.340 .0184545
886.005 .0184424
886.670 .0184305
887.334 .0184184
887.998 .0184124
888.662 .0184001
889.325 .0183876
889.988 .0183752
890.650 .0183628
891.312 .0183504
891.974 .0183378
892.636 .0183249
893.297 .0183117
893.957 .0182981
894.618 .0182845
895.278 .0182702
895.937 .0182555
896.596 .0182405
897.255 .0182255
897.914 .0182097
898.572 .0181935
899.230 .0181770
899.887 .0181603
900.544 .0181435
901.201 .0181265
901.857 .0181098
902.513 .0180932
903.168 .0180768
903.823 .0180603
904.478 .0180440
905.132 .0180281
905.786 .0180115
906.440 .0179956
907.093 .0179798
907.746 .0179640
908.399 .0179484
909.051 .0179332
909.703 .0179184
910.354 .0179036
911.005 .0178887
911.656 .0178735
912.306 .0178584
912.956 .0178430
913.605 .0178279
914.254 .0178130
914.903 .0177983
915.551 .0177840
916.199 .0177699
916.847 .0177566
917.494 .0177433
918.141 .0177302
918.788 .0177175
919.434 .0177052
920.079 .0176928
920.725 .0176801
921.370 .0176675
922.014 .0176548
922.658 .0176423
923.302 .0176301
923.946 .0176180
924.589 .0176061
925.231 .0175939
925.873 .0175823
926.515 .0175703
927.157 .0175579
927.798 .0175457
928.439 .0175337
929.079 .0175218
929.719 .0175097
930.359 .0174979
930.998 .0174866
931.637 .0174761
932.275 .0174659
932.913 .0174562
933.551 .0174469
934.188 .0174377
934.825 .0174284
935.462 .0174189
936.098 .0174096
936.733 .0173999
937.369 .0173907
938.004 .0173818
938.638 .0173724
939.273 .0173631
939.907 .0173536
940.540 .0173448
941.173 .0173355
941.806 .0173258
942.438 .0173154
943.070 .0173048
943.702 .0172943
944.333 .0172831
944.964 .0172719
945.594 .0172608
946.224 .0172499
946.854 .0172392
947.483 .0172285
948.112 .0172179
948.741 .0172070
949.369 .0171909
949.996 .0171805
950.624 .0171702
951.251 .0171596
951.878 .0171491
952.504 .0171390
953.130 .0171291
953.755 .0171194
954.380 .0171103
955.005 .0171021
955.629 .0170942
956.253 .0170865
956.877 .0170791
957.500 .0170715
958.123 .0170645
958.746 .0170580
959.368 .0170570
959.990 .0170516
960.611 .0170462
961.232 .0170417
961.853 .0170377
962.473 .0170348
963.093 .0170325
963.712 .0170302
964.331 .0170288
964.950 .0170278
965.569 .0170267
966.187 .0170259
966.804 .0170254
967.422 .0170252
968.039 .0170248
968.655 .0170244
969.272 .0170242
969.887 .0170242
970.503 .0170243
971.118 .0170245
971.733 .0170248
972.347 .0170254
972.961 .0170258
973.575 .0170258
974.188 .0170265
974.801 .0170268
975.414 .0170270
976.026 .0170273
976.638 .0170277
977.250 .0170281
977.861 .0170287
978.472 .0170297
979.083 .0170305
979.693 .0170313
980.303 .0170322
980.912 .0170336
981.521 .0170345
982.130 .0170353
982.738 .0170358
983.346 .0170361
983.954 .0170369
984.562 .0170368
985.169 .0170368
985.775 .0170368
986.382 .0170368
986.988 .0170372
987.594 .0170377
988.199 .0170381
988.804 .0170385
989.409 .0170389
990.013 .0170391
990.617 .0170392
991.221 .0170389
991.824 .0170392
992.427 .0170392
993.030 .0170395
993.632 .0170400
994.234 .0170400
994.836 .0170401
995.438 .0170400
996.039 .0170396
996.640 .0170391
997.240 .0170382
997.840 .0170370
998.440 .0170360
999.040 .0170351
999.639 .0170339
1000.238 .0170321
1000.836 .0170299
1001.435 .0170276
1002.033 .0170255
1002.630 .0170237
1003.228 .0170214
1003.825 .0170184
1004.422 .0170153
1005.018 .0170127
1005.614 .0170100
1006.210 .0170075
1006.806 .0170049
1007.401 .0170015
1007.996 .0169985
1008.591 .0169953
1009.186 .0169921
1009.780 .0169891
1010.374 .0169865
1010.967 .0169840
1011.561 .0169814
1012.154 .0169790
1012.746 .0169761
1013.339 .0169737
1013.931 .0169716
1014.523 .0169696
1015.115 .0169675
1015.706 .0169655
1016.298 .0169634
1016.888 .0169615
1017.479 .0169602
1018.069 .0169577
1018.660 .0169551
1019.250 .0169528
1019.839 .0169503
1020.429 .0169478
1021.018 .0169452
1021.607 .0169423
1022.195 .0169389
1022.784 .0169356
1023.372 .0169323
1023.960 .0169294
1024.547 .0169256
1025.135 .0169219
1025.722 .0169178
1026.309 .0169130
1026.896 .0169086
1027.483 .0169039
1028.069 .0169001
1028.655 .0168951
1029.241 .0168897
1029.827 .0168845
1030.412 .0168791
1030.997 .0168736
1031.582 .0168674
1032.167 .0168607
1032.752 .0168538
1033.336 .0168466
1033.921 .0168391
1034.505 .0168316
1035.089 .0168244
1035.672 .0168172
1036.256 .0168099
1036.839 .0168023
1037.422 .0167944
1038.005 .0167869
1038.588 .0167799
1039.171 .0167730
1039.753 .0167660
1040.335 .0167593
1040.918 .0167535
1041.500 .0167480
1042.081 .0167431
1042.663 .0167383
1043.244 .0167338
1043.826 .0167292
1044.407 .0167245
1044.988 .0167205
1045.569 .0167165
1046.150 .0167130
1046.730 .0167100
1047.311 .0167078
1047.891 .0167060
1048.471 .0167041
1049.052 .0167034
1049.632 .0167032
1050.211 .0167030
1050.791 .0167027
1051.371 .0167024
1051.950 .0167017
1052.530 .0167015
1053.109 .0167020
1053.688 .0167029
1054.268 .0167034
1054.847 .0167034
1055.426 .0167040
1056.005 .0167051
1056.583 .0167061
1057.162 .0167072
1057.741 .0167084
1058.319 .0167093
1058.898 .0167096
1059.476 .0167100
1060.055 .0167102
1060.633 .0167100
1061.211 .0167092
1061.790 .0167087
1062.368 .0167079
1062.946 .0167059
1063.524 .0167036
1064.102 .0167022
1064.680 .0167002
1065.258 .0166980
1065.836 .0166959
1066.414 .0166936
1066.992 .0166906
1067.570 .0166867
1068.148 .0166828
1068.726 .0166792
1069.304 .0166748
1069.882 .0166703
1070.460 .0166662
1071.038 .0166622
1071.616 .0166585
1072.194 .0166565
1072.772 .0166551
1073.350 .0166528
1073.928 .0166500
1074.506 .0166480
1075.084 .0166457
1075.662 .0166416
1076.240 .0166374
1076.819 .0166338
1077.397 .0166317
1077.976 .0166293
1078.554 .0166270
1079.133 .0166259
1079.711 .0166259
1080.290 .0166258
1080.869 .0166266
1081.448 .0166276
1082.027 .0166275
1082.606 .0166271
1083.185 .0166290
1083.764 .0166316
1084.343 .0166339
1084.923 .0166379
1085.502 .0166432
1086.082 .0166486
1086.662 .0166545
1087.242 .0166593
1087.822 .0166651
1088.402 .0166709
1088.983 .0166755
1089.563 .0166805
1090.144 .0166852
1090.725 .0166887
1091.306 .0166925
1091.887 .0166970
1092.469 .0167014
1093.050 .0167056
1093.632 .0167099
1094.214 .0167152
1094.796 .0167205
1095.379 .0167275
1095.961 .0167369
1096.544 .0167459
1097.127 .0167563
1097.710 .0167667
1098.294 .0167783
1098.877 .0167914
1099.461 .0168039
1100.046 .0168168
1100.630 .0168316
1101.215 .0168455
1101.800 .0168588
1102.385 .0168736
1102.970 .0168892
1103.556 .0168948
1104.142 .0169110
1104.728 .0169284
1105.315 .0169441
1105.902 .0169581
1106.489 .0169725
1107.077 .0169880
1107.664 .0170043
1108.253 .0170224
1108.841 .0170417
1109.430 .0170629
1110.019 .0170841
1110.609 .0171064
1111.198 .0171307
1111.789 .0171564
1112.379 .0171832
1112.970 .0172111
1113.561 .0172540
1114.153 .0172842
1114.745 .0173143
1115.338 .0173466
1115.931 .0173808
1116.524 .0174174
1117.117 .0174554
1117.712 .0174961
1118.306 .0175364
1118.901 .0175759
1119.496 .0176149
1120.092 .0176551
1120.689 .0176952
1121.285 .0177376
1121.882 .0177829
1122.480 .0178299
1123.078 .0178782
1123.677 .0179241
1124.276 .0179725
1124.875 .0180237
1125.476 .0180764
1126.076 .0181289
1126.677 .0181821
1127.279 .0182361
1127.881 .0182884
1128.484 .0183404
1129.087 .0183935
1129.691 .0184544
1130.295 .0185177
1130.900 .0185817
1131.505 .0186470
1132.111 .0187120
1132.718 .0187832
1133.325 .0188617
1133.933 .0189386
1134.541 .0190273
1135.150 .0190014
1135.760 .0190117
1136.370 .0190926
1136.981 .0190937
1137.592 .0191199
1138.204 .0191535
1138.817 .0192188
1139.431 .0194827
1140.045 .0195898
1140.660 .0196602
1141.275 .0197650
1141.891 .0198225
1142.508 .0200907
1143.126 .0203959
1143.744 .0203583
1144.363 .0207662
1144.983 .0216840
