Measurement Sequence started on: 15-12-46-377
Integration time: 28
Scans to Average: 2 
>>>>>Begin Spectral Data<<<<<
432.689 .0000100
433.621 .0000100
434.552 .0000100
435.482 .0000100
436.410 .0000100
437.337 .0000100
438.262 .0000100
439.187 .0000100
440.110 .0000100
441.031 .0000100
441.952 .0000100
442.871 .0964993
443.789 .0999196
444.705 .1031961
445.621 .1044084
446.535 .1072056
447.447 .1099337
448.359 .1126048
449.269 .1152179
450.178 .1177670
451.086 .1202634
451.993 .1227115
452.898 .0947256
453.803 .0827568
454.706 .0755341
455.608 .0744353
456.508 .0697257
457.408 .0661804
458.306 .0634247
459.204 .0611062
460.100 .0591826
460.995 .0575435
461.888 .0560792
462.781 .0547912
463.673 .0536407
464.563 .0526032
465.452 .0516592
466.340 .0508179
467.228 .0500610
468.114 .0493577
468.999 .0487032
469.882 .0481019
470.765 .0475586
471.647 .0470582
472.528 .0465982
473.407 .0461836
474.286 .0458131
475.163 .0454765
476.040 .0451654
476.915 .0448799
477.790 .0446167
478.663 .0443824
479.535 .0441817
480.407 .0439952
481.277 .0438367
482.147 .0437104
483.015 .0436080
483.883 .0435161
484.749 .0434405
485.615 .0433826
486.479 .0433403
487.343 .0433124
488.206 .0432934
489.067 .0432917
489.928 .0433019
490.788 .0433410
491.647 .0433936
492.505 .0434640
493.362 .0435444
494.218 .0436357
495.073 .0437566
495.928 .0438985
496.781 .0440548
497.634 .0442278
498.486 .0444384
499.337 .0446782
500.187 .0449441
501.036 .0452252
501.884 .0455266
502.731 .0458652
503.578 .0462401
504.424 .0466536
505.268 .0471056
506.113 .0476232
506.956 .0481942
507.798 .0488288
508.640 .0495376
509.480 .0503170
510.320 .0511548
511.160 .0520992
511.998 .0531653
512.836 .0552063
513.672 .0566156
514.508 .0582146
515.344 .0600193
516.178 .0620501
517.012 .0643633
517.845 .0669519
518.677 .0697997
519.508 .0729911
520.339 .0764637
521.169 .0802513
521.998 .0842675
522.826 .0869371
523.654 .0911440
524.481 .0951624
525.307 .0991046
526.133 .1028762
526.958 .1064747
527.782 .1098486
528.605 .1128418
529.428 .1153436
530.250 .1174275
531.072 .1190976
531.892 .1203589
532.712 .1212561
533.532 .1217844
534.350 .1219470
535.168 .1217239
535.986 .1211255
536.802 .1201685
537.618 .1187837
538.434 .1169896
539.249 .1148212
540.063 .1122015
540.876 .1092057
541.689 .1058215
542.501 .1020979
543.313 .0981825
544.124 .0939681
544.934 .0898635
545.744 .0857539
546.553 .0817161
547.361 .0777574
548.169 .0739382
548.976 .0703900
549.783 .0672367
550.589 .0644000
551.395 .0618514
552.200 .0595635
553.004 .0574858
553.808 .0556325
554.611 .0539606
555.414 .0524383
556.216 .0510595
557.018 .0497896
557.819 .0486375
558.619 .0475745
559.419 .0465917
560.218 .0456911
561.017 .0448688
561.815 .0440908
562.613 .0433790
563.410 .0427084
564.207 .0420807
565.003 .0414806
565.799 .0409156
566.594 .0403769
567.388 .0398677
568.182 .0393752
568.976 .0389040
569.769 .0384443
570.562 .0380015
571.354 .0375742
572.145 .0371649
572.936 .0367836
573.727 .0364242
574.517 .0360783
575.307 .0357546
576.096 .0354439
576.885 .0351469
577.673 .0348652
578.461 .0346051
579.248 .0343558
580.035 .0341209
580.821 .0338932
581.607 .0336777
582.392 .0334726
583.177 .0332787
583.962 .0330941
584.746 .0329236
585.529 .0327624
586.313 .0326069
587.095 .0324588
587.878 .0323210
588.660 .0321908
589.441 .0320704
590.222 .0319560
591.003 .0318467
591.783 .0317418
592.563 .0316462
593.342 .0315590
594.121 .0314771
594.899 .0314023
595.678 .0313324
596.455 .0312684
597.233 .0312103
598.009 .0311539
598.786 .0310987
599.562 .0310450
600.338 .0309938
601.113 .0309448
601.888 .0308998
602.663 .0308547
603.437 .0308128
604.211 .0307735
604.984 .0307367
605.757 .0306998
606.530 .0306631
607.302 .0306281
608.074 .0305945
608.845 .0305480
609.616 .0305172
610.387 .0304876
611.158 .0304604
611.928 .0304349
612.697 .0304102
613.467 .0303865
614.236 .0303632
615.004 .0303407
615.773 .0303195
616.541 .0302980
617.308 .0302767
618.076 .0302560
618.843 .0302469
619.609 .0302258
620.375 .0302055
621.141 .0301852
621.907 .0301648
622.672 .0301449
623.437 .0301253
624.202 .0301050
624.966 .0300826
625.730 .0300620
626.493 .0300397
627.257 .0300176
628.020 .0299951
628.782 .0299718
629.545 .0299485
630.307 .0299243
631.068 .0298996
631.830 .0298742
632.591 .0298481
633.352 .0298224
634.112 .0297961
634.872 .0297701
635.632 .0297435
636.392 .0297160
637.151 .0296887
637.910 .0296623
638.668 .0296350
639.427 .0296095
640.185 .0295845
640.943 .0295605
641.700 .0295370
642.457 .0295139
643.214 .0294921
643.971 .0294711
644.727 .0294507
645.483 .0294316
646.239 .0294114
646.994 .0293931
647.750 .0293739
648.505 .0293548
649.259 .0293362
650.014 .0293174
650.768 .0292989
651.521 .0292803
652.275 .0292616
653.028 .0292428
653.781 .0292233
654.534 .0292037
655.286 .0291834
656.039 .0291627
656.791 .0291418
657.542 .0291217
658.294 .0291019
659.045 .0290831
659.796 .0290633
660.546 .0290440
661.297 .0290244
662.047 .0290044
662.796 .0289854
663.546 .0289661
664.295 .0289469
665.044 .0289282
665.793 .0289093
666.542 .0288906
667.290 .0288722
668.038 .0288550
668.786 .0288380
669.533 .0288213
670.281 .0288045
671.028 .0287874
671.774 .0287703
672.521 .0287536
673.267 .0287374
674.013 .0287218
674.759 .0287072
675.505 .0286928
676.250 .0286786
676.995 .0286652
677.740 .0286518
678.484 .0286382
679.229 .0286247
679.973 .0286113
680.717 .0285974
681.460 .0285834
682.204 .0285700
682.947 .0285562
683.690 .0285424
684.433 .0285282
685.175 .0285138
685.917 .0284997
686.659 .0284857
687.401 .0284713
688.142 .0284566
688.884 .0284422
689.625 .0284275
690.365 .0284122
691.106 .0283974
691.846 .0283830
692.586 .0283690
693.326 .0283545
694.066 .0283400
694.805 .0283249
695.545 .0283100
696.284 .0282951
697.022 .0282805
697.761 .0282656
698.499 .0282505
699.237 .0282357
699.975 .0282209
700.713 .0282058
701.450 .0281907
702.187 .0281756
702.924 .0281602
703.661 .0281444
704.397 .0281285
705.133 .0281119
705.869 .0280952
706.605 .0280786
707.341 .0280613
708.076 .0280437
708.811 .0280257
709.546 .0280081
710.281 .0279910
711.015 .0279736
711.749 .0279553
712.483 .0279363
713.217 .0279176
713.950 .0278988
714.684 .0278795
715.417 .0278604
716.150 .0278412
716.882 .0278213
717.615 .0278013
718.347 .0277810
719.079 .0277599
719.811 .0277393
720.542 .0277190
721.273 .0276989
722.005 .0276782
722.735 .0276569
723.466 .0276355
724.196 .0276145
724.927 .0275940
725.656 .0275732
726.386 .0275521
727.116 .0275315
727.845 .0275110
728.574 .0274912
729.303 .0274714
730.031 .0274515
730.760 .0274324
731.488 .0274146
732.216 .0273970
732.944 .0273795
733.671 .0273620
734.398 .0273450
735.125 .0273282
735.852 .0273123
736.579 .0272966
737.305 .0272812
738.031 .0272661
738.757 .0272517
739.483 .0272370
740.208 .0272223
740.933 .0272074
741.658 .0271930
742.383 .0271792
743.108 .0271653
743.832 .0271513
744.556 .0271373
745.280 .0271235
746.004 .0271099
746.727 .0270961
747.450 .0270822
748.173 .0270678
748.896 .0270537
749.618 .0270395
750.340 .0270250
751.062 .0270102
751.784 .0269949
752.506 .0269796
753.227 .0269646
753.948 .0269495
754.669 .0269341
755.389 .0269181
756.110 .0269021
756.830 .0268857
757.550 .0268697
758.269 .0268534
758.989 .0268369
759.708 .0268205
760.427 .0268040
761.146 .0267869
761.864 .0267701
762.582 .0267536
763.300 .0267371
764.018 .0267205
764.736 .0267042
765.453 .0266877
766.170 .0266715
766.887 .0266558
767.603 .0266404
768.320 .0266248
769.036 .0266020
769.751 .0265866
770.467 .0265716
771.182 .0265569
771.897 .0265424
772.612 .0265281
773.327 .0265138
774.041 .0264997
774.755 .0264861
775.469 .0264730
776.183 .0264606
776.896 .0264482
777.609 .0264365
778.322 .0264249
779.035 .0264206
779.747 .0264093
780.459 .0263983
781.171 .0263881
781.882 .0263779
782.594 .0263678
783.305 .0263582
784.016 .0263489
784.726 .0263397
785.436 .0263312
786.147 .0263231
786.856 .0263152
787.566 .0263074
788.275 .0263000
788.984 .0262927
789.693 .0262856
790.401 .0262783
791.110 .0262707
791.818 .0262633
792.525 .0262561
793.233 .0262488
793.940 .0262419
794.647 .0262347
795.353 .0262273
796.060 .0262196
796.766 .0262118
797.472 .0262038
798.177 .0261951
798.883 .0261859
799.588 .0261765
800.292 .0261671
800.997 .0261574
801.701 .0261478
802.405 .0261381
803.109 .0261285
803.812 .0261189
804.515 .0261091
805.218 .0260994
805.921 .0260891
806.623 .0260788
807.325 .0260684
808.027 .0260576
808.728 .0260469
809.429 .0260358
810.130 .0260250
810.831 .0260142
811.531 .0260035
812.231 .0259925
812.931 .0259814
813.630 .0259700
814.330 .0259582
815.029 .0259464
815.727 .0259347
816.426 .0259227
817.124 .0259106
817.821 .0258989
818.519 .0258876
819.216 .0258765
819.913 .0258658
820.609 .0258555
821.306 .0258459
822.002 .0258361
822.697 .0258265
823.393 .0258171
824.088 .0258082
824.783 .0257994
825.477 .0257910
826.171 .0257835
826.865 .0257762
827.559 .0257690
828.252 .0257623
828.945 .0257559
829.638 .0257497
830.330 .0257435
831.023 .0257378
831.714 .0257319
832.406 .0257261
833.097 .0257203
833.788 .0257149
834.479 .0257099
835.169 .0257048
835.859 .0256999
836.548 .0256952
837.238 .0256905
837.927 .0256853
838.615 .0256798
839.304 .0256739
839.992 .0256673
840.680 .0256603
841.367 .0256523
842.054 .0256439
842.741 .0256350
843.428 .0256256
844.114 .0256156
844.800 .0256051
845.485 .0255940
846.170 .0255819
846.855 .0255690
847.540 .0255555
848.224 .0255415
848.908 .0255266
849.592 .0255113
850.275 .0254954
850.958 .0254794
851.641 .0254632
852.323 .0254469
853.005 .0254303
853.687 .0254130
854.368 .0253954
855.049 .0253774
855.730 .0253589
856.410 .0253397
857.090 .0253200
857.769 .0253000
858.449 .0252799
859.128 .0252598
859.806 .0252395
860.485 .0252191
861.163 .0251988
861.840 .0251784
862.518 .0251578
863.195 .0251374
863.871 .0251165
864.548 .0250958
865.224 .0250754
865.899 .0250551
866.574 .0250352
867.249 .0250154
867.924 .0249958
868.598 .0249768
869.272 .0249580
869.946 .0249393
870.619 .0249204
871.292 .0249022
871.964 .0248839
872.636 .0248658
873.308 .0248486
873.979 .0248317
874.651 .0248157
875.321 .0248006
875.992 .0247859
876.662 .0247721
877.331 .0247589
878.001 .0247417
878.670 .0247296
879.338 .0247183
880.007 .0247073
880.675 .0246973
881.342 .0246878
882.009 .0246784
882.676 .0246694
883.343 .0246617
884.009 .0246542
884.675 .0246467
885.340 .0246391
886.005 .0246316
886.670 .0246247
887.334 .0246177
887.998 .0246143
888.662 .0246073
889.325 .0246002
889.988 .0245937
890.650 .0245869
891.312 .0245796
891.974 .0245722
892.636 .0245650
893.297 .0245576
893.957 .0245500
894.618 .0245417
895.278 .0245325
895.937 .0245234
896.596 .0245139
897.255 .0245039
897.914 .0244934
898.572 .0244825
899.230 .0244712
899.887 .0244595
900.544 .0244475
901.201 .0244345
901.857 .0244214
902.513 .0244082
903.168 .0243947
903.823 .0243804
904.478 .0243658
905.132 .0243509
905.786 .0243356
906.440 .0243199
907.093 .0243034
907.746 .0242869
908.399 .0242701
909.051 .0242534
909.703 .0242363
910.354 .0242189
911.005 .0242016
911.656 .0241840
912.306 .0241663
912.956 .0241484
913.605 .0241300
914.254 .0241117
914.903 .0240936
915.551 .0240757
916.199 .0240573
916.847 .0240392
917.494 .0240215
918.141 .0240041
918.788 .0239865
919.434 .0239691
920.079 .0239516
920.725 .0239343
921.370 .0239173
922.014 .0239001
922.658 .0238836
923.302 .0238675
923.946 .0238515
924.589 .0238360
925.231 .0238205
925.873 .0238053
926.515 .0237905
927.157 .0237765
927.798 .0237628
928.439 .0237493
929.079 .0237362
929.719 .0237239
930.359 .0237122
930.998 .0237011
931.637 .0236906
932.275 .0236810
932.913 .0236718
933.551 .0236631
934.188 .0236548
934.825 .0236469
935.462 .0236396
936.098 .0236330
936.733 .0236265
937.369 .0236199
938.004 .0236137
938.638 .0236081
939.273 .0236029
939.907 .0235979
940.540 .0235933
941.173 .0235887
941.806 .0235840
942.438 .0235788
943.070 .0235734
943.702 .0235681
944.333 .0235623
944.964 .0235572
945.594 .0235525
946.224 .0235482
946.854 .0235442
947.483 .0235403
948.112 .0235372
948.741 .0235336
949.369 .0235281
949.996 .0235244
950.624 .0235206
951.251 .0235168
951.878 .0235133
952.504 .0235098
953.130 .0235066
953.755 .0235034
954.380 .0235003
955.005 .0234972
955.629 .0234944
956.253 .0234914
956.877 .0234887
957.500 .0234859
958.123 .0234830
958.746 .0234805
959.368 .0234802
959.990 .0234785
960.611 .0234765
961.232 .0234750
961.853 .0234742
962.473 .0234735
963.093 .0234728
963.712 .0234728
964.331 .0234732
964.950 .0234737
965.569 .0234739
966.187 .0234740
966.804 .0234737
967.422 .0234731
968.039 .0234721
968.655 .0234716
969.272 .0234707
969.887 .0234694
970.503 .0234677
971.118 .0234660
971.733 .0234641
972.347 .0234617
972.961 .0234593
973.575 .0234567
974.188 .0234536
974.801 .0234503
975.414 .0234472
976.026 .0234442
976.638 .0234412
977.250 .0234382
977.861 .0234355
978.472 .0234326
979.083 .0234293
979.693 .0234264
980.303 .0234232
980.912 .0234202
981.521 .0234173
982.130 .0234144
982.738 .0234123
983.346 .0234106
983.954 .0234088
984.562 .0234071
985.169 .0234051
985.775 .0234031
986.382 .0234013
986.988 .0234000
987.594 .0233989
988.199 .0233976
988.804 .0233960
989.409 .0233945
990.013 .0233932
990.617 .0233925
991.221 .0233924
991.824 .0233923
992.427 .0233927
993.030 .0233926
993.632 .0233923
994.234 .0233919
994.836 .0233916
995.438 .0233914
996.039 .0233915
996.640 .0233914
997.240 .0233911
997.840 .0233911
998.440 .0233916
999.040 .0233922
999.639 .0233924
1000.238 .0233925
1000.836 .0233926
1001.435 .0233920
1002.033 .0233913
1002.630 .0233905
1003.228 .0233892
1003.825 .0233874
1004.422 .0233857
1005.018 .0233844
1005.614 .0233837
1006.210 .0233832
1006.806 .0233829
1007.401 .0233831
1007.996 .0233833
1008.591 .0233836
1009.186 .0233848
1009.780 .0233864
1010.374 .0233884
1010.967 .0233898
1011.561 .0233918
1012.154 .0233940
1012.746 .0233968
1013.339 .0234006
1013.931 .0234055
1014.523 .0234106
1015.115 .0234156
1015.706 .0234197
1016.298 .0234243
1016.888 .0234293
1017.479 .0234341
1018.069 .0234433
1018.660 .0234490
1019.250 .0234551
1019.839 .0234609
1020.429 .0234672
1021.018 .0234738
1021.607 .0234806
1022.195 .0234868
1022.784 .0234930
1023.372 .0234995
1023.960 .0235060
1024.547 .0235122
1025.135 .0235187
1025.722 .0235247
1026.309 .0235299
1026.896 .0235344
1027.483 .0235378
1028.069 .0235375
1028.655 .0235405
1029.241 .0235427
1029.827 .0235443
1030.412 .0235455
1030.997 .0235469
1031.582 .0235473
1032.167 .0235477
1032.752 .0235476
1033.336 .0235471
1033.921 .0235461
1034.505 .0235451
1035.089 .0235440
1035.672 .0235428
1036.256 .0235414
1036.839 .0235394
1037.422 .0235383
1038.005 .0235367
1038.588 .0235348
1039.171 .0235328
1039.753 .0235310
1040.335 .0235295
1040.918 .0235277
1041.500 .0235265
1042.081 .0235246
1042.663 .0235236
1043.244 .0235225
1043.826 .0235212
1044.407 .0235196
1044.988 .0235178
1045.569 .0235152
1046.150 .0235129
1046.730 .0235108
1047.311 .0235082
1047.891 .0235063
1048.471 .0235045
1049.052 .0235024
1049.632 .0235001
1050.211 .0234979
1050.791 .0234952
1051.371 .0234917
1051.950 .0234886
1052.530 .0234846
1053.109 .0234804
1053.688 .0234757
1054.268 .0234704
1054.847 .0234652
1055.426 .0234607
1056.005 .0234563
1056.583 .0234518
1057.162 .0234477
1057.741 .0234425
1058.319 .0234370
1058.898 .0234317
1059.476 .0234267
1060.055 .0234204
1060.633 .0234143
1061.211 .0234078
1061.790 .0234016
1062.368 .0233955
1062.946 .0233887
1063.524 .0233819
1064.102 .0233754
1064.680 .0233676
1065.258 .0233596
1065.836 .0233518
1066.414 .0233439
1066.992 .0233361
1067.570 .0233292
1068.148 .0233225
1068.726 .0233155
1069.304 .0233091
1069.882 .0233031
1070.460 .0232975
1071.038 .0232916
1071.616 .0232854
1072.194 .0232785
1072.772 .0232716
1073.350 .0232643
1073.928 .0232574
1074.506 .0232514
1075.084 .0232449
1075.662 .0232369
1076.240 .0232286
1076.819 .0232213
1077.397 .0232134
1077.976 .0232058
1078.554 .0231989
1079.133 .0231918
1079.711 .0231842
1080.290 .0231766
1080.869 .0231691
1081.448 .0231615
1082.027 .0231535
1082.606 .0231463
1083.185 .0231391
1083.764 .0231326
1084.343 .0231260
1084.923 .0231204
1085.502 .0231166
1086.082 .0231138
1086.662 .0231099
1087.242 .0231060
1087.822 .0231009
1088.402 .0230960
1088.983 .0230916
1089.563 .0230877
1090.144 .0230842
1090.725 .0230807
1091.306 .0230788
1091.887 .0230783
1092.469 .0230793
1093.050 .0230824
1093.632 .0230860
1094.214 .0230900
1094.796 .0230936
1095.379 .0230976
1095.961 .0231021
1096.544 .0231068
1097.127 .0231114
1097.710 .0231172
1098.294 .0231226
1098.877 .0231266
1099.461 .0231316
1100.046 .0231365
1100.630 .0231442
1101.215 .0231518
1101.800 .0231611
1102.385 .0231719
1102.970 .0231819
1103.556 .0231860
1104.142 .0231966
1104.728 .0232081
1105.315 .0232220
1105.902 .0232352
1106.489 .0232486
1107.077 .0232671
1107.664 .0232869
1108.253 .0233094
1108.841 .0233324
1109.430 .0233556
1110.019 .0233792
1110.609 .0234056
1111.198 .0234326
1111.789 .0234587
1112.379 .0234852
1112.970 .0235103
1113.561 .0235452
1114.153 .0235716
1114.745 .0235997
1115.338 .0236281
1115.931 .0236586
1116.524 .0236907
1117.117 .0237208
1117.712 .0237512
1118.306 .0237839
1118.901 .0238199
1119.496 .0238562
1120.092 .0238927
1120.689 .0239268
1121.285 .0239635
1121.882 .0240002
1122.480 .0240351
1123.078 .0240740
1123.677 .0241152
1124.276 .0241565
1124.875 .0241987
1125.476 .0242454
1126.076 .0242918
1126.677 .0243381
1127.279 .0243875
1127.881 .0244367
1128.484 .0244895
1129.087 .0245470
1129.691 .0246115
1130.295 .0246801
1130.900 .0247501
1131.505 .0248235
1132.111 .0249036
1132.718 .0249961
1133.325 .0250895
1133.933 .0251967
1134.541 .0253253
1135.150 .0250840
1135.760 .0251211
1136.370 .0252522
1136.981 .0253950
1137.592 .0254502
1138.204 .0255804
1138.817 .0257511
1139.431 .0260157
1140.045 .0262565
1140.660 .0263250
1141.275 .0264394
1141.891 .0266945
1142.508 .0270804
1143.126 .0271588
1143.744 .0276428
1144.363 .0284016
1144.983 .0285245
