BestFit value for E:\RC_data\Compressed_For_Future_Analysis_Lite\test_shlomo\aqueous_test\GoodSpectraLarge_Full\0012_2025-06-24_09-45-30\Interpretation_History\2025-07-21_16-23-34\ResultsGraphs\BestFit\(Run)spectra_09-46-38-948_BestFit.txt
600.203 0.0588951
600.975 0.0588829
601.747 0.0588704
602.518 0.0588574
603.289 0.0588441
604.059 0.0588303
604.829 0.0588162
605.599 0.0588016
606.369 0.0587867
607.138 0.0587714
607.906 0.0587556
608.675 0.0587395
609.443 0.0587230
610.210 0.0587062
610.977 0.0586890
611.744 0.0586714
612.511 0.0586535
613.277 0.0586354
614.043 0.0586169
614.809 0.0585982
615.574 0.0585792
616.339 0.0585600
617.104 0.0585406
617.868 0.0585210
618.632 0.0585012
619.395 0.0584814
620.159 0.0584613
620.922 0.0584412
621.684 0.0584210
622.447 0.0584007
623.209 0.0583804
623.970 0.0583600
624.732 0.0583396
625.493 0.0583192
626.254 0.0582988
627.014 0.0582785
627.774 0.0582581
628.534 0.0582378
629.294 0.0582174
630.053 0.0581971
630.812 0.0581769
631.571 0.0581566
632.329 0.0581364
633.087 0.0581161
633.845 0.0580959
634.602 0.0580756
635.359 0.0580553
636.116 0.0580349
636.873 0.0580145
637.629 0.0579940
638.385 0.0579734
639.141 0.0579527
639.897 0.0579318
640.652 0.0579108
641.407 0.0578895
642.161 0.0578681
642.916 0.0578465
643.670 0.0578246
644.424 0.0578025
645.177 0.0577801
645.931 0.0577573
646.684 0.0577343
647.436 0.0577109
648.189 0.0576872
648.941 0.0576632
649.693 0.0576387
650.445 0.0576139
651.196 0.0575888
651.947 0.0575632
652.698 0.0575373
653.449 0.0575110
654.199 0.0574844
654.949 0.0574573
655.699 0.0574299
656.449 0.0574022
657.198 0.0573741
657.947 0.0573457
658.696 0.0573170
659.445 0.0572880
660.193 0.0572588
660.941 0.0572293
661.689 0.0571996
662.436 0.0571697
663.184 0.0571396
663.931 0.0571094
664.678 0.0570791
665.424 0.0570487
666.171 0.0570181
666.917 0.0569876
667.663 0.0569571
668.408 0.0569266
669.154 0.0568961
669.899 0.0568658
670.644 0.0568355
671.388 0.0568053
672.133 0.0567753
672.877 0.0567454
673.621 0.0567157
674.365 0.0566862
675.108 0.0566570
675.851 0.0566279
676.594 0.0565991
677.337 0.0565706
678.080 0.0565422
678.822 0.0565142
679.564 0.0564864
680.306 0.0564588
681.047 0.0564315
681.789 0.0564044
682.530 0.0563776
683.271 0.0563510
684.012 0.0563246
684.752 0.0562984
685.492 0.0562724
686.232 0.0562465
686.972 0.0562207
687.712 0.0561951
688.451 0.0561696
689.190 0.0561441
689.929 0.0561187
690.667 0.0560933
691.406 0.0560678
692.144 0.0560423
692.882 0.0560168
693.620 0.0559911
694.357 0.0559653
695.095 0.0559393
695.832 0.0559132
696.569 0.0558868
697.305 0.0558602
698.042 0.0558333
698.778 0.0558061
699.514 0.0557786
700.249 0.0557508
700.985 0.0557226
701.720 0.0556940
702.455 0.0556650
703.190 0.0556356
703.925 0.0556058
704.659 0.0555756
705.393 0.0555450
706.127 0.0555139
706.861 0.0554823
707.595 0.0554503
708.328 0.0554179
709.061 0.0553850
709.794 0.0553518
710.527 0.0553180
711.259 0.0552840
711.991 0.0552495
712.723 0.0552146
713.455 0.0551794
714.186 0.0551439
714.918 0.0551080
715.649 0.0550719
716.380 0.0550355
717.110 0.0549989
717.841 0.0549621
718.571 0.0549251
719.301 0.0548880
720.031 0.0548508
720.760 0.0548135
721.490 0.0547761
722.219 0.0547388
722.948 0.0547015
723.676 0.0546643
724.405 0.0546271
725.133 0.0545901
725.861 0.0545533
726.589 0.0545166
727.317 0.0544801
728.044 0.0544440
728.771 0.0544081
729.498 0.0543725
730.225 0.0543372
730.951 0.0543024
731.677 0.0542679
732.403 0.0542338
733.129 0.0542001
733.855 0.0541668
734.580 0.0541340
735.305 0.0541016
736.030 0.0540697
736.755 0.0540382
737.479 0.0540073
738.203 0.0539768
738.927 0.0539468
739.651 0.0539173
740.375 0.0538882
741.098 0.0538595
741.821 0.0538314
742.544 0.0538036
743.267 0.0537762
743.989 0.0537493
744.711 0.0537228
745.433 0.0536965
746.155 0.0536706
746.877 0.0536450
747.598 0.0536197
748.319 0.0535947
749.040 0.0535699
749.760 0.0535452
750.481 0.0535207
751.201 0.0534964
751.921 0.0534721
752.640 0.0534479
753.360 0.0534237
754.079 0.0533995
754.798 0.0533752
755.517 0.0533509
756.235 0.0533264
756.953 0.0533018
757.671 0.0532770
758.389 0.0532520
759.107 0.0532267
759.824 0.0532011
760.541 0.0531753
761.258 0.0531490
761.974 0.0531225
762.691 0.0530955
763.407 0.0530681
764.123 0.0530402
764.838 0.0530119
765.554 0.0529831
766.269 0.0529538
766.984 0.0529240
767.699 0.0528937
768.413 0.0528629
769.127 0.0528314
769.841 0.0527995
770.555 0.0527670
771.268 0.0527339
771.982 0.0527003
772.694 0.0526661
773.407 0.0526314
774.120 0.0525961
774.832 0.0525603
775.544 0.0525240
776.256 0.0524872
776.967 0.0524500
777.678 0.0524123
778.389 0.0523741
779.100 0.0523355
779.810 0.0522965
780.521 0.0522571
781.231 0.0522174
781.940 0.0521774
782.650 0.0521370
783.359 0.0520965
784.068 0.0520557
784.776 0.0520148
785.485 0.0519736
786.193 0.0519324
786.901 0.0518911
787.609 0.0518497
788.316 0.0518084
789.023 0.0517671
789.730 0.0517258
790.436 0.0516847
791.143 0.0516436
791.849 0.0516028
792.555 0.0515621
793.260 0.0515218
793.965 0.0514817
794.670 0.0514419
795.375 0.0514024
796.080 0.0513633
796.784 0.0513247
797.488 0.0512864
798.191 0.0512487
798.895 0.0512114
799.598 0.0511746
800.301 0.0511384
801.003 0.0511027
801.705 0.0510677
802.408 0.0510331
803.109 0.0509993
803.811 0.0509660
804.512 0.0509333
805.213 0.0509013
805.913 0.0508700
806.614 0.0508393
807.314 0.0508093
808.014 0.0507799
808.713 0.0507512
809.412 0.0507231
810.111 0.0506957
810.810 0.0506689
811.508 0.0506428
812.206 0.0506173
812.904 0.0505923
813.602 0.0505680
814.299 0.0505443
814.996 0.0505211
815.692 0.0504984
816.389 0.0504763
817.085 0.0504546
817.781 0.0504334
818.476 0.0504127
819.171 0.0503923
819.866 0.0503724
820.561 0.0503527
821.255 0.0503335
821.949 0.0503145
822.643 0.0502957
823.336 0.0502772
824.029 0.0502588
824.722 0.0502406
825.415 0.0502226
826.107 0.0502046
826.799 0.0501866
827.490 0.0501687
828.182 0.0501508
828.873 0.0501327
829.563 0.0501146
830.254 0.0500964
830.944 0.0500780
831.634 0.0500594
832.323 0.0500406
833.012 0.0500215
833.701 0.0500021
834.390 0.0499823
835.078 0.0499623
835.766 0.0499418
836.453 0.0499209
837.141 0.0498996
837.828 0.0498778
838.514 0.0498556
839.201 0.0498328
839.887 0.0498095
840.572 0.0497857
841.258 0.0497612
841.943 0.0497362
842.628 0.0497106
843.312 0.0496844
843.996 0.0496576
844.680 0.0496301
845.363 0.0496020
846.046 0.0495733
846.729 0.0495439
847.412 0.0495138
848.094 0.0494831
848.776 0.0494518
849.457 0.0494198
850.139 0.0493871
850.819 0.0493539
851.500 0.0493200
852.180 0.0492854
852.860 0.0492503
853.540 0.0492146
854.219 0.0491783
854.898 0.0491414
855.576 0.0491040
856.254 0.0490661
856.932 0.0490276
857.610 0.0489887
858.287 0.0489493
858.964 0.0489095
859.640 0.0488693
860.317 0.0488286
860.993 0.0487876
861.668 0.0487463
862.343 0.0487047
863.018 0.0486628
863.693 0.0486206
864.367 0.0485783
865.041 0.0485357
865.714 0.0484931
866.387 0.0484503
867.060 0.0484074
867.732 0.0483645
868.404 0.0483216
869.076 0.0482786
869.748 0.0482357
870.419 0.0481929
871.089 0.0481503
871.760 0.0481078
872.430 0.0480654
873.099 0.0480233
873.769 0.0479814
874.438 0.0479398
875.106 0.0478986
875.774 0.0478576
876.442 0.0478170
877.110 0.0477768
877.777 0.0477370
878.444 0.0476977
879.110 0.0476589
879.776 0.0476206
880.442 0.0475827
881.108 0.0475454
881.773 0.0475087
882.437 0.0474727
883.102 0.0474372
883.766 0.0474023
884.429 0.0473681
885.093 0.0473345
885.755 0.0473017
886.418 0.0472695
887.080 0.0472380
887.742 0.0472072
888.403 0.0471771
889.064 0.0471478
889.725 0.0471192
890.385 0.0470913
891.045 0.0470642
891.705 0.0470378
892.364 0.0470122
893.023 0.0469873
893.682 0.0469631
894.340 0.0469397
894.998 0.0469170
895.655 0.0468951
896.312 0.0468739
896.969 0.0468533
897.625 0.0468335
898.281 0.0468144
898.937 0.0467959
899.592 0.0467781
900.247 0.0467609
900.901 0.0467444
901.555 0.0467285
902.209 0.0467132
902.862 0.0466984
903.515 0.0466843
904.168 0.0466706
904.820 0.0466575
905.472 0.0466448
906.123 0.0466326
906.774 0.0466209
907.425 0.0466096
908.076 0.0465986
908.726 0.0465881
909.375 0.0465779
910.024 0.0465679
910.673 0.0465583
911.322 0.0465489
911.970 0.0465398
912.618 0.0465309
913.265 0.0465221
913.912 0.0465135
914.558 0.0465050
915.205 0.0464965
915.850 0.0464882
916.496 0.0464798
917.141 0.0464715
917.786 0.0464631
918.430 0.0464547
919.074 0.0464462
919.718 0.0464375
920.361 0.0464288
921.004 0.0464198
921.646 0.0464107
922.288 0.0464013
922.930 0.0463917
923.571 0.0463818
924.212 0.0463716
924.853 0.0463611
925.493 0.0463503
926.133 0.0463390
926.772 0.0463274
927.411 0.0463154
928.050 0.0463029
928.688 0.0462900
929.326 0.0462766
929.963 0.0462627
930.600 0.0462484
931.237 0.0462334
931.874 0.0462180
932.510 0.0462020
933.145 0.0461854
933.780 0.0461682
934.415 0.0461505
935.050 0.0461321
935.684 0.0461132
936.318 0.0460936
936.951 0.0460733
937.584 0.0460525
938.217 0.0460310
938.849 0.0460088
939.481 0.0459860
940.112 0.0459626
940.743 0.0459385
941.374 0.0459137
942.004 0.0458883
942.634 0.0458622
943.264 0.0458355
943.893 0.0458081
944.522 0.0457801
945.150 0.0457515
945.778 0.0457222
946.406 0.0456923
947.033 0.0456618
947.660 0.0456307
948.287 0.0455989
948.913 0.0455666
949.539 0.0455337
950.165 0.0455002
950.790 0.0454662
951.414 0.0454317
952.039 0.0453966
952.663 0.0453610
953.286 0.0453250
953.910 0.0452884
954.533 0.0452514
955.155 0.0452139
955.777 0.0451761
956.399 0.0451378
957.020 0.0450992
957.641 0.0450601
958.262 0.0450208
958.882 0.0449811
959.502 0.0449411
960.122 0.0449028
960.741 0.0448721
961.360 0.0448412
961.979 0.0448100
962.597 0.0447787
963.214 0.0447471
963.832 0.0447154
964.449 0.0446835
965.066 0.0446514
965.682 0.0446193
966.298 0.0445871
966.914 0.0445549
967.529 0.0445226
968.144 0.0444903
968.758 0.0444581
969.373 0.0444258
969.986 0.0443937
970.600 0.0443615
971.213 0.0443296
971.826 0.0442977
972.438 0.0442660
973.050 0.0442345
973.662 0.0442031
974.274 0.0441720
974.885 0.0441411
975.495 0.0441106
976.106 0.0440802
976.716 0.0440502
977.325 0.0440205
977.935 0.0439911
978.544 0.0439621
979.152 0.0439335
979.761 0.0439053
980.369 0.0438774
980.976 0.0438501
981.584 0.0438231
982.191 0.0437967
982.797 0.0437707
983.404 0.0437452
984.010 0.0437202
984.615 0.0436958
985.221 0.0436718
985.826 0.0436485
986.430 0.0436257
987.035 0.0436034
987.639 0.0435818
988.243 0.0435607
988.846 0.0435402
989.449 0.0435204
990.052 0.0435012
990.654 0.0434826
991.256 0.0434646
991.858 0.0434473
992.460 0.0434306
993.061 0.0434145
993.662 0.0433991
994.262 0.0433844
994.863 0.0433703
995.463 0.0433569
996.062 0.0433442
996.662 0.0433321
997.261 0.0433206
997.860 0.0433099
998.458 0.0432998
999.056 0.0432903
999.654 0.0432815
1000.252 0.0432697
1000.849 0.0432536
1001.446 0.0432381
1002.043 0.0432233
1002.639 0.0432091
1003.235 0.0431956
1003.831 0.0431827
1004.427 0.0431704
1005.022 0.0431588
1005.617 0.0431477
1006.212 0.0431373
1006.806 0.0431274
1007.401 0.0431182
1007.995 0.0431095
1008.588 0.0431013
1009.182 0.0430937
1009.775 0.0430866
1010.368 0.0430801
1010.96 0.0430740
1011.553 0.0430684
1012.145 0.0430634
1012.737 0.0430587
1013.328 0.0430546
1013.92 0.0430508
1014.511 0.0430475
1015.102 0.0430445
1015.692 0.0430420
1016.283 0.0430398
1016.873 0.0430379
1017.463 0.0430364
1018.052 0.0430352
1018.642 0.0430343
1019.231 0.0430337
1019.82 0.0430333
1020.409 0.0430332
1020.997 0.0430333
1021.585 0.0430336
1022.173 0.0430341
1022.761 0.0430348
1023.349 0.0430356
1023.936 0.0430365
1024.524 0.0430376
1025.111 0.0430387
1025.697 0.0430400
1026.284 0.0430412
1026.87 0.0430425
1027.457 0.0430439
1028.043 0.0430452
1028.628 0.0430465
1029.214 0.0430478
1029.80 0.0430490
1030.385 0.0430501
1030.97 0.0430512
1031.555 0.0430521
1032.139 0.0430529
1032.724 0.0430536
1033.308 0.0430541
1033.893 0.0430544
1034.477 0.0430545
1035.06 0.0430544
1035.644 0.0430540
1036.228 0.0430535
1036.811 0.0430526
1037.394 0.0430515
1037.977 0.0430500
1038.56 0.0430483
1039.143 0.0430462
1039.726 0.0430438
1040.308 0.0430411
1040.891 0.0430379
1041.473 0.0430344
1042.055 0.0430305
1042.637 0.0430262
1043.219 0.0430214
1043.801 0.0430162
1044.382 0.0430106
1044.964 0.0430045
1045.545 0.0429980
1046.127 0.0429909
1046.708 0.0429834
1047.289 0.0429754
1047.87 0.0429668
1048.451 0.0429578
1049.032 0.0429482
1049.612 0.0429381
1050.193 0.0429275
1050.774 0.0429163
1051.354 0.0429045
1051.935 0.0428922
1052.515 0.0428793
1053.095 0.0428659
1053.675 0.0428518
1054.256 0.0428372
1054.836 0.0428220
1055.416 0.0428062
1055.996 0.0427898
1056.576 0.0427729
1057.156 0.0427553
1057.735 0.0427371
1058.315 0.0427184
1058.895 0.0426990
1059.475 0.0426790
1060.055 0.0426584
1060.634 0.0426373
1061.214 0.0426155
1061.794 0.0425931
1062.373 0.0425701
1062.953 0.0425466
1063.533 0.0425224
1064.113 0.0424976
1064.692 0.0424723
1065.272 0.0424464
1065.852 0.0424199
1066.431 0.0423929
1067.011 0.0423653
1067.591 0.0423371
1068.171 0.0423083
1068.751 0.0422790
1069.331 0.0422492
1069.91 0.0422189
1070.49 0.0421880
1071.071 0.0421566
1071.651 0.0421247
1072.231 0.0420923
1072.811 0.0420594
1073.391 0.0420260
1073.972 0.0419921
1074.552 0.0419579
1075.133 0.0419231
1075.713 0.0418879
1076.294 0.0418523
1076.875 0.0418162
1077.456 0.0417797
1078.037 0.0417429
1078.618 0.0417057
1079.199 0.0416681
1079.78 0.0416301
1080.362 0.0415918
1080.943 0.0415532
1081.525 0.0415142
1082.107 0.0414750
1082.689 0.0414354
1083.271 0.0413956
1083.853 0.0413555
1084.436 0.0413152
1085.018 0.0412747
1085.601 0.0412339
1086.184 0.0411929
1086.767 0.0411517
1087.351 0.0411103
1087.934 0.0410688
1088.518 0.0410272
1089.102 0.0409854
1089.686 0.0409435
1090.27 0.0409016
1090.855 0.0408595
1091.439 0.0408174
1092.024 0.0407752
1092.609 0.0407330
1093.195 0.0406908
1093.78 0.0406486
1094.366 0.0406064
1094.952 0.0405642
1095.539 0.0405221
1096.125 0.0404800
1096.712 0.0404381
1097.299 0.0403962
1097.887 0.0403544
1098.475 0.0403127
1099.063 0.0402712
1099.651 0.0402299
1100.239 0.0401888
1100.828 0.0401478
1101.417 0.0401070
1102.007 0.0400664
1102.597 0.0400261
1103.187 0.0399861
1103.777 0.0399463
1104.368 0.0399068
1104.959 0.0398676
1105.551 0.0398286
1106.143 0.0397900
1106.735 0.0397518
1107.328 0.0397139
1107.921 0.0396764
1108.514 0.0396392
1109.108 0.0396025
1109.702 0.0395661
1110.296 0.0395302
1110.891 0.0394947
1111.486 0.0394597
1112.082 0.0394251
1112.678 0.0393910
1113.275 0.0393573
1113.872 0.0393242
1114.469 0.0392915
1115.067 0.0392594
1115.665 0.0392278
1116.264 0.0391967
1116.864 0.0391661
1117.463 0.0391362
1118.063 0.0391068
1118.664 0.0390779
1119.265 0.0390496
1119.867 0.0390219
1120.469 0.0389948
1121.072 0.0389683
1121.675 0.0389425
1122.279 0.0389172
1122.883 0.0388926
1123.488 0.0388686
1124.093 0.0388452
1124.699 0.0388225
1125.305 0.0388004
1125.912 0.0387790
1126.52 0.0387582
1127.128 0.0387381
1127.737 0.0387186
1128.346 0.0386998
1128.956 0.0386817
1129.567 0.0386642
1130.178 0.0386475
1130.79 0.0386313
1131.402 0.0386159
1132.015 0.0386012
1132.629 0.0385871
1133.243 0.0385736
1133.858 0.0385609
1134.474 0.0385488
1135.09 0.0385374
1135.707 0.0385267
1136.325 0.0385166
1136.943 0.0385072
1137.562 0.0384985
1138.182 0.0384904
1138.802 0.0384829
1139.423 0.0384762
1140.045 0.0384700
1140.668 0.0384645
1141.291 0.0384596
1141.916 0.0384554
1142.54 0.0384517
1143.166 0.0384487
1143.793 0.0384463
1144.42 0.0384444
1145.048 0.0384432
