Measurement Sequence started on: 09-46-08-630
Integration time: 30
Scans to Average: 2 
>>>>>Begin Spectral Data<<<<<
434.745 .0992389
435.665 .1053385
436.585 .0990888
437.503 .0915157
438.420 .0856665
439.335 .0841494
440.249 .0808451
441.162 .0777362
442.074 .0751768
442.984 .0731070
443.894 .0714076
444.802 .0699679
445.708 .0687507
446.614 .0676881
447.518 .0667787
448.422 .0659990
449.324 .0653436
450.224 .0647808
451.124 .0642685
452.022 .0638143
452.920 .0633931
453.816 .0629916
454.711 .0626271
455.605 .0623049
456.497 .0620199
457.389 .0617806
458.279 .0615758
459.169 .0613989
460.057 .0612529
460.944 .0611244
461.830 .0610066
462.715 .0608959
463.599 .0607841
464.482 .0606717
465.363 .0605600
466.244 .0604522
467.124 .0603444
468.002 .0602375
468.880 .0601307
469.756 .0600161
470.632 .0598997
471.506 .0597862
472.379 .0596794
473.252 .0595854
474.123 .0595054
474.994 .0594389
475.863 .0593832
476.731 .0593382
477.599 .0593068
478.465 .0592844
479.331 .0592760
480.195 .0592765
481.059 .0592877
481.921 .0593050
482.783 .0593326
483.643 .0593653
484.503 .0594062
485.362 .0594553
486.220 .0595040
487.077 .0595478
487.933 .0595905
488.788 .0596291
489.642 .0596654
490.496 .0597029
491.348 .0597357
492.200 .0597603
493.050 .0597842
493.900 .0598013
494.749 .0598124
495.597 .0598225
496.445 .0598345
497.291 .0598445
498.136 .0598605
498.981 .0598821
499.825 .0599045
500.668 .0599386
501.510 .0599860
502.352 .0600412
503.192 .0600999
504.032 .0601691
504.871 .0602401
505.709 .0603184
506.546 .0604039
507.383 .0604887
508.219 .0605778
509.054 .0606746
509.888 .0607774
510.722 .0608847
511.554 .0610058
512.386 .0611360
513.217 .0612728
514.048 .0614139
514.877 .0615526
515.706 .0616757
516.535 .0617875
517.362 .0618931
518.189 .0619779
519.015 .0620465
519.840 .0621097
520.665 .0621630
521.489 .0622179
522.312 .0622635
523.134 .0623129
523.956 .0623683
524.777 .0624529
525.598 .0625574
526.417 .0626908
527.236 .0628605
528.055 .0630584
528.872 .0632706
529.690 .0635103
530.506 .0637626
531.322 .0640195
532.137 .0642820
532.951 .0645568
533.765 .0648330
534.578 .0651121
535.391 .0653849
536.203 .0656492
537.014 .0658967
537.824 .0661106
538.634 .0662679
539.444 .0663799
540.253 .0664470
541.061 .0664559
541.868 .0664035
542.675 .0662965
543.482 .0661386
544.288 .0659319
545.093 .0656869
545.897 .0654034
546.702 .0650996
547.505 .0647789
548.308 .0644462
549.110 .0641106
549.912 .0637683
550.713 .0634233
551.514 .0630766
552.314 .0627306
553.114 .0623837
553.913 .0620399
554.711 .0617083
555.509 .0613983
556.306 .0611168
557.103 .0608570
557.900 .0606183
558.695 .0603988
559.491 .0601886
560.285 .0599791
561.080 .0597642
561.873 .0595422
562.667 .0593101
563.459 .0590840
564.252 .0588549
565.043 .0586320
565.835 .0584141
566.625 .0581956
567.416 .0579747
568.205 .0577496
568.995 .0575220
569.783 .0572906
570.572 .0570707
571.360 .0568706
572.147 .0566838
572.934 .0565208
573.720 .0563746
574.506 .0562426
575.292 .0561226
576.077 .0560084
576.862 .0558924
577.646 .0557753
578.429 .0556589
579.213 .0555404
579.996 .0554192
580.778 .0553005
581.560 .0551810
582.341 .0550631
583.123 .0549465
583.903 .0548294
584.684 .0547123
585.463 .0545981
586.243 .0544863
587.022 .0543787
587.800 .0542708
588.578 .0541671
589.356 .0540656
590.134 .0539703
590.911 .0538785
591.687 .0537904
592.463 .0537064
593.239 .0536268
594.014 .0535479
594.789 .0534713
595.564 .0533945
596.338 .0533195
597.112 .0532454
597.885 .0531741
598.658 .0531057
599.431 .0530411
600.203 .0529802
600.975 .0529234
601.747 .0528703
602.518 .0528222
603.289 .0527763
604.059 .0527330
604.829 .0526908
605.599 .0526494
606.369 .0526073
607.138 .0525664
607.906 .0525266
608.675 .0524889
609.443 .0524524
610.210 .0524185
610.977 .0523858
611.744 .0523558
612.511 .0523272
613.277 .0522989
614.043 .0522714
614.809 .0522447
615.574 .0522177
616.339 .0521911
617.104 .0521662
617.868 .0521437
618.632 .0521226
619.395 .0521053
620.159 .0520896
620.922 .0520766
621.684 .0520669
622.447 .0520593
623.209 .0520527
623.970 .0520470
624.732 .0520408
625.493 .0520346
626.254 .0520281
627.014 .0520217
627.774 .0520155
628.534 .0520104
629.294 .0520062
630.053 .0520027
630.812 .0520001
631.571 .0519981
632.329 .0519957
633.087 .0519936
633.845 .0519897
634.602 .0519837
635.359 .0519765
636.116 .0519670
636.873 .0519556
637.629 .0519416
638.385 .0519242
639.141 .0519042
639.897 .0518821
640.652 .0518566
641.407 .0518278
642.161 .0517963
642.916 .0517614
643.670 .0517226
644.424 .0516813
645.177 .0516382
645.931 .0515933
646.684 .0515483
647.436 .0515032
648.189 .0514585
648.941 .0514155
649.693 .0513733
650.445 .0513315
651.196 .0512904
651.947 .0512487
652.698 .0512054
653.449 .0511613
654.199 .0511173
654.949 .0510737
655.699 .0510315
656.449 .0509906
657.198 .0509516
657.947 .0509141
658.696 .0508778
659.445 .0508419
660.193 .0508056
660.941 .0507684
661.689 .0507294
662.436 .0506896
663.184 .0506491
663.931 .0506085
664.678 .0505685
665.424 .0505300
666.171 .0504926
666.917 .0504558
667.663 .0504191
668.408 .0503828
669.154 .0503464
669.899 .0503093
670.644 .0502705
671.388 .0502310
672.133 .0501903
672.877 .0501500
673.621 .0501092
674.365 .0500697
675.108 .0500325
675.851 .0499978
676.594 .0499656
677.337 .0499362
678.080 .0499090
678.822 .0498833
679.564 .0498584
680.306 .0498346
681.047 .0498108
681.789 .0497881
682.530 .0497666
683.271 .0497475
684.012 .0497304
684.752 .0497151
685.492 .0497005
686.232 .0496868
686.972 .0496727
687.712 .0496576
688.451 .0496413
689.190 .0496246
689.929 .0496074
690.667 .0495900
691.406 .0495730
692.144 .0495572
692.882 .0495426
693.620 .0495288
694.357 .0495153
695.095 .0495019
695.832 .0494877
696.569 .0494726
697.305 .0494568
698.042 .0494403
698.778 .0494230
699.514 .0494048
700.249 .0493860
700.985 .0493671
701.720 .0493476
702.455 .0493277
703.190 .0493075
703.925 .0492870
704.659 .0492659
705.393 .0492439
706.127 .0492209
706.861 .0491973
707.595 .0491726
708.328 .0491469
709.061 .0491198
709.794 .0490918
710.527 .0490631
711.259 .0490342
711.991 .0490052
712.723 .0489759
713.455 .0489460
714.186 .0489155
714.918 .0488836
715.649 .0488504
716.380 .0488155
717.110 .0487790
717.841 .0487403
718.571 .0487000
719.301 .0486575
720.031 .0486135
720.760 .0485687
721.490 .0485232
722.219 .0484771
722.948 .0484307
723.676 .0483843
724.405 .0483374
725.133 .0482900
725.861 .0482416
726.589 .0481920
727.317 .0481412
728.044 .0480893
728.771 .0480363
729.498 .0479836
730.225 .0479321
730.951 .0478818
731.677 .0478333
732.403 .0477869
733.129 .0477417
733.855 .0476980
734.580 .0476549
735.305 .0476118
736.030 .0475683
736.755 .0475250
737.479 .0474816
738.203 .0474382
738.927 .0473953
739.651 .0473532
740.375 .0473116
741.098 .0472709
741.821 .0472297
742.544 .0471882
743.267 .0471465
743.989 .0471044
744.711 .0470619
745.433 .0470196
746.155 .0469775
746.877 .0469356
747.598 .0468943
748.319 .0468537
749.040 .0468135
749.760 .0467742
750.481 .0467359
751.201 .0466991
751.921 .0466635
752.640 .0466290
753.360 .0465955
754.079 .0465629
754.798 .0465311
755.517 .0464989
756.235 .0464666
756.953 .0464341
757.671 .0464014
758.389 .0463688
759.107 .0463363
759.824 .0463043
760.541 .0462729
761.258 .0462425
761.974 .0462124
762.691 .0461823
763.407 .0461520
764.123 .0461219
764.838 .0460916
765.554 .0460608
766.269 .0460298
766.984 .0459987
767.699 .0459683
768.413 .0459385
769.127 .0459095
769.841 .0458817
770.555 .0458551
771.268 .0458302
771.982 .0458064
772.694 .0457838
773.407 .0457623
774.120 .0457413
774.832 .0457209
775.544 .0457007
776.256 .0456803
776.967 .0456598
777.678 .0456398
778.389 .0456197
779.100 .0455995
779.810 .0455790
780.521 .0455583
781.231 .0455367
781.940 .0455143
782.650 .0454904
783.359 .0454649
784.068 .0454386
784.776 .0454116
785.485 .0453839
786.193 .0453568
786.901 .0453300
787.609 .0453038
788.316 .0452781
789.023 .0452529
789.730 .0452278
790.436 .0452036
791.143 .0451797
791.849 .0451565
792.555 .0451340
793.260 .0451127
793.965 .0450917
794.670 .0450716
795.375 .0450518
796.080 .0450317
796.784 .0450105
797.488 .0449883
798.191 .0449643
798.895 .0449393
799.598 .0449133
800.301 .0448867
801.003 .0448600
801.705 .0448329
802.408 .0448046
803.109 .0447753
803.811 .0447445
804.512 .0447115
805.213 .0446764
805.913 .0446396
806.614 .0446012
807.314 .0445619
808.014 .0445223
808.713 .0444834
809.412 .0444453
810.111 .0444073
810.810 .0443689
811.508 .0443295
812.206 .0442891
812.904 .0442470
813.602 .0442036
814.299 .0441597
814.996 .0441156
815.692 .0440722
816.389 .0440300
817.085 .0439893
817.781 .0439501
818.476 .0439116
819.171 .0438733
819.866 .0438346
820.561 .0437949
821.255 .0437535
821.949 .0437113
822.643 .0436688
823.336 .0436256
824.029 .0435827
824.722 .0435403
825.415 .0434988
826.107 .0434577
826.799 .0434167
827.490 .0433754
828.182 .0433333
828.873 .0432898
829.563 .0432439
830.254 .0431963
830.944 .0431480
831.634 .0430989
832.323 .0430498
833.012 .0430010
833.701 .0429537
834.390 .0429082
835.078 .0428646
835.766 .0428230
836.453 .0427833
837.141 .0427449
837.828 .0427072
838.514 .0426698
839.201 .0426324
839.887 .0425954
840.572 .0425583
841.258 .0425213
841.943 .0424850
842.628 .0424494
843.312 .0424150
843.996 .0423817
844.680 .0423499
845.363 .0423187
846.046 .0422878
846.729 .0422568
847.412 .0422252
848.094 .0421931
848.776 .0421604
849.457 .0421273
850.139 .0420941
850.819 .0420609
851.500 .0420278
852.180 .0419950
852.860 .0419633
853.540 .0419325
854.219 .0419024
854.898 .0418723
855.576 .0418429
856.254 .0418133
856.932 .0417839
857.610 .0417543
858.287 .0417250
858.964 .0416961
859.640 .0416674
860.317 .0416398
860.993 .0416130
861.668 .0415877
862.343 .0415636
863.018 .0415402
863.693 .0415181
864.367 .0414966
865.041 .0414757
865.714 .0414550
866.387 .0414347
867.060 .0414143
867.732 .0413935
868.404 .0413723
869.076 .0413511
869.748 .0413297
870.419 .0413083
871.089 .0412862
871.760 .0412640
872.430 .0412413
873.099 .0412182
873.769 .0411948
874.438 .0411715
875.106 .0411477
875.774 .0411241
876.442 .0411006
877.110 .0410776
877.777 .0410554
878.444 .0410342
879.110 .0410138
879.776 .0409943
880.442 .0409748
881.108 .0409556
881.773 .0409365
882.437 .0409177
883.102 .0408987
883.766 .0408800
884.429 .0408620
885.093 .0408450
885.755 .0408300
886.418 .0408167
887.080 .0408051
887.742 .0407950
888.403 .0407858
889.064 .0407773
889.725 .0407694
890.385 .0407623
891.045 .0407560
891.705 .0407514
892.364 .0407481
893.023 .0407463
893.682 .0407467
894.340 .0407488
894.998 .0407529
895.655 .0407581
896.312 .0407644
896.969 .0407711
897.625 .0407786
898.281 .0407861
898.937 .0407936
899.592 .0408010
900.247 .0408076
900.901 .0408134
901.555 .0408180
902.209 .0408208
902.862 .0408217
903.515 .0408200
904.168 .0408159
904.820 .0408089
905.472 .0407994
906.123 .0407871
906.774 .0407728
907.425 .0407563
908.076 .0407376
908.726 .0407167
909.375 .0406943
910.024 .0406699
910.673 .0406439
911.322 .0406171
911.970 .0405891
912.618 .0405607
913.265 .0405325
913.912 .0405043
914.558 .0404769
915.205 .0404500
915.850 .0404235
916.496 .0403971
917.141 .0403712
917.786 .0403455
918.430 .0403195
919.074 .0402937
919.718 .0402682
920.361 .0402423
921.004 .0402168
921.646 .0401914
922.288 .0401656
922.930 .0401396
923.571 .0401132
924.212 .0400868
924.853 .0400602
925.493 .0400342
926.133 .0400087
926.772 .0399841
927.411 .0399604
928.050 .0399370
928.688 .0399135
929.326 .0398901
929.963 .0398667
930.600 .0398432
931.237 .0398197
931.874 .0397971
932.510 .0397756
933.145 .0397557
933.780 .0397369
934.415 .0397189
935.050 .0397014
935.684 .0396839
936.318 .0396660
936.951 .0396473
937.584 .0396278
938.217 .0396077
938.849 .0395867
939.481 .0395650
940.112 .0395424
940.743 .0395193
941.374 .0394955
942.004 .0394711
942.634 .0394455
943.264 .0394184
943.893 .0393899
944.522 .0393598
945.150 .0393282
945.778 .0392944
946.406 .0392591
947.033 .0392222
947.660 .0391839
948.287 .0391443
948.913 .0391036
949.539 .0390624
950.165 .0390208
950.790 .0389791
951.414 .0389368
952.039 .0388945
952.663 .0388527
953.286 .0388107
953.910 .0387689
954.533 .0387266
955.155 .0386847
955.777 .0386431
956.399 .0386021
957.020 .0385620
957.641 .0385230
958.262 .0384856
958.882 .0384490
959.502 .0384137
960.122 .0383791
960.741 .0383453
961.360 .0383120
961.979 .0382789
962.597 .0382453
963.214 .0382109
963.832 .0381764
964.449 .0381416
965.066 .0381070
965.682 .0380730
966.298 .0380391
966.914 .0380062
967.529 .0379740
968.144 .0379422
968.758 .0379106
969.373 .0378790
969.986 .0378470
970.600 .0378145
971.213 .0377821
971.826 .0377501
972.438 .0377191
973.050 .0376893
973.662 .0376604
974.274 .0376320
974.885 .0376044
975.495 .0375768
976.106 .0375489
976.716 .0375211
977.325 .0374933
977.935 .0374659
978.544 .0374387
979.152 .0374118
979.761 .0373856
980.369 .0373595
980.976 .0373340
981.584 .0373079
982.191 .0372815
982.797 .0372552
983.404 .0372289
984.010 .0372037
984.615 .0371792
985.221 .0371555
985.826 .0371330
986.430 .0371105
987.035 .0370881
987.639 .0370647
988.243 .0370412
988.846 .0370179
989.449 .0369946
990.052 .0369715
990.654 .0369491
991.256 .0369273
991.858 .0369066
992.460 .0368863
993.061 .0368662
993.662 .0368464
994.262 .0368272
994.863 .0368087
995.463 .0367909
996.062 .0367740
996.662 .0367589
997.261 .0367446
997.860 .0367315
998.458 .0367183
999.056 .0367050
999.654 .0366920
1000.252 .0366792
1000.849 .0366670
1001.446 .0366555
1002.043 .0366450
1002.639 .0366357
1003.235 .0366271
1003.831 .0366193
1004.427 .0366118
1005.022 .0366045
1005.617 .0365976
1006.212 .0365902
1006.806 .0365825
1007.401 .0365752
1007.995 .0365689
1008.588 .0365640
1009.182 .0365605
1009.775 .0365581
1010.368 .0365568
1010.960 .0365555
1011.553 .0365543
1012.145 .0365528
1012.737 .0365515
1013.328 .0365499
1013.920 .0365483
1014.511 .0365469
1015.102 .0365464
1015.692 .0365463
1016.283 .0365476
1016.873 .0365497
1017.463 .0365520
1018.052 .0365537
1018.642 .0365551
1019.231 .0365565
1019.820 .0365584
1020.409 .0365605
1020.997 .0365634
1021.585 .0365663
1022.173 .0365694
1022.761 .0365713
1023.349 .0365726
1023.936 .0365732
1024.524 .0365721
1025.111 .0365697
1025.697 .0365658
1026.284 .0365607
1026.870 .0365550
1027.457 .0365496
1028.043 .0365444
1028.628 .0365387
1029.214 .0365323
1029.800 .0365254
1030.385 .0365179
1030.970 .0365105
1031.555 .0365027
1032.139 .0364959
1032.724 .0364908
1033.308 .0364868
1033.893 .0364837
1034.477 .0364823
1035.060 .0364809
1035.644 .0364797
1036.228 .0364774
1036.811 .0364743
1037.394 .0364705
1037.977 .0364673
1038.560 .0364648
1039.143 .0364639
1039.726 .0364644
1040.308 .0364657
1040.891 .0364672
1041.473 .0364693
1042.055 .0364700
1042.637 .0364698
1043.219 .0364695
1043.801 .0364694
1044.382 .0364681
1044.964 .0364672
1045.545 .0364659
1046.127 .0364655
1046.708 .0364650
1047.289 .0364641
1047.870 .0364629
1048.451 .0364620
1049.032 .0364619
1049.612 .0364630
1050.193 .0364654
1050.774 .0364706
1051.354 .0364780
1051.935 .0364870
1052.515 .0364974
1053.095 .0365091
1053.675 .0365213
1054.256 .0365348
1054.836 .0365490
1055.416 .0365642
1055.996 .0365797
1056.576 .0365969
1057.156 .0366155
1057.735 .0366348
1058.315 .0366553
1058.895 .0366748
1059.475 .0366932
1060.055 .0367107
1060.634 .0367258
1061.214 .0367398
1061.794 .0367534
1062.373 .0367677
1062.953 .0367824
1063.533 .0367980
1064.113 .0368163
1064.692 .0368359
1065.272 .0368563
1065.852 .0368767
1066.431 .0368951
1067.011 .0369113
1067.591 .0369240
1068.171 .0369334
1068.751 .0369400
1069.331 .0369454
1069.910 .0369490
1070.490 .0369512
1071.071 .0369531
1071.651 .0369542
1072.231 .0369539
1072.811 .0369521
1073.391 .0369481
1073.972 .0369412
1074.552 .0369333
1075.133 .0369250
1075.713 .0369158
1076.294 .0369072
1076.875 .0368980
1077.456 .0368897
1078.037 .0368820
1078.618 .0368755
1079.199 .0368695
1079.780 .0368659
1080.362 .0368653
1080.943 .0368653
1081.525 .0368670
1082.107 .0368690
1082.689 .0368701
1083.271 .0368698
1083.853 .0368662
1084.436 .0368593
1085.018 .0368497
1085.601 .0368394
1086.184 .0368282
1086.767 .0368165
1087.351 .0368051
1087.934 .0367935
1088.518 .0367824
1089.102 .0367720
1089.686 .0367615
1090.270 .0367511
1090.855 .0367410
1091.439 .0367310
1092.024 .0367207
1092.609 .0367109
1093.195 .0367020
1093.780 .0366923
1094.366 .0366828
1094.952 .0366731
1095.539 .0366650
1096.125 .0366589
1096.712 .0366575
1097.299 .0366595
1097.887 .0366642
1098.475 .0366712
1099.063 .0366764
1099.651 .0366800
1100.239 .0366804
1100.828 .0366767
1101.417 .0366692
1102.007 .0366578
1102.597 .0366453
1103.187 .0366312
1103.777 .0366208
1104.368 .0366113
1104.959 .0366035
1105.551 .0365961
1106.143 .0365879
1106.735 .0365791
1107.328 .0365685
1107.921 .0365583
1108.514 .0365475
1109.108 .0365402
1109.702 .0365360
1110.296 .0365340
1110.891 .0365377
1111.486 .0365438
1112.082 .0365517
1112.678 .0365573
1113.275 .0365608
1113.872 .0365592
1114.469 .0365544
1115.067 .0365486
1115.665 .0365437
1116.264 .0365448
1116.864 .0365542
1117.463 .0365724
1118.063 .0365990
1118.664 .0366319
1119.265 .0366675
1119.867 .0367018
1120.469 .0367342
1121.072 .0367601
1121.675 .0367822
1122.279 .0368030
1122.883 .0368285
1123.488 .0368600
1124.093 .0369017
1124.699 .0369575
1125.305 .0370245
1125.912 .0370985
1126.520 .0371745
1127.128 .0372465
1127.737 .0373136
1128.346 .0373711
1128.956 .0374219
1129.567 .0374659
1130.178 .0375088
1130.790 .0375555
1131.402 .0376014
1132.015 .0376528
1132.629 .0377101
1133.243 .0377684
1133.858 .0378291
1134.474 .0378890
1135.090 .0379477
1135.707 .0380030
1136.325 .0380596
1136.943 .0381151
1137.562 .0381679
1138.182 .0382239
1138.802 .0382732
1139.423 .0383189
1140.045 .0383744
1140.668 .0384353
1141.291 .0385074
1141.916 .0385775
1142.540 .0384647
1143.166 .0388337
1143.793 .0389566
1144.420 .0391259
1145.048 .0387720
