BestFit value for E:\RC_data\Compressed_For_Future_Analysis_Lite\run\0009_2025-09-03_21-46-21\Interpretation_History\2025-09-07_12-45-45\ResultsGraphs\BestFit\(Run)spectra_21-47-05-763_BestFit.txt
600.715 0.0283469
601.488 0.0283178
602.261 0.0282890
603.034 0.0282605
603.806 0.0282324
604.578 0.0282047
605.349 0.0281774
606.121 0.0281505
606.891 0.0281242
607.662 0.0280982
608.432 0.0280728
609.201 0.0280478
609.971 0.0280234
610.740 0.0279995
611.508 0.0279761
612.277 0.0279532
613.045 0.0279309
613.812 0.0279091
614.579 0.0278878
615.346 0.0278671
616.113 0.0278468
616.879 0.0278269
617.645 0.0278076
618.411 0.0277887
619.176 0.0277702
619.941 0.0277521
620.705 0.0277344
621.470 0.0277170
622.233 0.0276999
622.997 0.0276831
623.760 0.0276666
624.523 0.0276502
625.286 0.0276340
626.048 0.0276180
626.810 0.0276020
627.572 0.0275862
628.333 0.0275703
629.095 0.0275544
629.855 0.0275385
630.616 0.0275225
631.376 0.0275064
632.136 0.0274902
632.895 0.0274738
633.655 0.0274571
634.414 0.0274402
635.172 0.0274231
635.931 0.0274056
636.689 0.0273879
637.447 0.0273697
638.204 0.0273513
638.962 0.0273324
639.718 0.0273132
640.475 0.0272936
641.231 0.0272736
641.988 0.0272531
642.743 0.0272323
643.499 0.0272110
644.254 0.0271893
645.009 0.0271672
645.764 0.0271447
646.518 0.0271219
647.272 0.0270986
648.026 0.0270750
648.780 0.0270510
649.533 0.0270268
650.286 0.0270022
651.039 0.0269774
651.792 0.0269523
652.544 0.0269270
653.296 0.0269015
654.048 0.0268758
654.799 0.0268501
655.550 0.0268243
656.301 0.0267984
657.052 0.0267724
657.802 0.0267466
658.552 0.0267207
659.302 0.0266950
660.052 0.0266694
660.801 0.0266440
661.550 0.0266188
662.299 0.0265938
663.048 0.0265691
663.796 0.0265448
664.544 0.0265208
665.292 0.0264971
666.040 0.0264739
666.787 0.0264512
667.534 0.0264289
668.281 0.0264071
669.028 0.0263858
669.774 0.0263651
670.521 0.0263449
671.266 0.0263254
672.012 0.0263064
672.758 0.0262880
673.503 0.0262703
674.248 0.0262532
674.992 0.0262368
675.737 0.0262210
676.481 0.0262058
677.225 0.0261913
677.969 0.0261774
678.712 0.0261642
679.455 0.0261515
680.199 0.0261395
680.941 0.0261281
681.684 0.0261173
682.426 0.0261070
683.168 0.0260973
683.910 0.0260881
684.652 0.0260794
685.393 0.0260712
686.134 0.0260634
686.875 0.0260560
687.616 0.0260489
688.356 0.0260423
689.097 0.0260359
689.837 0.0260298
690.576 0.0260240
691.316 0.0260184
692.055 0.0260129
692.794 0.0260075
693.533 0.0260023
694.272 0.0259971
695.010 0.0259919
695.748 0.0259866
696.486 0.0259813
697.224 0.0259759
697.962 0.0259704
698.699 0.0259646
699.436 0.0259587
700.173 0.0259525
700.909 0.0259460
701.646 0.0259392
702.382 0.0259320
703.118 0.0259245
703.853 0.0259166
704.589 0.0259082
705.324 0.0258993
706.059 0.0258900
706.794 0.0258802
707.529 0.0258698
708.263 0.0258589
708.997 0.0258474
709.731 0.0258354
710.465 0.0258228
711.198 0.0258096
711.931 0.0257958
712.664 0.0257814
713.397 0.0257663
714.130 0.0257507
714.862 0.0257345
715.594 0.0257177
716.326 0.0257002
717.058 0.0256822
717.789 0.0256637
718.520 0.0256445
719.251 0.0256249
719.982 0.0256047
720.713 0.0255840
721.443 0.0255628
722.173 0.0255411
722.903 0.0255190
723.633 0.0254965
724.362 0.0254737
725.091 0.0254504
725.820 0.0254269
726.549 0.0254030
727.278 0.0253789
728.006 0.0253545
728.734 0.0253300
729.462 0.0253053
730.190 0.0252804
730.917 0.0252555
731.644 0.0252306
732.371 0.0252056
733.098 0.0251807
733.825 0.0251558
734.551 0.0251310
735.277 0.0251064
736.003 0.0250819
736.728 0.0250577
737.454 0.0250337
738.179 0.0250099
738.904 0.0249865
739.629 0.0249635
740.353 0.0249408
741.077 0.0249186
741.801 0.0248968
742.525 0.0248755
743.249 0.0248547
743.972 0.0248344
744.695 0.0248147
745.418 0.0247956
746.141 0.0247770
746.863 0.0247592
747.585 0.0247419
748.307 0.0247254
749.029 0.0247095
749.750 0.0246943
750.472 0.0246798
751.193 0.0246661
751.913 0.0246531
752.634 0.0246408
753.354 0.0246292
754.074 0.0246184
754.794 0.0246084
755.514 0.0245991
756.233 0.0245906
756.952 0.0245828
757.671 0.0245757
758.390 0.0245693
759.108 0.0245637
759.826 0.0245588
760.544 0.0245546
761.262 0.0245510
761.979 0.0245481
762.697 0.0245459
763.414 0.0245443
764.130 0.0245432
764.847 0.0245428
765.563 0.0245429
766.279 0.0245436
766.995 0.0245447
767.710 0.0245464
768.426 0.0245485
769.141 0.0245510
769.855 0.0245539
770.570 0.0245571
771.284 0.0245607
771.998 0.0245646
772.712 0.0245687
773.426 0.0245731
774.139 0.0245776
774.852 0.0245823
775.565 0.0245871
776.277 0.0245921
776.990 0.0245970
777.702 0.0246020
778.414 0.0246070
779.125 0.0246119
779.836 0.0246167
780.547 0.0246214
781.258 0.0246260
781.969 0.0246304
782.679 0.0246345
783.389 0.0246384
784.099 0.0246420
784.808 0.0246453
785.517 0.0246482
786.226 0.0246508
786.935 0.0246530
787.643 0.0246547
788.352 0.0246560
789.060 0.0246568
789.767 0.0246570
790.475 0.0246568
791.182 0.0246560
791.889 0.0246546
792.595 0.0246527
793.301 0.0246501
794.008 0.0246469
794.713 0.0246431
795.419 0.0246386
796.124 0.0246335
796.829 0.0246277
797.534 0.0246212
798.238 0.0246140
798.942 0.0246061
799.646 0.0245975
800.350 0.0245882
801.053 0.0245782
801.756 0.0245675
802.459 0.0245560
803.162 0.0245439
803.864 0.0245311
804.566 0.0245176
805.267 0.0245034
805.969 0.0244885
806.670 0.0244729
807.371 0.0244567
808.071 0.0244398
808.772 0.0244223
809.472 0.0244042
810.171 0.0243855
810.871 0.0243662
811.570 0.0243463
812.269 0.0243259
812.967 0.0243049
813.666 0.0242835
814.364 0.0242615
815.061 0.0242391
815.759 0.0242163
816.456 0.0241931
817.153 0.0241694
817.849 0.0241454
818.545 0.0241211
819.241 0.0240965
819.937 0.0240716
820.632 0.0240464
821.327 0.0240211
822.022 0.0239955
822.717 0.0239697
823.411 0.0239439
824.105 0.0239179
824.798 0.0238919
825.491 0.0238658
826.184 0.0238397
826.877 0.0238136
827.569 0.0237876
828.261 0.0237617
828.953 0.0237359
829.645 0.0237102
830.336 0.0236846
831.027 0.0236593
831.717 0.0236342
832.407 0.0236094
833.097 0.0235848
833.787 0.0235606
834.476 0.0235367
835.165 0.0235131
835.854 0.0234900
836.542 0.0234672
837.230 0.0234449
837.918 0.0234231
838.605 0.0234018
839.292 0.0233809
839.979 0.0233606
840.665 0.0233408
841.352 0.0233216
842.037 0.0233030
842.723 0.0232850
843.408 0.0232676
844.093 0.0232508
844.777 0.0232347
845.462 0.0232193
846.145 0.0232045
846.829 0.0231904
847.512 0.0231771
848.195 0.0231644
848.878 0.0231524
849.560 0.0231412
850.242 0.0231307
850.923 0.0231210
851.605 0.0231119
852.286 0.0231036
852.966 0.0230961
853.646 0.0230893
854.326 0.0230833
855.006 0.0230780
855.685 0.0230734
856.364 0.0230696
857.043 0.0230665
857.721 0.0230642
858.399 0.0230625
859.077 0.0230616
859.754 0.0230614
860.431 0.0230619
861.107 0.0230631
861.784 0.0230649
862.459 0.0230674
863.135 0.0230706
863.810 0.0230744
864.485 0.0230788
865.160 0.0230839
865.834 0.0230895
866.508 0.0230957
867.181 0.0231025
867.854 0.0231098
868.527 0.0231176
869.199 0.0231260
869.872 0.0231348
870.543 0.0231441
871.215 0.0231538
871.886 0.0231640
872.557 0.0231746
873.227 0.0231855
873.897 0.0231968
874.567 0.0232084
875.236 0.0232204
875.905 0.0232326
876.573 0.0232451
877.242 0.0232578
877.909 0.0232707
878.577 0.0232839
879.244 0.0232972
879.911 0.0233106
880.577 0.0233242
881.243 0.0233378
881.909 0.0233515
882.575 0.0233653
883.240 0.0233791
883.904 0.0233929
884.569 0.0234067
885.232 0.0234203
885.896 0.0234340
886.559 0.0234475
887.222 0.0234609
887.885 0.0234742
888.547 0.0234873
889.208 0.0235001
889.870 0.0235128
890.531 0.0235253
891.192 0.0235375
891.852 0.0235494
892.512 0.0235610
893.171 0.0235723
893.830 0.0235833
894.489 0.0235939
895.148 0.0236041
895.806 0.0236140
896.464 0.0236234
897.121 0.0236324
897.778 0.0236409
898.434 0.0236490
899.091 0.0236566
899.747 0.0236637
900.402 0.0236704
901.057 0.0236765
901.712 0.0236820
902.366 0.0236871
903.020 0.0236915
903.674 0.0236954
904.327 0.0236988
904.980 0.0237015
905.633 0.0237037
906.285 0.0237052
906.936 0.0237061
907.588 0.0237065
908.239 0.0237062
908.889 0.0237052
909.540 0.0237037
910.190 0.0237015
910.839 0.0236986
911.488 0.0236952
912.137 0.0236910
912.785 0.0236863
913.433 0.0236808
914.081 0.0236748
914.728 0.0236681
915.375 0.0236607
916.021 0.0236527
916.668 0.0236441
917.313 0.0236348
917.959 0.0236249
918.604 0.0236144
919.248 0.0236032
919.892 0.0235915
920.536 0.0235791
921.180 0.0235661
921.823 0.0235525
922.465 0.0235384
923.108 0.0235236
923.750 0.0235083
924.391 0.0234924
925.032 0.0234760
925.673 0.0234590
926.313 0.0234415
926.953 0.0234235
927.593 0.0234050
928.232 0.0233860
928.871 0.0233665
929.510 0.0233465
930.148 0.0233261
930.786 0.0233052
931.423 0.0232839
932.060 0.0232622
932.697 0.0232401
933.333 0.0232176
933.969 0.0231948
934.604 0.0231716
935.239 0.0231480
935.874 0.0231242
936.508 0.0231000
937.142 0.0230756
937.776 0.0230509
938.409 0.0230259
939.042 0.0230007
939.674 0.0229753
940.306 0.0229497
940.938 0.0229239
941.569 0.0228979
942.200 0.0228718
942.830 0.0228456
943.460 0.0228192
944.090 0.0227928
944.720 0.0227662
945.349 0.0227396
945.977 0.0227130
946.606 0.0226863
947.233 0.0226597
947.861 0.0226330
948.488 0.0226064
949.115 0.0225798
949.741 0.0225533
950.367 0.0225268
950.993 0.0225005
951.618 0.0224743
952.243 0.0224482
952.868 0.0224222
953.492 0.0223964
954.115 0.0223708
954.739 0.0223454
955.362 0.0223202
955.984 0.0222952
956.607 0.0222704
957.229 0.0222460
957.850 0.0222218
958.471 0.0221978
959.092 0.0221742
959.713 0.0221509
960.333 0.0221286
960.952 0.0221074
961.572 0.0220864
962.191 0.0220659
962.809 0.0220457
963.428 0.0220259
964.045 0.0220065
964.663 0.0219875
965.280 0.0219689
965.897 0.0219507
966.513 0.0219330
967.129 0.0219157
967.745 0.0218988
968.361 0.0218824
968.976 0.0218665
969.590 0.0218511
970.205 0.0218362
970.818 0.0218218
971.432 0.0218078
972.045 0.0217944
972.658 0.0217815
973.271 0.0217691
973.883 0.0217572
974.495 0.0217459
975.106 0.0217351
975.717 0.0217249
976.328 0.0217152
976.938 0.0217061
977.548 0.0216975
978.158 0.0216895
978.768 0.0216820
979.377 0.0216751
979.985 0.0216688
980.594 0.0216630
981.202 0.0216578
981.809 0.0216532
982.417 0.0216491
983.024 0.0216456
983.631 0.0216427
984.237 0.0216403
984.843 0.0216385
985.449 0.0216373
986.054 0.0216366
986.659 0.0216365
987.264 0.0216369
987.868 0.0216379
988.472 0.0216395
989.076 0.0216416
989.679 0.0216443
990.282 0.0216474
990.885 0.0216512
991.487 0.0216554
992.090 0.0216602
992.691 0.0216655
993.293 0.0216713
993.894 0.0216777
994.495 0.0216845
995.095 0.0216918
995.696 0.0216997
996.296 0.0217080
996.895 0.0217167
997.494 0.0217260
998.093 0.0217357
998.692 0.0217459
999.291 0.0217565
999.889 0.0217675
1000.487 0.0217781
1001.084 0.0217889
1001.681 0.0218001
1002.278 0.0218117
1002.875 0.0218237
1003.471 0.0218361
1004.067 0.0218488
1004.663 0.0218620
1005.258 0.0218755
1005.854 0.0218893
1006.449 0.0219035
1007.043 0.0219180
1007.638 0.0219328
1008.232 0.0219479
1008.826 0.0219633
1009.419 0.0219789
1010.012 0.0219949
1010.605 0.0220111
1011.198 0.0220275
1011.791 0.0220442
1012.383 0.0220611
1012.975 0.0220783
1013.566 0.0220955
1014.158 0.0221131
1014.749 0.0221307
1015.34 0.0221486
1015.931 0.0221666
1016.521 0.0221847
1017.111 0.0222030
1017.701 0.0222213
1018.291 0.0222398
1018.88 0.0222584
1019.47 0.0222771
1020.059 0.0222958
1020.647 0.0223146
1021.236 0.0223334
1021.824 0.0223523
1022.412 0.0223711
1023000 0.0223900
1023.588 0.0224089
1024.175 0.0224278
1024.762 0.0224466
1025.349 0.0224654
1025.936 0.0224842
1026.523 0.0225029
1027.109 0.0225215
1027.695 0.0225401
1028.281 0.0225586
1028.867 0.0225769
1029.452 0.0225951
1030.038 0.0226133
1030.623 0.0226312
1031.208 0.0226491
1031.792 0.0226667
1032.377 0.0226842
1032.961 0.0227015
1033.546 0.0227187
1034.13 0.0227356
1034.714 0.0227523
1035.297 0.0227688
1035.881 0.0227851
1036.464 0.0228012
1037.047 0.0228170
1037.63 0.0228325
1038.213 0.0228478
1038.796 0.0228628
1039.378 0.0228775
1039.961 0.0228920
1040.543 0.0229061
1041.125 0.0229199
1041.707 0.0229334
1042.289 0.0229466
1042.871 0.0229595
1043.452 0.0229720
1044.034 0.0229842
1044.615 0.0229960
1045.196 0.0230075
1045.777 0.0230186
1046.358 0.0230294
1046.939 0.0230397
1047.52 0.0230497
1048.101 0.0230593
1048.681 0.0230685
1049.262 0.0230773
1049.842 0.0230857
1050.422 0.0230936
1051.002 0.0231012
1051.582 0.0231083
1052.162 0.0231151
1052.742 0.0231213
1053.322 0.0231272
1053.902 0.0231326
1054.482 0.0231376
1055.061 0.0231421
1055.641 0.0231462
1056.22 0.0231498
1056.80 0.0231530
1057.379 0.0231557
1057.958 0.0231580
1058.538 0.0231598
1059.117 0.0231611
1059.696 0.0231620
1060.275 0.0231624
1060.854 0.0231623
1061.433 0.0231618
1062.012 0.0231608
1062.592 0.0231593
1063.171 0.0231573
1063.75 0.0231549
1064.329 0.0231520
1064.908 0.0231486
1065.487 0.0231448
1066.066 0.0231405
1066.645 0.0231357
1067.224 0.0231304
1067.803 0.0231247
1068.382 0.0231185
1068.961 0.0231118
1069.54 0.0231047
1070.119 0.0230970
1070.698 0.0230890
1071.278 0.0230804
1071.857 0.0230714
1072.436 0.0230620
1073.016 0.0230521
1073.595 0.0230417
1074.175 0.0230309
1074.754 0.0230196
1075.334 0.0230079
1075.913 0.0229958
1076.493 0.0229832
1077.073 0.0229701
1077.653 0.0229567
1078.233 0.0229428
1078.813 0.0229285
1079.393 0.0229138
1079.974 0.0228986
1080.554 0.0228831
1081.135 0.0228672
1081.716 0.0228508
1082.296 0.0228341
1082.877 0.0228170
1083.458 0.0227994
1084.04 0.0227815
1084.621 0.0227633
1085.202 0.0227447
1085.784 0.0227257
1086.366 0.0227063
1086.948 0.0226866
1087.53 0.0226666
1088.112 0.0226462
1088.695 0.0226255
1089.277 0.0226044
1089.86 0.0225831
1090.443 0.0225614
1091.026 0.0225395
1091.61 0.0225172
1092.193 0.0224946
1092.777 0.0224718
1093.361 0.0224487
1093.946 0.0224253
1094.53 0.0224017
1095.115 0.0223778
1095.70 0.0223536
1096.285 0.0223292
1096.871 0.0223046
1097.456 0.0222798
1098.042 0.0222548
1098.628 0.0222295
1099.215 0.0222041
1099.802 0.0221784
1100.389 0.0221526
1100.976 0.0221266
1101.564 0.0221005
1102.152 0.0220741
1102.74 0.0220477
1103.329 0.0220211
1103.917 0.0219944
1104.507 0.0219675
1105.096 0.0219405
1105.686 0.0219135
1106.276 0.0218863
1106.867 0.0218590
1107.457 0.0218317
1108.049 0.0218043
1108.64 0.0217769
1109.232 0.0217494
1109.825 0.0217218
1110.417 0.0216942
1111.01 0.0216666
1111.604 0.0216389
1112.198 0.0216113
1112.792 0.0215837
1113.387 0.0215560
1113.982 0.0215284
1114.577 0.0215009
1115.173 0.0214734
1115.769 0.0214459
1116.366 0.0214184
1116.963 0.0213911
1117.561 0.0213638
1118.159 0.0213366
1118.758 0.0213095
1119.357 0.0212825
1119.957 0.0212555
1120.557 0.0212288
1121.157 0.0212021
1121.758 0.0211756
1122.36 0.0211492
1122.962 0.0211230
1123.564 0.0210970
1124.167 0.0210711
1124.771 0.0210454
1125.375 0.0210199
1125.98 0.0209946
1126.585 0.0209695
1127.191 0.0209446
1127.797 0.0209200
1128.404 0.0208956
1129.012 0.0208714
1129.62 0.0208474
1130.229 0.0208237
1130.838 0.0208003
1131.448 0.0207772
1132.058 0.0207544
1132.669 0.0207318
1133.281 0.0207095
1133.894 0.0206875
1134.507 0.0206659
1135.12 0.0206446
1135.735 0.0206236
1136.35 0.0206029
1136.965 0.0205826
1137.582 0.0205626
1138.199 0.0205430
1138.816 0.0205238
1139.435 0.0205049
1140.054 0.0204864
1140.674 0.0204682
1141.294 0.0204505
1141.916 0.0204332
1142.538 0.0204163
1143.16 0.0203998
1143.784 0.0203837
1144.408 0.0203680
1145.033 0.0203528
