BestFit value for E:\RC_data\Compressed_For_Future_Analysis_Lite\test_shlomo\aqueous_test\GoodSpectraLarge_Full\0012_2025-06-24_09-45-30\Interpretation_History\2025-07-21_16-23-34\ResultsGraphs\BestFit\(Run)spectra_09-46-26-975_BestFit.txt
600.203 0.0466242
600.975 0.0465623
601.747 0.0465005
602.518 0.0464388
603.289 0.0463773
604.059 0.0463160
604.829 0.0462549
605.599 0.0461940
606.369 0.0461332
607.138 0.0460727
607.906 0.0460125
608.675 0.0459525
609.443 0.0458928
610.210 0.0458335
610.977 0.0457745
611.744 0.0457157
612.511 0.0456573
613.277 0.0455993
614.043 0.0455416
614.809 0.0454842
615.574 0.0454273
616.339 0.0453707
617.104 0.0453144
617.868 0.0452586
618.632 0.0452032
619.395 0.0451481
620.159 0.0450933
620.922 0.0450389
621.684 0.0449848
622.447 0.0449310
623.209 0.0448775
623.970 0.0448244
624.732 0.0447714
625.493 0.0447188
626.254 0.0446663
627.014 0.0446141
627.774 0.0445620
628.534 0.0445101
629.294 0.0444583
630.053 0.0444066
630.812 0.0443550
631.571 0.0443035
632.329 0.0442521
633.087 0.0442007
633.845 0.0441492
634.602 0.0440979
635.359 0.0440465
636.116 0.0439950
636.873 0.0439435
637.629 0.0438920
638.385 0.0438405
639.141 0.0437888
639.897 0.0437371
640.652 0.0436855
641.407 0.0436337
642.161 0.0435820
642.916 0.0435301
643.670 0.0434783
644.424 0.0434265
645.177 0.0433748
645.931 0.0433230
646.684 0.0432712
647.436 0.0432197
648.189 0.0431681
648.941 0.0431167
649.693 0.0430654
650.445 0.0430143
651.196 0.0429634
651.947 0.0429127
652.698 0.0428623
653.449 0.0428120
654.199 0.0427621
654.949 0.0427125
655.699 0.0426632
656.449 0.0426143
657.198 0.0425657
657.947 0.0425175
658.696 0.0424697
659.445 0.0424223
660.193 0.0423753
660.941 0.0423287
661.689 0.0422826
662.436 0.0422369
663.184 0.0421915
663.931 0.0421467
664.678 0.0421022
665.424 0.0420582
666.171 0.0420145
666.917 0.0419712
667.663 0.0419283
668.408 0.0418858
669.154 0.0418435
669.899 0.0418016
670.644 0.0417600
671.388 0.0417187
672.133 0.0416775
672.877 0.0416366
673.621 0.0415959
674.365 0.0415553
675.108 0.0415148
675.851 0.0414745
676.594 0.0414342
677.337 0.0413939
678.080 0.0413536
678.822 0.0413133
679.564 0.0412730
680.306 0.0412326
681.047 0.0411922
681.789 0.0411515
682.530 0.0411108
683.271 0.0410699
684.012 0.0410288
684.752 0.0409876
685.492 0.0409462
686.232 0.0409046
686.972 0.0408627
687.712 0.0408206
688.451 0.0407784
689.190 0.0407359
689.929 0.0406932
690.667 0.0406504
691.406 0.0406073
692.144 0.0405640
692.882 0.0405206
693.620 0.0404771
694.357 0.0404334
695.095 0.0403896
695.832 0.0403457
696.569 0.0403018
697.305 0.0402578
698.042 0.0402138
698.778 0.0401699
699.514 0.0401260
700.249 0.0400823
700.985 0.0400386
701.720 0.0399950
702.455 0.0399517
703.190 0.0399085
703.925 0.0398656
704.659 0.0398230
705.393 0.0397807
706.127 0.0397386
706.861 0.0396970
707.595 0.0396557
708.328 0.0396148
709.061 0.0395743
709.794 0.0395343
710.527 0.0394948
711.259 0.0394557
711.991 0.0394171
712.723 0.0393791
713.455 0.0393415
714.186 0.0393044
714.918 0.0392679
715.649 0.0392319
716.380 0.0391964
717.110 0.0391614
717.841 0.0391269
718.571 0.0390929
719.301 0.0390594
720.031 0.0390264
720.760 0.0389938
721.490 0.0389616
722.219 0.0389298
722.948 0.0388985
723.676 0.0388675
724.405 0.0388367
725.133 0.0388064
725.861 0.0387762
726.589 0.0387463
727.317 0.0387167
728.044 0.0386872
728.771 0.0386578
729.498 0.0386285
730.225 0.0385993
730.951 0.0385702
731.677 0.0385410
732.403 0.0385118
733.129 0.0384825
733.855 0.0384531
734.580 0.0384236
735.305 0.0383940
736.030 0.0383641
736.755 0.0383340
737.479 0.0383037
738.203 0.0382731
738.927 0.0382422
739.651 0.0382110
740.375 0.0381795
741.098 0.0381476
741.821 0.0381154
742.544 0.0380828
743.267 0.0380498
743.989 0.0380165
744.711 0.0379828
745.433 0.0379486
746.155 0.0379141
746.877 0.0378792
747.598 0.0378439
748.319 0.0378083
749.040 0.0377723
749.760 0.0377361
750.481 0.0376994
751.201 0.0376625
751.921 0.0376253
752.640 0.0375879
753.360 0.0375502
754.079 0.0375123
754.798 0.0374743
755.517 0.0374361
756.235 0.0373978
756.953 0.0373594
757.671 0.0373210
758.389 0.0372826
759.107 0.0372441
759.824 0.0372058
760.541 0.0371675
761.258 0.0371294
761.974 0.0370915
762.691 0.0370537
763.407 0.0370162
764.123 0.0369789
764.838 0.0369420
765.554 0.0369054
766.269 0.0368692
766.984 0.0368334
767.699 0.0367979
768.413 0.0367630
769.127 0.0367286
769.841 0.0366946
770.555 0.0366612
771.268 0.0366283
771.982 0.0365960
772.694 0.0365643
773.407 0.0365331
774.120 0.0365026
774.832 0.0364727
775.544 0.0364434
776.256 0.0364147
776.967 0.0363867
777.678 0.0363593
778.389 0.0363326
779.100 0.0363064
779.810 0.0362809
780.521 0.0362559
781.231 0.0362315
781.940 0.0362078
782.650 0.0361845
783.359 0.0361618
784.068 0.0361397
784.776 0.0361180
785.485 0.0360968
786.193 0.0360760
786.901 0.0360557
787.609 0.0360357
788.316 0.0360161
789.023 0.0359968
789.730 0.0359778
790.436 0.0359590
791.143 0.0359405
791.849 0.0359221
792.555 0.0359039
793.260 0.0358859
793.965 0.0358678
794.670 0.0358498
795.375 0.0358319
796.080 0.0358138
796.784 0.0357957
797.488 0.0357775
798.191 0.0357592
798.895 0.0357406
799.598 0.0357219
800.301 0.0357029
801.003 0.0356837
801.705 0.0356641
802.408 0.0356442
803.109 0.0356240
803.811 0.0356033
804.512 0.0355823
805.213 0.0355608
805.913 0.0355389
806.614 0.0355165
807.314 0.0354936
808.014 0.0354702
808.713 0.0354464
809.412 0.0354220
810.111 0.0353970
810.810 0.0353716
811.508 0.0353456
812.206 0.0353190
812.904 0.0352920
813.602 0.0352643
814.299 0.0352362
814.996 0.0352075
815.692 0.0351784
816.389 0.0351487
817.085 0.0351185
817.781 0.0350879
818.476 0.0350568
819.171 0.0350253
819.866 0.0349934
820.561 0.0349610
821.255 0.0349283
821.949 0.0348953
822.643 0.0348619
823.336 0.0348283
824.029 0.0347944
824.722 0.0347603
825.415 0.0347260
826.107 0.0346915
826.799 0.0346569
827.490 0.0346222
828.182 0.0345874
828.873 0.0345526
829.563 0.0345179
830.254 0.0344831
830.944 0.0344485
831.634 0.0344139
832.323 0.0343796
833.012 0.0343454
833.701 0.0343114
834.390 0.0342776
835.078 0.0342442
835.766 0.0342111
836.453 0.0341783
837.141 0.0341459
837.828 0.0341140
838.514 0.0340825
839.201 0.0340514
839.887 0.0340208
840.572 0.0339908
841.258 0.0339613
841.943 0.0339324
842.628 0.0339040
843.312 0.0338763
843.996 0.0338492
844.680 0.0338228
845.363 0.0337970
846.046 0.0337718
846.729 0.0337474
847.412 0.0337236
848.094 0.0337006
848.776 0.0336782
849.457 0.0336565
850.139 0.0336356
850.819 0.0336153
851.500 0.0335958
852.180 0.0335770
852.860 0.0335588
853.540 0.0335413
854.219 0.0335246
854.898 0.0335084
855.576 0.0334930
856.254 0.0334782
856.932 0.0334640
857.610 0.0334503
858.287 0.0334373
858.964 0.0334249
859.640 0.0334130
860.317 0.0334016
860.993 0.0333907
861.668 0.0333803
862.343 0.0333704
863.018 0.0333608
863.693 0.0333517
864.367 0.0333429
865.041 0.0333344
865.714 0.0333263
866.387 0.0333184
867.060 0.0333107
867.732 0.0333033
868.404 0.0332960
869.076 0.0332888
869.748 0.0332818
870.419 0.0332748
871.089 0.0332679
871.760 0.0332610
872.430 0.0332540
873.099 0.0332470
873.769 0.0332399
874.438 0.0332327
875.106 0.0332253
875.774 0.0332177
876.442 0.0332100
877.110 0.0332019
877.777 0.0331936
878.444 0.0331850
879.110 0.0331761
879.776 0.0331668
880.442 0.0331571
881.108 0.0331470
881.773 0.0331365
882.437 0.0331256
883.102 0.0331141
883.766 0.0331022
884.429 0.0330898
885.093 0.0330768
885.755 0.0330633
886.418 0.0330492
887.080 0.0330346
887.742 0.0330194
888.403 0.0330036
889.064 0.0329872
889.725 0.0329702
890.385 0.0329526
891.045 0.0329344
891.705 0.0329156
892.364 0.0328961
893.023 0.0328761
893.682 0.0328553
894.340 0.0328341
894.998 0.0328121
895.655 0.0327896
896.312 0.0327665
896.969 0.0327428
897.625 0.0327186
898.281 0.0326938
898.937 0.0326684
899.592 0.0326425
900.247 0.0326160
900.901 0.0325891
901.555 0.0325617
902.209 0.0325338
902.862 0.0325054
903.515 0.0324767
904.168 0.0324474
904.820 0.0324179
905.472 0.0323879
906.123 0.0323577
906.774 0.0323271
907.425 0.0322962
908.076 0.0322650
908.726 0.0322337
909.375 0.0322021
910.024 0.0321703
910.673 0.0321384
911.322 0.0321063
911.970 0.0320742
912.618 0.0320419
913.265 0.0320097
913.912 0.0319774
914.558 0.0319452
915.205 0.0319129
915.850 0.0318809
916.496 0.0318488
917.141 0.0318169
917.786 0.0317851
918.430 0.0317536
919.074 0.0317222
919.718 0.0316911
920.361 0.0316603
921.004 0.0316297
921.646 0.0315995
922.288 0.0315697
922.930 0.0315401
923.571 0.0315111
924.212 0.0314824
924.853 0.0314541
925.493 0.0314263
926.133 0.0313990
926.772 0.0313722
927.411 0.0313459
928.050 0.0313201
928.688 0.0312950
929.326 0.0312703
929.963 0.0312463
930.600 0.0312229
931.237 0.0312001
931.874 0.0311779
932.510 0.0311564
933.145 0.0311355
933.780 0.0311153
934.415 0.0310957
935.050 0.0310768
935.684 0.0310586
936.318 0.0310410
936.951 0.0310242
937.584 0.0310081
938.217 0.0309926
938.849 0.0309778
939.481 0.0309638
940.112 0.0309504
940.743 0.0309377
941.374 0.0309257
942.004 0.0309144
942.634 0.0309037
943.264 0.0308937
943.893 0.0308844
944.522 0.0308757
945.150 0.0308677
945.778 0.0308603
946.406 0.0308535
947.033 0.0308473
947.660 0.0308417
948.287 0.0308366
948.913 0.0308322
949.539 0.0308283
950.165 0.0308249
950.790 0.0308220
951.414 0.0308196
952.039 0.0308177
952.663 0.0308163
953.286 0.0308153
953.910 0.0308147
954.533 0.0308145
955.155 0.0308146
955.777 0.0308152
956.399 0.0308160
957.020 0.0308172
957.641 0.0308187
958.262 0.0308204
958.882 0.0308224
959.502 0.0308245
960.122 0.0308278
960.741 0.0308349
961.360 0.0308422
961.979 0.0308495
962.597 0.0308570
963.214 0.0308645
963.832 0.0308720
964.449 0.0308796
965.066 0.0308871
965.682 0.0308946
966.298 0.0309021
966.914 0.0309095
967.529 0.0309167
968.144 0.0309238
968.758 0.0309308
969.373 0.0309376
969.986 0.0309443
970.600 0.0309507
971.213 0.0309568
971.826 0.0309627
972.438 0.0309684
973.050 0.0309737
973.662 0.0309787
974.274 0.0309834
974.885 0.0309877
975.495 0.0309917
976.106 0.0309953
976.716 0.0309984
977.325 0.0310012
977.935 0.0310035
978.544 0.0310053
979.152 0.0310067
979.761 0.0310076
980.369 0.0310080
980.976 0.0310079
981.584 0.0310073
982.191 0.0310062
982.797 0.0310045
983.404 0.0310023
984.010 0.0309995
984.615 0.0309962
985.221 0.0309923
985.826 0.0309878
986.430 0.0309827
987.035 0.0309771
987.639 0.0309709
988.243 0.0309640
988.846 0.0309566
989.449 0.0309486
990.052 0.0309399
990.654 0.0309307
991.256 0.0309209
991.858 0.0309104
992.460 0.0308994
993.061 0.0308878
993.662 0.0308756
994.262 0.0308628
994.863 0.0308494
995.463 0.0308354
996.062 0.0308209
996.662 0.0308058
997.261 0.0307901
997.860 0.0307739
998.458 0.0307571
999.056 0.0307398
999.654 0.0307220
1000.252 0.0307019
1000.849 0.0306790
1001.446 0.0306555
1002.043 0.0306316
1002.639 0.0306072
1003.235 0.0305824
1003.831 0.0305571
1004.427 0.0305314
1005.022 0.0305054
1005.617 0.0304789
1006.212 0.0304520
1006.806 0.0304248
1007.401 0.0303972
1007.995 0.0303693
1008.588 0.0303412
1009.182 0.0303127
1009.775 0.0302839
1010.368 0.0302549
1010.96 0.0302256
1011.553 0.0301961
1012.145 0.0301664
1012.737 0.0301365
1013.328 0.0301065
1013.92 0.0300763
1014.511 0.0300460
1015.102 0.0300155
1015.692 0.0299850
1016.283 0.0299544
1016.873 0.0299237
1017.463 0.0298930
1018.052 0.0298624
1018.642 0.0298316
1019.231 0.0298010
1019.82 0.0297703
1020.409 0.0297397
1020.997 0.0297093
1021.585 0.0296789
1022.173 0.0296486
1022.761 0.0296184
1023.349 0.0295884
1023.936 0.0295586
1024.524 0.0295290
1025.111 0.0294995
1025.697 0.0294704
1026.284 0.0294414
1026.87 0.0294127
1027.457 0.0293843
1028.043 0.0293562
1028.628 0.0293284
1029.214 0.0293009
1029.80 0.0292737
1030.385 0.0292469
1030.97 0.0292205
1031.555 0.0291944
1032.139 0.0291688
1032.724 0.0291436
1033.308 0.0291188
1033.893 0.0290944
1034.477 0.0290705
1035.06 0.0290471
1035.644 0.0290241
1036.228 0.0290016
1036.811 0.0289796
1037.394 0.0289581
1037.977 0.0289372
1038.56 0.0289167
1039.143 0.0288968
1039.726 0.0288774
1040.308 0.0288586
1040.891 0.0288404
1041.473 0.0288227
1042.055 0.0288055
1042.637 0.0287890
1043.219 0.0287730
1043.801 0.0287576
1044.382 0.0287429
1044.964 0.0287286
1045.545 0.0287151
1046.127 0.0287020
1046.708 0.0286896
1047.289 0.0286778
1047.87 0.0286667
1048.451 0.0286561
1049.032 0.0286461
1049.612 0.0286367
1050.193 0.0286279
1050.774 0.0286197
1051.354 0.0286122
1051.935 0.0286052
1052.515 0.0285988
1053.095 0.0285930
1053.675 0.0285878
1054.256 0.0285832
1054.836 0.0285791
1055.416 0.0285756
1055.996 0.0285727
1056.576 0.0285704
1057.156 0.0285686
1057.735 0.0285673
1058.315 0.0285666
1058.895 0.0285664
1059.475 0.0285667
1060.055 0.0285676
1060.634 0.0285689
1061.214 0.0285708
1061.794 0.0285731
1062.373 0.0285759
1062.953 0.0285792
1063.533 0.0285829
1064.113 0.0285871
1064.692 0.0285916
1065.272 0.0285966
1065.852 0.0286020
1066.431 0.0286078
1067.011 0.0286140
1067.591 0.0286205
1068.171 0.0286274
1068.751 0.0286346
1069.331 0.0286422
1069.91 0.0286500
1070.49 0.0286582
1071.071 0.0286666
1071.651 0.0286753
1072.231 0.0286842
1072.811 0.0286934
1073.391 0.0287028
1073.972 0.0287124
1074.552 0.0287222
1075.133 0.0287322
1075.713 0.0287423
1076.294 0.0287525
1076.875 0.0287629
1077.456 0.0287734
1078.037 0.0287840
1078.618 0.0287946
1079.199 0.0288053
1079.78 0.0288160
1080.362 0.0288268
1080.943 0.0288376
1081.525 0.0288484
1082.107 0.0288591
1082.689 0.0288699
1083.271 0.0288805
1083.853 0.0288911
1084.436 0.0289016
1085.018 0.0289120
1085.601 0.0289222
1086.184 0.0289324
1086.767 0.0289424
1087.351 0.0289522
1087.934 0.0289618
1088.518 0.0289712
1089.102 0.0289805
1089.686 0.0289894
1090.27 0.0289982
1090.855 0.0290067
1091.439 0.0290149
1092.024 0.0290228
1092.609 0.0290304
1093.195 0.0290377
1093.78 0.0290447
1094.366 0.0290513
1094.952 0.0290576
1095.539 0.0290635
1096.125 0.0290690
1096.712 0.0290742
1097.299 0.0290789
1097.887 0.0290832
1098.475 0.0290871
1099.063 0.0290905
1099.651 0.0290935
1100.239 0.0290960
1100.828 0.0290980
1101.417 0.0290996
1102.007 0.0291007
1102.597 0.0291012
1103.187 0.0291013
1103.777 0.0291008
1104.368 0.0290999
1104.959 0.0290983
1105.551 0.0290963
1106.143 0.0290937
1106.735 0.0290905
1107.328 0.0290868
1107.921 0.0290825
1108.514 0.0290776
1109.108 0.0290721
1109.702 0.0290661
1110.296 0.0290595
1110.891 0.0290523
1111.486 0.0290445
1112.082 0.0290361
1112.678 0.0290271
1113.275 0.0290175
1113.872 0.0290072
1114.469 0.0289964
1115.067 0.0289850
1115.665 0.0289730
1116.264 0.0289603
1116.864 0.0289471
1117.463 0.0289332
1118.063 0.0289188
1118.664 0.0289037
1119.265 0.0288881
1119.867 0.0288718
1120.469 0.0288549
1121.072 0.0288375
1121.675 0.0288194
1122.279 0.0288008
1122.883 0.0287816
1123.488 0.0287618
1124.093 0.0287415
1124.699 0.0287206
1125.305 0.0286991
1125.912 0.0286771
1126.52 0.0286545
1127.128 0.0286314
1127.737 0.0286078
1128.346 0.0285836
1128.956 0.0285589
1129.567 0.0285338
1130.178 0.0285081
1130.79 0.0284819
1131.402 0.0284553
1132.015 0.0284282
1132.629 0.0284007
1133.243 0.0283727
1133.858 0.0283443
1134.474 0.0283155
1135.09 0.0282863
1135.707 0.0282566
1136.325 0.0282266
1136.943 0.0281963
1137.562 0.0281655
1138.182 0.0281345
1138.802 0.0281031
1139.423 0.0280714
1140.045 0.0280394
1140.668 0.0280071
1141.291 0.0279746
1141.916 0.0279418
1142.54 0.0279088
1143.166 0.0278755
1143.793 0.0278420
1144.42 0.0278084
1145.048 0.0277746
