Measurement Sequence started on: 09-46-08-630
Integration time: 30
Scans to Average: 2 
>>>>>Begin Spectral Data<<<<<
434.745 .1116245
435.665 .0954030
436.585 .0843703
437.503 .0790218
438.420 .0738116
439.335 .0742683
440.249 .0704832
441.162 .0676871
442.074 .0655161
442.984 .0637162
443.894 .0622391
444.802 .0609810
445.708 .0599415
446.614 .0590785
447.518 .0583799
448.422 .0577750
449.324 .0572612
450.224 .0568170
451.124 .0564173
452.022 .0560699
452.920 .0557679
453.816 .0555030
454.711 .0552845
455.605 .0551093
456.497 .0549634
457.389 .0548446
458.279 .0547464
459.169 .0546517
460.057 .0545530
460.944 .0544517
461.830 .0543454
462.715 .0542395
463.599 .0541448
464.482 .0540582
465.363 .0539806
466.244 .0539223
467.124 .0538756
468.002 .0538384
468.880 .0538064
469.756 .0537738
470.632 .0537422
471.506 .0537104
472.379 .0536857
473.252 .0536680
474.123 .0536651
474.994 .0536862
475.863 .0537250
476.731 .0537744
477.599 .0538336
478.465 .0538965
479.331 .0539612
480.195 .0540213
481.059 .0540795
481.921 .0541358
482.783 .0541970
483.643 .0542652
484.503 .0543423
485.362 .0544254
486.220 .0545171
487.077 .0546063
487.933 .0546914
488.788 .0547700
489.642 .0548389
490.496 .0549034
491.348 .0549692
492.200 .0550403
493.050 .0551205
493.900 .0552082
494.749 .0553153
495.597 .0554309
496.445 .0555514
497.291 .0556664
498.136 .0557753
498.981 .0558755
499.825 .0559649
500.668 .0560479
501.510 .0561318
502.352 .0562186
503.192 .0563108
504.032 .0564083
504.871 .0565140
505.709 .0566316
506.546 .0567511
507.383 .0568690
508.219 .0569912
509.054 .0571024
509.888 .0572057
510.722 .0573057
511.554 .0574131
512.386 .0575225
513.217 .0576419
514.048 .0577810
514.877 .0579381
515.706 .0581187
516.535 .0583232
517.362 .0585510
518.189 .0587987
519.015 .0590575
519.840 .0593099
520.665 .0595636
521.489 .0598164
522.312 .0600527
523.134 .0602866
523.956 .0605276
524.777 .0607867
525.598 .0610643
526.417 .0613729
527.236 .0617157
528.055 .0620821
528.872 .0624609
529.690 .0628278
530.506 .0631837
531.322 .0635155
532.137 .0638195
532.951 .0640954
533.765 .0643460
534.578 .0645671
535.391 .0647631
536.203 .0649215
537.014 .0650372
537.824 .0650977
538.634 .0650925
539.444 .0650177
540.253 .0648783
541.061 .0646717
541.868 .0644177
542.675 .0641307
543.482 .0638239
544.288 .0634960
545.093 .0631702
545.897 .0628348
546.702 .0625035
547.505 .0621609
548.308 .0618123
549.110 .0614561
549.912 .0611050
550.713 .0607562
551.514 .0604298
552.314 .0601353
553.114 .0598729
553.913 .0596528
554.711 .0594691
555.509 .0593083
556.306 .0591753
557.103 .0590550
557.900 .0589462
558.695 .0588362
559.491 .0587328
560.285 .0586207
561.080 .0585164
561.873 .0584129
562.667 .0583030
563.459 .0581934
564.252 .0580788
565.043 .0579473
565.835 .0577952
566.625 .0576253
567.416 .0574344
568.205 .0572261
568.995 .0570093
569.783 .0567843
570.572 .0565691
571.360 .0563649
572.147 .0561728
572.934 .0559956
573.720 .0558311
574.506 .0556707
575.292 .0555108
576.077 .0553546
576.862 .0551975
577.646 .0550448
578.429 .0548988
579.213 .0547614
579.996 .0546335
580.778 .0545168
581.560 .0544092
582.341 .0543096
583.123 .0542147
583.903 .0541198
584.684 .0540236
585.463 .0539272
586.243 .0538294
587.022 .0537348
587.800 .0536444
588.578 .0535619
589.356 .0534854
590.134 .0534137
590.911 .0533495
591.687 .0532923
592.463 .0532414
593.239 .0531944
594.014 .0531503
594.789 .0531093
595.564 .0530696
596.338 .0530318
597.112 .0529959
597.885 .0529621
598.658 .0529288
599.431 .0528964
600.203 .0528662
600.975 .0528383
601.747 .0528146
602.518 .0527956
603.289 .0527804
604.059 .0527683
604.829 .0527590
605.599 .0527507
606.369 .0527438
607.138 .0527379
607.906 .0527314
608.675 .0527247
609.443 .0527186
610.210 .0527130
610.977 .0527088
611.744 .0527075
612.511 .0527086
613.277 .0527106
614.043 .0527132
614.809 .0527158
615.574 .0527181
616.339 .0527208
617.104 .0527236
617.868 .0527265
618.632 .0527310
619.395 .0527375
620.159 .0527461
620.922 .0527577
621.684 .0527718
622.447 .0527879
623.209 .0528050
623.970 .0528227
624.732 .0528397
625.493 .0528556
626.254 .0528700
627.014 .0528831
627.774 .0528939
628.534 .0529025
629.294 .0529085
630.053 .0529122
630.812 .0529134
631.571 .0529112
632.329 .0529061
633.087 .0528983
633.845 .0528886
634.602 .0528777
635.359 .0528658
636.116 .0528536
636.873 .0528411
637.629 .0528286
638.385 .0528164
639.141 .0528050
639.897 .0527941
640.652 .0527833
641.407 .0527728
642.161 .0527621
642.916 .0527501
643.670 .0527364
644.424 .0527221
645.177 .0527058
645.931 .0526876
646.684 .0526677
647.436 .0526467
648.189 .0526253
648.941 .0526046
649.693 .0525844
650.445 .0525649
651.196 .0525456
651.947 .0525254
652.698 .0525042
653.449 .0524833
654.199 .0524622
654.949 .0524421
655.699 .0524250
656.449 .0524110
657.198 .0524001
657.947 .0523929
658.696 .0523891
659.445 .0523881
660.193 .0523884
660.941 .0523897
661.689 .0523906
662.436 .0523916
663.184 .0523925
663.931 .0523938
664.678 .0523965
665.424 .0524001
666.171 .0524030
666.917 .0524062
667.663 .0524080
668.408 .0524081
669.154 .0524056
669.899 .0524014
670.644 .0523951
671.388 .0523867
672.133 .0523768
672.877 .0523656
673.621 .0523537
674.365 .0523416
675.108 .0523291
675.851 .0523174
676.594 .0523057
677.337 .0522941
678.080 .0522824
678.822 .0522711
679.564 .0522588
680.306 .0522454
681.047 .0522305
681.789 .0522139
682.530 .0521960
683.271 .0521764
684.012 .0521562
684.752 .0521354
685.492 .0521146
686.232 .0520933
686.972 .0520719
687.712 .0520502
688.451 .0520270
689.190 .0520033
689.929 .0519785
690.667 .0519531
691.406 .0519273
692.144 .0519013
692.882 .0518761
693.620 .0518518
694.357 .0518287
695.095 .0518055
695.832 .0517827
696.569 .0517599
697.305 .0517358
698.042 .0517108
698.778 .0516847
699.514 .0516577
700.249 .0516299
700.985 .0516019
701.720 .0515733
702.455 .0515450
703.190 .0515167
703.925 .0514884
704.659 .0514604
705.393 .0514327
706.127 .0514056
706.861 .0513796
707.595 .0513553
708.328 .0513331
709.061 .0513127
709.794 .0512949
710.527 .0512791
711.259 .0512661
711.991 .0512549
712.723 .0512456
713.455 .0512373
714.186 .0512303
714.918 .0512240
715.649 .0512185
716.380 .0512132
717.110 .0512087
717.841 .0512048
718.571 .0512011
719.301 .0511966
720.031 .0511919
720.760 .0511861
721.490 .0511793
722.219 .0511708
722.948 .0511606
723.676 .0511485
724.405 .0511346
725.133 .0511185
725.861 .0511010
726.589 .0510820
727.317 .0510617
728.044 .0510400
728.771 .0510180
729.498 .0509950
730.225 .0509719
730.951 .0509483
731.677 .0509253
732.403 .0509025
733.129 .0508800
733.855 .0508573
734.580 .0508347
735.305 .0508125
736.030 .0507896
736.755 .0507664
737.479 .0507434
738.203 .0507199
738.927 .0506959
739.651 .0506707
740.375 .0506446
741.098 .0506167
741.821 .0505876
742.544 .0505570
743.267 .0505249
743.989 .0504916
744.711 .0504576
745.433 .0504231
746.155 .0503885
746.877 .0503541
747.598 .0503189
748.319 .0502839
749.040 .0502487
749.760 .0502130
750.481 .0501774
751.201 .0501421
751.921 .0501078
752.640 .0500742
753.360 .0500414
754.079 .0500091
754.798 .0499772
755.517 .0499459
756.235 .0499150
756.953 .0498842
757.671 .0498541
758.389 .0498246
759.107 .0497959
759.824 .0497686
760.541 .0497421
761.258 .0497163
761.974 .0496912
762.691 .0496664
763.407 .0496414
764.123 .0496161
764.838 .0495917
765.554 .0495679
766.269 .0495455
766.984 .0495242
767.699 .0495039
768.413 .0494847
769.127 .0494664
769.841 .0494484
770.555 .0494310
771.268 .0494145
771.982 .0493984
772.694 .0493832
773.407 .0493695
774.120 .0493569
774.832 .0493455
775.544 .0493352
776.256 .0493261
776.967 .0493170
777.678 .0493087
778.389 .0493008
779.100 .0492931
779.810 .0492859
780.521 .0492786
781.231 .0492705
781.940 .0492613
782.650 .0492506
783.359 .0492379
784.068 .0492230
784.776 .0492070
785.485 .0491897
786.193 .0491717
786.901 .0491541
787.609 .0491370
788.316 .0491210
789.023 .0491062
789.730 .0490922
790.436 .0490784
791.143 .0490641
791.849 .0490489
792.555 .0490327
793.260 .0490160
793.965 .0489993
794.670 .0489829
795.375 .0489668
796.080 .0489519
796.784 .0489374
797.488 .0489232
798.191 .0489088
798.895 .0488936
799.598 .0488772
800.301 .0488587
801.003 .0488385
801.705 .0488165
802.408 .0487931
803.109 .0487692
803.811 .0487441
804.512 .0487187
805.213 .0486926
805.913 .0486655
806.614 .0486372
807.314 .0486081
808.014 .0485778
808.713 .0485459
809.412 .0485127
810.111 .0484782
810.810 .0484424
811.508 .0484058
812.206 .0483682
812.904 .0483298
813.602 .0482908
814.299 .0482515
814.996 .0482117
815.692 .0481727
816.389 .0481343
817.085 .0480962
817.781 .0480592
818.476 .0480229
819.171 .0479875
819.866 .0479523
820.561 .0479177
821.255 .0478831
821.949 .0478488
822.643 .0478151
823.336 .0477817
824.029 .0477494
824.722 .0477185
825.415 .0476883
826.107 .0476591
826.799 .0476305
827.490 .0476022
828.182 .0475742
828.873 .0475466
829.563 .0475187
830.254 .0474913
830.944 .0474646
831.634 .0474386
832.323 .0474134
833.012 .0473894
833.701 .0473664
834.390 .0473441
835.078 .0473224
835.766 .0473013
836.453 .0472810
837.141 .0472624
837.828 .0472451
838.514 .0472300
839.201 .0472169
839.887 .0472054
840.572 .0471951
841.258 .0471860
841.943 .0471778
842.628 .0471698
843.312 .0471622
843.996 .0471550
844.680 .0471483
845.363 .0471424
846.046 .0471375
846.729 .0471339
847.412 .0471319
848.094 .0471309
848.776 .0471302
849.457 .0471298
850.139 .0471296
850.819 .0471290
851.500 .0471281
852.180 .0471272
852.860 .0471260
853.540 .0471247
854.219 .0471234
854.898 .0471217
855.576 .0471198
856.254 .0471175
856.932 .0471144
857.610 .0471102
858.287 .0471054
858.964 .0470997
859.640 .0470929
860.317 .0470856
860.993 .0470774
861.668 .0470689
862.343 .0470599
863.018 .0470506
863.693 .0470409
864.367 .0470314
865.041 .0470222
865.714 .0470139
866.387 .0470066
867.060 .0470003
867.732 .0469946
868.404 .0469895
869.076 .0469841
869.748 .0469778
870.419 .0469700
871.089 .0469605
871.760 .0469489
872.430 .0469351
873.099 .0469187
873.769 .0469007
874.438 .0468808
875.106 .0468593
875.774 .0468362
876.442 .0468118
877.110 .0467857
877.777 .0467586
878.444 .0467306
879.110 .0467020
879.776 .0466730
880.442 .0466437
881.108 .0466139
881.773 .0465837
882.437 .0465529
883.102 .0465216
883.766 .0464900
884.429 .0464587
885.093 .0464269
885.755 .0463957
886.418 .0463649
887.080 .0463345
887.742 .0463038
888.403 .0462731
889.064 .0462420
889.725 .0462099
890.385 .0461774
891.045 .0461447
891.705 .0461126
892.364 .0460809
893.023 .0460502
893.682 .0460206
894.340 .0459918
894.998 .0459640
895.655 .0459368
896.312 .0459102
896.969 .0458839
897.625 .0458576
898.281 .0458319
898.937 .0458065
899.592 .0457819
900.247 .0457575
900.901 .0457338
901.555 .0457106
902.209 .0456873
902.862 .0456634
903.515 .0456393
904.168 .0456147
904.820 .0455891
905.472 .0455626
906.123 .0455351
906.774 .0455072
907.425 .0454793
908.076 .0454512
908.726 .0454228
909.375 .0453943
910.024 .0453654
910.673 .0453361
911.322 .0453063
911.970 .0452757
912.618 .0452444
913.265 .0452129
913.912 .0451814
914.558 .0451498
915.205 .0451192
915.850 .0450901
916.496 .0450626
917.141 .0450364
917.786 .0450112
918.430 .0449864
919.074 .0449628
919.718 .0449397
920.361 .0449162
921.004 .0448931
921.646 .0448706
922.288 .0448486
922.930 .0448279
923.571 .0448082
924.212 .0447899
924.853 .0447726
925.493 .0447566
926.133 .0447412
926.772 .0447267
927.411 .0447130
928.050 .0446998
928.688 .0446873
929.326 .0446750
929.963 .0446624
930.600 .0446507
931.237 .0446404
931.874 .0446309
932.510 .0446222
933.145 .0446141
933.780 .0446064
934.415 .0445995
935.050 .0445929
935.684 .0445872
936.318 .0445829
936.951 .0445797
937.584 .0445780
938.217 .0445777
938.849 .0445788
939.481 .0445809
940.112 .0445837
940.743 .0445869
941.374 .0445900
942.004 .0445927
942.634 .0445951
943.264 .0445977
943.893 .0446003
944.522 .0446026
945.150 .0446042
945.778 .0446046
946.406 .0446037
947.033 .0446013
947.660 .0445976
948.287 .0445921
948.913 .0445854
949.539 .0445775
950.165 .0445679
950.790 .0445579
951.414 .0445472
952.039 .0445361
952.663 .0445252
953.286 .0445138
953.910 .0445018
954.533 .0444898
955.155 .0444778
955.777 .0444657
956.399 .0444541
957.020 .0444429
957.641 .0444318
958.262 .0444208
958.882 .0444100
959.502 .0443985
960.122 .0443869
960.741 .0443754
961.360 .0443634
961.979 .0443512
962.597 .0443392
963.214 .0443270
963.832 .0443158
964.449 .0443052
965.066 .0442956
965.682 .0442870
966.298 .0442792
966.914 .0442716
967.529 .0442638
968.144 .0442552
968.758 .0442452
969.373 .0442327
969.986 .0442181
970.600 .0442012
971.213 .0441829
971.826 .0441636
972.438 .0441449
973.050 .0441268
973.662 .0441094
974.274 .0440920
974.885 .0440747
975.495 .0440565
976.106 .0440373
976.716 .0440162
977.325 .0439935
977.935 .0439696
978.544 .0439455
979.152 .0439212
979.761 .0438976
980.369 .0438749
980.976 .0438534
981.584 .0438323
982.191 .0438115
982.797 .0437905
983.404 .0437695
984.010 .0437477
984.615 .0437250
985.221 .0437006
985.826 .0436748
986.430 .0436474
987.035 .0436187
987.639 .0435891
988.243 .0435593
988.846 .0435296
989.449 .0435005
990.052 .0434721
990.654 .0434447
991.256 .0434175
991.858 .0433901
992.460 .0433619
993.061 .0433326
993.662 .0433017
994.262 .0432695
994.863 .0432363
995.463 .0432023
996.062 .0431678
996.662 .0431329
997.261 .0430985
997.860 .0430651
998.458 .0430325
999.056 .0430002
999.654 .0429692
1000.252 .0429388
1000.849 .0429087
1001.446 .0428788
1002.043 .0428500
1002.639 .0428219
1003.235 .0427941
1003.831 .0427673
1004.427 .0427420
1005.022 .0427179
1005.617 .0426956
1006.212 .0426741
1006.806 .0426533
1007.401 .0426328
1007.995 .0426120
1008.588 .0425911
1009.182 .0425708
1009.775 .0425509
1010.368 .0425316
1010.960 .0425136
1011.553 .0424982
1012.145 .0424840
1012.737 .0424720
1013.328 .0424623
1013.920 .0424535
1014.511 .0424450
1015.102 .0424366
1015.692 .0424286
1016.283 .0424217
1016.873 .0424161
1017.463 .0424118
1018.052 .0424094
1018.642 .0424096
1019.231 .0424117
1019.820 .0424152
1020.409 .0424206
1020.997 .0424266
1021.585 .0424319
1022.173 .0424358
1022.761 .0424393
1023.349 .0424422
1023.936 .0424449
1024.524 .0424476
1025.111 .0424512
1025.697 .0424551
1026.284 .0424601
1026.870 .0424660
1027.457 .0424728
1028.043 .0424803
1028.628 .0424884
1029.214 .0424957
1029.800 .0425028
1030.385 .0425093
1030.970 .0425140
1031.555 .0425177
1032.139 .0425208
1032.724 .0425217
1033.308 .0425208
1033.893 .0425188
1034.477 .0425161
1035.060 .0425125
1035.644 .0425088
1036.228 .0425040
1036.811 .0424978
1037.394 .0424915
1037.977 .0424830
1038.560 .0424727
1039.143 .0424625
1039.726 .0424521
1040.308 .0424425
1040.891 .0424345
1041.473 .0424285
1042.055 .0424249
1042.637 .0424246
1043.219 .0424265
1043.801 .0424297
1044.382 .0424345
1044.964 .0424407
1045.545 .0424471
1046.127 .0424542
1046.708 .0424623
1047.289 .0424710
1047.870 .0424808
1048.451 .0424909
1049.032 .0425010
1049.612 .0425111
1050.193 .0425195
1050.774 .0425276
1051.354 .0425354
1051.935 .0425430
1052.515 .0425507
1053.095 .0425594
1053.675 .0425698
1054.256 .0425818
1054.836 .0425942
1055.416 .0426077
1055.996 .0426219
1056.576 .0426367
1057.156 .0426504
1057.735 .0426635
1058.315 .0426766
1058.895 .0426893
1059.475 .0427017
1060.055 .0427147
1060.634 .0427272
1061.214 .0427402
1061.794 .0427529
1062.373 .0427650
1062.953 .0427772
1063.533 .0427895
1064.113 .0428012
1064.692 .0428138
1065.272 .0428270
1065.852 .0428395
1066.431 .0428527
1067.011 .0428679
1067.591 .0428844
1068.171 .0429017
1068.751 .0429212
1069.331 .0429413
1069.910 .0429614
1070.490 .0429812
1071.071 .0429982
1071.651 .0430140
1072.231 .0430287
1072.811 .0430402
1073.391 .0430497
1073.972 .0430586
1074.552 .0430681
1075.133 .0430765
1075.713 .0430856
1076.294 .0430942
1076.875 .0430998
1077.456 .0431022
1078.037 .0430995
1078.618 .0430897
1079.199 .0430747
1079.780 .0430552
1080.362 .0430326
1080.943 .0430079
1081.525 .0429834
1082.107 .0429588
1082.689 .0429369
1083.271 .0429172
1083.853 .0428989
1084.436 .0428803
1085.018 .0428631
1085.601 .0428454
1086.184 .0428270
1086.767 .0428095
1087.351 .0427939
1087.934 .0427809
1088.518 .0427728
1089.102 .0427667
1089.686 .0427638
1090.270 .0427641
1090.855 .0427676
1091.439 .0427711
1092.024 .0427754
1092.609 .0427806
1093.195 .0427842
1093.780 .0427872
1094.366 .0427894
1094.952 .0427900
1095.539 .0427898
1096.125 .0427862
1096.712 .0427783
1097.299 .0427675
1097.887 .0427539
1098.475 .0427368
1099.063 .0427190
1099.651 .0427048
1100.239 .0426914
1100.828 .0426796
1101.417 .0426693
1102.007 .0426585
1102.597 .0426451
1103.187 .0426293
1103.777 .0426085
1104.368 .0425852
1104.959 .0425594
1105.551 .0425322
1106.143 .0425048
1106.735 .0424806
1107.328 .0424582
1107.921 .0424374
1108.514 .0424188
1109.108 .0423998
1109.702 .0423781
1110.296 .0423548
1110.891 .0423307
1111.486 .0423061
1112.082 .0422832
1112.678 .0422623
1113.275 .0422438
1113.872 .0422292
1114.469 .0422181
1115.067 .0422089
1115.665 .0422024
1116.264 .0422008
1116.864 .0422029
1117.463 .0422086
1118.063 .0422196
1118.664 .0422351
1119.265 .0422575
1119.867 .0422851
1120.469 .0423183
1121.072 .0423528
1121.675 .0423901
1122.279 .0424244
1122.883 .0424549
1123.488 .0424805
1124.093 .0425009
1124.699 .0425178
1125.305 .0425299
1125.912 .0425418
1126.520 .0425536
1127.128 .0425637
1127.737 .0425771
1128.346 .0425917
1128.956 .0426084
1129.567 .0426221
1130.178 .0426348
1130.790 .0426435
1131.402 .0426527
1132.015 .0426650
1132.629 .0426845
1133.243 .0427164
1133.858 .0427661
1134.474 .0428329
1135.090 .0429093
1135.707 .0430030
1136.325 .0431047
1136.943 .0432095
1137.562 .0433158
1138.182 .0434186
1138.802 .0435214
1139.423 .0436287
1140.045 .0437443
1140.668 .0438629
1141.291 .0439741
1141.916 .0440818
1142.540 .0443467
1143.166 .0444908
1143.793 .0444590
1144.420 .0442030
1145.048 .0442717
