BestFit value for E:\RC_data\Compressed_For_Future_Analysis_Lite\test_shlomo\aqueous_test\GoodSpectraLarge_Full\0012_2025-06-24_09-45-30\Interpretation_History\2025-07-21_16-23-34\ResultsGraphs\BestFit\(Run)spectra_09-46-28-230_BestFit.txt
600.203 0.0561295
600.975 0.0561577
601.747 0.0561853
602.518 0.0562123
603.289 0.0562388
604.059 0.0562646
604.829 0.0562900
605.599 0.0563149
606.369 0.0563394
607.138 0.0563634
607.906 0.0563869
608.675 0.0564101
609.443 0.0564330
610.210 0.0564555
610.977 0.0564777
611.744 0.0564996
612.511 0.0565212
613.277 0.0565426
614.043 0.0565638
614.809 0.0565848
615.574 0.0566055
616.339 0.0566260
617.104 0.0566464
617.868 0.0566665
618.632 0.0566864
619.395 0.0567061
620.159 0.0567255
620.922 0.0567448
621.684 0.0567637
622.447 0.0567824
623.209 0.0568008
623.970 0.0568189
624.732 0.0568367
625.493 0.0568541
626.254 0.0568711
627.014 0.0568877
627.774 0.0569039
628.534 0.0569196
629.294 0.0569348
630.053 0.0569495
630.812 0.0569637
631.571 0.0569774
632.329 0.0569904
633.087 0.0570029
633.845 0.0570148
634.602 0.0570261
635.359 0.0570368
636.116 0.0570469
636.873 0.0570564
637.629 0.0570652
638.385 0.0570735
639.141 0.0570811
639.897 0.0570882
640.652 0.0570948
641.407 0.0571007
642.161 0.0571062
642.916 0.0571112
643.670 0.0571157
644.424 0.0571198
645.177 0.0571235
645.931 0.0571269
646.684 0.0571299
647.436 0.0571326
648.189 0.0571350
648.941 0.0571372
649.693 0.0571393
650.445 0.0571412
651.196 0.0571429
651.947 0.0571446
652.698 0.0571462
653.449 0.0571478
654.199 0.0571494
654.949 0.0571510
655.699 0.0571527
656.449 0.0571544
657.198 0.0571561
657.947 0.0571580
658.696 0.0571599
659.445 0.0571619
660.193 0.0571640
660.941 0.0571662
661.689 0.0571684
662.436 0.0571707
663.184 0.0571730
663.931 0.0571753
664.678 0.0571776
665.424 0.0571799
666.171 0.0571822
666.917 0.0571843
667.663 0.0571863
668.408 0.0571882
669.154 0.0571898
669.899 0.0571913
670.644 0.0571924
671.388 0.0571933
672.133 0.0571939
672.877 0.0571940
673.621 0.0571938
674.365 0.0571931
675.108 0.0571919
675.851 0.0571902
676.594 0.0571880
677.337 0.0571853
678.080 0.0571820
678.822 0.0571780
679.564 0.0571735
680.306 0.0571684
681.047 0.0571626
681.789 0.0571562
682.530 0.0571491
683.271 0.0571415
684.012 0.0571332
684.752 0.0571243
685.492 0.0571149
686.232 0.0571048
686.972 0.0570942
687.712 0.0570831
688.451 0.0570715
689.190 0.0570595
689.929 0.0570470
690.667 0.0570341
691.406 0.0570209
692.144 0.0570074
692.882 0.0569936
693.620 0.0569796
694.357 0.0569655
695.095 0.0569512
695.832 0.0569368
696.569 0.0569224
697.305 0.0569080
698.042 0.0568936
698.778 0.0568793
699.514 0.0568652
700.249 0.0568512
700.985 0.0568374
701.720 0.0568239
702.455 0.0568106
703.190 0.0567976
703.925 0.0567849
704.659 0.0567726
705.393 0.0567606
706.127 0.0567489
706.861 0.0567376
707.595 0.0567267
708.328 0.0567162
709.061 0.0567060
709.794 0.0566962
710.527 0.0566867
711.259 0.0566775
711.991 0.0566687
712.723 0.0566601
713.455 0.0566518
714.186 0.0566437
714.918 0.0566358
715.649 0.0566280
716.380 0.0566204
717.110 0.0566129
717.841 0.0566054
718.571 0.0565978
719.301 0.0565903
720.031 0.0565826
720.760 0.0565748
721.490 0.0565668
722.219 0.0565585
722.948 0.0565500
723.676 0.0565411
724.405 0.0565319
725.133 0.0565222
725.861 0.0565121
726.589 0.0565015
727.317 0.0564903
728.044 0.0564786
728.771 0.0564663
729.498 0.0564534
730.225 0.0564398
730.951 0.0564256
731.677 0.0564106
732.403 0.0563950
733.129 0.0563786
733.855 0.0563615
734.580 0.0563438
735.305 0.0563253
736.030 0.0563061
736.755 0.0562861
737.479 0.0562655
738.203 0.0562443
738.927 0.0562224
739.651 0.0561998
740.375 0.0561767
741.098 0.0561530
741.821 0.0561288
742.544 0.0561041
743.267 0.0560789
743.989 0.0560534
744.711 0.0560275
745.433 0.0560012
746.155 0.0559747
746.877 0.0559480
747.598 0.0559211
748.319 0.0558942
749.040 0.0558671
749.760 0.0558401
750.481 0.0558131
751.201 0.0557862
751.921 0.0557594
752.640 0.0557329
753.360 0.0557065
754.079 0.0556805
754.798 0.0556548
755.517 0.0556295
756.235 0.0556046
756.953 0.0555802
757.671 0.0555562
758.389 0.0555327
759.107 0.0555098
759.824 0.0554875
760.541 0.0554658
761.258 0.0554446
761.974 0.0554242
762.691 0.0554043
763.407 0.0553850
764.123 0.0553664
764.838 0.0553485
765.554 0.0553311
766.269 0.0553144
766.984 0.0552984
767.699 0.0552828
768.413 0.0552679
769.127 0.0552536
769.841 0.0552397
770.555 0.0552263
771.268 0.0552134
771.982 0.0552009
772.694 0.0551888
773.407 0.0551771
774.120 0.0551656
774.832 0.0551544
775.544 0.0551433
776.256 0.0551325
776.967 0.0551217
777.678 0.0551110
778.389 0.0551003
779.100 0.0550896
779.810 0.0550787
780.521 0.0550677
781.231 0.0550565
781.940 0.0550450
782.650 0.0550332
783.359 0.0550211
784.068 0.0550085
784.776 0.0549955
785.485 0.0549820
786.193 0.0549680
786.901 0.0549534
787.609 0.0549381
788.316 0.0549223
789.023 0.0549057
789.730 0.0548884
790.436 0.0548704
791.143 0.0548516
791.849 0.0548320
792.555 0.0548116
793.260 0.0547904
793.965 0.0547684
794.670 0.0547455
795.375 0.0547218
796.080 0.0546973
796.784 0.0546719
797.488 0.0546457
798.191 0.0546188
798.895 0.0545910
799.598 0.0545624
800.301 0.0545331
801.003 0.0545030
801.705 0.0544723
802.408 0.0544408
803.109 0.0544088
803.811 0.0543761
804.512 0.0543429
805.213 0.0543091
805.913 0.0542749
806.614 0.0542402
807.314 0.0542051
808.014 0.0541697
808.713 0.0541340
809.412 0.0540981
810.111 0.0540620
810.810 0.0540257
811.508 0.0539894
812.206 0.0539530
812.904 0.0539167
813.602 0.0538804
814.299 0.0538443
814.996 0.0538083
815.692 0.0537727
816.389 0.0537372
817.085 0.0537021
817.781 0.0536674
818.476 0.0536332
819.171 0.0535994
819.866 0.0535661
820.561 0.0535334
821.255 0.0535013
821.949 0.0534698
822.643 0.0534390
823.336 0.0534089
824.029 0.0533796
824.722 0.0533509
825.415 0.0533231
826.107 0.0532960
826.799 0.0532698
827.490 0.0532444
828.182 0.0532199
828.873 0.0531962
829.563 0.0531733
830.254 0.0531513
830.944 0.0531302
831.634 0.0531099
832.323 0.0530904
833.012 0.0530718
833.701 0.0530539
834.390 0.0530369
835.078 0.0530206
835.766 0.0530051
836.453 0.0529904
837.141 0.0529763
837.828 0.0529629
838.514 0.0529501
839.201 0.0529379
839.887 0.0529263
840.572 0.0529152
841.258 0.0529046
841.943 0.0528944
842.628 0.0528846
843.312 0.0528752
843.996 0.0528661
844.680 0.0528572
845.363 0.0528485
846.046 0.0528400
846.729 0.0528316
847.412 0.0528232
848.094 0.0528149
848.776 0.0528064
849.457 0.0527979
850.139 0.0527893
850.819 0.0527804
851.500 0.0527713
852.180 0.0527620
852.860 0.0527522
853.540 0.0527421
854.219 0.0527315
854.898 0.0527205
855.576 0.0527090
856.254 0.0526968
856.932 0.0526841
857.610 0.0526708
858.287 0.0526568
858.964 0.0526420
859.640 0.0526266
860.317 0.0526104
860.993 0.0525934
861.668 0.0525756
862.343 0.0525569
863.018 0.0525374
863.693 0.0525170
864.367 0.0524958
865.041 0.0524736
865.714 0.0524506
866.387 0.0524267
867.060 0.0524018
867.732 0.0523760
868.404 0.0523494
869.076 0.0523218
869.748 0.0522933
870.419 0.0522639
871.089 0.0522337
871.760 0.0522025
872.430 0.0521706
873.099 0.0521379
873.769 0.0521043
874.438 0.0520699
875.106 0.0520348
875.774 0.0519990
876.442 0.0519625
877.110 0.0519253
877.777 0.0518876
878.444 0.0518492
879.110 0.0518103
879.776 0.0517708
880.442 0.0517309
881.108 0.0516905
881.773 0.0516497
882.437 0.0516087
883.102 0.0515673
883.766 0.0515256
884.429 0.0514838
885.093 0.0514417
885.755 0.0513996
886.418 0.0513573
887.080 0.0513151
887.742 0.0512728
888.403 0.0512307
889.064 0.0511887
889.725 0.0511467
890.385 0.0511051
891.045 0.0510636
891.705 0.0510225
892.364 0.0509817
893.023 0.0509413
893.682 0.0509013
894.340 0.0508617
894.998 0.0508227
895.655 0.0507842
896.312 0.0507463
896.969 0.0507090
897.625 0.0506724
898.281 0.0506365
898.937 0.0506012
899.592 0.0505667
900.247 0.0505330
900.901 0.0505000
901.555 0.0504679
902.209 0.0504366
902.862 0.0504062
903.515 0.0503767
904.168 0.0503480
904.820 0.0503202
905.472 0.0502934
906.123 0.0502675
906.774 0.0502425
907.425 0.0502185
908.076 0.0501953
908.726 0.0501732
909.375 0.0501520
910.024 0.0501317
910.673 0.0501123
911.322 0.0500939
911.970 0.0500764
912.618 0.0500598
913.265 0.0500440
913.912 0.0500292
914.558 0.0500152
915.205 0.0500020
915.850 0.0499897
916.496 0.0499782
917.141 0.0499674
917.786 0.0499574
918.430 0.0499481
919.074 0.0499395
919.718 0.0499316
920.361 0.0499243
921.004 0.0499175
921.646 0.0499114
922.288 0.0499058
922.930 0.0499007
923.571 0.0498960
924.212 0.0498918
924.853 0.0498879
925.493 0.0498844
926.133 0.0498812
926.772 0.0498783
927.411 0.0498756
928.050 0.0498731
928.688 0.0498708
929.326 0.0498685
929.963 0.0498664
930.600 0.0498642
931.237 0.0498621
931.874 0.0498598
932.510 0.0498575
933.145 0.0498551
933.780 0.0498525
934.415 0.0498497
935.050 0.0498466
935.684 0.0498432
936.318 0.0498396
936.951 0.0498355
937.584 0.0498311
938.217 0.0498262
938.849 0.0498209
939.481 0.0498151
940.112 0.0498087
940.743 0.0498018
941.374 0.0497943
942.004 0.0497862
942.634 0.0497775
943.264 0.0497680
943.893 0.0497579
944.522 0.0497471
945.150 0.0497356
945.778 0.0497233
946.406 0.0497102
947.033 0.0496963
947.660 0.0496816
948.287 0.0496661
948.913 0.0496498
949.539 0.0496326
950.165 0.0496145
950.790 0.0495957
951.414 0.0495759
952.039 0.0495552
952.663 0.0495337
953.286 0.0495114
953.910 0.0494881
954.533 0.0494639
955.155 0.0494389
955.777 0.0494130
956.399 0.0493862
957.020 0.0493586
957.641 0.0493301
958.262 0.0493008
958.882 0.0492707
959.502 0.0492397
960.122 0.0492101
960.741 0.0491888
961.360 0.0491666
961.979 0.0491437
962.597 0.0491200
963.214 0.0490956
963.832 0.0490704
964.449 0.0490446
965.066 0.0490181
965.682 0.0489910
966.298 0.0489632
966.914 0.0489348
967.529 0.0489059
968.144 0.0488764
968.758 0.0488465
969.373 0.0488159
969.986 0.0487851
970.600 0.0487537
971.213 0.0487219
971.826 0.0486898
972.438 0.0486574
973.050 0.0486247
973.662 0.0485916
974.274 0.0485584
974.885 0.0485249
975.495 0.0484913
976.106 0.0484575
976.716 0.0484237
977.325 0.0483898
977.935 0.0483558
978.544 0.0483218
979.152 0.0482879
979.761 0.0482540
980.369 0.0482203
980.976 0.0481867
981.584 0.0481531
982.191 0.0481199
982.797 0.0480868
983.404 0.0480540
984.010 0.0480215
984.615 0.0479893
985.221 0.0479574
985.826 0.0479260
986.430 0.0478949
987.035 0.0478643
987.639 0.0478341
988.243 0.0478044
988.846 0.0477753
989.449 0.0477466
990.052 0.0477186
990.654 0.0476911
991.256 0.0476643
991.858 0.0476380
992.460 0.0476124
993.061 0.0475875
993.662 0.0475633
994.262 0.0475398
994.863 0.0475170
995.463 0.0474949
996.062 0.0474736
996.662 0.0474531
997.261 0.0474334
997.860 0.0474144
998.458 0.0473963
999.056 0.0473790
999.654 0.0473624
1000.252 0.0473426
1000.849 0.0473178
1001.446 0.0472939
1002.043 0.0472709
1002.639 0.0472487
1003.235 0.0472275
1003.831 0.0472071
1004.427 0.0471875
1005.022 0.0471688
1005.617 0.0471510
1006.212 0.0471341
1006.806 0.0471181
1007.401 0.0471028
1007.995 0.0470885
1008.588 0.0470749
1009.182 0.0470622
1009.775 0.0470504
1010.368 0.0470393
1010.96 0.0470291
1011.553 0.0470196
1012.145 0.0470109
1012.737 0.0470030
1013.328 0.0469958
1013.92 0.0469893
1014.511 0.0469836
1015.102 0.0469786
1015.692 0.0469742
1016.283 0.0469705
1016.873 0.0469674
1017.463 0.0469650
1018.052 0.0469631
1018.642 0.0469618
1019.231 0.0469611
1019.82 0.0469609
1020.409 0.0469613
1020.997 0.0469621
1021.585 0.0469633
1022.173 0.0469650
1022.761 0.0469671
1023.349 0.0469696
1023.936 0.0469725
1024.524 0.0469757
1025.111 0.0469792
1025.697 0.0469829
1026.284 0.0469870
1026.87 0.0469912
1027.457 0.0469957
1028.043 0.0470003
1028.628 0.0470051
1029.214 0.0470100
1029.80 0.0470150
1030.385 0.0470200
1030.97 0.0470251
1031.555 0.0470302
1032.139 0.0470353
1032.724 0.0470403
1033.308 0.0470452
1033.893 0.0470501
1034.477 0.0470548
1035.06 0.0470594
1035.644 0.0470638
1036.228 0.0470680
1036.811 0.0470719
1037.394 0.0470756
1037.977 0.0470790
1038.56 0.0470821
1039.143 0.0470849
1039.726 0.0470873
1040.308 0.0470893
1040.891 0.0470909
1041.473 0.0470922
1042.055 0.0470929
1042.637 0.0470932
1043.219 0.0470930
1043.801 0.0470923
1044.382 0.0470911
1044.964 0.0470893
1045.545 0.0470869
1046.127 0.0470840
1046.708 0.0470805
1047.289 0.0470763
1047.87 0.0470715
1048.451 0.0470661
1049.032 0.0470600
1049.612 0.0470532
1050.193 0.0470457
1050.774 0.0470375
1051.354 0.0470286
1051.935 0.0470190
1052.515 0.0470086
1053.095 0.0469975
1053.675 0.0469857
1054.256 0.0469730
1054.836 0.0469596
1055.416 0.0469454
1055.996 0.0469304
1056.576 0.0469146
1057.156 0.0468981
1057.735 0.0468807
1058.315 0.0468626
1058.895 0.0468436
1059.475 0.0468238
1060.055 0.0468032
1060.634 0.0467819
1061.214 0.0467596
1061.794 0.0467366
1062.373 0.0467129
1062.953 0.0466883
1063.533 0.0466629
1064.113 0.0466367
1064.692 0.0466098
1065.272 0.0465820
1065.852 0.0465535
1066.431 0.0465243
1067.011 0.0464942
1067.591 0.0464634
1068.171 0.0464319
1068.751 0.0463997
1069.331 0.0463667
1069.91 0.0463331
1070.49 0.0462988
1071.071 0.0462637
1071.651 0.0462280
1072.231 0.0461917
1072.811 0.0461547
1073.391 0.0461171
1073.972 0.0460789
1074.552 0.0460401
1075.133 0.0460007
1075.713 0.0459608
1076.294 0.0459204
1076.875 0.0458793
1077.456 0.0458378
1078.037 0.0457959
1078.618 0.0457534
1079.199 0.0457106
1079.78 0.0456673
1080.362 0.0456235
1080.943 0.0455795
1081.525 0.0455350
1082.107 0.0454902
1082.689 0.0454451
1083.271 0.0453997
1083.853 0.0453540
1084.436 0.0453081
1085.018 0.0452620
1085.601 0.0452156
1086.184 0.0451690
1086.767 0.0451223
1087.351 0.0450754
1087.934 0.0450285
1088.518 0.0449815
1089.102 0.0449343
1089.686 0.0448872
1090.27 0.0448401
1090.855 0.0447929
1091.439 0.0447458
1092.024 0.0446987
1092.609 0.0446518
1093.195 0.0446048
1093.78 0.0445581
1094.366 0.0445115
1094.952 0.0444651
1095.539 0.0444188
1096.125 0.0443729
1096.712 0.0443271
1097.299 0.0442816
1097.887 0.0442364
1098.475 0.0441914
1099.063 0.0441469
1099.651 0.0441027
1100.239 0.0440589
1100.828 0.0440155
1101.417 0.0439725
1102.007 0.0439299
1102.597 0.0438879
1103.187 0.0438463
1103.777 0.0438052
1104.368 0.0437646
1104.959 0.0437246
1105.551 0.0436851
1106.143 0.0436462
1106.735 0.0436079
1107.328 0.0435702
1107.921 0.0435332
1108.514 0.0434968
1109.108 0.0434610
1109.702 0.0434260
1110.296 0.0433917
1110.891 0.0433580
1111.486 0.0433251
1112.082 0.0432929
1112.678 0.0432614
1113.275 0.0432307
1113.872 0.0432008
1114.469 0.0431717
1115.067 0.0431434
1115.665 0.0431159
1116.264 0.0430891
1116.864 0.0430632
1117.463 0.0430381
1118.063 0.0430139
1118.664 0.0429905
1119.265 0.0429680
1119.867 0.0429463
1120.469 0.0429254
1121.072 0.0429054
1121.675 0.0428863
1122.279 0.0428681
1122.883 0.0428507
1123.488 0.0428342
1124.093 0.0428186
1124.699 0.0428038
1125.305 0.0427899
1125.912 0.0427769
1126.52 0.0427647
1127.128 0.0427534
1127.737 0.0427429
1128.346 0.0427333
1128.956 0.0427246
1129.567 0.0427167
1130.178 0.0427096
1130.79 0.0427033
1131.402 0.0426979
1132.015 0.0426933
1132.629 0.0426895
1133.243 0.0426865
1133.858 0.0426842
1134.474 0.0426827
1135.09 0.0426820
1135.707 0.0426821
1136.325 0.0426828
1136.943 0.0426843
1137.562 0.0426865
1138.182 0.0426894
1138.802 0.0426929
1139.423 0.0426971
1140.045 0.0427019
1140.668 0.0427074
1141.291 0.0427135
1141.916 0.0427201
1142.54 0.0427273
1143.166 0.0427351
1143.793 0.0427434
1144.42 0.0427522
1145.048 0.0427614
