Measurement Sequence started on: 09-58-16-132
Integration time: 28
Scans to Average: 2 
>>>>>Begin Spectral Data<<<<<
432.689 .0000100
433.621 .0000100
434.552 .0000100
435.482 .0000100
436.410 .0000100
437.337 .1892195
438.262 .2069878
439.187 .2104236
440.110 .2014456
441.031 .1845346
441.952 .1647014
442.871 .1327554
443.789 .1173266
444.705 .1071331
445.621 .0997794
446.535 .0940565
447.447 .0894358
448.359 .0856229
449.269 .0824509
450.178 .0797875
451.086 .0775405
451.993 .0756359
452.898 .0740284
453.803 .0726375
454.706 .0714315
455.608 .0703356
456.508 .0693137
457.408 .0683566
458.306 .0674290
459.204 .0665377
460.100 .0656887
460.995 .0649085
461.888 .0642051
462.781 .0636020
463.673 .0630832
464.563 .0626321
465.452 .0622371
466.340 .0618720
467.228 .0615260
468.114 .0611951
468.999 .0608842
469.882 .0605959
470.765 .0603334
471.647 .0601177
472.528 .0599421
473.407 .0598107
474.286 .0597134
475.163 .0596488
476.040 .0596112
476.915 .0595886
477.790 .0595759
478.663 .0595796
479.535 .0596049
480.407 .0596536
481.277 .0597262
482.147 .0598257
483.015 .0599540
483.883 .0601005
484.749 .0602616
485.615 .0604389
486.479 .0606195
487.343 .0607995
488.206 .0609759
489.067 .0611509
489.928 .0613172
490.788 .0614761
491.647 .0616359
492.505 .0617964
493.362 .0619657
494.218 .0621367
495.073 .0623064
495.928 .0624806
496.781 .0626509
497.634 .0628108
498.486 .0629698
499.337 .0631360
500.187 .0633099
501.036 .0635071
501.884 .0637455
502.731 .0640306
503.578 .0643729
504.424 .0647729
505.268 .0652295
506.113 .0657461
506.956 .0663207
507.798 .0669395
508.640 .0676008
509.480 .0682972
510.320 .0690257
511.160 .0697889
511.998 .0705967
512.836 .0714603
513.672 .0723874
514.508 .0733920
515.344 .0744735
516.178 .0756437
517.012 .0769117
517.845 .0782711
518.677 .0797313
519.508 .0812623
520.339 .0828578
521.169 .0845010
521.998 .0861844
522.826 .0879187
523.654 .0897309
524.481 .0916207
525.307 .0935947
526.133 .0956572
526.958 .0977634
527.782 .0998705
528.605 .1019348
529.428 .1039094
530.250 .1056772
531.072 .1071883
531.892 .1083791
532.712 .1092150
533.532 .1097185
534.350 .1098806
535.168 .1097076
535.986 .1092202
536.802 .1084378
537.618 .1073681
538.434 .1060242
539.249 .1044877
540.063 .1027472
540.876 .1008890
541.689 .0989313
542.501 .0969504
543.313 .0949668
544.124 .0930293
544.934 .0911665
545.744 .0893890
546.553 .0876997
547.361 .0861107
548.169 .0846204
548.976 .0832406
549.783 .0819450
550.589 .0807573
551.395 .0796448
552.200 .0786290
553.004 .0776767
553.808 .0767885
554.611 .0759308
555.414 .0751411
556.216 .0743941
557.018 .0736968
557.819 .0730484
558.619 .0724349
559.419 .0718438
560.218 .0712820
561.017 .0707187
561.815 .0701581
562.613 .0695886
563.410 .0690184
564.207 .0684279
565.003 .0678327
565.799 .0672314
566.594 .0666290
567.388 .0660394
568.182 .0654664
568.976 .0648998
569.769 .0643603
570.562 .0638322
571.354 .0633203
572.145 .0628265
572.936 .0623539
573.727 .0618993
574.517 .0614722
575.307 .0610687
576.096 .0606897
576.885 .0603375
577.673 .0600086
578.461 .0597001
579.248 .0594137
580.035 .0591462
580.821 .0588919
581.607 .0586534
582.392 .0584275
583.177 .0582086
583.962 .0580016
584.746 .0578040
585.529 .0576159
586.313 .0574415
587.095 .0572781
587.878 .0571253
588.660 .0569850
589.441 .0568587
590.222 .0567434
591.003 .0566431
591.783 .0565523
592.563 .0564665
593.342 .0563854
594.121 .0563068
594.899 .0562280
595.678 .0561473
596.455 .0560664
597.233 .0559843
598.009 .0559039
598.786 .0558258
599.562 .0557505
600.338 .0556805
601.113 .0556177
601.888 .0555593
602.663 .0555048
603.437 .0554525
604.211 .0554030
604.984 .0553552
605.757 .0553121
606.530 .0552734
607.302 .0552412
608.074 .0552173
608.845 .0552021
609.616 .0551926
610.387 .0551888
611.158 .0551873
611.928 .0551868
612.697 .0551837
613.467 .0551780
614.236 .0551679
615.004 .0551542
615.773 .0551377
616.541 .0551201
617.308 .0551002
618.076 .0550796
618.843 .0550565
619.609 .0550317
620.375 .0550041
621.141 .0549733
621.907 .0549396
622.672 .0549038
623.437 .0548673
624.202 .0548303
624.966 .0547927
625.730 .0547570
626.493 .0547230
627.257 .0546921
628.020 .0546655
628.782 .0546435
629.545 .0546256
630.307 .0546116
631.068 .0546016
631.830 .0545934
632.591 .0545856
633.352 .0545775
634.112 .0545678
634.872 .0545564
635.632 .0545439
636.392 .0545300
637.151 .0545173
637.910 .0545066
638.668 .0544964
639.427 .0544854
640.185 .0544717
640.943 .0544535
641.700 .0544290
642.457 .0543981
643.214 .0543618
643.971 .0543207
644.727 .0542776
645.483 .0542329
646.239 .0541882
646.994 .0541442
647.750 .0541011
648.505 .0540589
649.259 .0540174
650.014 .0539762
650.768 .0539349
651.521 .0538951
652.275 .0538572
653.028 .0538219
653.781 .0537896
654.534 .0537599
655.286 .0537331
656.039 .0537086
656.791 .0536865
657.542 .0536668
658.294 .0536503
659.045 .0536372
659.796 .0536263
660.546 .0536179
661.297 .0536111
662.047 .0536050
662.796 .0535985
663.546 .0535911
664.295 .0535817
665.044 .0535695
665.793 .0535542
666.542 .0535358
667.290 .0535144
668.038 .0534902
668.786 .0534634
669.533 .0534333
670.281 .0533994
671.028 .0533620
671.774 .0533202
672.521 .0532757
673.267 .0532286
674.013 .0531802
674.759 .0531311
675.505 .0530821
676.250 .0530332
676.995 .0529852
677.740 .0529388
678.484 .0528939
679.229 .0528507
679.973 .0528104
680.717 .0527726
681.460 .0527384
682.204 .0527084
682.947 .0526828
683.690 .0526614
684.433 .0526445
685.175 .0526313
685.917 .0526214
686.659 .0526154
687.401 .0526127
688.142 .0526128
688.884 .0526161
689.625 .0526212
690.365 .0526269
691.106 .0526331
691.846 .0526391
692.586 .0526437
693.326 .0526468
694.066 .0526472
694.805 .0526445
695.545 .0526388
696.284 .0526302
697.022 .0526174
697.761 .0526012
698.499 .0525811
699.237 .0525560
699.975 .0525267
700.713 .0524932
701.450 .0524558
702.187 .0524153
702.924 .0523728
703.661 .0523280
704.397 .0522819
705.133 .0522355
705.869 .0521889
706.605 .0521437
707.341 .0521001
708.076 .0520584
708.811 .0520190
709.546 .0519826
710.281 .0519490
711.015 .0519180
711.749 .0518896
712.483 .0518633
713.217 .0518391
713.950 .0518174
714.684 .0517988
715.417 .0517836
716.150 .0517727
716.882 .0517656
717.615 .0517623
718.347 .0517622
719.079 .0517639
719.811 .0517667
720.542 .0517698
721.273 .0517722
722.005 .0517734
722.735 .0517734
723.466 .0517724
724.196 .0517700
724.927 .0517657
725.656 .0517590
726.386 .0517494
727.116 .0517372
727.845 .0517212
728.574 .0517016
729.303 .0516782
730.031 .0516508
730.760 .0516197
731.488 .0515850
732.216 .0515469
732.944 .0515060
733.671 .0514626
734.398 .0514174
735.125 .0513706
735.852 .0513237
736.579 .0512766
737.305 .0512309
738.031 .0511865
738.757 .0511434
739.483 .0511004
740.208 .0510590
740.933 .0510181
741.658 .0509784
742.383 .0509404
743.108 .0509044
743.832 .0508715
744.556 .0508422
745.280 .0508160
746.004 .0507935
746.727 .0507740
747.450 .0507575
748.173 .0507424
748.896 .0507295
749.618 .0507175
750.340 .0507080
751.062 .0507013
751.784 .0506979
752.506 .0506972
753.227 .0507001
753.948 .0507054
754.669 .0507124
755.389 .0507207
756.110 .0507285
756.830 .0507353
757.550 .0507414
758.269 .0507455
758.989 .0507479
759.708 .0507484
760.427 .0507476
761.146 .0507449
761.864 .0507409
762.582 .0507344
763.300 .0507250
764.018 .0507128
764.736 .0506969
765.453 .0506770
766.170 .0506527
766.887 .0506242
767.603 .0505917
768.320 .0505558
769.036 .0505171
769.751 .0504763
770.467 .0504338
771.182 .0503903
771.897 .0503456
772.612 .0503004
773.327 .0502543
774.041 .0502077
774.755 .0501606
775.469 .0501130
776.183 .0500653
776.896 .0500185
777.609 .0499728
778.322 .0499298
779.035 .0498895
779.747 .0498526
780.459 .0498197
781.171 .0497906
781.882 .0497655
782.594 .0497443
783.305 .0497272
784.016 .0497136
784.726 .0497032
785.436 .0496964
786.147 .0496925
786.856 .0496919
787.566 .0496941
788.275 .0496991
788.984 .0497065
789.693 .0497153
790.401 .0497247
791.110 .0497342
791.818 .0497433
792.525 .0497511
793.233 .0497575
793.940 .0497625
794.647 .0497664
795.353 .0497687
796.060 .0497707
796.766 .0497718
797.472 .0497718
798.177 .0497702
798.883 .0497667
799.588 .0497608
800.292 .0497527
800.997 .0497411
801.701 .0497261
802.405 .0497081
803.109 .0496874
803.812 .0496630
804.515 .0496361
805.218 .0496059
805.921 .0495726
806.623 .0495360
807.325 .0494967
808.027 .0494540
808.728 .0494083
809.429 .0493593
810.130 .0493069
810.831 .0492522
811.531 .0491954
812.231 .0491364
812.931 .0490768
813.630 .0490175
814.330 .0489585
815.029 .0489000
815.727 .0488435
816.426 .0487889
817.124 .0487360
817.821 .0486848
818.519 .0486347
819.216 .0485866
819.913 .0485410
820.609 .0484980
821.306 .0484578
822.002 .0484212
822.697 .0483882
823.393 .0483582
824.088 .0483314
824.783 .0483074
825.477 .0482861
826.171 .0482682
826.865 .0482541
827.559 .0482442
828.252 .0482389
828.945 .0482388
829.638 .0482434
830.330 .0482526
831.023 .0482651
831.714 .0482796
832.406 .0482956
833.097 .0483124
833.788 .0483291
834.479 .0483455
835.169 .0483615
835.859 .0483774
836.548 .0483929
837.238 .0484080
837.927 .0484213
838.615 .0484333
839.304 .0484425
839.992 .0484480
840.680 .0484496
841.367 .0484468
842.054 .0484397
842.741 .0484284
843.428 .0484138
844.114 .0483960
844.800 .0483757
845.485 .0483536
846.170 .0483295
846.855 .0483041
847.540 .0482767
848.224 .0482469
848.908 .0482150
849.592 .0481805
850.275 .0481429
850.958 .0481018
851.641 .0480578
852.323 .0480099
853.005 .0479590
853.687 .0479053
854.368 .0478492
855.049 .0477915
855.730 .0477327
856.410 .0476723
857.090 .0476110
857.769 .0475488
858.449 .0474851
859.128 .0474206
859.806 .0473556
860.485 .0472899
861.163 .0472248
861.840 .0471609
862.518 .0470997
863.195 .0470411
863.871 .0469864
864.548 .0469353
865.224 .0468879
865.899 .0468441
866.574 .0468031
867.249 .0467653
867.924 .0467306
868.598 .0466987
869.272 .0466707
869.946 .0466466
870.619 .0466267
871.292 .0466115
871.964 .0466008
872.636 .0465942
873.308 .0465912
873.979 .0465910
874.651 .0465931
875.321 .0465967
875.992 .0466018
876.662 .0466082
877.331 .0466157
878.001 .0466250
878.670 .0466349
879.338 .0466459
880.007 .0466578
880.675 .0466698
881.342 .0466817
882.009 .0466930
882.676 .0467034
883.343 .0467124
884.009 .0467200
884.675 .0467263
885.340 .0467310
886.005 .0467350
886.670 .0467384
887.334 .0467416
887.998 .0467445
888.662 .0467473
889.325 .0467499
889.988 .0467527
890.650 .0467547
891.312 .0467553
891.974 .0467542
892.636 .0467512
893.297 .0467457
893.957 .0467373
894.618 .0467259
895.278 .0467116
895.937 .0466939
896.596 .0466733
897.255 .0466493
897.914 .0466229
898.572 .0465933
899.230 .0465605
899.887 .0465240
900.544 .0464834
901.201 .0464386
901.857 .0463895
902.513 .0463361
903.168 .0462789
903.823 .0462178
904.478 .0461547
905.132 .0460901
905.786 .0460249
906.440 .0459600
907.093 .0458952
907.746 .0458308
908.399 .0457667
909.051 .0457025
909.703 .0456383
910.354 .0455740
911.005 .0455106
911.656 .0454476
912.306 .0453856
912.956 .0453258
913.605 .0452689
914.254 .0452152
914.903 .0451660
915.551 .0451207
916.199 .0450798
916.847 .0450432
917.494 .0450095
918.141 .0449790
918.788 .0449509
919.434 .0449247
920.079 .0448995
920.725 .0448751
921.370 .0448525
922.014 .0448309
922.658 .0448110
923.302 .0447931
923.946 .0447765
924.589 .0447613
925.231 .0447463
925.873 .0447313
926.515 .0447160
927.157 .0447005
927.798 .0446840
928.439 .0446678
929.079 .0446516
929.719 .0446360
930.359 .0446215
930.998 .0446089
931.637 .0445985
932.275 .0445904
932.913 .0445845
933.551 .0445806
934.188 .0445786
934.825 .0445787
935.462 .0445801
936.098 .0445839
936.733 .0445895
937.369 .0445961
938.004 .0446028
938.638 .0446101
939.273 .0446169
939.907 .0446235
940.540 .0446295
941.173 .0446349
941.806 .0446394
942.438 .0446428
943.070 .0446444
943.702 .0446439
944.333 .0446410
944.964 .0446347
945.594 .0446249
946.224 .0446116
946.854 .0445944
947.483 .0445742
948.112 .0445511
948.741 .0445255
949.369 .0444970
949.996 .0444661
950.624 .0444325
951.251 .0443961
951.878 .0443570
952.504 .0443147
953.130 .0442698
953.755 .0442219
954.380 .0441709
955.005 .0441171
955.629 .0440613
956.253 .0440035
956.877 .0439448
957.500 .0438855
958.123 .0438259
958.746 .0437662
959.368 .0437066
959.990 .0436478
960.611 .0435892
961.232 .0435315
961.853 .0434746
962.473 .0434192
963.093 .0433654
963.712 .0433124
964.331 .0432607
964.950 .0432105
965.569 .0431612
966.187 .0431127
966.804 .0430656
967.422 .0430200
968.039 .0429758
968.655 .0429330
969.272 .0428915
969.887 .0428512
970.503 .0428118
971.118 .0427733
971.733 .0427350
972.347 .0426971
972.961 .0426588
973.575 .0426208
974.188 .0425838
974.801 .0425480
975.414 .0425136
976.026 .0424822
976.638 .0424543
977.250 .0424296
977.861 .0424082
978.472 .0423897
979.083 .0423742
979.693 .0423615
980.303 .0423503
980.912 .0423406
981.521 .0423329
982.130 .0423279
982.738 .0423258
983.346 .0423281
983.954 .0423343
984.562 .0423443
985.169 .0423580
985.775 .0423745
986.382 .0423927
986.988 .0424124
987.594 .0424323
988.199 .0424524
988.804 .0424729
989.409 .0424930
990.013 .0425134
990.617 .0425351
991.221 .0425580
991.824 .0425815
992.427 .0426042
993.030 .0426262
993.632 .0426467
994.234 .0426659
994.836 .0426829
995.438 .0426989
996.039 .0427138
996.640 .0427273
997.240 .0427398
997.840 .0427511
998.440 .0427613
999.040 .0427697
999.639 .0427762
1000.238 .0427806
1000.836 .0427826
1001.435 .0427827
1002.033 .0427809
1002.630 .0427790
1003.228 .0427765
1003.825 .0427740
1004.422 .0427713
1005.018 .0427692
1005.614 .0427665
1006.210 .0427636
1006.806 .0427598
1007.401 .0427541
1007.996 .0427463
1008.591 .0427364
1009.186 .0427241
1009.780 .0427100
1010.374 .0426925
1010.967 .0426732
1011.561 .0426509
1012.154 .0426271
1012.746 .0426005
1013.339 .0425719
1013.931 .0425416
1014.523 .0425098
1015.115 .0424760
1015.706 .0424409
1016.298 .0424047
1016.888 .0423677
1017.479 .0423299
1018.069 .0422917
1018.660 .0422534
1019.250 .0422156
1019.839 .0421782
1020.429 .0421418
1021.018 .0421053
1021.607 .0420690
1022.195 .0420318
1022.784 .0419938
1023.372 .0419554
1023.960 .0419161
1024.547 .0418767
1025.135 .0418367
1025.722 .0417958
1026.309 .0417543
1026.896 .0417131
1027.483 .0416721
1028.069 .0416318
1028.655 .0415918
1029.241 .0415522
1029.827 .0415137
1030.412 .0414769
1030.997 .0414417
1031.582 .0414085
1032.167 .0413775
1032.752 .0413487
1033.336 .0413221
1033.921 .0412976
1034.505 .0412756
1035.089 .0412566
1035.672 .0412407
1036.256 .0412269
1036.839 .0412150
1037.422 .0412049
1038.005 .0411962
1038.588 .0411891
1039.171 .0411836
1039.753 .0411786
1040.335 .0411751
1040.918 .0411735
1041.500 .0411737
1042.081 .0411749
1042.663 .0411771
1043.244 .0411790
1043.826 .0411806
1044.407 .0411804
1044.988 .0411789
1045.569 .0411768
1046.150 .0411752
1046.730 .0411736
1047.311 .0411726
1047.891 .0411727
1048.471 .0411740
1049.052 .0411764
1049.632 .0411805
1050.211 .0411866
1050.791 .0411952
1051.371 .0412057
1051.950 .0412196
1052.530 .0412372
1053.109 .0412579
1053.688 .0412801
1054.268 .0413048
1054.847 .0413289
1055.426 .0413523
1056.005 .0413744
1056.583 .0413963
1057.162 .0414178
1057.741 .0414405
1058.319 .0414644
1058.898 .0414908
1059.476 .0415195
1060.055 .0415494
1060.633 .0415788
1061.211 .0416080
1061.790 .0416347
1062.368 .0416578
1062.946 .0416791
1063.524 .0417002
1064.102 .0417204
1064.680 .0417416
1065.258 .0417645
1065.836 .0417902
1066.414 .0418168
1066.992 .0418444
1067.570 .0418724
1068.148 .0418981
1068.726 .0419217
1069.304 .0419409
1069.882 .0419551
1070.460 .0419640
1071.038 .0419671
1071.616 .0419645
1072.194 .0419575
1072.772 .0419464
1073.350 .0419303
1073.928 .0419117
1074.506 .0418933
1075.084 .0418725
1075.662 .0418507
1076.240 .0418302
1076.819 .0418094
1077.397 .0417873
1077.976 .0417651
1078.554 .0417428
1079.133 .0417224
1079.711 .0417047
1080.290 .0416894
1080.869 .0416765
1081.448 .0416685
1082.027 .0416639
1082.606 .0416621
1083.185 .0416616
1083.764 .0416609
1084.343 .0416577
1084.923 .0416514
1085.502 .0416410
1086.082 .0416256
1086.662 .0416064
1087.242 .0415851
1087.822 .0415612
1088.402 .0415333
1088.983 .0415031
1089.563 .0414714
1090.144 .0414378
1090.725 .0414021
1091.306 .0413631
1091.887 .0413220
1092.469 .0412790
1093.050 .0412365
1093.632 .0411949
1094.214 .0411568
1094.796 .0411242
1095.379 .0410955
1095.961 .0410714
1096.544 .0410502
1097.127 .0410282
1097.710 .0410060
1098.294 .0409810
1098.877 .0409506
1099.461 .0409159
1100.046 .0408783
1100.630 .0408411
1101.215 .0408061
1101.800 .0407760
1102.385 .0407502
1102.970 .0407300
1103.556 .0407146
1104.142 .0406997
1104.728 .0406845
1105.315 .0406701
1105.902 .0406533
1106.489 .0406377
1107.077 .0406287
1107.664 .0406266
1108.253 .0406347
1108.841 .0406553
1109.430 .0406836
1110.019 .0407195
1110.609 .0407589
1111.198 .0408007
1111.789 .0408397
1112.379 .0408783
1112.970 .0409134
1113.561 .0409441
1114.153 .0409753
1114.745 .0410075
1115.338 .0410386
1115.931 .0410714
1116.524 .0411025
1117.117 .0411315
1117.712 .0411589
1118.306 .0411872
1118.901 .0412157
1119.496 .0412477
1120.092 .0412852
1120.689 .0413289
1121.285 .0413770
1121.882 .0414322
1122.480 .0414899
1123.078 .0415510
1123.677 .0416136
1124.276 .0416711
1124.875 .0417250
1125.476 .0417762
1126.076 .0418312
1126.677 .0418926
1127.279 .0419602
1127.881 .0420384
1128.484 .0421261
1129.087 .0422195
1129.691 .0423161
1130.295 .0424133
1130.900 .0425095
1131.505 .0426007
1132.111 .0426886
1132.718 .0427755
1133.325 .0428628
1133.933 .0429604
1134.541 .0430718
1135.150 .0431983
1135.760 .0433396
1136.370 .0434873
1136.981 .0436341
1137.592 .0437779
1138.204 .0439106
1138.817 .0440339
1139.431 .0441476
1140.045 .0442637
1140.660 .0443897
1141.275 .0445094
1141.891 .0446168
1142.508 .0448149
1143.126 .0450524
1143.744 .0453439
1144.363 .0449770
1144.983 .0446165
