Measurement Sequence started on: 21-47-05-734
Integration time: 36
Scans to Average: 2 
>>>>>Begin Spectral Data<<<<<
433.946 .0348835
434.870 .0422121
435.793 .0434741
436.715 .0436406
437.635 .0432733
438.555 .0415450
439.473 .0414788
440.389 .0411617
441.305 .0408449
442.219 .0405689
443.132 .0403372
444.044 .0401692
444.954 .0399903
445.863 .0397958
446.771 .0396093
447.678 .0394305
448.584 .0392883
449.488 .0391645
450.391 .0390640
451.293 .0389926
452.194 .0389325
453.094 .0388732
453.992 .0388091
454.890 .0387389
455.786 .0386583
456.681 .0385734
457.575 .0384887
458.468 .0384043
459.360 .0383257
460.250 .0382522
461.140 .0381779
462.028 .0381030
462.915 .0380258
463.801 .0379454
464.687 .0378673
465.571 .0377921
466.454 .0377156
467.335 .0376483
468.216 .0375809
469.096 .0375167
469.975 .0374564
470.853 .0374007
471.729 .0373448
472.605 .0372892
473.479 .0372371
474.353 .0371933
475.226 .0371548
476.097 .0371309
476.968 .0371183
477.838 .0371193
478.706 .0371269
479.574 .0371383
480.441 .0371485
481.306 .0371590
482.171 .0371624
483.035 .0371627
483.898 .0371587
484.760 .0371551
485.621 .0371501
486.481 .0371503
487.340 .0371575
488.198 .0371700
489.055 .0371825
489.912 .0372004
490.767 .0372141
491.622 .0372270
492.476 .0372346
493.329 .0372388
494.180 .0372415
495.032 .0372425
495.882 .0372435
496.731 .0372458
497.580 .0372524
498.427 .0372649
499.274 .0372799
500.120 .0373030
500.965 .0373273
501.809 .0373541
502.653 .0373856
503.495 .0374175
504.337 .0374486
505.178 .0374787
506.018 .0375088
506.858 .0375398
507.696 .0375756
508.534 .0376129
509.371 .0376642
510.208 .0377302
511.043 .0378151
511.878 .0379147
512.712 .0380337
513.545 .0381681
514.377 .0383158
515.209 .0384807
516.040 .0386578
516.870 .0388437
517.699 .0390491
518.528 .0392683
519.356 .0395101
520.183 .0397686
521.010 .0400419
521.836 .0403304
522.661 .0406333
523.485 .0409329
524.309 .0412283
525.132 .0415169
525.954 .0417963
526.776 .0420588
527.597 .0423087
528.417 .0425407
529.237 .0427478
530.056 .0429360
530.874 .0431001
531.692 .0432337
532.508 .0433376
533.325 .0433992
534.140 .0434226
534.955 .0434047
535.770 .0433402
536.583 .0432300
537.397 .0430842
538.209 .0429054
539.021 .0426909
539.832 .0424483
540.643 .0421831
541.453 .0418927
542.262 .0415852
543.071 .0412574
543.879 .0409145
544.687 .0405617
545.494 .0402032
546.300 .0398479
547.106 .0395056
547.911 .0391778
548.716 .0388700
549.520 .0385859
550.323 .0383199
551.126 .0380606
551.929 .0378096
552.731 .0375617
553.532 .0373181
554.332 .0370801
555.133 .0368498
555.932 .0366303
556.731 .0364278
557.530 .0362389
558.328 .0360640
559.125 .0359039
559.922 .0357480
560.719 .0355940
561.515 .0354385
562.310 .0352785
563.105 .0351167
563.899 .0349615
564.693 .0348136
565.487 .0346734
566.280 .0345458
567.072 .0344295
567.864 .0343203
568.655 .0342211
569.446 .0341253
570.236 .0340359
571.026 .0339499
571.816 .0338635
572.605 .0337739
573.393 .0336864
574.181 .0335994
574.969 .0335122
575.756 .0334254
576.543 .0333389
577.329 .0332512
578.115 .0331663
578.900 .0330823
579.685 .0330012
580.469 .0329227
581.253 .0328474
582.036 .0327725
582.820 .0326979
583.602 .0326231
584.384 .0325481
585.166 .0324721
585.947 .0323957
586.728 .0323198
587.509 .0322468
588.289 .0321777
589.069 .0321144
589.848 .0320574
590.627 .0320063
591.405 .0319575
592.183 .0319111
592.961 .0318651
593.738 .0318180
594.515 .0317688
595.291 .0317185
596.067 .0316683
596.843 .0316194
597.618 .0315725
598.393 .0315287
599.167 .0314892
599.941 .0314539
600.715 .0314213
601.488 .0313913
602.261 .0313641
603.034 .0313381
603.806 .0313127
604.578 .0312890
605.349 .0312663
606.121 .0312456
606.891 .0312268
607.662 .0312102
608.432 .0311962
609.201 .0311845
609.971 .0311743
610.740 .0311654
611.508 .0311575
612.277 .0311494
613.045 .0311408
613.812 .0311318
614.579 .0311220
615.346 .0311119
616.113 .0311019
616.879 .0310928
617.645 .0310844
618.411 .0310769
619.176 .0310702
619.941 .0310642
620.705 .0310586
621.470 .0310530
622.233 .0310471
622.997 .0310414
623.760 .0310362
624.523 .0310312
625.286 .0310272
626.048 .0310243
626.810 .0310218
627.572 .0310186
628.333 .0310141
629.095 .0310072
629.855 .0309975
630.616 .0309855
631.376 .0309708
632.136 .0309538
632.895 .0309361
633.655 .0309175
634.414 .0308989
635.172 .0308807
635.931 .0308623
636.689 .0308427
637.447 .0308225
638.204 .0308000
638.962 .0307749
639.718 .0307477
640.475 .0307185
641.231 .0306869
641.988 .0306542
642.743 .0306201
643.499 .0305854
644.254 .0305513
645.009 .0305176
645.764 .0304834
646.518 .0304496
647.272 .0304152
648.026 .0303792
648.780 .0303416
649.533 .0303024
650.286 .0302614
651.039 .0302194
651.792 .0301775
652.544 .0301364
653.296 .0300975
654.048 .0300614
654.799 .0300277
655.550 .0299967
656.301 .0299676
657.052 .0299389
657.802 .0299104
658.552 .0298818
659.302 .0298533
660.052 .0298243
660.801 .0297962
661.550 .0297691
662.299 .0297443
663.048 .0297218
663.796 .0297020
664.544 .0296842
665.292 .0296686
666.040 .0296539
666.787 .0296402
667.534 .0296274
668.281 .0296145
669.028 .0296022
669.774 .0295912
670.521 .0295812
671.266 .0295724
672.012 .0295649
672.758 .0295593
673.503 .0295550
674.248 .0295520
674.992 .0295498
675.737 .0295480
676.481 .0295470
677.225 .0295457
677.969 .0295438
678.712 .0295418
679.455 .0295396
680.199 .0295372
680.941 .0295353
681.684 .0295337
682.426 .0295326
683.168 .0295316
683.910 .0295312
684.652 .0295309
685.393 .0295301
686.134 .0295286
686.875 .0295263
687.616 .0295228
688.356 .0295185
689.097 .0295125
689.837 .0295061
690.576 .0294992
691.316 .0294921
692.055 .0294846
692.794 .0294772
693.533 .0294701
694.272 .0294628
695.010 .0294555
695.748 .0294482
696.486 .0294405
697.224 .0294328
697.962 .0294246
698.699 .0294161
699.436 .0294073
700.173 .0293982
700.909 .0293881
701.646 .0293776
702.382 .0293662
703.118 .0293538
703.853 .0293407
704.589 .0293268
705.324 .0293117
706.059 .0292956
706.794 .0292782
707.529 .0292592
708.263 .0292386
708.997 .0292166
709.731 .0291930
710.465 .0291686
711.198 .0291431
711.931 .0291172
712.664 .0290912
713.397 .0290656
714.130 .0290405
714.862 .0290162
715.594 .0289929
716.326 .0289702
717.058 .0289482
717.789 .0289267
718.520 .0289047
719.251 .0288827
719.982 .0288602
720.713 .0288375
721.443 .0288143
722.173 .0287906
722.903 .0287667
723.633 .0287432
724.362 .0287198
725.091 .0286965
725.820 .0286730
726.549 .0286494
727.278 .0286251
728.006 .0285997
728.734 .0285731
729.462 .0285456
730.190 .0285177
730.917 .0284899
731.644 .0284627
732.371 .0284371
733.098 .0284133
733.825 .0283919
734.551 .0283727
735.277 .0283551
736.003 .0283389
736.728 .0283234
737.454 .0283081
738.179 .0282934
738.904 .0282786
739.629 .0282641
740.353 .0282498
741.077 .0282361
741.801 .0282230
742.525 .0282106
743.249 .0281989
743.972 .0281877
744.695 .0281766
745.418 .0281657
746.141 .0281542
746.863 .0281425
747.585 .0281302
748.307 .0281177
749.029 .0281048
749.750 .0280920
750.472 .0280794
751.193 .0280676
751.913 .0280569
752.634 .0280477
753.354 .0280396
754.074 .0280330
754.794 .0280279
755.514 .0280240
756.233 .0280209
756.952 .0280191
757.671 .0280178
758.390 .0280177
759.108 .0280181
759.826 .0280200
760.544 .0280228
761.262 .0280272
761.979 .0280330
762.697 .0280395
763.414 .0280467
764.130 .0280538
764.847 .0280599
765.563 .0280649
766.279 .0280684
766.995 .0280704
767.710 .0280708
768.426 .0280709
769.141 .0280705
769.855 .0280703
770.570 .0280701
771.284 .0280701
771.998 .0280695
772.712 .0280690
773.426 .0280678
774.139 .0280656
774.852 .0280627
775.565 .0280594
776.277 .0280557
776.990 .0280526
777.702 .0280502
778.414 .0280492
779.125 .0280494
779.836 .0280510
780.547 .0280531
781.258 .0280552
781.969 .0280568
782.679 .0280573
783.389 .0280564
784.099 .0280545
784.808 .0280513
785.517 .0280481
786.226 .0280455
786.935 .0280443
787.643 .0280446
788.352 .0280464
789.060 .0280492
789.767 .0280520
790.475 .0280540
791.182 .0280547
791.889 .0280539
792.595 .0280516
793.301 .0280479
794.008 .0280435
794.713 .0280389
795.419 .0280343
796.124 .0280301
796.829 .0280260
797.534 .0280213
798.238 .0280156
798.942 .0280082
799.646 .0279990
800.350 .0279884
801.053 .0279765
801.756 .0279636
802.459 .0279499
803.162 .0279358
803.864 .0279213
804.566 .0279063
805.267 .0278909
805.969 .0278750
806.670 .0278587
807.371 .0278423
808.071 .0278258
808.772 .0278094
809.472 .0277929
810.171 .0277762
810.871 .0277592
811.570 .0277420
812.269 .0277240
812.967 .0277052
813.666 .0276865
814.364 .0276676
815.061 .0276488
815.759 .0276305
816.456 .0276128
817.153 .0275955
817.849 .0275782
818.545 .0275605
819.241 .0275424
819.937 .0275233
820.632 .0275036
821.327 .0274829
822.022 .0274617
822.717 .0274402
823.411 .0274181
824.105 .0273961
824.798 .0273743
825.491 .0273523
826.184 .0273303
826.877 .0273079
827.569 .0272853
828.261 .0272620
828.953 .0272380
829.645 .0272137
830.336 .0271892
831.027 .0271648
831.717 .0271406
832.407 .0271164
833.097 .0270926
833.787 .0270692
834.476 .0270460
835.165 .0270234
835.854 .0270013
836.542 .0269796
837.230 .0269585
837.918 .0269384
838.605 .0269193
839.292 .0269012
839.979 .0268844
840.665 .0268683
841.352 .0268530
842.037 .0268382
842.723 .0268238
843.408 .0268103
844.093 .0267978
844.777 .0267865
845.462 .0267764
846.145 .0267676
846.829 .0267597
847.512 .0267525
848.195 .0267459
848.878 .0267395
849.560 .0267331
850.242 .0267262
850.923 .0267191
851.605 .0267122
852.286 .0267057
852.966 .0266999
853.646 .0266953
854.326 .0266919
855.006 .0266891
855.685 .0266867
856.364 .0266842
857.043 .0266813
857.721 .0266782
858.399 .0266745
859.077 .0266704
859.754 .0266664
860.431 .0266627
861.107 .0266596
861.784 .0266572
862.459 .0266552
863.135 .0266526
863.810 .0266488
864.485 .0266437
865.160 .0266367
865.834 .0266280
866.508 .0266183
867.181 .0266087
867.854 .0265994
868.527 .0265909
869.199 .0265837
869.872 .0265782
870.543 .0265746
871.215 .0265725
871.886 .0265717
872.557 .0265717
873.227 .0265732
873.897 .0265759
874.567 .0265801
875.236 .0265862
875.905 .0265943
876.573 .0266043
877.242 .0266167
877.909 .0266309
878.577 .0266464
879.244 .0266630
879.911 .0266805
880.577 .0266977
881.243 .0267144
881.909 .0267298
882.575 .0267442
883.240 .0267573
883.904 .0267693
884.569 .0267798
885.232 .0267896
885.896 .0267986
886.559 .0268067
887.222 .0268138
887.885 .0268200
888.547 .0268245
889.208 .0268275
889.870 .0268289
890.531 .0268288
891.192 .0268273
891.852 .0268256
892.512 .0268235
893.171 .0268223
893.830 .0268217
894.489 .0268218
895.148 .0268228
895.806 .0268247
896.464 .0268271
897.121 .0268305
897.778 .0268353
898.434 .0268416
899.091 .0268497
899.747 .0268599
900.402 .0268720
901.057 .0268862
901.712 .0269021
902.366 .0269191
903.020 .0269367
903.674 .0269541
904.327 .0269700
904.980 .0269847
905.633 .0269978
906.285 .0270089
906.936 .0270185
907.588 .0270270
908.239 .0270345
908.889 .0270414
909.540 .0270478
910.190 .0270533
910.839 .0270580
911.488 .0270612
912.137 .0270620
912.785 .0270602
913.433 .0270561
914.081 .0270497
914.728 .0270418
915.375 .0270331
916.021 .0270239
916.668 .0270148
917.313 .0270061
917.959 .0269973
918.604 .0269883
919.248 .0269787
919.892 .0269683
920.536 .0269563
921.180 .0269434
921.823 .0269295
922.465 .0269149
923.108 .0269004
923.750 .0268861
924.391 .0268717
925.032 .0268572
925.673 .0268424
926.313 .0268272
926.953 .0268114
927.593 .0267949
928.232 .0267772
928.871 .0267580
929.510 .0267373
930.148 .0267144
930.786 .0266890
931.423 .0266615
932.060 .0266317
932.697 .0265993
933.333 .0265650
933.969 .0265290
934.604 .0264913
935.239 .0264526
935.874 .0264135
936.508 .0263740
937.142 .0263343
937.776 .0262941
938.409 .0262535
939.042 .0262127
939.674 .0261722
940.306 .0261316
940.938 .0260916
941.569 .0260526
942.200 .0260148
942.830 .0259785
943.460 .0259434
944.090 .0259097
944.720 .0258777
945.349 .0258465
945.977 .0258161
946.606 .0257862
947.233 .0257572
947.861 .0257289
948.488 .0257017
949.115 .0256754
949.741 .0256500
950.367 .0256252
950.993 .0256012
951.618 .0255780
952.243 .0255558
952.868 .0255344
953.492 .0255136
954.115 .0254936
954.739 .0254736
955.362 .0254533
955.984 .0254330
956.607 .0254126
957.229 .0253923
957.850 .0253718
958.471 .0253513
959.092 .0253314
959.713 .0253122
960.333 .0252936
960.952 .0252758
961.572 .0252586
962.191 .0252418
962.809 .0252247
963.428 .0252080
964.045 .0251915
964.663 .0251751
965.280 .0251593
965.897 .0251437
966.513 .0251290
967.129 .0251147
967.745 .0251006
968.361 .0250867
968.976 .0250727
969.590 .0250585
970.205 .0250438
970.818 .0250293
971.432 .0250151
972.045 .0250013
972.658 .0249883
973.271 .0249756
973.883 .0249625
974.495 .0249487
975.106 .0249339
975.717 .0249177
976.328 .0249007
976.938 .0248830
977.548 .0248654
978.158 .0248483
978.768 .0248323
979.377 .0248172
979.985 .0248027
980.594 .0247889
981.202 .0247748
981.809 .0247603
982.417 .0247453
983.024 .0247300
983.631 .0247154
984.237 .0247017
984.843 .0246895
985.449 .0246787
986.054 .0246698
986.659 .0246624
987.264 .0246562
987.868 .0246511
988.472 .0246470
989.076 .0246439
989.679 .0246419
990.282 .0246410
990.885 .0246420
991.487 .0246448
992.090 .0246497
992.691 .0246566
993.293 .0246654
993.894 .0246757
994.495 .0246872
995.095 .0246998
995.696 .0247137
996.296 .0247278
996.895 .0247427
997.494 .0247581
998.093 .0247742
998.692 .0247910
999.291 .0248080
999.889 .0248253
1000.487 .0248428
1001.084 .0248593
1001.681 .0248747
1002.278 .0248890
1002.875 .0249028
1003.471 .0249157
1004.067 .0249277
1004.663 .0249393
1005.258 .0249505
1005.854 .0249619
1006.449 .0249733
1007.043 .0249843
1007.638 .0249953
1008.232 .0250064
1008.826 .0250176
1009.419 .0250295
1010.012 .0250417
1010.605 .0250539
1011.198 .0250666
1011.791 .0250788
1012.383 .0250907
1012.975 .0251016
1013.566 .0251126
1014.158 .0251240
1014.749 .0251367
1015.340 .0251511
1015.931 .0251666
1016.521 .0251842
1017.111 .0252033
1017.701 .0252231
1018.291 .0252427
1018.880 .0252618
1019.470 .0252811
1020.059 .0253010
1020.647 .0253222
1021.236 .0253449
1021.824 .0253704
1022.412 .0253988
1023.000 .0254288
1023.588 .0254598
1024.175 .0254906
1024.762 .0255207
1025.349 .0255484
1025.936 .0255742
1026.523 .0255985
1027.109 .0256225
1027.695 .0256467
1028.281 .0256716
1028.867 .0256976
1029.452 .0257239
1030.038 .0257503
1030.623 .0257761
1031.208 .0258006
1031.792 .0258240
1032.377 .0258455
1032.961 .0258656
1033.546 .0258847
1034.130 .0259037
1034.714 .0259222
1035.297 .0259410
1035.881 .0259604
1036.464 .0259801
1037.047 .0259996
1037.630 .0260193
1038.213 .0260388
1038.796 .0260576
1039.378 .0260762
1039.961 .0260936
1040.543 .0261090
1041.125 .0261234
1041.707 .0261357
1042.289 .0261469
1042.871 .0261575
1043.452 .0261682
1044.034 .0261794
1044.615 .0261923
1045.196 .0262077
1045.777 .0262242
1046.358 .0262425
1046.939 .0262627
1047.520 .0262824
1048.101 .0263016
1048.681 .0263191
1049.262 .0263341
1049.842 .0263477
1050.422 .0263597
1051.002 .0263701
1051.582 .0263797
1052.162 .0263886
1052.742 .0263967
1053.322 .0264036
1053.902 .0264091
1054.482 .0264127
1055.061 .0264143
1055.641 .0264145
1056.220 .0264129
1056.800 .0264099
1057.379 .0264068
1057.958 .0264037
1058.538 .0264021
1059.117 .0264016
1059.696 .0264014
1060.275 .0264036
1060.854 .0264070
1061.433 .0264121
1062.012 .0264194
1062.592 .0264292
1063.171 .0264414
1063.750 .0264565
1064.329 .0264734
1064.908 .0264907
1065.487 .0265082
1066.066 .0265249
1066.645 .0265391
1067.224 .0265513
1067.803 .0265606
1068.382 .0265681
1068.961 .0265739
1069.540 .0265798
1070.119 .0265849
1070.698 .0265907
1071.278 .0265959
1071.857 .0265986
1072.436 .0265988
1073.016 .0265962
1073.595 .0265892
1074.175 .0265789
1074.754 .0265666
1075.334 .0265533
1075.913 .0265400
1076.493 .0265286
1077.073 .0265193
1077.653 .0265137
1078.233 .0265096
1078.813 .0265071
1079.393 .0265047
1079.974 .0265019
1080.554 .0264987
1081.135 .0264935
1081.716 .0264881
1082.296 .0264824
1082.877 .0264768
1083.458 .0264739
1084.040 .0264736
1084.621 .0264765
1085.202 .0264817
1085.784 .0264894
1086.366 .0264983
1086.948 .0265062
1087.530 .0265131
1088.112 .0265173
1088.695 .0265190
1089.277 .0265181
1089.860 .0265161
1090.443 .0265130
1091.026 .0265103
1091.610 .0265091
1092.193 .0265095
1092.777 .0265112
1093.361 .0265126
1093.946 .0265127
1094.530 .0265113
1095.115 .0265052
1095.700 .0264945
1096.285 .0264773
1096.871 .0264558
1097.456 .0264302
1098.042 .0264027
1098.628 .0263747
1099.215 .0263485
1099.802 .0263249
1100.389 .0263054
1100.976 .0262888
1101.564 .0262750
1102.152 .0262622
1102.740 .0262507
1103.329 .0262388
1103.917 .0262253
1104.507 .0262082
1105.096 .0261909
1105.686 .0261713
1106.276 .0261517
1106.867 .0261323
1107.457 .0261142
1108.049 .0260992
1108.640 .0260874
1109.232 .0260765
1109.825 .0260646
1110.417 .0260523
1111.010 .0260405
1111.604 .0260282
1112.198 .0260170
1112.792 .0260059
1113.387 .0259945
1113.982 .0259841
1114.577 .0259729
1115.173 .0259598
1115.769 .0259478
1116.366 .0259375
1116.963 .0259273
1117.561 .0259187
1118.159 .0259121
1118.758 .0259101
1119.357 .0259128
1119.957 .0259195
1120.557 .0259237
1121.157 .0259249
1121.758 .0259239
1122.360 .0259204
1122.962 .0259145
1123.564 .0259105
1124.167 .0259084
1124.771 .0259116
1125.375 .0259175
1125.980 .0259256
1126.585 .0259343
1127.191 .0259447
1127.797 .0259523
1128.404 .0259553
1129.012 .0259529
1129.620 .0259507
1130.229 .0259504
1130.838 .0259549
1131.448 .0259645
1132.058 .0259800
1132.669 .0259984
1133.281 .0260227
1133.894 .0260538
1134.507 .0260905
1135.120 .0261360
1135.735 .0261940
1136.350 .0262603
1136.965 .0263345
1137.582 .0264155
1138.199 .0265007
1138.816 .0265823
1139.435 .0266657
1140.054 .0267458
1140.674 .0268202
1141.294 .0268923
1141.916 .0269386
1142.538 .0270850
1143.160 .0271967
1143.784 .0271709
1144.408 .0271657
1145.033 .0266045
