BestFit value for E:\RC_data\Compressed_For_Future_Analysis_Lite\test_shlomo\aqueous_test\GoodSpectraLarge_Full\0012_2025-06-24_09-45-30\Interpretation_History\2025-07-21_16-23-34\ResultsGraphs\BestFit\(Run)spectra_09-46-14-250_BestFit.txt
600.203 0.0454531
600.975 0.0453918
601.747 0.0453306
602.518 0.0452696
603.289 0.0452088
604.059 0.0451481
604.829 0.0450876
605.599 0.0450273
606.369 0.0449672
607.138 0.0449074
607.906 0.0448479
608.675 0.0447886
609.443 0.0447296
610.210 0.0446709
610.977 0.0446126
611.744 0.0445546
612.511 0.0444968
613.277 0.0444396
614.043 0.0443826
614.809 0.0443260
615.574 0.0442699
616.339 0.0442141
617.104 0.0441587
617.868 0.0441038
618.632 0.0440492
619.395 0.0439951
620.159 0.0439413
620.922 0.0438879
621.684 0.0438350
622.447 0.0437824
623.209 0.0437302
623.970 0.0436783
624.732 0.0436268
625.493 0.0435756
626.254 0.0435247
627.014 0.0434741
627.774 0.0434238
628.534 0.0433737
629.294 0.0433239
630.053 0.0432743
630.812 0.0432248
631.571 0.0431755
632.329 0.0431264
633.087 0.0430774
633.845 0.0430285
634.602 0.0429797
635.359 0.0429309
636.116 0.0428822
636.873 0.0428334
637.629 0.0427847
638.385 0.0427360
639.141 0.0426872
639.897 0.0426383
640.652 0.0425894
641.407 0.0425405
642.161 0.0424915
642.916 0.0424423
643.670 0.0423931
644.424 0.0423438
645.177 0.0422944
645.931 0.0422448
646.684 0.0421953
647.436 0.0421457
648.189 0.0420959
648.941 0.0420461
649.693 0.0419962
650.445 0.0419463
651.196 0.0418964
651.947 0.0418465
652.698 0.0417966
653.449 0.0417466
654.199 0.0416968
654.949 0.0416470
655.699 0.0415973
656.449 0.0415477
657.198 0.0414983
657.947 0.0414491
658.696 0.0414000
659.445 0.0413511
660.193 0.0413025
660.941 0.0412541
661.689 0.0412060
662.436 0.0411582
663.184 0.0411107
663.931 0.0410636
664.678 0.0410168
665.424 0.0409704
666.171 0.0409244
666.917 0.0408789
667.663 0.0408337
668.408 0.0407890
669.154 0.0407447
669.899 0.0407009
670.644 0.0406576
671.388 0.0406147
672.133 0.0405723
672.877 0.0405303
673.621 0.0404888
674.365 0.0404478
675.108 0.0404072
675.851 0.0403671
676.594 0.0403274
677.337 0.0402881
678.080 0.0402492
678.822 0.0402107
679.564 0.0401725
680.306 0.0401348
681.047 0.0400973
681.789 0.0400601
682.530 0.0400233
683.271 0.0399867
684.012 0.0399503
684.752 0.0399141
685.492 0.0398781
686.232 0.0398423
686.972 0.0398065
687.712 0.0397709
688.451 0.0397353
689.190 0.0396998
689.929 0.0396643
690.667 0.0396288
691.406 0.0395932
692.144 0.0395575
692.882 0.0395218
693.620 0.0394859
694.357 0.0394499
695.095 0.0394137
695.832 0.0393774
696.569 0.0393408
697.305 0.0393041
698.042 0.0392671
698.778 0.0392298
699.514 0.0391923
700.249 0.0391546
700.985 0.0391166
701.720 0.0390783
702.455 0.0390397
703.190 0.0390009
703.925 0.0389617
704.659 0.0389224
705.393 0.0388827
706.127 0.0388428
706.861 0.0388026
707.595 0.0387621
708.328 0.0387215
709.061 0.0386806
709.794 0.0386396
710.527 0.0385983
711.259 0.0385570
711.991 0.0385155
712.723 0.0384738
713.455 0.0384321
714.186 0.0383904
714.918 0.0383485
715.649 0.0383067
716.380 0.0382649
717.110 0.0382232
717.841 0.0381815
718.571 0.0381400
719.301 0.0380985
720.031 0.0380573
720.760 0.0380162
721.490 0.0379754
722.219 0.0379348
722.948 0.0378945
723.676 0.0378545
724.405 0.0378148
725.133 0.0377755
725.861 0.0377366
726.589 0.0376980
727.317 0.0376599
728.044 0.0376223
728.771 0.0375851
729.498 0.0375485
730.225 0.0375123
730.951 0.0374766
731.677 0.0374415
732.403 0.0374069
733.129 0.0373728
733.855 0.0373393
734.580 0.0373064
735.305 0.0372740
736.030 0.0372422
736.755 0.0372109
737.479 0.0371803
738.203 0.0371501
738.927 0.0371205
739.651 0.0370915
740.375 0.0370629
741.098 0.0370349
741.821 0.0370074
742.544 0.0369804
743.267 0.0369538
743.989 0.0369277
744.711 0.0369020
745.433 0.0368767
746.155 0.0368518
746.877 0.0368273
747.598 0.0368030
748.319 0.0367791
749.040 0.0367554
749.760 0.0367321
750.481 0.0367088
751.201 0.0366858
751.921 0.0366630
752.640 0.0366403
753.360 0.0366176
754.079 0.0365950
754.798 0.0365725
755.517 0.0365499
756.235 0.0365273
756.953 0.0365047
757.671 0.0364819
758.389 0.0364591
759.107 0.0364360
759.824 0.0364128
760.541 0.0363894
761.258 0.0363658
761.974 0.0363419
762.691 0.0363177
763.407 0.0362932
764.123 0.0362684
764.838 0.0362433
765.554 0.0362178
766.269 0.0361919
766.984 0.0361656
767.699 0.0361389
768.413 0.0361119
769.127 0.0360843
769.841 0.0360564
770.555 0.0360280
771.268 0.0359991
771.982 0.0359698
772.694 0.0359401
773.407 0.0359099
774.120 0.0358792
774.832 0.0358481
775.544 0.0358166
776.256 0.0357847
776.967 0.0357523
777.678 0.0357195
778.389 0.0356864
779.100 0.0356528
779.810 0.0356189
780.521 0.0355846
781.231 0.0355501
781.940 0.0355152
782.650 0.0354800
783.359 0.0354446
784.068 0.0354089
784.776 0.0353731
785.485 0.0353370
786.193 0.0353008
786.901 0.0352644
787.609 0.0352279
788.316 0.0351914
789.023 0.0351549
789.730 0.0351183
790.436 0.0350817
791.143 0.0350451
791.849 0.0350087
792.555 0.0349723
793.260 0.0349361
793.965 0.0349001
794.670 0.0348643
795.375 0.0348286
796.080 0.0347932
796.784 0.0347581
797.488 0.0347234
798.191 0.0346890
798.895 0.0346549
799.598 0.0346212
800.301 0.0345879
801.003 0.0345551
801.705 0.0345228
802.408 0.0344909
803.109 0.0344596
803.811 0.0344287
804.512 0.0343984
805.213 0.0343687
805.913 0.0343396
806.614 0.0343110
807.314 0.0342830
808.014 0.0342557
808.713 0.0342290
809.412 0.0342029
810.111 0.0341775
810.810 0.0341526
811.508 0.0341285
812.206 0.0341050
812.904 0.0340821
813.602 0.0340599
814.299 0.0340383
814.996 0.0340174
815.692 0.0339971
816.389 0.0339774
817.085 0.0339584
817.781 0.0339400
818.476 0.0339221
819.171 0.0339049
819.866 0.0338882
820.561 0.0338720
821.255 0.0338564
821.949 0.0338414
822.643 0.0338268
823.336 0.0338127
824.029 0.0337990
824.722 0.0337858
825.415 0.0337730
826.107 0.0337606
826.799 0.0337486
827.490 0.0337369
828.182 0.0337255
828.873 0.0337144
829.563 0.0337035
830.254 0.0336929
830.944 0.0336824
831.634 0.0336722
832.323 0.0336621
833.012 0.0336521
833.701 0.0336422
834.390 0.0336323
835.078 0.0336225
835.766 0.0336126
836.453 0.0336028
837.141 0.0335928
837.828 0.0335828
838.514 0.0335727
839.201 0.0335624
839.887 0.0335520
840.572 0.0335413
841.258 0.0335305
841.943 0.0335193
842.628 0.0335080
843.312 0.0334963
843.996 0.0334843
844.680 0.0334719
845.363 0.0334592
846.046 0.0334461
846.729 0.0334326
847.412 0.0334187
848.094 0.0334044
848.776 0.0333896
849.457 0.0333743
850.139 0.0333585
850.819 0.0333423
851.500 0.0333255
852.180 0.0333083
852.860 0.0332905
853.540 0.0332721
854.219 0.0332532
854.898 0.0332338
855.576 0.0332139
856.254 0.0331933
856.932 0.0331723
857.610 0.0331506
858.287 0.0331284
858.964 0.0331057
859.640 0.0330824
860.317 0.0330586
860.993 0.0330342
861.668 0.0330093
862.343 0.0329839
863.018 0.0329579
863.693 0.0329315
864.367 0.0329045
865.041 0.0328771
865.714 0.0328492
866.387 0.0328209
867.060 0.0327921
867.732 0.0327629
868.404 0.0327333
869.076 0.0327033
869.748 0.0326729
870.419 0.0326422
871.089 0.0326112
871.760 0.0325799
872.430 0.0325482
873.099 0.0325164
873.769 0.0324842
874.438 0.0324519
875.106 0.0324194
875.774 0.0323867
876.442 0.0323538
877.110 0.0323208
877.777 0.0322877
878.444 0.0322546
879.110 0.0322214
879.776 0.0321882
880.442 0.0321550
881.108 0.0321217
881.773 0.0320886
882.437 0.0320556
883.102 0.0320226
883.766 0.0319898
884.429 0.0319572
885.093 0.0319247
885.755 0.0318925
886.418 0.0318604
887.080 0.0318286
887.742 0.0317971
888.403 0.0317659
889.064 0.0317350
889.725 0.0317045
890.385 0.0316743
891.045 0.0316445
891.705 0.0316151
892.364 0.0315861
893.023 0.0315576
893.682 0.0315295
894.340 0.0315019
894.998 0.0314748
895.655 0.0314483
896.312 0.0314222
896.969 0.0313967
897.625 0.0313718
898.281 0.0313474
898.937 0.0313236
899.592 0.0313003
900.247 0.0312777
900.901 0.0312557
901.555 0.0312343
902.209 0.0312135
902.862 0.0311934
903.515 0.0311739
904.168 0.0311550
904.820 0.0311368
905.472 0.0311192
906.123 0.0311023
906.774 0.0310860
907.425 0.0310704
908.076 0.0310554
908.726 0.0310411
909.375 0.0310274
910.024 0.0310143
910.673 0.0310019
911.322 0.0309901
911.970 0.0309789
912.618 0.0309684
913.265 0.0309584
913.912 0.0309491
914.558 0.0309404
915.205 0.0309322
915.850 0.0309246
916.496 0.0309175
917.141 0.0309110
917.786 0.0309050
918.430 0.0308996
919.074 0.0308946
919.718 0.0308901
920.361 0.0308861
921.004 0.0308826
921.646 0.0308795
922.288 0.0308768
922.930 0.0308746
923.571 0.0308727
924.212 0.0308712
924.853 0.0308700
925.493 0.0308692
926.133 0.0308687
926.772 0.0308684
927.411 0.0308685
928.050 0.0308688
928.688 0.0308693
929.326 0.0308700
929.963 0.0308710
930.600 0.0308720
931.237 0.0308733
931.874 0.0308747
932.510 0.0308761
933.145 0.0308777
933.780 0.0308793
934.415 0.0308810
935.050 0.0308827
935.684 0.0308843
936.318 0.0308860
936.951 0.0308876
937.584 0.0308892
938.217 0.0308907
938.849 0.0308920
939.481 0.0308933
940.112 0.0308944
940.743 0.0308953
941.374 0.0308961
942.004 0.0308967
942.634 0.0308970
943.264 0.0308971
943.893 0.0308970
944.522 0.0308966
945.150 0.0308959
945.778 0.0308949
946.406 0.0308936
947.033 0.0308919
947.660 0.0308899
948.287 0.0308876
948.913 0.0308848
949.539 0.0308817
950.165 0.0308781
950.790 0.0308742
951.414 0.0308698
952.039 0.0308650
952.663 0.0308597
953.286 0.0308540
953.910 0.0308478
954.533 0.0308411
955.155 0.0308340
955.777 0.0308263
956.399 0.0308182
957.020 0.0308095
957.641 0.0308004
958.262 0.0307907
958.882 0.0307805
959.502 0.0307697
960.122 0.0307593
960.741 0.0307520
961.360 0.0307441
961.979 0.0307356
962.597 0.0307266
963.214 0.0307171
963.832 0.0307070
964.449 0.0306964
965.066 0.0306852
965.682 0.0306735
966.298 0.0306612
966.914 0.0306484
967.529 0.0306351
968.144 0.0306212
968.758 0.0306069
969.373 0.0305920
969.986 0.0305766
970.600 0.0305607
971.213 0.0305443
971.826 0.0305274
972.438 0.0305100
973.050 0.0304921
973.662 0.0304738
974.274 0.0304550
974.885 0.0304358
975.495 0.0304161
976.106 0.0303960
976.716 0.0303755
977.325 0.0303546
977.935 0.0303333
978.544 0.0303116
979.152 0.0302896
979.761 0.0302671
980.369 0.0302444
980.976 0.0302213
981.584 0.0301979
982.191 0.0301741
982.797 0.0301502
983.404 0.0301259
984.010 0.0301013
984.615 0.0300766
985.221 0.0300515
985.826 0.0300263
986.430 0.0300009
987.035 0.0299753
987.639 0.0299495
988.243 0.0299235
988.846 0.0298975
989.449 0.0298713
990.052 0.0298449
990.654 0.0298185
991.256 0.0297921
991.858 0.0297655
992.460 0.0297389
993.061 0.0297123
993.662 0.0296857
994.262 0.0296591
994.863 0.0296325
995.463 0.0296059
996.062 0.0295794
996.662 0.0295529
997.261 0.0295266
997.860 0.0295003
998.458 0.0294741
999.056 0.0294481
999.654 0.0294222
1000.252 0.0293948
1000.849 0.0293654
1001.446 0.0293361
1002.043 0.0293071
1002.639 0.0292783
1003.235 0.0292498
1003.831 0.0292214
1004.427 0.0291934
1005.022 0.0291656
1005.617 0.0291382
1006.212 0.0291110
1006.806 0.0290842
1007.401 0.0290577
1007.995 0.0290315
1008.588 0.0290058
1009.182 0.0289803
1009.775 0.0289553
1010.368 0.0289306
1010.96 0.0289064
1011.553 0.0288825
1012.145 0.0288591
1012.737 0.0288361
1013.328 0.0288135
1013.92 0.0287914
1014.511 0.0287697
1015.102 0.0287485
1015.692 0.0287278
1016.283 0.0287076
1016.873 0.0286878
1017.463 0.0286685
1018.052 0.0286497
1018.642 0.0286314
1019.231 0.0286137
1019.82 0.0285964
1020.409 0.0285797
1020.997 0.0285634
1021.585 0.0285478
1022.173 0.0285326
1022.761 0.0285179
1023.349 0.0285038
1023.936 0.0284902
1024.524 0.0284772
1025.111 0.0284647
1025.697 0.0284527
1026.284 0.0284413
1026.87 0.0284304
1027.457 0.0284200
1028.043 0.0284102
1028.628 0.0284010
1029.214 0.0283922
1029.80 0.0283840
1030.385 0.0283764
1030.97 0.0283692
1031.555 0.0283626
1032.139 0.0283565
1032.724 0.0283510
1033.308 0.0283459
1033.893 0.0283414
1034.477 0.0283373
1035.06 0.0283338
1035.644 0.0283308
1036.228 0.0283283
1036.811 0.0283262
1037.394 0.0283247
1037.977 0.0283236
1038.56 0.0283229
1039.143 0.0283228
1039.726 0.0283231
1040.308 0.0283238
1040.891 0.0283250
1041.473 0.0283266
1042.055 0.0283286
1042.637 0.0283311
1043.219 0.0283339
1043.801 0.0283372
1044.382 0.0283408
1044.964 0.0283448
1045.545 0.0283492
1046.127 0.0283539
1046.708 0.0283590
1047.289 0.0283644
1047.87 0.0283702
1048.451 0.0283763
1049.032 0.0283826
1049.612 0.0283893
1050.193 0.0283962
1050.774 0.0284035
1051.354 0.0284109
1051.935 0.0284187
1052.515 0.0284266
1053.095 0.0284348
1053.675 0.0284432
1054.256 0.0284518
1054.836 0.0284606
1055.416 0.0284696
1055.996 0.0284787
1056.576 0.0284880
1057.156 0.0284975
1057.735 0.0285070
1058.315 0.0285167
1058.895 0.0285265
1059.475 0.0285363
1060.055 0.0285463
1060.634 0.0285563
1061.214 0.0285664
1061.794 0.0285765
1062.373 0.0285866
1062.953 0.0285967
1063.533 0.0286069
1064.113 0.0286171
1064.692 0.0286272
1065.272 0.0286372
1065.852 0.0286473
1066.431 0.0286573
1067.011 0.0286672
1067.591 0.0286770
1068.171 0.0286867
1068.751 0.0286963
1069.331 0.0287058
1069.91 0.0287152
1070.49 0.0287244
1071.071 0.0287335
1071.651 0.0287424
1072.231 0.0287511
1072.811 0.0287596
1073.391 0.0287680
1073.972 0.0287761
1074.552 0.0287840
1075.133 0.0287917
1075.713 0.0287991
1076.294 0.0288062
1076.875 0.0288131
1077.456 0.0288198
1078.037 0.0288261
1078.618 0.0288322
1079.199 0.0288379
1079.78 0.0288433
1080.362 0.0288484
1080.943 0.0288532
1081.525 0.0288576
1082.107 0.0288617
1082.689 0.0288655
1083.271 0.0288688
1083.853 0.0288718
1084.436 0.0288744
1085.018 0.0288766
1085.601 0.0288785
1086.184 0.0288799
1086.767 0.0288809
1087.351 0.0288815
1087.934 0.0288816
1088.518 0.0288814
1089.102 0.0288807
1089.686 0.0288795
1090.27 0.0288780
1090.855 0.0288759
1091.439 0.0288734
1092.024 0.0288705
1092.609 0.0288670
1093.195 0.0288631
1093.78 0.0288588
1094.366 0.0288539
1094.952 0.0288486
1095.539 0.0288428
1096.125 0.0288365
1096.712 0.0288297
1097.299 0.0288224
1097.887 0.0288147
1098.475 0.0288064
1099.063 0.0287976
1099.651 0.0287884
1100.239 0.0287786
1100.828 0.0287683
1101.417 0.0287576
1102.007 0.0287463
1102.597 0.0287345
1103.187 0.0287222
1103.777 0.0287095
1104.368 0.0286962
1104.959 0.0286824
1105.551 0.0286681
1106.143 0.0286533
1106.735 0.0286381
1107.328 0.0286223
1107.921 0.0286060
1108.514 0.0285893
1109.108 0.0285721
1109.702 0.0285544
1110.296 0.0285362
1110.891 0.0285176
1111.486 0.0284984
1112.082 0.0284788
1112.678 0.0284588
1113.275 0.0284383
1113.872 0.0284173
1114.469 0.0283959
1115.067 0.0283740
1115.665 0.0283518
1116.264 0.0283290
1116.864 0.0283059
1117.463 0.0282823
1118.063 0.0282584
1118.664 0.0282340
1119.265 0.0282092
1119.867 0.0281840
1120.469 0.0281585
1121.072 0.0281325
1121.675 0.0281062
1122.279 0.0280796
1122.883 0.0280526
1123.488 0.0280252
1124.093 0.0279976
1124.699 0.0279696
1125.305 0.0279413
1125.912 0.0279126
1126.52 0.0278837
1127.128 0.0278545
1127.737 0.0278250
1128.346 0.0277952
1128.956 0.0277652
1129.567 0.0277349
1130.178 0.0277044
1130.79 0.0276737
1131.402 0.0276428
1132.015 0.0276116
1132.629 0.0275803
1133.243 0.0275488
1133.858 0.0275171
1134.474 0.0274852
1135.09 0.0274532
1135.707 0.0274211
1136.325 0.0273888
1136.943 0.0273564
1137.562 0.0273240
1138.182 0.0272914
1138.802 0.0272588
1139.423 0.0272261
1140.045 0.0271933
1140.668 0.0271605
1141.291 0.0271277
1141.916 0.0270948
1142.54 0.0270621
1143.166 0.0270292
1143.793 0.0269964
1144.42 0.0269637
1145.048 0.0269309
