Measurement Sequence started on: 14-45-04-498
Integration time: 36
Scans to Average: 2 
>>>>>Begin Spectral Data<<<<<
433.946 .0440877
434.870 .0451004
435.793 .0417978
436.715 .0421387
437.635 .0418601
438.555 .0427372
439.473 .0426813
440.389 .0426191
441.305 .0426334
442.219 .0425873
443.132 .0423922
444.044 .0422037
444.954 .0421803
445.863 .0421306
446.771 .0420878
447.678 .0419915
448.584 .0418916
449.488 .0417890
450.391 .0416804
451.293 .0415694
452.194 .0414575
453.094 .0413460
453.992 .0412354
454.890 .0411254
455.786 .0410152
456.681 .0409049
457.575 .0407949
458.468 .0406866
459.360 .0405815
460.250 .0404808
461.140 .0403849
462.028 .0402944
462.915 .0402090
463.801 .0401282
464.687 .0400509
465.571 .0399763
466.454 .0399035
467.335 .0398313
468.216 .0397592
469.096 .0396868
469.975 .0396139
470.853 .0395406
471.729 .0394667
472.605 .0393927
473.479 .0393191
474.353 .0392457
475.226 .0391726
476.097 .0391001
476.968 .0390279
477.838 .0389560
478.706 .0388842
479.574 .0388126
480.441 .0387414
481.306 .0386710
482.171 .0386019
483.035 .0385344
483.898 .0384691
484.760 .0384063
485.621 .0383462
486.481 .0382886
487.340 .0382334
488.198 .0381800
489.055 .0381282
489.912 .0380780
490.767 .0380291
491.622 .0379619
492.476 .0379180
493.329 .0378766
494.180 .0378377
495.032 .0378012
495.882 .0377668
496.731 .0377343
497.580 .0377031
498.427 .0376727
499.274 .0376427
500.120 .0376295
500.965 .0375990
501.809 .0375684
502.653 .0375375
503.495 .0375062
504.337 .0374743
505.178 .0374417
506.018 .0374084
506.858 .0373738
507.696 .0373380
508.534 .0373011
509.371 .0372630
510.208 .0372239
511.043 .0371839
511.878 .0371430
512.712 .0371016
513.545 .0370593
514.377 .0370162
515.209 .0369725
516.040 .0369282
516.870 .0368834
517.699 .0368383
518.528 .0367934
519.356 .0367490
520.183 .0367052
521.010 .0366624
521.836 .0366207
522.661 .0365801
523.485 .0365404
524.309 .0365020
525.132 .0364649
525.954 .0364290
526.776 .0363942
527.597 .0363607
528.417 .0363284
529.237 .0362974
530.056 .0362671
530.874 .0362376
531.692 .0362080
532.508 .0361774
533.325 .0361449
534.140 .0361095
534.955 .0360698
535.770 .0360249
536.583 .0359739
537.397 .0359169
538.209 .0358539
539.021 .0357857
539.832 .0357132
540.643 .0356377
541.453 .0355595
542.262 .0354790
543.071 .0353964
543.879 .0353118
544.687 .0352250
545.494 .0351357
546.300 .0350441
547.106 .0349511
547.911 .0348577
548.716 .0347654
549.520 .0346759
550.323 .0345911
551.126 .0345120
551.929 .0344400
552.731 .0343755
553.532 .0343188
554.332 .0342693
555.133 .0342266
555.932 .0341899
556.731 .0341583
557.530 .0341308
558.328 .0341068
559.125 .0340859
559.922 .0340672
560.719 .0340502
561.515 .0340343
562.310 .0340191
563.105 .0340039
563.899 .0339877
564.693 .0339701
565.487 .0339504
566.280 .0339284
567.072 .0339038
567.864 .0338765
568.655 .0338468
569.446 .0338147
570.236 .0337807
571.026 .0337452
571.816 .0337086
572.605 .0336711
573.393 .0336330
574.181 .0335946
574.969 .0335561
575.756 .0335175
576.543 .0334792
577.329 .0334415
578.115 .0334046
578.900 .0333685
579.685 .0333333
580.469 .0332990
581.253 .0332656
582.036 .0332328
582.820 .0332007
583.602 .0331688
584.384 .0331372
585.166 .0331057
585.947 .0330745
586.728 .0330435
587.509 .0330126
588.289 .0329818
589.069 .0329509
589.848 .0329197
590.627 .0328880
591.405 .0328556
592.183 .0328226
592.961 .0327891
593.738 .0327551
594.515 .0327209
595.291 .0326867
596.067 .0326529
596.843 .0326197
597.618 .0325874
598.393 .0325424
599.167 .0325122
599.941 .0324828
600.715 .0324542
601.488 .0324262
602.261 .0323989
603.034 .0323721
603.806 .0323458
604.578 .0323201
605.349 .0322949
606.121 .0322703
606.891 .0322586
607.662 .0322347
608.432 .0322114
609.201 .0321885
609.971 .0321660
610.740 .0321437
611.508 .0321218
612.277 .0321000
613.045 .0320783
613.812 .0320568
614.579 .0320354
615.346 .0320142
616.113 .0319930
616.879 .0319718
617.645 .0319506
618.411 .0319294
619.176 .0319081
619.941 .0318867
620.705 .0318653
621.470 .0318437
622.233 .0318220
622.997 .0318002
623.760 .0317781
624.523 .0317558
625.286 .0317331
626.048 .0317100
626.810 .0316866
627.572 .0316630
628.333 .0316391
629.095 .0316151
629.855 .0315911
630.616 .0315672
631.376 .0315434
632.136 .0315198
632.895 .0314965
633.655 .0314733
634.414 .0314505
635.172 .0314279
635.931 .0314056
636.689 .0313836
637.447 .0313620
638.204 .0313406
638.962 .0313195
639.718 .0312988
640.475 .0312785
641.231 .0312585
641.988 .0312388
642.743 .0312195
643.499 .0312003
644.254 .0311812
645.009 .0311621
645.764 .0311428
646.518 .0311232
647.272 .0311033
648.026 .0310830
648.780 .0310623
649.533 .0310413
650.286 .0310200
651.039 .0309984
651.792 .0309766
652.544 .0309546
653.296 .0309326
654.048 .0309105
654.799 .0308885
655.550 .0308667
656.301 .0308450
657.052 .0308237
657.802 .0308027
658.552 .0307821
659.302 .0307619
660.052 .0307421
660.801 .0307227
661.550 .0307037
662.299 .0306852
663.048 .0306670
663.796 .0306492
664.544 .0306316
665.292 .0306143
666.040 .0305971
666.787 .0305799
667.534 .0305628
668.281 .0305457
669.028 .0305285
669.774 .0305111
670.521 .0304934
671.266 .0304755
672.012 .0304571
672.758 .0304383
673.503 .0304190
674.248 .0303993
674.992 .0303791
675.737 .0303585
676.481 .0303377
677.225 .0303166
677.969 .0302954
678.712 .0302742
679.455 .0302530
680.199 .0302318
680.941 .0302108
681.684 .0301900
682.426 .0301695
683.168 .0301494
683.910 .0301296
684.652 .0301103
685.393 .0300916
686.134 .0300733
686.875 .0300557
687.616 .0300386
688.356 .0300222
689.097 .0300064
689.837 .0299913
690.576 .0299768
691.316 .0299628
692.055 .0299493
692.794 .0299362
693.533 .0299234
694.272 .0299108
695.010 .0298985
695.748 .0298863
696.486 .0298743
697.224 .0298624
697.962 .0298506
698.699 .0298391
699.436 .0298276
700.173 .0298164
700.909 .0298052
701.646 .0297941
702.382 .0297831
703.118 .0297722
703.853 .0297613
704.589 .0297504
705.324 .0297395
706.059 .0297286
706.794 .0297176
707.529 .0297066
708.263 .0296955
708.997 .0296842
709.731 .0296730
710.465 .0296616
711.198 .0296501
711.931 .0296386
712.664 .0296271
713.397 .0296154
714.130 .0296037
714.862 .0295918
715.594 .0295797
716.326 .0295673
717.058 .0295546
717.789 .0295416
718.520 .0295282
719.251 .0295145
719.982 .0295006
720.713 .0294865
721.443 .0294723
722.173 .0294580
722.903 .0294436
723.633 .0294292
724.362 .0294147
725.091 .0294002
725.820 .0293857
726.549 .0293711
727.278 .0293566
728.006 .0293420
728.734 .0293273
729.462 .0293127
730.190 .0292980
730.917 .0292832
731.644 .0292684
732.371 .0292537
733.098 .0292390
733.825 .0292245
734.551 .0292102
735.277 .0291960
736.003 .0291820
736.728 .0291681
737.454 .0291543
738.179 .0291406
738.904 .0291269
739.629 .0291133
740.353 .0290998
741.077 .0290864
741.801 .0290733
742.525 .0290605
743.249 .0290480
743.972 .0290358
744.695 .0290239
745.418 .0290124
746.141 .0290011
746.863 .0289900
747.585 .0289793
748.307 .0289687
749.029 .0289584
749.750 .0289482
750.472 .0289383
751.193 .0289284
751.913 .0289188
752.634 .0289094
753.354 .0289002
754.074 .0288912
754.794 .0288825
755.514 .0288739
756.233 .0288656
756.952 .0288575
757.671 .0288494
758.390 .0288415
759.108 .0288335
759.826 .0288256
760.544 .0288178
761.262 .0288100
761.979 .0288023
762.697 .0287948
763.414 .0287876
764.130 .0287805
764.847 .0287737
765.563 .0287671
766.279 .0287607
766.995 .0287545
767.710 .0287485
768.426 .0287427
769.141 .0287372
769.855 .0287318
770.570 .0287267
771.284 .0287218
771.998 .0287171
772.712 .0287127
773.426 .0287086
774.139 .0287047
774.852 .0287011
775.565 .0286976
776.277 .0286944
776.990 .0286913
777.702 .0286883
778.414 .0286853
779.125 .0286823
779.836 .0286792
780.547 .0286761
781.258 .0286729
781.969 .0286696
782.679 .0286661
783.389 .0286599
784.099 .0286559
784.808 .0286515
785.517 .0286468
786.226 .0286416
786.935 .0286359
787.643 .0286296
788.352 .0286228
789.060 .0286155
789.767 .0286077
790.475 .0285994
791.182 .0285908
791.889 .0285854
792.595 .0285764
793.301 .0285669
794.008 .0285571
794.713 .0285470
795.419 .0285365
796.124 .0285256
796.829 .0285145
797.534 .0285031
798.238 .0284916
798.942 .0284798
799.646 .0284680
800.350 .0284560
801.053 .0284440
801.756 .0284319
802.459 .0284198
803.162 .0284076
803.864 .0283953
804.566 .0283830
805.267 .0283706
805.969 .0283581
806.670 .0283456
807.371 .0283329
808.071 .0283201
808.772 .0283071
809.472 .0282940
810.171 .0282807
810.871 .0282673
811.570 .0282538
812.269 .0282402
812.967 .0282265
813.666 .0282127
814.364 .0281987
815.061 .0281846
815.759 .0281704
816.456 .0281560
817.153 .0281415
817.849 .0281269
818.545 .0281122
819.241 .0280975
819.937 .0280829
820.632 .0280684
821.327 .0280540
822.022 .0280397
822.717 .0280257
823.411 .0280118
824.105 .0279982
824.798 .0279848
825.491 .0279717
826.184 .0279588
826.877 .0279462
827.569 .0279340
828.261 .0279221
828.953 .0279106
829.645 .0278995
830.336 .0278890
831.027 .0278791
831.717 .0278697
832.407 .0278611
833.097 .0278531
833.787 .0278457
834.476 .0278389
835.165 .0278327
835.854 .0278270
836.542 .0278217
837.230 .0278169
837.918 .0278125
838.605 .0278085
839.292 .0278049
839.979 .0278016
840.665 .0277987
841.352 .0277962
842.037 .0277938
842.723 .0277915
843.408 .0277894
844.093 .0277873
844.777 .0277851
845.462 .0277829
846.145 .0277805
846.829 .0277780
847.512 .0277752
848.195 .0277723
848.878 .0277691
849.560 .0277657
850.242 .0277620
850.923 .0277581
851.605 .0277538
852.286 .0277493
852.966 .0277445
853.646 .0277394
854.326 .0277340
855.006 .0277283
855.685 .0277223
856.364 .0277161
857.043 .0277096
857.721 .0277031
858.399 .0276963
859.077 .0276895
859.754 .0276827
860.431 .0276758
861.107 .0276688
861.784 .0276618
862.459 .0276548
863.135 .0276478
863.810 .0276407
864.485 .0276335
865.160 .0276261
865.834 .0276184
866.508 .0276104
867.181 .0276020
867.854 .0275932
868.527 .0275840
869.199 .0275744
869.872 .0275645
870.543 .0275543
871.215 .0275438
871.886 .0275330
872.557 .0275219
873.227 .0275105
873.897 .0274986
874.567 .0274863
875.236 .0274735
875.905 .0274602
876.573 .0274464
877.242 .0274322
877.909 .0274174
878.577 .0274022
879.244 .0273866
879.911 .0273706
880.577 .0273543
881.243 .0273378
881.909 .0273209
882.575 .0273040
883.240 .0272869
883.904 .0272698
884.569 .0272527
885.232 .0272358
885.896 .0272190
886.559 .0272025
887.222 .0271863
887.885 .0271703
888.547 .0271548
889.208 .0271396
889.870 .0271249
890.531 .0271106
891.192 .0270966
891.852 .0270831
892.512 .0270698
893.171 .0270569
893.830 .0270442
894.489 .0270318
895.148 .0270197
895.806 .0270078
896.464 .0269960
897.121 .0269844
897.778 .0269729
898.434 .0269616
899.091 .0269446
899.747 .0269335
900.402 .0269227
901.057 .0269121
901.712 .0269017
902.366 .0268915
903.020 .0268812
903.674 .0268708
904.327 .0268603
904.980 .0268495
905.633 .0268384
906.285 .0268271
906.936 .0268156
907.588 .0268099
908.239 .0267982
908.889 .0267864
909.540 .0267745
910.190 .0267626
910.839 .0267505
911.488 .0267383
912.137 .0267260
912.785 .0267137
913.433 .0267015
914.081 .0266892
914.728 .0266772
915.375 .0266653
916.021 .0266537
916.668 .0266422
917.313 .0266309
917.959 .0266196
918.604 .0266083
919.248 .0265971
919.892 .0265858
920.536 .0265746
921.180 .0265634
921.823 .0265523
922.465 .0265413
923.108 .0265305
923.750 .0265199
924.391 .0265095
925.032 .0264992
925.673 .0264893
926.313 .0264795
926.953 .0264701
927.593 .0264611
928.232 .0264524
928.871 .0264440
929.510 .0264361
930.148 .0264284
930.786 .0264209
931.423 .0264137
932.060 .0264065
932.697 .0263993
933.333 .0263920
933.969 .0263846
934.604 .0263770
935.239 .0263693
935.874 .0263615
936.508 .0263535
937.142 .0263453
937.776 .0263370
938.409 .0263283
939.042 .0263194
939.674 .0263103
940.306 .0263008
940.938 .0262911
941.569 .0262811
942.200 .0262708
942.830 .0262603
943.460 .0262495
944.090 .0262385
944.720 .0262273
945.349 .0262160
945.977 .0262044
946.606 .0261927
947.233 .0261807
947.861 .0261686
948.488 .0261564
949.115 .0261441
949.741 .0261318
950.367 .0261195
950.993 .0261073
951.618 .0260951
952.243 .0260830
952.868 .0260709
953.492 .0260589
954.115 .0260469
954.739 .0260350
955.362 .0260232
955.984 .0260116
956.607 .0260003
957.229 .0259893
957.850 .0259786
958.471 .0259682
959.092 .0259580
959.713 .0259479
960.333 .0259379
960.952 .0259280
961.572 .0259182
962.191 .0259085
962.809 .0258990
963.428 .0258898
964.045 .0258809
964.663 .0258724
965.280 .0258642
965.897 .0258563
966.513 .0258486
967.129 .0258410
967.745 .0258336
968.361 .0258261
968.976 .0258188
969.590 .0258116
970.205 .0258046
970.818 .0257978
971.432 .0257911
972.045 .0257845
972.658 .0257779
973.271 .0257712
973.883 .0257642
974.495 .0257569
975.106 .0257492
975.717 .0257413
976.328 .0257330
976.938 .0257245
977.548 .0257157
978.158 .0257066
978.768 .0256911
979.377 .0256810
979.985 .0256706
980.594 .0256596
981.202 .0256482
981.809 .0256363
982.417 .0256242
983.024 .0256118
983.631 .0255993
984.237 .0255868
984.843 .0255743
985.449 .0255618
986.054 .0255494
986.659 .0255370
987.264 .0255312
987.868 .0255191
988.472 .0255070
989.076 .0254949
989.679 .0254830
990.282 .0254713
990.885 .0254599
991.487 .0254487
992.090 .0254378
992.691 .0254272
993.293 .0254170
993.894 .0254070
994.495 .0253972
995.095 .0253877
995.696 .0253782
996.296 .0253690
996.895 .0253599
997.494 .0253509
998.093 .0253421
998.692 .0253335
999.291 .0253249
999.889 .0253165
1000.487 .0253080
1001.084 .0252996
1001.681 .0252911
1002.278 .0252825
1002.875 .0252738
1003.471 .0252650
1004.067 .0252562
1004.663 .0252474
1005.258 .0252384
1005.854 .0252295
1006.449 .0252205
1007.043 .0252115
1007.638 .0252024
1008.232 .0251932
1008.826 .0251840
1009.419 .0251747
1010.012 .0251655
1010.605 .0251565
1011.198 .0251477
1011.791 .0251394
1012.383 .0251315
1012.975 .0251241
1013.566 .0251174
1014.158 .0251112
1014.749 .0251056
1015.340 .0251007
1015.931 .0250962
1016.521 .0250924
1017.111 .0250891
1017.701 .0250865
1018.291 .0250845
1018.880 .0250833
1019.470 .0250826
1020.059 .0250826
1020.647 .0250831
1021.236 .0250841
1021.824 .0250853
1022.412 .0250869
1023.000 .0250887
1023.588 .0250908
1024.175 .0250932
1024.762 .0250960
1025.349 .0250992
1025.936 .0251028
1026.523 .0251067
1027.109 .0251109
1027.695 .0251153
1028.281 .0251197
1028.867 .0251240
1029.452 .0251282
1030.038 .0251322
1030.623 .0251362
1031.208 .0251400
1031.792 .0251438
1032.377 .0251475
1032.961 .0251511
1033.546 .0251544
1034.130 .0251575
1034.714 .0251601
1035.297 .0251622
1035.881 .0251639
1036.464 .0251652
1037.047 .0251662
1037.630 .0251671
1038.213 .0251681
1038.796 .0251692
1039.378 .0251705
1039.961 .0251720
1040.543 .0251737
1041.125 .0251754
1041.707 .0251772
1042.289 .0251791
1042.871 .0251810
1043.452 .0251829
1044.034 .0251851
1044.615 .0251876
1045.196 .0251903
1045.777 .0251934
1046.358 .0251969
1046.939 .0252005
1047.520 .0252044
1048.101 .0252084
1048.681 .0252124
1049.262 .0252164
1049.842 .0252205
1050.422 .0252247
1051.002 .0252290
1051.582 .0252334
1052.162 .0252381
1052.742 .0252429
1053.322 .0252479
1053.902 .0252529
1054.482 .0252577
1055.061 .0252624
1055.641 .0252669
1056.220 .0252711
1056.800 .0252752
1057.379 .0252792
1057.958 .0252830
1058.538 .0252868
1059.117 .0252904
1059.696 .0252939
1060.275 .0252972
1060.854 .0253002
1061.433 .0253029
1062.012 .0253052
1062.592 .0253071
1063.171 .0253087
1063.750 .0253099
1064.329 .0253109
1064.908 .0253118
1065.487 .0253126
1066.066 .0253134
1066.645 .0253141
1067.224 .0253149
1067.803 .0253158
1068.382 .0253168
1068.961 .0253180
1069.540 .0253193
1070.119 .0253209
1070.698 .0253228
1071.278 .0253251
1071.857 .0253277
1072.436 .0253307
1073.016 .0253340
1073.595 .0253375
1074.175 .0253413
1074.754 .0253451
1075.334 .0253492
1075.913 .0253533
1076.493 .0253574
1077.073 .0253616
1077.653 .0253657
1078.233 .0253697
1078.813 .0253735
1079.393 .0253770
1079.974 .0253802
1080.554 .0253830
1081.135 .0253855
1081.716 .0253876
1082.296 .0253893
1082.877 .0253908
1083.458 .0253919
1084.040 .0253929
1084.621 .0253935
1085.202 .0253937
1085.784 .0253935
1086.366 .0253928
1086.948 .0253915
1087.530 .0253895
1088.112 .0253869
1088.695 .0253836
1089.277 .0253797
1089.860 .0253751
1090.443 .0253700
1091.026 .0253642
1091.610 .0253577
1092.193 .0253505
1092.777 .0253428
1093.361 .0253345
1093.946 .0253256
1094.530 .0253163
1095.115 .0253065
1095.700 .0252962
1096.285 .0252856
1096.871 .0252747
1097.456 .0252635
1098.042 .0252522
1098.628 .0252408
1099.215 .0252296
1099.802 .0252188
1100.389 .0252086
1100.976 .0251990
1101.564 .0251902
1102.152 .0251823
1102.740 .0251752
1103.329 .0251689
1103.917 .0251634
1104.507 .0251589
1105.096 .0251553
1105.686 .0251527
1106.276 .0251511
1106.867 .0251507
1107.457 .0251513
1108.049 .0251531
1108.640 .0251558
1109.232 .0251594
1109.825 .0251637
1110.417 .0251684
1111.010 .0251734
1111.604 .0251787
1112.198 .0251842
1112.792 .0251902
1113.387 .0251966
1113.982 .0252033
1114.577 .0252104
1115.173 .0252179
1115.769 .0252257
1116.366 .0252336
1116.963 .0252413
1117.561 .0252488
1118.159 .0252560
1118.758 .0252629
1119.357 .0252696
1119.957 .0252766
1120.557 .0252840
1121.157 .0252920
1121.758 .0253009
1122.360 .0253107
1122.962 .0253213
1123.564 .0253329
1124.167 .0253354
1124.771 .0253473
1125.375 .0253599
1125.980 .0253733
1126.585 .0253876
1127.191 .0254031
1127.797 .0254202
1128.404 .0254392
1129.012 .0254602
1129.620 .0254834
1130.229 .0255086
1130.838 .0255356
1131.448 .0255641
1132.058 .0255941
1132.669 .0256388
1133.281 .0256731
1133.894 .0257084
1134.507 .0257419
1135.120 .0257842
1135.735 .0258334
1136.350 .0258741
1136.965 .0259084
1137.582 .0259582
1138.199 .0260072
1138.816 .0260476
1139.435 .0260826
1140.054 .0261191
1140.674 .0261604
1141.294 .0261987
1141.916 .0262278
1142.538 .0261815
1143.160 .0264291
1143.784 .0266204
1144.408 .0264100
1145.033 .0260358
