Measurement Sequence started on: 14-45-04-498
Integration time: 36
Scans to Average: 2 
>>>>>Begin Spectral Data<<<<<
433.946 .0439925
434.870 .0466594
435.793 .0433889
436.715 .0425902
437.635 .0436505
438.555 .0447263
439.473 .0450059
440.389 .0452419
441.305 .0455603
442.219 .0458246
443.132 .0456452
444.044 .0456486
444.954 .0458205
445.863 .0460303
446.771 .0461792
447.678 .0462666
448.584 .0463345
449.488 .0463859
450.391 .0464167
451.293 .0464305
452.194 .0464308
453.094 .0464205
453.992 .0463999
454.890 .0463685
455.786 .0463257
456.681 .0462707
457.575 .0462035
458.468 .0461258
459.360 .0460395
460.250 .0459478
461.140 .0458529
462.028 .0457580
462.915 .0456641
463.801 .0455726
464.687 .0454833
465.571 .0453962
466.454 .0453101
467.335 .0452249
468.216 .0451400
469.096 .0450560
469.975 .0449736
470.853 .0448937
471.729 .0448177
472.605 .0447468
473.479 .0446817
474.353 .0446225
475.226 .0445685
476.097 .0445192
476.968 .0444733
477.838 .0444297
478.706 .0443872
479.574 .0443454
480.441 .0443040
481.306 .0442627
482.171 .0442214
483.035 .0441803
483.898 .0441394
484.760 .0440983
485.621 .0440568
486.481 .0440146
487.340 .0439713
488.198 .0439267
489.055 .0438808
489.912 .0438336
490.767 .0437851
491.622 .0437097
492.476 .0436589
493.329 .0436074
494.180 .0435554
495.032 .0435035
495.882 .0434522
496.731 .0434020
497.580 .0433535
498.427 .0433072
499.274 .0432635
500.120 .0432474
500.965 .0432079
501.809 .0431702
502.653 .0431339
503.495 .0430987
504.337 .0430646
505.178 .0430314
506.018 .0429991
506.858 .0429678
507.696 .0429376
508.534 .0429084
509.371 .0428804
510.208 .0428535
511.043 .0428276
511.878 .0428021
512.712 .0427768
513.545 .0427510
514.377 .0427244
515.209 .0426967
516.040 .0426673
516.870 .0426362
517.699 .0426028
518.528 .0425669
519.356 .0425283
520.183 .0424873
521.010 .0424440
521.836 .0423978
522.661 .0423487
523.485 .0422961
524.309 .0422398
525.132 .0421794
525.954 .0421148
526.776 .0420459
527.597 .0419728
528.417 .0418957
529.237 .0418151
530.056 .0417312
530.874 .0416449
531.692 .0415566
532.508 .0414667
533.325 .0413757
534.140 .0412842
534.955 .0411930
535.770 .0411028
536.583 .0410139
537.397 .0409263
538.209 .0408396
539.021 .0407541
539.832 .0406693
540.643 .0405852
541.453 .0405019
542.262 .0404201
543.071 .0403402
543.879 .0402633
544.687 .0401898
545.494 .0401203
546.300 .0400549
547.106 .0399938
547.911 .0399361
548.716 .0398812
549.520 .0398288
550.323 .0397783
551.126 .0397292
551.929 .0396817
552.731 .0396356
553.532 .0395912
554.332 .0395489
555.133 .0395093
555.932 .0394723
556.731 .0394382
557.530 .0394066
558.328 .0393771
559.125 .0393490
559.922 .0393217
560.719 .0392940
561.515 .0392656
562.310 .0392359
563.105 .0392046
563.899 .0391713
564.693 .0391363
565.487 .0390993
566.280 .0390605
567.072 .0390199
567.864 .0389773
568.655 .0389324
569.446 .0388854
570.236 .0388361
571.026 .0387848
571.816 .0387317
572.605 .0386772
573.393 .0386217
574.181 .0385661
574.969 .0385105
575.756 .0384553
576.543 .0384007
577.329 .0383470
578.115 .0382940
578.900 .0382418
579.685 .0381902
580.469 .0381392
581.253 .0380890
582.036 .0380397
582.820 .0379911
583.602 .0379434
584.384 .0378966
585.166 .0378507
585.947 .0378056
586.728 .0377612
587.509 .0377171
588.289 .0376733
589.069 .0376298
589.848 .0375864
590.627 .0375430
591.405 .0374999
592.183 .0374573
592.961 .0374153
593.738 .0373741
594.515 .0373338
595.291 .0372946
596.067 .0372566
596.843 .0372199
597.618 .0371843
598.393 .0371351
599.167 .0371022
599.941 .0370702
600.715 .0370392
601.488 .0370092
602.261 .0369800
603.034 .0369518
603.806 .0369245
604.578 .0368981
605.349 .0368725
606.121 .0368476
606.891 .0368364
607.662 .0368120
608.432 .0367879
609.201 .0367641
609.971 .0367404
610.740 .0367166
611.508 .0366928
612.277 .0366687
613.045 .0366444
613.812 .0366197
614.579 .0365946
615.346 .0365692
616.113 .0365434
616.879 .0365172
617.645 .0364906
618.411 .0364635
619.176 .0364360
619.941 .0364080
620.705 .0363795
621.470 .0363504
622.233 .0363208
622.997 .0362908
623.760 .0362604
624.523 .0362297
625.286 .0361989
626.048 .0361679
626.810 .0361368
627.572 .0361057
628.333 .0360745
629.095 .0360432
629.855 .0360118
630.616 .0359802
631.376 .0359484
632.136 .0359165
632.895 .0358846
633.655 .0358525
634.414 .0358203
635.172 .0357881
635.931 .0357558
636.689 .0357234
637.447 .0356909
638.204 .0356585
638.962 .0356260
639.718 .0355936
640.475 .0355613
641.231 .0355292
641.988 .0354973
642.743 .0354657
643.499 .0354344
644.254 .0354034
645.009 .0353726
645.764 .0353422
646.518 .0353122
647.272 .0352825
648.026 .0352533
648.780 .0352246
649.533 .0351964
650.286 .0351687
651.039 .0351416
651.792 .0351151
652.544 .0350890
653.296 .0350636
654.048 .0350386
654.799 .0350141
655.550 .0349900
656.301 .0349664
657.052 .0349431
657.802 .0349200
658.552 .0348971
659.302 .0348742
660.052 .0348515
660.801 .0348289
661.550 .0348063
662.299 .0347840
663.048 .0347618
663.796 .0347399
664.544 .0347183
665.292 .0346969
666.040 .0346758
666.787 .0346548
667.534 .0346339
668.281 .0346130
669.028 .0345923
669.774 .0345717
670.521 .0345513
671.266 .0345311
672.012 .0345112
672.758 .0344916
673.503 .0344723
674.248 .0344535
674.992 .0344350
675.737 .0344168
676.481 .0343989
677.225 .0343812
677.969 .0343638
678.712 .0343465
679.455 .0343295
680.199 .0343127
680.941 .0342961
681.684 .0342798
682.426 .0342636
683.168 .0342475
683.910 .0342317
684.652 .0342159
685.393 .0342003
686.134 .0341847
686.875 .0341691
687.616 .0341534
688.356 .0341377
689.097 .0341219
689.837 .0341059
690.576 .0340899
691.316 .0340738
692.055 .0340576
692.794 .0340414
693.533 .0340253
694.272 .0340092
695.010 .0339931
695.748 .0339771
696.486 .0339610
697.224 .0339449
697.962 .0339286
698.699 .0339122
699.436 .0338956
700.173 .0338788
700.909 .0338619
701.646 .0338448
702.382 .0338277
703.118 .0338106
703.853 .0337934
704.589 .0337762
705.324 .0337591
706.059 .0337419
706.794 .0337247
707.529 .0337075
708.263 .0336903
708.997 .0336731
709.731 .0336558
710.465 .0336386
711.198 .0336214
711.931 .0336042
712.664 .0335872
713.397 .0335703
714.130 .0335535
714.862 .0335370
715.594 .0335207
716.326 .0335047
717.058 .0334889
717.789 .0334734
718.520 .0334581
719.251 .0334432
719.982 .0334285
720.713 .0334141
721.443 .0334000
722.173 .0333862
722.903 .0333727
723.633 .0333596
724.362 .0333467
725.091 .0333342
725.820 .0333220
726.549 .0333100
727.278 .0332983
728.006 .0332867
728.734 .0332753
729.462 .0332639
730.190 .0332526
730.917 .0332413
731.644 .0332299
732.371 .0332185
733.098 .0332070
733.825 .0331955
734.551 .0331838
735.277 .0331720
736.003 .0331600
736.728 .0331479
737.454 .0331355
738.179 .0331230
738.904 .0331101
739.629 .0330971
740.353 .0330837
741.077 .0330700
741.801 .0330560
742.525 .0330416
743.249 .0330270
743.972 .0330121
744.695 .0329971
745.418 .0329819
746.141 .0329668
746.863 .0329517
747.585 .0329368
748.307 .0329220
749.029 .0329075
749.750 .0328932
750.472 .0328791
751.193 .0328653
751.913 .0328518
752.634 .0328386
753.354 .0328258
754.074 .0328134
754.794 .0328016
755.514 .0327902
756.233 .0327792
756.952 .0327688
757.671 .0327588
758.390 .0327493
759.108 .0327402
759.826 .0327315
760.544 .0327232
761.262 .0327152
761.979 .0327075
762.697 .0327000
763.414 .0326927
764.130 .0326856
764.847 .0326785
765.563 .0326715
766.279 .0326647
766.995 .0326580
767.710 .0326515
768.426 .0326450
769.141 .0326387
769.855 .0326323
770.570 .0326259
771.284 .0326194
771.998 .0326128
772.712 .0326060
773.426 .0325991
774.139 .0325920
774.852 .0325849
775.565 .0325777
776.277 .0325706
776.990 .0325634
777.702 .0325562
778.414 .0325490
779.125 .0325417
779.836 .0325343
780.547 .0325268
781.258 .0325192
781.969 .0325114
782.679 .0325034
783.389 .0324906
784.099 .0324822
784.808 .0324737
785.517 .0324650
786.226 .0324562
786.935 .0324473
787.643 .0324383
788.352 .0324292
789.060 .0324199
789.767 .0324105
790.475 .0324009
791.182 .0323911
791.889 .0323858
792.595 .0323757
793.301 .0323655
794.008 .0323553
794.713 .0323450
795.419 .0323347
796.124 .0323243
796.829 .0323140
797.534 .0323036
798.238 .0322933
798.942 .0322831
799.646 .0322729
800.350 .0322629
801.053 .0322530
801.756 .0322433
802.459 .0322338
803.162 .0322244
803.864 .0322152
804.566 .0322062
805.267 .0321975
805.969 .0321890
806.670 .0321808
807.371 .0321729
808.071 .0321653
808.772 .0321580
809.472 .0321510
810.171 .0321441
810.871 .0321373
811.570 .0321306
812.269 .0321239
812.967 .0321171
813.666 .0321103
814.364 .0321035
815.061 .0320966
815.759 .0320898
816.456 .0320830
817.153 .0320762
817.849 .0320693
818.545 .0320623
819.241 .0320553
819.937 .0320481
820.632 .0320407
821.327 .0320333
822.022 .0320257
822.717 .0320179
823.411 .0320099
824.105 .0320015
824.798 .0319928
825.491 .0319837
826.184 .0319742
826.877 .0319643
827.569 .0319540
828.261 .0319433
828.953 .0319323
829.645 .0319210
830.336 .0319093
831.027 .0318973
831.717 .0318848
832.407 .0318720
833.097 .0318588
833.787 .0318453
834.476 .0318315
835.165 .0318176
835.854 .0318036
836.542 .0317894
837.230 .0317752
837.918 .0317609
838.605 .0317465
839.292 .0317320
839.979 .0317173
840.665 .0317027
841.352 .0316881
842.037 .0316736
842.723 .0316594
843.408 .0316455
844.093 .0316318
844.777 .0316183
845.462 .0316051
846.145 .0315921
846.829 .0315793
847.512 .0315667
848.195 .0315543
848.878 .0315422
849.560 .0315304
850.242 .0315188
850.923 .0315074
851.605 .0314962
852.286 .0314849
852.966 .0314737
853.646 .0314625
854.326 .0314512
855.006 .0314398
855.685 .0314286
856.364 .0314174
857.043 .0314063
857.721 .0313955
858.399 .0313848
859.077 .0313742
859.754 .0313638
860.431 .0313536
861.107 .0313437
861.784 .0313339
862.459 .0313245
863.135 .0313155
863.810 .0313070
864.485 .0312988
865.160 .0312911
865.834 .0312837
866.508 .0312767
867.181 .0312700
867.854 .0312635
868.527 .0312572
869.199 .0312511
869.872 .0312452
870.543 .0312395
871.215 .0312339
871.886 .0312285
872.557 .0312231
873.227 .0312176
873.897 .0312121
874.567 .0312065
875.236 .0312007
875.905 .0311947
876.573 .0311885
877.242 .0311819
877.909 .0311750
878.577 .0311677
879.244 .0311600
879.911 .0311517
880.577 .0311429
881.243 .0311336
881.909 .0311238
882.575 .0311134
883.240 .0311027
883.904 .0310917
884.569 .0310803
885.232 .0310687
885.896 .0310569
886.559 .0310447
887.222 .0310323
887.885 .0310196
888.547 .0310065
889.208 .0309932
889.870 .0309796
890.531 .0309657
891.192 .0309516
891.852 .0309374
892.512 .0309231
893.171 .0309087
893.830 .0308941
894.489 .0308793
895.148 .0308642
895.806 .0308490
896.464 .0308335
897.121 .0308178
897.778 .0308019
898.434 .0307858
899.091 .0307606
899.747 .0307442
900.402 .0307278
901.057 .0307111
901.712 .0306944
902.366 .0306775
903.020 .0306604
903.674 .0306433
904.327 .0306262
904.980 .0306091
905.633 .0305920
906.285 .0305751
906.936 .0305582
907.588 .0305505
908.239 .0305340
908.889 .0305178
909.540 .0305017
910.190 .0304860
910.839 .0304707
911.488 .0304557
912.137 .0304413
912.785 .0304274
913.433 .0304141
914.081 .0304015
914.728 .0303894
915.375 .0303779
916.021 .0303669
916.668 .0303565
917.313 .0303465
917.959 .0303369
918.604 .0303276
919.248 .0303186
919.892 .0303097
920.536 .0303011
921.180 .0302925
921.823 .0302840
922.465 .0302757
923.108 .0302675
923.750 .0302594
924.391 .0302515
925.032 .0302437
925.673 .0302359
926.313 .0302282
926.953 .0302203
927.593 .0302122
928.232 .0302039
928.871 .0301954
929.510 .0301867
930.148 .0301777
930.786 .0301685
931.423 .0301590
932.060 .0301493
932.697 .0301391
933.333 .0301285
933.969 .0301172
934.604 .0301053
935.239 .0300926
935.874 .0300792
936.508 .0300650
937.142 .0300502
937.776 .0300347
938.409 .0300187
939.042 .0300019
939.674 .0299846
940.306 .0299665
940.938 .0299478
941.569 .0299283
942.200 .0299082
942.830 .0298875
943.460 .0298663
944.090 .0298446
944.720 .0298226
945.349 .0298004
945.977 .0297779
946.606 .0297550
947.233 .0297319
947.861 .0297085
948.488 .0296847
949.115 .0296607
949.741 .0296365
950.367 .0296121
950.993 .0295877
951.618 .0295632
952.243 .0295388
952.868 .0295145
953.492 .0294904
954.115 .0294664
954.739 .0294427
955.362 .0294193
955.984 .0293961
956.607 .0293734
957.229 .0293511
957.850 .0293294
958.471 .0293082
959.092 .0292876
959.713 .0292676
960.333 .0292481
960.952 .0292293
961.572 .0292111
962.191 .0291934
962.809 .0291764
963.428 .0291599
964.045 .0291441
964.663 .0291289
965.280 .0291143
965.897 .0291002
966.513 .0290868
967.129 .0290739
967.745 .0290616
968.361 .0290498
968.976 .0290386
969.590 .0290281
970.205 .0290183
970.818 .0290091
971.432 .0290006
972.045 .0289927
972.658 .0289855
973.271 .0289787
973.883 .0289723
974.495 .0289663
975.106 .0289605
975.717 .0289549
976.328 .0289494
976.938 .0289441
977.548 .0289388
978.158 .0289336
978.768 .0289259
979.377 .0289206
979.985 .0289152
980.594 .0289097
981.202 .0289040
981.809 .0288982
982.417 .0288924
983.024 .0288866
983.631 .0288809
984.237 .0288754
984.843 .0288700
985.449 .0288648
986.054 .0288596
986.659 .0288546
987.264 .0288521
987.868 .0288472
988.472 .0288424
989.076 .0288377
989.679 .0288332
990.282 .0288290
990.885 .0288252
991.487 .0288217
992.090 .0288187
992.691 .0288162
993.293 .0288141
993.894 .0288124
994.495 .0288111
995.095 .0288102
995.696 .0288098
996.296 .0288099
996.895 .0288104
997.494 .0288114
998.093 .0288129
998.692 .0288148
999.291 .0288171
999.889 .0288196
1000.487 .0288223
1001.084 .0288250
1001.681 .0288277
1002.278 .0288303
1002.875 .0288328
1003.471 .0288353
1004.067 .0288378
1004.663 .0288402
1005.258 .0288425
1005.854 .0288448
1006.449 .0288469
1007.043 .0288488
1007.638 .0288505
1008.232 .0288520
1008.826 .0288532
1009.419 .0288542
1010.012 .0288550
1010.605 .0288556
1011.198 .0288559
1011.791 .0288559
1012.383 .0288557
1012.975 .0288550
1013.566 .0288540
1014.158 .0288526
1014.749 .0288508
1015.340 .0288487
1015.931 .0288461
1016.521 .0288433
1017.111 .0288403
1017.701 .0288370
1018.291 .0288336
1018.880 .0288300
1019.470 .0288263
1020.059 .0288223
1020.647 .0288182
1021.236 .0288140
1021.824 .0288095
1022.412 .0288048
1023.000 .0287999
1023.588 .0287947
1024.175 .0287893
1024.762 .0287836
1025.349 .0287776
1025.936 .0287711
1026.523 .0287641
1027.109 .0287566
1027.695 .0287485
1028.281 .0287399
1028.867 .0287309
1029.452 .0287213
1030.038 .0287112
1030.623 .0287008
1031.208 .0286899
1031.792 .0286787
1032.377 .0286671
1032.961 .0286552
1033.546 .0286431
1034.130 .0286306
1034.714 .0286180
1035.297 .0286053
1035.881 .0285924
1036.464 .0285796
1037.047 .0285667
1037.630 .0285539
1038.213 .0285412
1038.796 .0285286
1039.378 .0285160
1039.961 .0285035
1040.543 .0284910
1041.125 .0284785
1041.707 .0284660
1042.289 .0284536
1042.871 .0284412
1043.452 .0284290
1044.034 .0284170
1044.615 .0284051
1045.196 .0283935
1045.777 .0283822
1046.358 .0283712
1046.939 .0283607
1047.520 .0283507
1048.101 .0283411
1048.681 .0283321
1049.262 .0283236
1049.842 .0283157
1050.422 .0283085
1051.002 .0283021
1051.582 .0282963
1052.162 .0282913
1052.742 .0282870
1053.322 .0282834
1053.902 .0282804
1054.482 .0282780
1055.061 .0282762
1055.641 .0282750
1056.220 .0282742
1056.800 .0282740
1057.379 .0282742
1057.958 .0282749
1058.538 .0282760
1059.117 .0282775
1059.696 .0282792
1060.275 .0282812
1060.854 .0282833
1061.433 .0282857
1062.012 .0282882
1062.592 .0282909
1063.171 .0282938
1063.750 .0282969
1064.329 .0283001
1064.908 .0283035
1065.487 .0283068
1066.066 .0283101
1066.645 .0283133
1067.224 .0283162
1067.803 .0283190
1068.382 .0283216
1068.961 .0283240
1069.540 .0283263
1070.119 .0283287
1070.698 .0283312
1071.278 .0283339
1071.857 .0283367
1072.436 .0283398
1073.016 .0283433
1073.595 .0283471
1074.175 .0283515
1074.754 .0283565
1075.334 .0283621
1075.913 .0283686
1076.493 .0283757
1077.073 .0283835
1077.653 .0283919
1078.233 .0284006
1078.813 .0284095
1079.393 .0284184
1079.974 .0284272
1080.554 .0284357
1081.135 .0284438
1081.716 .0284516
1082.296 .0284588
1082.877 .0284655
1083.458 .0284717
1084.040 .0284774
1084.621 .0284825
1085.202 .0284870
1085.784 .0284911
1086.366 .0284946
1086.948 .0284978
1087.530 .0285006
1088.112 .0285030
1088.695 .0285052
1089.277 .0285072
1089.860 .0285089
1090.443 .0285103
1091.026 .0285113
1091.610 .0285118
1092.193 .0285118
1092.777 .0285111
1093.361 .0285097
1093.946 .0285074
1094.530 .0285044
1095.115 .0285007
1095.700 .0284961
1096.285 .0284908
1096.871 .0284849
1097.456 .0284786
1098.042 .0284720
1098.628 .0284653
1099.215 .0284589
1099.802 .0284529
1100.389 .0284474
1100.976 .0284424
1101.564 .0284379
1102.152 .0284340
1102.740 .0284303
1103.329 .0284269
1103.917 .0284236
1104.507 .0284203
1105.096 .0284171
1105.686 .0284139
1106.276 .0284109
1106.867 .0284081
1107.457 .0284056
1108.049 .0284034
1108.640 .0284017
1109.232 .0284004
1109.825 .0283997
1110.417 .0283996
1111.010 .0284003
1111.604 .0284020
1112.198 .0284048
1112.792 .0284089
1113.387 .0284143
1113.982 .0284210
1114.577 .0284291
1115.173 .0284384
1115.769 .0284484
1116.366 .0284591
1116.963 .0284700
1117.561 .0284810
1118.159 .0284917
1118.758 .0285022
1119.357 .0285125
1119.957 .0285227
1120.557 .0285330
1121.157 .0285437
1121.758 .0285548
1122.360 .0285665
1122.962 .0285785
1123.564 .0285909
1124.167 .0285980
1124.771 .0286103
1125.375 .0286225
1125.980 .0286348
1126.585 .0286474
1127.191 .0286606
1127.797 .0286750
1128.404 .0286909
1129.012 .0287087
1129.620 .0287286
1130.229 .0287507
1130.838 .0287747
1131.448 .0288006
1132.058 .0288284
1132.669 .0288660
1133.281 .0288994
1133.894 .0289363
1134.507 .0289752
1135.120 .0290231
1135.735 .0290712
1136.350 .0291314
1136.965 .0290321
1137.582 .0291074
1138.199 .0291848
1138.816 .0292562
1139.435 .0293281
1140.054 .0294027
1140.674 .0294778
1141.294 .0295636
1141.916 .0296614
1142.538 .0297146
1143.160 .0299499
1143.784 .0299528
1144.408 .0302733
1145.033 .0303325
