Measurement Sequence started on: 14-45-04-498
Integration time: 36
Scans to Average: 2 
>>>>>Begin Spectral Data<<<<<
433.946 .0566973
434.870 .0403705
435.793 .0356653
436.715 .0334971
437.635 .0319281
438.555 .0356856
439.473 .0349906
440.389 .0350696
441.305 .0353700
442.219 .0357259
443.132 .0362429
444.044 .0360940
444.954 .0361914
445.863 .0364010
446.771 .0366910
447.678 .0367810
448.584 .0369057
449.488 .0370241
450.391 .0371247
451.293 .0372046
452.194 .0372642
453.094 .0373083
453.992 .0373379
454.890 .0373544
455.786 .0373587
456.681 .0373521
457.575 .0373368
458.468 .0373143
459.360 .0372864
460.250 .0372544
461.140 .0372193
462.028 .0371822
462.915 .0371439
463.801 .0371051
464.687 .0370657
465.571 .0370255
466.454 .0369843
467.335 .0369415
468.216 .0368966
469.096 .0368486
469.975 .0367976
470.853 .0367430
471.729 .0366853
472.605 .0366256
473.479 .0365654
474.353 .0365060
475.226 .0364487
476.097 .0363943
476.968 .0363434
477.838 .0362958
478.706 .0362505
479.574 .0362070
480.441 .0361647
481.306 .0361230
482.171 .0360817
483.035 .0360413
483.898 .0360021
484.760 .0359649
485.621 .0359300
486.481 .0358975
487.340 .0358671
488.198 .0358381
489.055 .0358091
489.912 .0357791
490.767 .0357468
491.622 .0356872
492.476 .0356463
493.329 .0356023
494.180 .0355556
495.032 .0355074
495.882 .0354585
496.731 .0354099
497.580 .0353623
498.427 .0353161
499.274 .0352712
500.120 .0352514
500.965 .0352090
501.809 .0351672
502.653 .0351258
503.495 .0350848
504.337 .0350442
505.178 .0350044
506.018 .0349659
506.858 .0349285
507.696 .0348926
508.534 .0348585
509.371 .0348263
510.208 .0347957
511.043 .0347662
511.878 .0347376
512.712 .0347094
513.545 .0346812
514.377 .0346527
515.209 .0346234
516.040 .0345933
516.870 .0345622
517.699 .0345297
518.528 .0344961
519.356 .0344618
520.183 .0344272
521.010 .0343921
521.836 .0343567
522.661 .0343208
523.485 .0342840
524.309 .0342460
525.132 .0342066
525.954 .0341654
526.776 .0341220
527.597 .0340765
528.417 .0340292
529.237 .0339805
530.056 .0339313
530.874 .0338819
531.692 .0338330
532.508 .0337852
533.325 .0337386
534.140 .0336936
534.955 .0336510
535.770 .0336108
536.583 .0335725
537.397 .0335354
538.209 .0334995
539.021 .0334638
539.832 .0334277
540.643 .0333909
541.453 .0333529
542.262 .0333136
543.071 .0332727
543.879 .0332302
544.687 .0331866
545.494 .0331416
546.300 .0330952
547.106 .0330467
547.911 .0329956
548.716 .0329416
549.520 .0328845
550.323 .0328246
551.126 .0327626
551.929 .0326988
552.731 .0326343
553.532 .0325701
554.332 .0325074
555.133 .0324472
555.932 .0323908
556.731 .0323391
557.530 .0322928
558.328 .0322525
559.125 .0322186
559.922 .0321914
560.719 .0321710
561.515 .0321570
562.310 .0321487
563.105 .0321458
563.899 .0321474
564.693 .0321531
565.487 .0321624
566.280 .0321749
567.072 .0321896
567.864 .0322056
568.655 .0322217
569.446 .0322365
570.236 .0322489
571.026 .0322577
571.816 .0322620
572.605 .0322612
573.393 .0322548
574.181 .0322432
574.969 .0322268
575.756 .0322061
576.543 .0321816
577.329 .0321540
578.115 .0321237
578.900 .0320910
579.685 .0320564
580.469 .0320204
581.253 .0319834
582.036 .0319455
582.820 .0319072
583.602 .0318688
584.384 .0318308
585.166 .0317938
585.947 .0317580
586.728 .0317241
587.509 .0316922
588.289 .0316625
589.069 .0316352
589.848 .0316102
590.627 .0315874
591.405 .0315666
592.183 .0315476
592.961 .0315302
593.738 .0315141
594.515 .0314994
595.291 .0314860
596.067 .0314737
596.843 .0314624
597.618 .0314520
598.393 .0314377
599.167 .0314281
599.941 .0314186
600.715 .0314091
601.488 .0313994
602.261 .0313892
603.034 .0313786
603.806 .0313673
604.578 .0313554
605.349 .0313428
606.121 .0313293
606.891 .0313203
607.662 .0313053
608.432 .0312893
609.201 .0312722
609.971 .0312542
610.740 .0312352
611.508 .0312153
612.277 .0311946
613.045 .0311732
613.812 .0311512
614.579 .0311290
615.346 .0311065
616.113 .0310838
616.879 .0310610
617.645 .0310382
618.411 .0310153
619.176 .0309925
619.941 .0309699
620.705 .0309474
621.470 .0309253
622.233 .0309036
622.997 .0308825
623.760 .0308620
624.523 .0308425
625.286 .0308239
626.048 .0308064
626.810 .0307900
627.572 .0307745
628.333 .0307601
629.095 .0307463
629.855 .0307332
630.616 .0307205
631.376 .0307081
632.136 .0306959
632.895 .0306839
633.655 .0306720
634.414 .0306604
635.172 .0306489
635.931 .0306376
636.689 .0306263
637.447 .0306150
638.204 .0306035
638.962 .0305917
639.718 .0305795
640.475 .0305669
641.231 .0305537
641.988 .0305402
642.743 .0305261
643.499 .0305116
644.254 .0304967
645.009 .0304814
645.764 .0304657
646.518 .0304496
647.272 .0304333
648.026 .0304168
648.780 .0304001
649.533 .0303834
650.286 .0303665
651.039 .0303496
651.792 .0303326
652.544 .0303155
653.296 .0302984
654.048 .0302813
654.799 .0302643
655.550 .0302475
656.301 .0302310
657.052 .0302151
657.802 .0301997
658.552 .0301848
659.302 .0301705
660.052 .0301565
660.801 .0301429
661.550 .0301294
662.299 .0301161
663.048 .0301029
663.796 .0300899
664.544 .0300770
665.292 .0300644
666.040 .0300522
666.787 .0300404
667.534 .0300290
668.281 .0300181
669.028 .0300077
669.774 .0299976
670.521 .0299879
671.266 .0299786
672.012 .0299695
672.758 .0299608
673.503 .0299522
674.248 .0299438
674.992 .0299355
675.737 .0299274
676.481 .0299193
677.225 .0299113
677.969 .0299033
678.712 .0298954
679.455 .0298875
680.199 .0298796
680.941 .0298716
681.684 .0298634
682.426 .0298549
683.168 .0298460
683.910 .0298367
684.652 .0298268
685.393 .0298166
686.134 .0298059
686.875 .0297951
687.616 .0297841
688.356 .0297729
689.097 .0297618
689.837 .0297505
690.576 .0297391
691.316 .0297276
692.055 .0297159
692.794 .0297040
693.533 .0296920
694.272 .0296798
695.010 .0296676
695.748 .0296555
696.486 .0296434
697.224 .0296315
697.962 .0296199
698.699 .0296087
699.436 .0295977
700.173 .0295871
700.909 .0295768
701.646 .0295667
702.382 .0295568
703.118 .0295470
703.853 .0295373
704.589 .0295274
705.324 .0295175
706.059 .0295075
706.794 .0294974
707.529 .0294872
708.263 .0294770
708.997 .0294668
709.731 .0294565
710.465 .0294460
711.198 .0294353
711.931 .0294245
712.664 .0294134
713.397 .0294020
714.130 .0293903
714.862 .0293782
715.594 .0293658
716.326 .0293532
717.058 .0293402
717.789 .0293271
718.520 .0293137
719.251 .0293001
719.982 .0292864
720.713 .0292725
721.443 .0292585
722.173 .0292443
722.903 .0292299
723.633 .0292153
724.362 .0292005
725.091 .0291855
725.820 .0291704
726.549 .0291552
727.278 .0291400
728.006 .0291249
728.734 .0291098
729.462 .0290948
730.190 .0290799
730.917 .0290652
731.644 .0290507
732.371 .0290365
733.098 .0290225
733.825 .0290088
734.551 .0289954
735.277 .0289822
736.003 .0289692
736.728 .0289564
737.454 .0289438
738.179 .0289312
738.904 .0289187
739.629 .0289063
740.353 .0288941
741.077 .0288822
741.801 .0288705
742.525 .0288591
743.249 .0288481
743.972 .0288373
744.695 .0288267
745.418 .0288164
746.141 .0288062
746.863 .0287961
747.585 .0287862
748.307 .0287764
749.029 .0287667
749.750 .0287572
750.472 .0287479
751.193 .0287387
751.913 .0287297
752.634 .0287208
753.354 .0287120
754.074 .0287033
754.794 .0286947
755.514 .0286862
756.233 .0286777
756.952 .0286693
757.671 .0286610
758.390 .0286527
759.108 .0286445
759.826 .0286365
760.544 .0286287
761.262 .0286210
761.979 .0286136
762.697 .0286065
763.414 .0285996
764.130 .0285931
764.847 .0285868
765.563 .0285807
766.279 .0285747
766.995 .0285690
767.710 .0285632
768.426 .0285576
769.141 .0285520
769.855 .0285464
770.570 .0285409
771.284 .0285354
771.998 .0285299
772.712 .0285243
773.426 .0285186
774.139 .0285127
774.852 .0285066
775.565 .0285002
776.277 .0284934
776.990 .0284862
777.702 .0284785
778.414 .0284704
779.125 .0284620
779.836 .0284531
780.547 .0284440
781.258 .0284345
781.969 .0284248
782.679 .0284149
783.389 .0283994
784.099 .0283893
784.808 .0283791
785.517 .0283688
786.226 .0283585
786.935 .0283482
787.643 .0283378
788.352 .0283275
789.060 .0283171
789.767 .0283068
790.475 .0282964
791.182 .0282859
791.889 .0282806
792.595 .0282697
793.301 .0282586
794.008 .0282472
794.713 .0282357
795.419 .0282238
796.124 .0282117
796.829 .0281993
797.534 .0281866
798.238 .0281735
798.942 .0281602
799.646 .0281465
800.350 .0281325
801.053 .0281181
801.756 .0281035
802.459 .0280888
803.162 .0280739
803.864 .0280589
804.566 .0280440
805.267 .0280291
805.969 .0280143
806.670 .0279995
807.371 .0279849
808.071 .0279705
808.772 .0279562
809.472 .0279422
810.171 .0279285
810.871 .0279152
811.570 .0279023
812.269 .0278898
812.967 .0278777
813.666 .0278659
814.364 .0278544
815.061 .0278431
815.759 .0278319
816.456 .0278210
817.153 .0278102
817.849 .0277995
818.545 .0277891
819.241 .0277788
819.937 .0277686
820.632 .0277586
821.327 .0277487
822.022 .0277388
822.717 .0277290
823.411 .0277192
824.105 .0277095
824.798 .0277000
825.491 .0276906
826.184 .0276815
826.877 .0276726
827.569 .0276640
828.261 .0276557
828.953 .0276476
829.645 .0276398
830.336 .0276323
831.027 .0276252
831.717 .0276185
832.407 .0276121
833.097 .0276061
833.787 .0276005
834.476 .0275952
835.165 .0275902
835.854 .0275853
836.542 .0275805
837.230 .0275758
837.918 .0275710
838.605 .0275662
839.292 .0275613
839.979 .0275563
840.665 .0275512
841.352 .0275458
842.037 .0275403
842.723 .0275347
843.408 .0275288
844.093 .0275227
844.777 .0275164
845.462 .0275098
846.145 .0275029
846.829 .0274957
847.512 .0274883
848.195 .0274805
848.878 .0274725
849.560 .0274641
850.242 .0274555
850.923 .0274466
851.605 .0274374
852.286 .0274278
852.966 .0274178
853.646 .0274074
854.326 .0273966
855.006 .0273852
855.685 .0273733
856.364 .0273609
857.043 .0273480
857.721 .0273346
858.399 .0273207
859.077 .0273065
859.754 .0272919
860.431 .0272770
861.107 .0272617
861.784 .0272463
862.459 .0272305
863.135 .0272145
863.810 .0271982
864.485 .0271818
865.160 .0271651
865.834 .0271482
866.508 .0271312
867.181 .0271140
867.854 .0270968
868.527 .0270796
869.199 .0270623
869.872 .0270452
870.543 .0270281
871.215 .0270113
871.886 .0269948
872.557 .0269786
873.227 .0269629
873.897 .0269476
874.567 .0269328
875.236 .0269184
875.905 .0269044
876.573 .0268909
877.242 .0268776
877.909 .0268647
878.577 .0268520
879.244 .0268395
879.911 .0268273
880.577 .0268152
881.243 .0268033
881.909 .0267917
882.575 .0267802
883.240 .0267689
883.904 .0267578
884.569 .0267470
885.232 .0267364
885.896 .0267262
886.559 .0267163
887.222 .0267068
887.885 .0266976
888.547 .0266889
889.208 .0266805
889.870 .0266726
890.531 .0266650
891.192 .0266577
891.852 .0266507
892.512 .0266438
893.171 .0266370
893.830 .0266303
894.489 .0266235
895.148 .0266166
895.806 .0266097
896.464 .0266027
897.121 .0265956
897.778 .0265884
898.434 .0265812
899.091 .0265694
899.747 .0265619
900.402 .0265543
901.057 .0265467
901.712 .0265391
902.366 .0265313
903.020 .0265234
903.674 .0265155
904.327 .0265074
904.980 .0264992
905.633 .0264910
906.285 .0264826
906.936 .0264742
907.588 .0264703
908.239 .0264620
908.889 .0264537
909.540 .0264453
910.190 .0264370
910.839 .0264288
911.488 .0264206
912.137 .0264126
912.785 .0264047
913.433 .0263972
914.081 .0263899
914.728 .0263828
915.375 .0263759
916.021 .0263692
916.668 .0263624
917.313 .0263556
917.959 .0263487
918.604 .0263415
919.248 .0263342
919.892 .0263265
920.536 .0263187
921.180 .0263105
921.823 .0263021
922.465 .0262933
923.108 .0262841
923.750 .0262745
924.391 .0262645
925.032 .0262541
925.673 .0262433
926.313 .0262322
926.953 .0262209
927.593 .0262094
928.232 .0261977
928.871 .0261859
929.510 .0261740
930.148 .0261621
930.786 .0261499
931.423 .0261376
932.060 .0261252
932.697 .0261126
933.333 .0260999
933.969 .0260871
934.604 .0260742
935.239 .0260612
935.874 .0260481
936.508 .0260348
937.142 .0260215
937.776 .0260080
938.409 .0259943
939.042 .0259806
939.674 .0259667
940.306 .0259528
940.938 .0259386
941.569 .0259243
942.200 .0259098
942.830 .0258950
943.460 .0258799
944.090 .0258645
944.720 .0258489
945.349 .0258331
945.977 .0258171
946.606 .0258011
947.233 .0257850
947.861 .0257689
948.488 .0257526
949.115 .0257363
949.741 .0257199
950.367 .0257034
950.993 .0256868
951.618 .0256701
952.243 .0256534
952.868 .0256366
953.492 .0256199
954.115 .0256032
954.739 .0255865
955.362 .0255696
955.984 .0255527
956.607 .0255356
957.229 .0255182
957.850 .0255007
958.471 .0254831
959.092 .0254655
959.713 .0254478
960.333 .0254304
960.952 .0254131
961.572 .0253960
962.191 .0253792
962.809 .0253627
963.428 .0253464
964.045 .0253304
964.663 .0253147
965.280 .0252993
965.897 .0252844
966.513 .0252700
967.129 .0252561
967.745 .0252429
968.361 .0252303
968.976 .0252184
969.590 .0252070
970.205 .0251961
970.818 .0251858
971.432 .0251759
972.045 .0251664
972.658 .0251574
973.271 .0251488
973.883 .0251406
974.495 .0251328
975.106 .0251254
975.717 .0251183
976.328 .0251115
976.938 .0251051
977.548 .0250988
978.158 .0250926
978.768 .0250826
979.377 .0250765
979.985 .0250703
980.594 .0250641
981.202 .0250578
981.809 .0250514
982.417 .0250449
983.024 .0250382
983.631 .0250314
984.237 .0250244
984.843 .0250172
985.449 .0250098
986.054 .0250021
986.659 .0249942
987.264 .0249907
987.868 .0249827
988.472 .0249748
989.076 .0249670
989.679 .0249595
990.282 .0249522
990.885 .0249452
991.487 .0249385
992.090 .0249322
992.691 .0249262
993.293 .0249205
993.894 .0249151
994.495 .0249102
995.095 .0249057
995.696 .0249017
996.296 .0248982
996.895 .0248951
997.494 .0248925
998.093 .0248901
998.692 .0248880
999.291 .0248860
999.889 .0248842
1000.487 .0248824
1001.084 .0248808
1001.681 .0248794
1002.278 .0248783
1002.875 .0248774
1003.471 .0248768
1004.067 .0248765
1004.663 .0248764
1005.258 .0248764
1005.854 .0248765
1006.449 .0248768
1007.043 .0248772
1007.638 .0248779
1008.232 .0248790
1008.826 .0248805
1009.419 .0248824
1010.012 .0248848
1010.605 .0248875
1011.198 .0248905
1011.791 .0248935
1012.383 .0248964
1012.975 .0248993
1013.566 .0249020
1014.158 .0249045
1014.749 .0249070
1015.340 .0249096
1015.931 .0249121
1016.521 .0249148
1017.111 .0249175
1017.701 .0249203
1018.291 .0249230
1018.880 .0249257
1019.470 .0249283
1020.059 .0249309
1020.647 .0249334
1021.236 .0249359
1021.824 .0249384
1022.412 .0249410
1023.000 .0249436
1023.588 .0249462
1024.175 .0249486
1024.762 .0249510
1025.349 .0249532
1025.936 .0249552
1026.523 .0249570
1027.109 .0249587
1027.695 .0249602
1028.281 .0249617
1028.867 .0249632
1029.452 .0249649
1030.038 .0249667
1030.623 .0249688
1031.208 .0249712
1031.792 .0249740
1032.377 .0249772
1032.961 .0249808
1033.546 .0249848
1034.130 .0249891
1034.714 .0249937
1035.297 .0249984
1035.881 .0250033
1036.464 .0250082
1037.047 .0250131
1037.630 .0250178
1038.213 .0250223
1038.796 .0250265
1039.378 .0250304
1039.961 .0250339
1040.543 .0250371
1041.125 .0250398
1041.707 .0250420
1042.289 .0250437
1042.871 .0250447
1043.452 .0250453
1044.034 .0250452
1044.615 .0250445
1045.196 .0250433
1045.777 .0250416
1046.358 .0250395
1046.939 .0250369
1047.520 .0250339
1048.101 .0250304
1048.681 .0250264
1049.262 .0250218
1049.842 .0250166
1050.422 .0250108
1051.002 .0250044
1051.582 .0249976
1052.162 .0249905
1052.742 .0249833
1053.322 .0249761
1053.902 .0249690
1054.482 .0249622
1055.061 .0249557
1055.641 .0249496
1056.220 .0249440
1056.800 .0249388
1057.379 .0249341
1057.958 .0249299
1058.538 .0249260
1059.117 .0249225
1059.696 .0249192
1060.275 .0249160
1060.854 .0249129
1061.433 .0249099
1062.012 .0249068
1062.592 .0249036
1063.171 .0249002
1063.750 .0248966
1064.329 .0248927
1064.908 .0248886
1065.487 .0248842
1066.066 .0248797
1066.645 .0248751
1067.224 .0248703
1067.803 .0248655
1068.382 .0248606
1068.961 .0248554
1069.540 .0248499
1070.119 .0248441
1070.698 .0248379
1071.278 .0248312
1071.857 .0248240
1072.436 .0248163
1073.016 .0248081
1073.595 .0247995
1074.175 .0247905
1074.754 .0247811
1075.334 .0247716
1075.913 .0247617
1076.493 .0247514
1077.073 .0247409
1077.653 .0247302
1078.233 .0247192
1078.813 .0247081
1079.393 .0246969
1079.974 .0246857
1080.554 .0246747
1081.135 .0246640
1081.716 .0246535
1082.296 .0246434
1082.877 .0246334
1083.458 .0246236
1084.040 .0246139
1084.621 .0246043
1085.202 .0245948
1085.784 .0245855
1086.366 .0245766
1086.948 .0245680
1087.530 .0245597
1088.112 .0245520
1088.695 .0245447
1089.277 .0245378
1089.860 .0245311
1090.443 .0245246
1091.026 .0245181
1091.610 .0245117
1092.193 .0245053
1092.777 .0244991
1093.361 .0244933
1093.946 .0244876
1094.530 .0244821
1095.115 .0244767
1095.700 .0244711
1096.285 .0244653
1096.871 .0244590
1097.456 .0244521
1098.042 .0244446
1098.628 .0244366
1099.215 .0244284
1099.802 .0244201
1100.389 .0244119
1100.976 .0244039
1101.564 .0243962
1102.152 .0243888
1102.740 .0243817
1103.329 .0243750
1103.917 .0243690
1104.507 .0243637
1105.096 .0243594
1105.686 .0243562
1106.276 .0243545
1106.867 .0243545
1107.457 .0243563
1108.049 .0243599
1108.640 .0243654
1109.232 .0243727
1109.825 .0243818
1110.417 .0243929
1111.010 .0244059
1111.604 .0244210
1112.198 .0244380
1112.792 .0244570
1113.387 .0244777
1113.982 .0244996
1114.577 .0245226
1115.173 .0245462
1115.769 .0245703
1116.366 .0245947
1116.963 .0246194
1117.561 .0246447
1118.159 .0246709
1118.758 .0246979
1119.357 .0247259
1119.957 .0247546
1120.557 .0247837
1121.157 .0248130
1121.758 .0248422
1122.360 .0248712
1122.962 .0249001
1123.564 .0249290
1124.167 .0249451
1124.771 .0249738
1125.375 .0250028
1125.980 .0250322
1126.585 .0250617
1127.191 .0250909
1127.797 .0251190
1128.404 .0251456
1129.012 .0251705
1129.620 .0251935
1130.229 .0252150
1130.838 .0252355
1131.448 .0252557
1132.058 .0252761
1132.669 .0253093
1133.281 .0253319
1133.894 .0253556
1134.507 .0253775
1135.120 .0253942
1135.735 .0254156
1136.350 .0254412
1136.965 .0255387
1137.582 .0255320
1138.199 .0255239
1138.816 .0255235
1139.435 .0255308
1140.054 .0255419
1140.674 .0255589
1141.294 .0255791
1141.916 .0256148
1142.538 .0255839
1143.160 .0254687
1143.784 .0256246
1144.408 .0257712
1145.033 .0261737
