Measurement Sequence started on: 14-45-04-498
Integration time: 36
Scans to Average: 2 
>>>>>Begin Spectral Data<<<<<
433.946 .0411770
434.870 .0412783
435.793 .0422220
436.715 .0422947
437.635 .0413082
438.555 .0412451
439.473 .0410069
440.389 .0407224
441.305 .0404035
442.219 .0400983
443.132 .0400700
444.044 .0399203
444.954 .0397165
445.863 .0395046
446.771 .0393407
447.678 .0391763
448.584 .0390209
449.488 .0388765
450.391 .0387446
451.293 .0386241
452.194 .0385126
453.094 .0384093
453.992 .0383120
454.890 .0382190
455.786 .0381296
456.681 .0380435
457.575 .0379607
458.468 .0378810
459.360 .0378044
460.250 .0377306
461.140 .0376594
462.028 .0375902
462.915 .0375229
463.801 .0374574
464.687 .0373933
465.571 .0373306
466.454 .0372694
467.335 .0372103
468.216 .0371534
469.096 .0370990
469.975 .0370473
470.853 .0369981
471.729 .0369515
472.605 .0369071
473.479 .0368646
474.353 .0368239
475.226 .0367847
476.097 .0367467
476.968 .0367100
477.838 .0366742
478.706 .0366392
479.574 .0366050
480.441 .0365718
481.306 .0365398
482.171 .0365092
483.035 .0364804
483.898 .0364533
484.760 .0364278
485.621 .0364038
486.481 .0363807
487.340 .0363580
488.198 .0363351
489.055 .0363114
489.912 .0362867
490.767 .0362609
491.622 .0362193
492.476 .0361926
493.329 .0361661
494.180 .0361401
495.032 .0361146
495.882 .0360891
496.731 .0360631
497.580 .0360360
498.427 .0360068
499.274 .0359753
500.120 .0359562
500.965 .0359208
501.809 .0358833
502.653 .0358444
503.495 .0358049
504.337 .0357656
505.178 .0357271
506.018 .0356897
506.858 .0356535
507.696 .0356185
508.534 .0355843
509.371 .0355509
510.208 .0355180
511.043 .0354856
511.878 .0354538
512.712 .0354230
513.545 .0353938
514.377 .0353660
515.209 .0353395
516.040 .0353140
516.870 .0352888
517.699 .0352629
518.528 .0352351
519.356 .0352044
520.183 .0351701
521.010 .0351309
521.836 .0350866
522.661 .0350370
523.485 .0349821
524.309 .0349222
525.132 .0348578
525.954 .0347890
526.776 .0347160
527.597 .0346390
528.417 .0345584
529.237 .0344745
530.056 .0343876
530.874 .0342982
531.692 .0342073
532.508 .0341162
533.325 .0340260
534.140 .0339379
534.955 .0338533
535.770 .0337733
536.583 .0336987
537.397 .0336298
538.209 .0335674
539.021 .0335119
539.832 .0334635
540.643 .0334221
541.453 .0333877
542.262 .0333594
543.071 .0333370
543.879 .0333198
544.687 .0333072
545.494 .0332982
546.300 .0332919
547.106 .0332878
547.911 .0332850
548.716 .0332831
549.520 .0332813
550.323 .0332793
551.126 .0332771
551.929 .0332740
552.731 .0332697
553.532 .0332641
554.332 .0332567
555.133 .0332473
555.932 .0332353
556.731 .0332203
557.530 .0332021
558.328 .0331808
559.125 .0331565
559.922 .0331296
560.719 .0331003
561.515 .0330692
562.310 .0330365
563.105 .0330023
563.899 .0329667
564.693 .0329297
565.487 .0328912
566.280 .0328518
567.072 .0328113
567.864 .0327701
568.655 .0327286
569.446 .0326874
570.236 .0326467
571.026 .0326068
571.816 .0325679
572.605 .0325300
573.393 .0324932
574.181 .0324574
574.969 .0324223
575.756 .0323880
576.543 .0323545
577.329 .0323219
578.115 .0322903
578.900 .0322599
579.685 .0322308
580.469 .0322034
581.253 .0321775
582.036 .0321532
582.820 .0321301
583.602 .0321079
584.384 .0320864
585.166 .0320654
585.947 .0320446
586.728 .0320241
587.509 .0320038
588.289 .0319840
589.069 .0319647
589.848 .0319459
590.627 .0319276
591.405 .0319098
592.183 .0318921
592.961 .0318744
593.738 .0318563
594.515 .0318378
595.291 .0318186
596.067 .0317988
596.843 .0317784
597.618 .0317576
598.393 .0317246
599.167 .0317030
599.941 .0316812
600.715 .0316591
601.488 .0316368
602.261 .0316143
603.034 .0315916
603.806 .0315687
604.578 .0315458
605.349 .0315228
606.121 .0314998
606.891 .0314892
607.662 .0314669
608.432 .0314448
609.201 .0314232
609.971 .0314019
610.740 .0313812
611.508 .0313610
612.277 .0313413
613.045 .0313220
613.812 .0313032
614.579 .0312847
615.346 .0312664
616.113 .0312485
616.879 .0312309
617.645 .0312136
618.411 .0311965
619.176 .0311798
619.941 .0311633
620.705 .0311468
621.470 .0311304
622.233 .0311139
622.997 .0310972
623.760 .0310803
624.523 .0310632
625.286 .0310458
626.048 .0310283
626.810 .0310107
627.572 .0309931
628.333 .0309756
629.095 .0309582
629.855 .0309409
630.616 .0309238
631.376 .0309068
632.136 .0308901
632.895 .0308737
633.655 .0308575
634.414 .0308416
635.172 .0308259
635.931 .0308103
636.689 .0307950
637.447 .0307798
638.204 .0307647
638.962 .0307498
639.718 .0307350
640.475 .0307204
641.231 .0307058
641.988 .0306913
642.743 .0306767
643.499 .0306619
644.254 .0306470
645.009 .0306317
645.764 .0306160
646.518 .0306000
647.272 .0305837
648.026 .0305670
648.780 .0305500
649.533 .0305326
650.286 .0305148
651.039 .0304967
651.792 .0304783
652.544 .0304596
653.296 .0304407
654.048 .0304215
654.799 .0304022
655.550 .0303828
656.301 .0303635
657.052 .0303442
657.802 .0303250
658.552 .0303059
659.302 .0302870
660.052 .0302684
660.801 .0302500
661.550 .0302319
662.299 .0302143
663.048 .0301970
663.796 .0301802
664.544 .0301639
665.292 .0301480
666.040 .0301325
666.787 .0301174
667.534 .0301025
668.281 .0300879
669.028 .0300734
669.774 .0300592
670.521 .0300451
671.266 .0300312
672.012 .0300176
672.758 .0300043
673.503 .0299913
674.248 .0299786
674.992 .0299663
675.737 .0299544
676.481 .0299427
677.225 .0299313
677.969 .0299202
678.712 .0299092
679.455 .0298985
680.199 .0298880
680.941 .0298777
681.684 .0298677
682.426 .0298579
683.168 .0298484
683.910 .0298391
684.652 .0298300
685.393 .0298211
686.134 .0298123
686.875 .0298036
687.616 .0297951
688.356 .0297866
689.097 .0297781
689.837 .0297696
690.576 .0297610
691.316 .0297522
692.055 .0297431
692.794 .0297337
693.533 .0297240
694.272 .0297139
695.010 .0297035
695.748 .0296927
696.486 .0296816
697.224 .0296701
697.962 .0296581
698.699 .0296458
699.436 .0296330
700.173 .0296197
700.909 .0296060
701.646 .0295920
702.382 .0295776
703.118 .0295631
703.853 .0295483
704.589 .0295335
705.324 .0295186
706.059 .0295036
706.794 .0294886
707.529 .0294735
708.263 .0294584
708.997 .0294434
709.731 .0294284
710.465 .0294137
711.198 .0293990
711.931 .0293847
712.664 .0293706
713.397 .0293568
714.130 .0293433
714.862 .0293300
715.594 .0293170
716.326 .0293042
717.058 .0292917
717.789 .0292793
718.520 .0292670
719.251 .0292548
719.982 .0292426
720.713 .0292304
721.443 .0292181
722.173 .0292057
722.903 .0291931
723.633 .0291804
724.362 .0291675
725.091 .0291544
725.820 .0291413
726.549 .0291280
727.278 .0291145
728.006 .0291010
728.734 .0290874
729.462 .0290737
730.190 .0290599
730.917 .0290461
731.644 .0290323
732.371 .0290186
733.098 .0290052
733.825 .0289921
734.551 .0289794
735.277 .0289672
736.003 .0289556
736.728 .0289445
737.454 .0289340
738.179 .0289241
738.904 .0289148
739.629 .0289061
740.353 .0288980
741.077 .0288905
741.801 .0288836
742.525 .0288772
743.249 .0288716
743.972 .0288664
744.695 .0288618
745.418 .0288576
746.141 .0288539
746.863 .0288504
747.585 .0288471
748.307 .0288438
749.029 .0288405
749.750 .0288370
750.472 .0288333
751.193 .0288293
751.913 .0288250
752.634 .0288204
753.354 .0288154
754.074 .0288101
754.794 .0288043
755.514 .0287983
756.233 .0287919
756.952 .0287852
757.671 .0287782
758.390 .0287709
759.108 .0287632
759.826 .0287553
760.544 .0287471
761.262 .0287387
761.979 .0287300
762.697 .0287212
763.414 .0287123
764.130 .0287033
764.847 .0286942
765.563 .0286853
766.279 .0286763
766.995 .0286674
767.710 .0286584
768.426 .0286494
769.141 .0286403
769.855 .0286310
770.570 .0286216
771.284 .0286120
771.998 .0286024
772.712 .0285926
773.426 .0285827
774.139 .0285727
774.852 .0285627
775.565 .0285525
776.277 .0285422
776.990 .0285318
777.702 .0285211
778.414 .0285104
779.125 .0284995
779.836 .0284885
780.547 .0284774
781.258 .0284664
781.969 .0284554
782.679 .0284445
783.389 .0284288
784.099 .0284182
784.808 .0284077
785.517 .0283972
786.226 .0283868
786.935 .0283765
787.643 .0283662
788.352 .0283560
789.060 .0283458
789.767 .0283357
790.475 .0283256
791.182 .0283156
791.889 .0283106
792.595 .0283007
793.301 .0282909
794.008 .0282812
794.713 .0282716
795.419 .0282621
796.124 .0282528
796.829 .0282436
797.534 .0282344
798.238 .0282253
798.942 .0282163
799.646 .0282074
800.350 .0281986
801.053 .0281900
801.756 .0281814
802.459 .0281731
803.162 .0281649
803.864 .0281570
804.566 .0281492
805.267 .0281416
805.969 .0281341
806.670 .0281269
807.371 .0281198
808.071 .0281129
808.772 .0281062
809.472 .0280996
810.171 .0280931
810.871 .0280867
811.570 .0280804
812.269 .0280741
812.967 .0280678
813.666 .0280614
814.364 .0280550
815.061 .0280485
815.759 .0280419
816.456 .0280351
817.153 .0280281
817.849 .0280210
818.545 .0280137
819.241 .0280062
819.937 .0279985
820.632 .0279906
821.327 .0279827
822.022 .0279747
822.717 .0279666
823.411 .0279585
824.105 .0279505
824.798 .0279424
825.491 .0279344
826.184 .0279265
826.877 .0279188
827.569 .0279111
828.261 .0279037
828.953 .0278965
829.645 .0278894
830.336 .0278825
831.027 .0278758
831.717 .0278691
832.407 .0278626
833.097 .0278562
833.787 .0278497
834.476 .0278433
835.165 .0278369
835.854 .0278305
836.542 .0278240
837.230 .0278173
837.918 .0278105
838.605 .0278035
839.292 .0277963
839.979 .0277888
840.665 .0277811
841.352 .0277730
842.037 .0277647
842.723 .0277560
843.408 .0277468
844.093 .0277372
844.777 .0277272
845.462 .0277167
846.145 .0277057
846.829 .0276942
847.512 .0276824
848.195 .0276702
848.878 .0276577
849.560 .0276449
850.242 .0276317
850.923 .0276182
851.605 .0276043
852.286 .0275901
852.966 .0275757
853.646 .0275610
854.326 .0275462
855.006 .0275314
855.685 .0275165
856.364 .0275016
857.043 .0274868
857.721 .0274720
858.399 .0274572
859.077 .0274424
859.754 .0274276
860.431 .0274128
861.107 .0273981
861.784 .0273835
862.459 .0273690
863.135 .0273545
863.810 .0273401
864.485 .0273257
865.160 .0273113
865.834 .0272968
866.508 .0272823
867.181 .0272676
867.854 .0272529
868.527 .0272382
869.199 .0272235
869.872 .0272088
870.543 .0271940
871.215 .0271791
871.886 .0271642
872.557 .0271492
873.227 .0271341
873.897 .0271189
874.567 .0271037
875.236 .0270884
875.905 .0270732
876.573 .0270579
877.242 .0270427
877.909 .0270276
878.577 .0270126
879.244 .0269978
879.911 .0269832
880.577 .0269690
881.243 .0269551
881.909 .0269416
882.575 .0269285
883.240 .0269160
883.904 .0269041
884.569 .0268927
885.232 .0268820
885.896 .0268719
886.559 .0268625
887.222 .0268539
887.885 .0268460
888.547 .0268389
889.208 .0268325
889.870 .0268269
890.531 .0268219
891.192 .0268176
891.852 .0268139
892.512 .0268108
893.171 .0268081
893.830 .0268059
894.489 .0268041
895.148 .0268026
895.806 .0268013
896.464 .0268002
897.121 .0267992
897.778 .0267982
898.434 .0267973
899.091 .0267955
899.747 .0267944
900.402 .0267932
901.057 .0267920
901.712 .0267907
902.366 .0267892
903.020 .0267874
903.674 .0267854
904.327 .0267830
904.980 .0267802
905.633 .0267769
906.285 .0267732
906.936 .0267691
907.588 .0267660
908.239 .0267612
908.889 .0267560
909.540 .0267504
910.190 .0267444
910.839 .0267379
911.488 .0267309
912.137 .0267235
912.785 .0267156
913.433 .0267072
914.081 .0266985
914.728 .0266895
915.375 .0266802
916.021 .0266707
916.668 .0266611
917.313 .0266513
917.959 .0266414
918.604 .0266313
919.248 .0266212
919.892 .0266109
920.536 .0266005
921.180 .0265901
921.823 .0265796
922.465 .0265692
923.108 .0265588
923.750 .0265486
924.391 .0265385
925.032 .0265286
925.673 .0265188
926.313 .0265092
926.953 .0264996
927.593 .0264901
928.232 .0264807
928.871 .0264714
929.510 .0264620
930.148 .0264527
930.786 .0264434
931.423 .0264340
932.060 .0264244
932.697 .0264145
933.333 .0264042
933.969 .0263934
934.604 .0263821
935.239 .0263701
935.874 .0263575
936.508 .0263442
937.142 .0263303
937.776 .0263158
938.409 .0263008
939.042 .0262853
939.674 .0262693
940.306 .0262529
940.938 .0262361
941.569 .0262187
942.200 .0262010
942.830 .0261828
943.460 .0261641
944.090 .0261452
944.720 .0261259
945.349 .0261064
945.977 .0260867
946.606 .0260670
947.233 .0260471
947.861 .0260272
948.488 .0260072
949.115 .0259871
949.741 .0259671
950.367 .0259471
950.993 .0259272
951.618 .0259075
952.243 .0258879
952.868 .0258686
953.492 .0258495
954.115 .0258307
954.739 .0258123
955.362 .0257941
955.984 .0257761
956.607 .0257583
957.229 .0257408
957.850 .0257235
958.471 .0257065
959.092 .0256898
959.713 .0256734
960.333 .0256573
960.952 .0256416
961.572 .0256261
962.191 .0256110
962.809 .0255960
963.428 .0255813
964.045 .0255669
964.663 .0255529
965.280 .0255392
965.897 .0255259
966.513 .0255132
967.129 .0255009
967.745 .0254892
968.361 .0254778
968.976 .0254668
969.590 .0254560
970.205 .0254455
970.818 .0254351
971.432 .0254249
972.045 .0254149
972.658 .0254051
973.271 .0253955
973.883 .0253861
974.495 .0253767
975.106 .0253675
975.717 .0253582
976.328 .0253490
976.938 .0253397
977.548 .0253303
978.158 .0253209
978.768 .0253067
979.377 .0252973
979.985 .0252879
980.594 .0252785
981.202 .0252689
981.809 .0252592
982.417 .0252494
983.024 .0252394
983.631 .0252293
984.237 .0252191
984.843 .0252088
985.449 .0251986
986.054 .0251885
986.659 .0251785
987.264 .0251737
987.868 .0251640
988.472 .0251545
989.076 .0251452
989.679 .0251363
990.282 .0251278
990.885 .0251197
991.487 .0251121
992.090 .0251051
992.691 .0250986
993.293 .0250927
993.894 .0250874
994.495 .0250827
995.095 .0250785
995.696 .0250749
996.296 .0250719
996.895 .0250694
997.494 .0250674
998.093 .0250659
998.692 .0250649
999.291 .0250644
999.889 .0250644
1000.487 .0250647
1001.084 .0250653
1001.681 .0250662
1002.278 .0250674
1002.875 .0250689
1003.471 .0250705
1004.067 .0250724
1004.663 .0250745
1005.258 .0250768
1005.854 .0250792
1006.449 .0250817
1007.043 .0250842
1007.638 .0250868
1008.232 .0250894
1008.826 .0250919
1009.419 .0250943
1010.012 .0250966
1010.605 .0250988
1011.198 .0251009
1011.791 .0251029
1012.383 .0251048
1012.975 .0251067
1013.566 .0251086
1014.158 .0251106
1014.749 .0251127
1015.340 .0251149
1015.931 .0251173
1016.521 .0251199
1017.111 .0251227
1017.701 .0251256
1018.291 .0251287
1018.880 .0251320
1019.470 .0251356
1020.059 .0251394
1020.647 .0251435
1021.236 .0251478
1021.824 .0251525
1022.412 .0251574
1023.000 .0251625
1023.588 .0251678
1024.175 .0251731
1024.762 .0251784
1025.349 .0251837
1025.936 .0251890
1026.523 .0251943
1027.109 .0251996
1027.695 .0252051
1028.281 .0252106
1028.867 .0252164
1029.452 .0252223
1030.038 .0252283
1030.623 .0252344
1031.208 .0252405
1031.792 .0252467
1032.377 .0252528
1032.961 .0252588
1033.546 .0252648
1034.130 .0252708
1034.714 .0252767
1035.297 .0252826
1035.881 .0252886
1036.464 .0252945
1037.047 .0253003
1037.630 .0253061
1038.213 .0253116
1038.796 .0253170
1039.378 .0253221
1039.961 .0253269
1040.543 .0253314
1041.125 .0253355
1041.707 .0253394
1042.289 .0253430
1042.871 .0253462
1043.452 .0253492
1044.034 .0253518
1044.615 .0253541
1045.196 .0253561
1045.777 .0253578
1046.358 .0253590
1046.939 .0253599
1047.520 .0253604
1048.101 .0253604
1048.681 .0253601
1049.262 .0253593
1049.842 .0253582
1050.422 .0253567
1051.002 .0253549
1051.582 .0253529
1052.162 .0253506
1052.742 .0253480
1053.322 .0253452
1053.902 .0253420
1054.482 .0253387
1055.061 .0253350
1055.641 .0253312
1056.220 .0253271
1056.800 .0253229
1057.379 .0253184
1057.958 .0253137
1058.538 .0253087
1059.117 .0253035
1059.696 .0252979
1060.275 .0252920
1060.854 .0252857
1061.433 .0252790
1062.012 .0252720
1062.592 .0252647
1063.171 .0252570
1063.750 .0252492
1064.329 .0252411
1064.908 .0252330
1065.487 .0252249
1066.066 .0252167
1066.645 .0252087
1067.224 .0252008
1067.803 .0251930
1068.382 .0251853
1068.961 .0251779
1069.540 .0251706
1070.119 .0251634
1070.698 .0251565
1071.278 .0251497
1071.857 .0251430
1072.436 .0251364
1073.016 .0251299
1073.595 .0251236
1074.175 .0251173
1074.754 .0251110
1075.334 .0251049
1075.913 .0250988
1076.493 .0250927
1077.073 .0250867
1077.653 .0250807
1078.233 .0250748
1078.813 .0250689
1079.393 .0250632
1079.974 .0250576
1080.554 .0250522
1081.135 .0250470
1081.716 .0250420
1082.296 .0250371
1082.877 .0250322
1083.458 .0250272
1084.040 .0250221
1084.621 .0250169
1085.202 .0250115
1085.784 .0250058
1086.366 .0249999
1086.948 .0249937
1087.530 .0249872
1088.112 .0249803
1088.695 .0249731
1089.277 .0249653
1089.860 .0249571
1090.443 .0249483
1091.026 .0249391
1091.610 .0249294
1092.193 .0249194
1092.777 .0249090
1093.361 .0248985
1093.946 .0248879
1094.530 .0248770
1095.115 .0248661
1095.700 .0248550
1096.285 .0248437
1096.871 .0248321
1097.456 .0248204
1098.042 .0248085
1098.628 .0247966
1099.215 .0247846
1099.802 .0247729
1100.389 .0247613
1100.976 .0247500
1101.564 .0247390
1102.152 .0247285
1102.740 .0247185
1103.329 .0247089
1103.917 .0247000
1104.507 .0246918
1105.096 .0246844
1105.686 .0246780
1106.276 .0246729
1106.867 .0246692
1107.457 .0246669
1108.049 .0246662
1108.640 .0246672
1109.232 .0246698
1109.825 .0246738
1110.417 .0246790
1111.010 .0246853
1111.604 .0246925
1112.198 .0247003
1112.792 .0247089
1113.387 .0247182
1113.982 .0247285
1114.577 .0247396
1115.173 .0247518
1115.769 .0247651
1116.366 .0247791
1116.963 .0247937
1117.561 .0248087
1118.159 .0248238
1118.758 .0248391
1119.357 .0248543
1119.957 .0248698
1120.557 .0248856
1121.157 .0249019
1121.758 .0249189
1122.360 .0249365
1122.962 .0249545
1123.564 .0249726
1124.167 .0249811
1124.771 .0249986
1125.375 .0250154
1125.980 .0250312
1126.585 .0250461
1127.191 .0250604
1127.797 .0250744
1128.404 .0250886
1129.012 .0251033
1129.620 .0251189
1130.229 .0251355
1130.838 .0251532
1131.448 .0251719
1132.058 .0251916
1132.669 .0252210
1133.281 .0252433
1133.894 .0252681
1134.507 .0252938
1135.120 .0253256
1135.735 .0253562
1136.350 .0253973
1136.965 .0252964
1137.582 .0253254
1138.199 .0253584
1138.816 .0253970
1139.435 .0254381
1140.054 .0254872
1140.674 .0255414
1141.294 .0256099
1141.916 .0256925
1142.538 .0257322
1143.160 .0259089
1143.784 .0258825
1144.408 .0261757
1145.033 .0263276
