Measurement Sequence started on: 14-45-04-498
Integration time: 36
Scans to Average: 2 
>>>>>Begin Spectral Data<<<<<
433.946 .0548064
434.870 .0482884
435.793 .0429518
436.715 .0423323
437.635 .0403148
438.555 .0414560
439.473 .0404296
440.389 .0397872
441.305 .0393740
442.219 .0390103
443.132 .0396924
444.044 .0391331
444.954 .0388516
445.863 .0385986
446.771 .0384472
447.678 .0382314
448.584 .0380655
449.488 .0379303
450.391 .0378147
451.293 .0377170
452.194 .0376334
453.094 .0375627
453.992 .0375024
454.890 .0374488
455.786 .0373989
456.681 .0373496
457.575 .0372987
458.468 .0372453
459.360 .0371892
460.250 .0371309
461.140 .0370719
462.028 .0370135
462.915 .0369568
463.801 .0369022
464.687 .0368490
465.571 .0367963
466.454 .0367427
467.335 .0366870
468.216 .0366284
469.096 .0365665
469.975 .0365021
470.853 .0364359
471.729 .0363695
472.605 .0363039
473.479 .0362402
474.353 .0361790
475.226 .0361206
476.097 .0360643
476.968 .0360101
477.838 .0359576
478.706 .0359069
479.574 .0358581
480.441 .0358120
481.306 .0357691
482.171 .0357304
483.035 .0356957
483.898 .0356649
484.760 .0356374
485.621 .0356124
486.481 .0355889
487.340 .0355664
488.198 .0355441
489.055 .0355219
489.912 .0355003
490.767 .0354793
491.622 .0354474
492.476 .0354279
493.329 .0354084
494.180 .0353881
495.032 .0353662
495.882 .0353422
496.731 .0353157
497.580 .0352868
498.427 .0352555
499.274 .0352224
500.120 .0352045
500.965 .0351698
501.809 .0351336
502.653 .0350960
503.495 .0350569
504.337 .0350164
505.178 .0349743
506.018 .0349307
506.858 .0348855
507.696 .0348384
508.534 .0347893
509.371 .0347385
510.208 .0346860
511.043 .0346321
511.878 .0345776
512.712 .0345235
513.545 .0344706
514.377 .0344197
515.209 .0343707
516.040 .0343238
516.870 .0342785
517.699 .0342336
518.528 .0341881
519.356 .0341411
520.183 .0340916
521.010 .0340399
521.836 .0339861
522.661 .0339303
523.485 .0338725
524.309 .0338131
525.132 .0337520
525.954 .0336889
526.776 .0336235
527.597 .0335556
528.417 .0334853
529.237 .0334130
530.056 .0333387
530.874 .0332630
531.692 .0331864
532.508 .0331101
533.325 .0330345
534.140 .0329604
534.955 .0328890
535.770 .0328219
536.583 .0327603
537.397 .0327059
538.209 .0326591
539.021 .0326200
539.832 .0325888
540.643 .0325654
541.453 .0325488
542.262 .0325382
543.071 .0325332
543.879 .0325331
544.687 .0325371
545.494 .0325448
546.300 .0325548
547.106 .0325663
547.911 .0325782
548.716 .0325891
549.520 .0325973
550.323 .0326025
551.126 .0326043
551.929 .0326030
552.731 .0325987
553.532 .0325916
554.332 .0325817
555.133 .0325695
555.932 .0325550
556.731 .0325382
557.530 .0325191
558.328 .0324981
559.125 .0324755
559.922 .0324522
560.719 .0324289
561.515 .0324065
562.310 .0323852
563.105 .0323658
563.899 .0323478
564.693 .0323307
565.487 .0323141
566.280 .0322980
567.072 .0322816
567.864 .0322648
568.655 .0322472
569.446 .0322289
570.236 .0322095
571.026 .0321891
571.816 .0321671
572.605 .0321433
573.393 .0321175
574.181 .0320894
574.969 .0320588
575.756 .0320258
576.543 .0319906
577.329 .0319535
578.115 .0319147
578.900 .0318747
579.685 .0318338
580.469 .0317926
581.253 .0317516
582.036 .0317112
582.820 .0316718
583.602 .0316336
584.384 .0315968
585.166 .0315616
585.947 .0315278
586.728 .0314954
587.509 .0314644
588.289 .0314349
589.069 .0314068
589.848 .0313803
590.627 .0313552
591.405 .0313318
592.183 .0313099
592.961 .0312892
593.738 .0312696
594.515 .0312508
595.291 .0312327
596.067 .0312151
596.843 .0311978
597.618 .0311808
598.393 .0311561
599.167 .0311400
599.941 .0311242
600.715 .0311089
601.488 .0310938
602.261 .0310790
603.034 .0310644
603.806 .0310499
604.578 .0310357
605.349 .0310216
606.121 .0310077
606.891 .0310020
607.662 .0309886
608.432 .0309755
609.201 .0309628
609.971 .0309504
610.740 .0309384
611.508 .0309267
612.277 .0309151
613.045 .0309037
613.812 .0308923
614.579 .0308809
615.346 .0308695
616.113 .0308579
616.879 .0308461
617.645 .0308341
618.411 .0308218
619.176 .0308090
619.941 .0307958
620.705 .0307821
621.470 .0307677
622.233 .0307528
622.997 .0307373
623.760 .0307212
624.523 .0307044
625.286 .0306871
626.048 .0306691
626.810 .0306508
627.572 .0306320
628.333 .0306129
629.095 .0305936
629.855 .0305742
630.616 .0305547
631.376 .0305353
632.136 .0305159
632.895 .0304966
633.655 .0304774
634.414 .0304583
635.172 .0304393
635.931 .0304204
636.689 .0304017
637.447 .0303832
638.204 .0303651
638.962 .0303472
639.718 .0303296
640.475 .0303124
641.231 .0302954
641.988 .0302788
642.743 .0302624
643.499 .0302461
644.254 .0302298
645.009 .0302136
645.764 .0301972
646.518 .0301808
647.272 .0301642
648.026 .0301476
648.780 .0301309
649.533 .0301143
650.286 .0300976
651.039 .0300810
651.792 .0300645
652.544 .0300482
653.296 .0300320
654.048 .0300161
654.799 .0300003
655.550 .0299848
656.301 .0299697
657.052 .0299548
657.802 .0299404
658.552 .0299264
659.302 .0299128
660.052 .0298997
660.801 .0298872
661.550 .0298753
662.299 .0298639
663.048 .0298531
663.796 .0298427
664.544 .0298325
665.292 .0298225
666.040 .0298126
666.787 .0298027
667.534 .0297928
668.281 .0297829
669.028 .0297729
669.774 .0297630
670.521 .0297530
671.266 .0297430
672.012 .0297328
672.758 .0297225
673.503 .0297119
674.248 .0297010
674.992 .0296897
675.737 .0296782
676.481 .0296665
677.225 .0296546
677.969 .0296427
678.712 .0296307
679.455 .0296187
680.199 .0296067
680.941 .0295947
681.684 .0295828
682.426 .0295710
683.168 .0295595
683.910 .0295482
684.652 .0295371
685.393 .0295262
686.134 .0295155
686.875 .0295048
687.616 .0294943
688.356 .0294839
689.097 .0294735
689.837 .0294631
690.576 .0294529
691.316 .0294428
692.055 .0294329
692.794 .0294230
693.533 .0294130
694.272 .0294030
695.010 .0293926
695.748 .0293820
696.486 .0293710
697.224 .0293596
697.962 .0293479
698.699 .0293359
699.436 .0293237
700.173 .0293112
700.909 .0292986
701.646 .0292859
702.382 .0292731
703.118 .0292602
703.853 .0292472
704.589 .0292341
705.324 .0292210
706.059 .0292079
706.794 .0291949
707.529 .0291819
708.263 .0291689
708.997 .0291561
709.731 .0291434
710.465 .0291309
711.198 .0291186
711.931 .0291065
712.664 .0290947
713.397 .0290830
714.130 .0290717
714.862 .0290605
715.594 .0290496
716.326 .0290387
717.058 .0290279
717.789 .0290170
718.520 .0290062
719.251 .0289953
719.982 .0289844
720.713 .0289736
721.443 .0289627
722.173 .0289518
722.903 .0289409
723.633 .0289300
724.362 .0289191
725.091 .0289081
725.820 .0288971
726.549 .0288860
727.278 .0288749
728.006 .0288638
728.734 .0288528
729.462 .0288420
730.190 .0288314
730.917 .0288209
731.644 .0288107
732.371 .0288007
733.098 .0287909
733.825 .0287812
734.551 .0287717
735.277 .0287624
736.003 .0287531
736.728 .0287440
737.454 .0287350
738.179 .0287260
738.904 .0287171
739.629 .0287082
740.353 .0286993
741.077 .0286902
741.801 .0286809
742.525 .0286714
743.249 .0286617
743.972 .0286516
744.695 .0286412
745.418 .0286304
746.141 .0286193
746.863 .0286077
747.585 .0285958
748.307 .0285837
749.029 .0285712
749.750 .0285585
750.472 .0285455
751.193 .0285324
751.913 .0285190
752.634 .0285055
753.354 .0284919
754.074 .0284781
754.794 .0284642
755.514 .0284502
756.233 .0284362
756.952 .0284223
757.671 .0284086
758.390 .0283952
759.108 .0283822
759.826 .0283696
760.544 .0283574
761.262 .0283456
761.979 .0283343
762.697 .0283234
763.414 .0283128
764.130 .0283026
764.847 .0282927
765.563 .0282831
766.279 .0282739
766.995 .0282650
767.710 .0282566
768.426 .0282485
769.141 .0282408
769.855 .0282333
770.570 .0282260
771.284 .0282190
771.998 .0282123
772.712 .0282057
773.426 .0281993
774.139 .0281931
774.852 .0281871
775.565 .0281812
776.277 .0281755
776.990 .0281699
777.702 .0281644
778.414 .0281590
779.125 .0281537
779.836 .0281484
780.547 .0281433
781.258 .0281383
781.969 .0281334
782.679 .0281286
783.389 .0281216
784.099 .0281167
784.808 .0281117
785.517 .0281065
786.226 .0281011
786.935 .0280954
787.643 .0280895
788.352 .0280835
789.060 .0280772
789.767 .0280707
790.475 .0280640
791.182 .0280571
791.889 .0280527
792.595 .0280454
793.301 .0280378
794.008 .0280298
794.713 .0280216
795.419 .0280130
796.124 .0280042
796.829 .0279951
797.534 .0279858
798.238 .0279761
798.942 .0279662
799.646 .0279559
800.350 .0279452
801.053 .0279342
801.756 .0279229
802.459 .0279112
803.162 .0278993
803.864 .0278874
804.566 .0278753
805.267 .0278632
805.969 .0278511
806.670 .0278390
807.371 .0278268
808.071 .0278145
808.772 .0278020
809.472 .0277895
810.171 .0277768
810.871 .0277641
811.570 .0277512
812.269 .0277383
812.967 .0277252
813.666 .0277120
814.364 .0276986
815.061 .0276850
815.759 .0276711
816.456 .0276569
817.153 .0276425
817.849 .0276279
818.545 .0276131
819.241 .0275981
819.937 .0275831
820.632 .0275681
821.327 .0275530
822.022 .0275380
822.717 .0275230
823.411 .0275081
824.105 .0274933
824.798 .0274786
825.491 .0274640
826.184 .0274496
826.877 .0274354
827.569 .0274213
828.261 .0274075
828.953 .0273940
829.645 .0273808
830.336 .0273680
831.027 .0273555
831.717 .0273434
832.407 .0273317
833.097 .0273205
833.787 .0273097
834.476 .0272993
835.165 .0272894
835.854 .0272799
836.542 .0272710
837.230 .0272625
837.918 .0272545
838.605 .0272469
839.292 .0272398
839.979 .0272330
840.665 .0272265
841.352 .0272202
842.037 .0272140
842.723 .0272078
843.408 .0272017
844.093 .0271956
844.777 .0271895
845.462 .0271835
846.145 .0271775
846.829 .0271716
847.512 .0271658
848.195 .0271600
848.878 .0271542
849.560 .0271485
850.242 .0271428
850.923 .0271371
851.605 .0271314
852.286 .0271258
852.966 .0271202
853.646 .0271146
854.326 .0271089
855.006 .0271032
855.685 .0270973
856.364 .0270914
857.043 .0270853
857.721 .0270791
858.399 .0270728
859.077 .0270663
859.754 .0270598
860.431 .0270532
861.107 .0270465
861.784 .0270396
862.459 .0270327
863.135 .0270255
863.810 .0270181
864.485 .0270104
865.160 .0270025
865.834 .0269944
866.508 .0269860
867.181 .0269775
867.854 .0269688
868.527 .0269600
869.199 .0269510
869.872 .0269419
870.543 .0269326
871.215 .0269230
871.886 .0269132
872.557 .0269031
873.227 .0268928
873.897 .0268823
874.567 .0268716
875.236 .0268610
875.905 .0268503
876.573 .0268396
877.242 .0268289
877.909 .0268181
878.577 .0268072
879.244 .0267962
879.911 .0267849
880.577 .0267736
881.243 .0267620
881.909 .0267503
882.575 .0267383
883.240 .0267262
883.904 .0267138
884.569 .0267011
885.232 .0266881
885.896 .0266748
886.559 .0266612
887.222 .0266473
887.885 .0266332
888.547 .0266188
889.208 .0266043
889.870 .0265895
890.531 .0265746
891.192 .0265594
891.852 .0265441
892.512 .0265285
893.171 .0265129
893.830 .0264973
894.489 .0264817
895.148 .0264662
895.806 .0264509
896.464 .0264359
897.121 .0264211
897.778 .0264067
898.434 .0263926
899.091 .0263737
899.747 .0263609
900.402 .0263485
901.057 .0263367
901.712 .0263254
902.366 .0263145
903.020 .0263041
903.674 .0262940
904.327 .0262842
904.980 .0262746
905.633 .0262652
906.285 .0262559
906.936 .0262467
907.588 .0262420
908.239 .0262327
908.889 .0262233
909.540 .0262140
910.190 .0262046
910.839 .0261951
911.488 .0261856
912.137 .0261760
912.785 .0261662
913.433 .0261564
914.081 .0261466
914.728 .0261367
915.375 .0261268
916.021 .0261169
916.668 .0261070
917.313 .0260970
917.959 .0260870
918.604 .0260770
919.248 .0260669
919.892 .0260567
920.536 .0260465
921.180 .0260362
921.823 .0260259
922.465 .0260157
923.108 .0260054
923.750 .0259953
924.391 .0259852
925.032 .0259753
925.673 .0259655
926.313 .0259557
926.953 .0259462
927.593 .0259367
928.232 .0259273
928.871 .0259180
929.510 .0259088
930.148 .0258995
930.786 .0258901
931.423 .0258807
932.060 .0258711
932.697 .0258613
933.333 .0258513
933.969 .0258412
934.604 .0258309
935.239 .0258204
935.874 .0258097
936.508 .0257989
937.142 .0257879
937.776 .0257767
938.409 .0257653
939.042 .0257538
939.674 .0257422
940.306 .0257304
940.938 .0257184
941.569 .0257062
942.200 .0256938
942.830 .0256813
943.460 .0256685
944.090 .0256556
944.720 .0256425
945.349 .0256293
945.977 .0256159
946.606 .0256025
947.233 .0255891
947.861 .0255757
948.488 .0255625
949.115 .0255493
949.741 .0255363
950.367 .0255234
950.993 .0255107
951.618 .0254981
952.243 .0254857
952.868 .0254735
953.492 .0254616
954.115 .0254499
954.739 .0254386
955.362 .0254275
955.984 .0254168
956.607 .0254064
957.229 .0253962
957.850 .0253862
958.471 .0253763
959.092 .0253666
959.713 .0253569
960.333 .0253474
960.952 .0253380
961.572 .0253288
962.191 .0253196
962.809 .0253106
963.428 .0253017
964.045 .0252928
964.663 .0252840
965.280 .0252751
965.897 .0252661
966.513 .0252570
967.129 .0252478
967.745 .0252385
968.361 .0252289
968.976 .0252192
969.590 .0252092
970.205 .0251991
970.818 .0251888
971.432 .0251784
972.045 .0251678
972.658 .0251573
973.271 .0251467
973.883 .0251360
974.495 .0251254
975.106 .0251148
975.717 .0251042
976.328 .0250937
976.938 .0250831
977.548 .0250726
978.158 .0250621
978.768 .0250463
979.377 .0250357
979.985 .0250251
980.594 .0250144
981.202 .0250036
981.809 .0249927
982.417 .0249819
983.024 .0249710
983.631 .0249602
984.237 .0249495
984.843 .0249389
985.449 .0249282
986.054 .0249175
986.659 .0249067
987.264 .0249011
987.868 .0248901
988.472 .0248791
989.076 .0248681
989.679 .0248571
990.282 .0248462
990.885 .0248354
991.487 .0248248
992.090 .0248143
992.691 .0248038
993.293 .0247933
993.894 .0247827
994.495 .0247721
995.095 .0247614
995.696 .0247508
996.296 .0247403
996.895 .0247300
997.494 .0247200
998.093 .0247103
998.692 .0247009
999.291 .0246919
999.889 .0246831
1000.487 .0246745
1001.084 .0246662
1001.681 .0246581
1002.278 .0246503
1002.875 .0246428
1003.471 .0246359
1004.067 .0246294
1004.663 .0246235
1005.258 .0246182
1005.854 .0246132
1006.449 .0246087
1007.043 .0246045
1007.638 .0246005
1008.232 .0245970
1008.826 .0245938
1009.419 .0245910
1010.012 .0245888
1010.605 .0245872
1011.198 .0245863
1011.791 .0245859
1012.383 .0245861
1012.975 .0245866
1013.566 .0245875
1014.158 .0245886
1014.749 .0245897
1015.340 .0245910
1015.931 .0245923
1016.521 .0245938
1017.111 .0245953
1017.701 .0245970
1018.291 .0245988
1018.880 .0246007
1019.470 .0246027
1020.059 .0246047
1020.647 .0246067
1021.236 .0246086
1021.824 .0246105
1022.412 .0246123
1023.000 .0246142
1023.588 .0246161
1024.175 .0246183
1024.762 .0246207
1025.349 .0246232
1025.936 .0246260
1026.523 .0246289
1027.109 .0246320
1027.695 .0246351
1028.281 .0246382
1028.867 .0246414
1029.452 .0246448
1030.038 .0246484
1030.623 .0246523
1031.208 .0246565
1031.792 .0246609
1032.377 .0246656
1032.961 .0246704
1033.546 .0246752
1034.130 .0246799
1034.714 .0246844
1035.297 .0246886
1035.881 .0246924
1036.464 .0246959
1037.047 .0246991
1037.630 .0247019
1038.213 .0247044
1038.796 .0247066
1039.378 .0247085
1039.961 .0247100
1040.543 .0247114
1041.125 .0247125
1041.707 .0247135
1042.289 .0247144
1042.871 .0247153
1043.452 .0247163
1044.034 .0247174
1044.615 .0247187
1045.196 .0247202
1045.777 .0247218
1046.358 .0247235
1046.939 .0247251
1047.520 .0247267
1048.101 .0247280
1048.681 .0247292
1049.262 .0247301
1049.842 .0247307
1050.422 .0247311
1051.002 .0247312
1051.582 .0247312
1052.162 .0247311
1052.742 .0247311
1053.322 .0247313
1053.902 .0247317
1054.482 .0247325
1055.061 .0247339
1055.641 .0247358
1056.220 .0247384
1056.800 .0247416
1057.379 .0247454
1057.958 .0247496
1058.538 .0247540
1059.117 .0247585
1059.696 .0247629
1060.275 .0247671
1060.854 .0247710
1061.433 .0247746
1062.012 .0247777
1062.592 .0247804
1063.171 .0247826
1063.750 .0247844
1064.329 .0247858
1064.908 .0247867
1065.487 .0247873
1066.066 .0247876
1066.645 .0247877
1067.224 .0247880
1067.803 .0247883
1068.382 .0247888
1068.961 .0247893
1069.540 .0247897
1070.119 .0247899
1070.698 .0247897
1071.278 .0247890
1071.857 .0247875
1072.436 .0247853
1073.016 .0247823
1073.595 .0247785
1074.175 .0247740
1074.754 .0247688
1075.334 .0247630
1075.913 .0247566
1076.493 .0247495
1077.073 .0247415
1077.653 .0247327
1078.233 .0247231
1078.813 .0247126
1079.393 .0247012
1079.974 .0246891
1080.554 .0246763
1081.135 .0246632
1081.716 .0246498
1082.296 .0246365
1082.877 .0246232
1083.458 .0246100
1084.040 .0245970
1084.621 .0245842
1085.202 .0245715
1085.784 .0245592
1086.366 .0245473
1086.948 .0245360
1087.530 .0245253
1088.112 .0245153
1088.695 .0245063
1089.277 .0244981
1089.860 .0244908
1090.443 .0244843
1091.026 .0244784
1091.610 .0244730
1092.193 .0244680
1092.777 .0244635
1093.361 .0244594
1093.946 .0244559
1094.530 .0244530
1095.115 .0244507
1095.700 .0244489
1096.285 .0244476
1096.871 .0244468
1097.456 .0244465
1098.042 .0244466
1098.628 .0244469
1099.215 .0244474
1099.802 .0244480
1100.389 .0244485
1100.976 .0244490
1101.564 .0244492
1102.152 .0244491
1102.740 .0244484
1103.329 .0244471
1103.917 .0244452
1104.507 .0244426
1105.096 .0244394
1105.686 .0244355
1106.276 .0244310
1106.867 .0244258
1107.457 .0244200
1108.049 .0244139
1108.640 .0244075
1109.232 .0244009
1109.825 .0243941
1110.417 .0243874
1111.010 .0243808
1111.604 .0243744
1112.198 .0243681
1112.792 .0243622
1113.387 .0243565
1113.982 .0243509
1114.577 .0243455
1115.173 .0243405
1115.769 .0243362
1116.366 .0243325
1116.963 .0243298
1117.561 .0243283
1118.159 .0243284
1118.758 .0243302
1119.357 .0243342
1119.957 .0243404
1120.557 .0243489
1121.157 .0243598
1121.758 .0243733
1122.360 .0243895
1122.962 .0244084
1123.564 .0244301
1124.167 .0244343
1124.771 .0244597
1125.375 .0244874
1125.980 .0245172
1126.585 .0245488
1127.191 .0245819
1127.797 .0246160
1128.404 .0246507
1129.012 .0246859
1129.620 .0247215
1130.229 .0247577
1130.838 .0247943
1131.448 .0248313
1132.058 .0248687
1132.669 .0249287
1133.281 .0249671
1133.894 .0250050
1134.507 .0250403
1135.120 .0250761
1135.735 .0251113
1136.350 .0251477
1136.965 .0252951
1137.582 .0253048
1138.199 .0253158
1138.816 .0253244
1139.435 .0253318
1140.054 .0253403
1140.674 .0253488
1141.294 .0253574
1141.916 .0253637
1142.538 .0253263
1143.160 .0253814
1143.784 .0254061
1144.408 .0254918
1145.033 .0253427
