Measurement Sequence started on: 14-45-04-498
Integration time: 36
Scans to Average: 2 
>>>>>Begin Spectral Data<<<<<
433.946 .0531710
434.870 .0469824
435.793 .0502758
436.715 .0508311
437.635 .0493842
438.555 .0498481
439.473 .0497190
440.389 .0497408
441.305 .0496686
442.219 .0496077
443.132 .0495267
444.044 .0496488
444.954 .0495958
445.863 .0495114
446.771 .0495000
447.678 .0494600
448.584 .0494220
449.488 .0493772
450.391 .0493300
451.293 .0492797
452.194 .0492243
453.094 .0491652
453.992 .0491020
454.890 .0490351
455.786 .0489655
456.681 .0488940
457.575 .0488205
458.468 .0487452
459.360 .0486674
460.250 .0485872
461.140 .0485042
462.028 .0484186
462.915 .0483313
463.801 .0482434
464.687 .0481563
465.571 .0480706
466.454 .0479871
467.335 .0479062
468.216 .0478275
469.096 .0477502
469.975 .0476736
470.853 .0475968
471.729 .0475193
472.605 .0474413
473.479 .0473627
474.353 .0472839
475.226 .0472054
476.097 .0471275
476.968 .0470506
477.838 .0469751
478.706 .0469008
479.574 .0468282
480.441 .0467572
481.306 .0466882
482.171 .0466211
483.035 .0465566
483.898 .0464948
484.760 .0464360
485.621 .0463805
486.481 .0463284
487.340 .0462797
488.198 .0462345
489.055 .0461927
489.912 .0461543
490.767 .0461190
491.622 .0460745
492.476 .0460437
493.329 .0460138
494.180 .0459839
495.032 .0459531
495.882 .0459207
496.731 .0458860
497.580 .0458484
498.427 .0458081
499.274 .0457648
500.120 .0457352
500.965 .0456883
501.809 .0456390
502.653 .0455875
503.495 .0455339
504.337 .0454783
505.178 .0454205
506.018 .0453610
506.858 .0453000
507.696 .0452379
508.534 .0451754
509.371 .0451132
510.208 .0450520
511.043 .0449925
511.878 .0449356
512.712 .0448818
513.545 .0448316
514.377 .0447854
515.209 .0447438
516.040 .0447069
516.870 .0446747
517.699 .0446470
518.528 .0446237
519.356 .0446045
520.183 .0445883
521.010 .0445747
521.836 .0445629
522.661 .0445522
523.485 .0445417
524.309 .0445311
525.132 .0445197
525.954 .0445069
526.776 .0444923
527.597 .0444750
528.417 .0444544
529.237 .0444299
530.056 .0444013
530.874 .0443684
531.692 .0443315
532.508 .0442907
533.325 .0442459
534.140 .0441977
534.955 .0441462
535.770 .0440913
536.583 .0440330
537.397 .0439718
538.209 .0439079
539.021 .0438417
539.832 .0437739
540.643 .0437051
541.453 .0436359
542.262 .0435669
543.071 .0434984
543.879 .0434303
544.687 .0433629
545.494 .0432958
546.300 .0432289
547.106 .0431618
547.911 .0430942
548.716 .0430259
549.520 .0429567
550.323 .0428867
551.126 .0428161
551.929 .0427455
552.731 .0426756
553.532 .0426068
554.332 .0425396
555.133 .0424744
555.932 .0424112
556.731 .0423500
557.530 .0422908
558.328 .0422333
559.125 .0421774
559.922 .0421234
560.719 .0420714
561.515 .0420220
562.310 .0419759
563.105 .0419335
563.899 .0418949
564.693 .0418602
565.487 .0418290
566.280 .0418007
567.072 .0417744
567.864 .0417490
568.655 .0417236
569.446 .0416973
570.236 .0416696
571.026 .0416402
571.816 .0416095
572.605 .0415774
573.393 .0415443
574.181 .0415105
574.969 .0414760
575.756 .0414409
576.543 .0414050
577.329 .0413682
578.115 .0413303
578.900 .0412910
579.685 .0412504
580.469 .0412084
581.253 .0411654
582.036 .0411217
582.820 .0410775
583.602 .0410331
584.384 .0409891
585.166 .0409457
585.947 .0409033
586.728 .0408621
587.509 .0408221
588.289 .0407833
589.069 .0407454
589.848 .0407081
590.627 .0406711
591.405 .0406341
592.183 .0405969
592.961 .0405595
593.738 .0405219
594.515 .0404843
595.291 .0404470
596.067 .0404101
596.843 .0403740
597.618 .0403386
598.393 .0402876
599.167 .0402539
599.941 .0402208
600.715 .0401882
601.488 .0401561
602.261 .0401245
603.034 .0400937
603.806 .0400637
604.578 .0400347
605.349 .0400068
606.121 .0399801
606.891 .0399696
607.662 .0399445
608.432 .0399206
609.201 .0398976
609.971 .0398755
610.740 .0398542
611.508 .0398335
612.277 .0398133
613.045 .0397936
613.812 .0397741
614.579 .0397548
615.346 .0397358
616.113 .0397168
616.879 .0396979
617.645 .0396789
618.411 .0396596
619.176 .0396400
619.941 .0396198
620.705 .0395988
621.470 .0395770
622.233 .0395544
622.997 .0395309
623.760 .0395066
624.523 .0394815
625.286 .0394558
626.048 .0394295
626.810 .0394027
627.572 .0393752
628.333 .0393471
629.095 .0393185
629.855 .0392892
630.616 .0392594
631.376 .0392290
632.136 .0391983
632.895 .0391672
633.655 .0391358
634.414 .0391043
635.172 .0390726
635.931 .0390408
636.689 .0390090
637.447 .0389771
638.204 .0389453
638.962 .0389136
639.718 .0388819
640.475 .0388503
641.231 .0388189
641.988 .0387876
642.743 .0387567
643.499 .0387262
644.254 .0386962
645.009 .0386669
645.764 .0386383
646.518 .0386106
647.272 .0385837
648.026 .0385578
648.780 .0385327
649.533 .0385083
650.286 .0384847
651.039 .0384619
651.792 .0384397
652.544 .0384183
653.296 .0383976
654.048 .0383777
654.799 .0383584
655.550 .0383397
656.301 .0383214
657.052 .0383035
657.802 .0382858
658.552 .0382682
659.302 .0382505
660.052 .0382327
660.801 .0382146
661.550 .0381963
662.299 .0381777
663.048 .0381586
663.796 .0381392
664.544 .0381195
665.292 .0380993
666.040 .0380789
666.787 .0380581
667.534 .0380371
668.281 .0380159
669.028 .0379945
669.774 .0379728
670.521 .0379509
671.266 .0379289
672.012 .0379067
672.758 .0378843
673.503 .0378618
674.248 .0378393
674.992 .0378166
675.737 .0377939
676.481 .0377710
677.225 .0377479
677.969 .0377246
678.712 .0377011
679.455 .0376773
680.199 .0376533
680.941 .0376291
681.684 .0376047
682.426 .0375802
683.168 .0375555
683.910 .0375308
684.652 .0375059
685.393 .0374809
686.134 .0374559
686.875 .0374308
687.616 .0374057
688.356 .0373807
689.097 .0373559
689.837 .0373313
690.576 .0373071
691.316 .0372832
692.055 .0372597
692.794 .0372367
693.533 .0372142
694.272 .0371922
695.010 .0371706
695.748 .0371496
696.486 .0371291
697.224 .0371091
697.962 .0370896
698.699 .0370706
699.436 .0370521
700.173 .0370341
700.909 .0370164
701.646 .0369993
702.382 .0369825
703.118 .0369661
703.853 .0369501
704.589 .0369342
705.324 .0369185
706.059 .0369029
706.794 .0368871
707.529 .0368713
708.263 .0368553
708.997 .0368392
709.731 .0368230
710.465 .0368067
711.198 .0367903
711.931 .0367738
712.664 .0367571
713.397 .0367401
714.130 .0367228
714.862 .0367050
715.594 .0366866
716.326 .0366678
717.058 .0366484
717.789 .0366285
718.520 .0366082
719.251 .0365874
719.982 .0365662
720.713 .0365446
721.443 .0365226
722.173 .0365002
722.903 .0364776
723.633 .0364546
724.362 .0364315
725.091 .0364081
725.820 .0363847
726.549 .0363611
727.278 .0363376
728.006 .0363140
728.734 .0362905
729.462 .0362670
730.190 .0362437
730.917 .0362206
731.644 .0361978
732.371 .0361753
733.098 .0361533
733.825 .0361317
734.551 .0361105
735.277 .0360898
736.003 .0360694
736.728 .0360494
737.454 .0360297
738.179 .0360105
738.904 .0359916
739.629 .0359732
740.353 .0359552
741.077 .0359376
741.801 .0359205
742.525 .0359038
743.249 .0358874
743.972 .0358713
744.695 .0358554
745.418 .0358398
746.141 .0358243
746.863 .0358091
747.585 .0357939
748.307 .0357789
749.029 .0357640
749.750 .0357493
750.472 .0357346
751.193 .0357200
751.913 .0357056
752.634 .0356912
753.354 .0356769
754.074 .0356626
754.794 .0356485
755.514 .0356343
756.233 .0356203
756.952 .0356062
757.671 .0355923
758.390 .0355783
759.108 .0355645
759.826 .0355507
760.544 .0355370
761.262 .0355234
761.979 .0355099
762.697 .0354965
763.414 .0354832
764.130 .0354699
764.847 .0354567
765.563 .0354435
766.279 .0354302
766.995 .0354170
767.710 .0354037
768.426 .0353904
769.141 .0353772
769.855 .0353641
770.570 .0353510
771.284 .0353379
771.998 .0353250
772.712 .0353122
773.426 .0352994
774.139 .0352866
774.852 .0352739
775.565 .0352612
776.277 .0352486
776.990 .0352359
777.702 .0352233
778.414 .0352107
779.125 .0351980
779.836 .0351854
780.547 .0351727
781.258 .0351599
781.969 .0351471
782.679 .0351341
783.389 .0351136
784.099 .0350999
784.808 .0350860
785.517 .0350718
786.226 .0350573
786.935 .0350425
787.643 .0350273
788.352 .0350119
789.060 .0349961
789.767 .0349802
790.475 .0349640
791.182 .0349477
791.889 .0349389
792.595 .0349224
793.301 .0349057
794.008 .0348889
794.713 .0348718
795.419 .0348546
796.124 .0348373
796.829 .0348198
797.534 .0348022
798.238 .0347846
798.942 .0347669
799.646 .0347492
800.350 .0347315
801.053 .0347138
801.756 .0346961
802.459 .0346783
803.162 .0346604
803.864 .0346425
804.566 .0346244
805.267 .0346063
805.969 .0345882
806.670 .0345702
807.371 .0345522
808.071 .0345343
808.772 .0345165
809.472 .0344988
810.171 .0344812
810.871 .0344637
811.570 .0344463
812.269 .0344290
812.967 .0344117
813.666 .0343944
814.364 .0343772
815.061 .0343600
815.759 .0343427
816.456 .0343255
817.153 .0343082
817.849 .0342910
818.545 .0342738
819.241 .0342565
819.937 .0342394
820.632 .0342223
821.327 .0342053
822.022 .0341883
822.717 .0341714
823.411 .0341546
824.105 .0341380
824.798 .0341215
825.491 .0341052
826.184 .0340891
826.877 .0340733
827.569 .0340577
828.261 .0340425
828.953 .0340277
829.645 .0340132
830.336 .0339990
831.027 .0339853
831.717 .0339721
832.407 .0339593
833.097 .0339471
833.787 .0339353
834.476 .0339241
835.165 .0339134
835.854 .0339031
836.542 .0338932
837.230 .0338838
837.918 .0338747
838.605 .0338661
839.292 .0338577
839.979 .0338497
840.665 .0338420
841.352 .0338344
842.037 .0338268
842.723 .0338192
843.408 .0338114
844.093 .0338034
844.777 .0337950
845.462 .0337862
846.145 .0337769
846.829 .0337673
847.512 .0337573
848.195 .0337468
848.878 .0337359
849.560 .0337245
850.242 .0337126
850.923 .0337001
851.605 .0336871
852.286 .0336735
852.966 .0336593
853.646 .0336445
854.326 .0336293
855.006 .0336137
855.685 .0335977
856.364 .0335813
857.043 .0335646
857.721 .0335476
858.399 .0335304
859.077 .0335129
859.754 .0334952
860.431 .0334773
861.107 .0334593
861.784 .0334411
862.459 .0334228
863.135 .0334043
863.810 .0333857
864.485 .0333668
865.160 .0333477
865.834 .0333284
866.508 .0333088
867.181 .0332890
867.854 .0332689
868.527 .0332487
869.199 .0332284
869.872 .0332080
870.543 .0331875
871.215 .0331669
871.886 .0331462
872.557 .0331253
873.227 .0331043
873.897 .0330831
874.567 .0330617
875.236 .0330402
875.905 .0330186
876.573 .0329970
877.242 .0329755
877.909 .0329541
878.577 .0329328
879.244 .0329118
879.911 .0328910
880.577 .0328704
881.243 .0328501
881.909 .0328301
882.575 .0328103
883.240 .0327909
883.904 .0327719
884.569 .0327533
885.232 .0327351
885.896 .0327173
886.559 .0327001
887.222 .0326834
887.885 .0326671
888.547 .0326514
889.208 .0326362
889.870 .0326215
890.531 .0326074
891.192 .0325937
891.852 .0325805
892.512 .0325677
893.171 .0325551
893.830 .0325428
894.489 .0325306
895.148 .0325186
895.806 .0325068
896.464 .0324952
897.121 .0324838
897.778 .0324726
898.434 .0324618
899.091 .0324465
899.747 .0324362
900.402 .0324260
901.057 .0324157
901.712 .0324053
902.366 .0323948
903.020 .0323841
903.674 .0323731
904.327 .0323620
904.980 .0323508
905.633 .0323394
906.285 .0323280
906.936 .0323165
907.588 .0323104
908.239 .0322988
908.889 .0322870
909.540 .0322751
910.190 .0322629
910.839 .0322505
911.488 .0322379
912.137 .0322252
912.785 .0322124
913.433 .0321995
914.081 .0321866
914.728 .0321737
915.375 .0321607
916.021 .0321476
916.668 .0321344
917.313 .0321212
917.959 .0321079
918.604 .0320947
919.248 .0320815
919.892 .0320685
920.536 .0320556
921.180 .0320429
921.823 .0320304
922.465 .0320180
923.108 .0320056
923.750 .0319932
924.391 .0319807
925.032 .0319680
925.673 .0319552
926.313 .0319423
926.953 .0319293
927.593 .0319162
928.232 .0319030
928.871 .0318897
929.510 .0318763
930.148 .0318628
930.786 .0318491
931.423 .0318351
932.060 .0318210
932.697 .0318065
933.333 .0317918
933.969 .0317769
934.604 .0317618
935.239 .0317465
935.874 .0317311
936.508 .0317154
937.142 .0316995
937.776 .0316833
938.409 .0316668
939.042 .0316500
939.674 .0316328
940.306 .0316153
940.938 .0315974
941.569 .0315792
942.200 .0315608
942.830 .0315422
943.460 .0315235
944.090 .0315047
944.720 .0314859
945.349 .0314671
945.977 .0314482
946.606 .0314294
947.233 .0314105
947.861 .0313916
948.488 .0313726
949.115 .0313535
949.741 .0313343
950.367 .0313150
950.993 .0312956
951.618 .0312760
952.243 .0312562
952.868 .0312362
953.492 .0312160
954.115 .0311955
954.739 .0311749
955.362 .0311540
955.984 .0311331
956.607 .0311120
957.229 .0310909
957.850 .0310697
958.471 .0310486
959.092 .0310274
959.713 .0310064
960.333 .0309853
960.952 .0309642
961.572 .0309431
962.191 .0309220
962.809 .0309009
963.428 .0308797
964.045 .0308587
964.663 .0308377
965.280 .0308168
965.897 .0307961
966.513 .0307755
967.129 .0307550
967.745 .0307347
968.361 .0307145
968.976 .0306946
969.590 .0306749
970.205 .0306556
970.818 .0306367
971.432 .0306182
972.045 .0306003
972.658 .0305828
973.271 .0305657
973.883 .0305491
974.495 .0305328
975.106 .0305169
975.717 .0305013
976.328 .0304861
976.938 .0304713
977.548 .0304569
978.158 .0304431
978.768 .0304242
979.377 .0304115
979.985 .0303993
980.594 .0303873
981.202 .0303756
981.809 .0303641
982.417 .0303529
983.024 .0303420
983.631 .0303315
984.237 .0303213
984.843 .0303115
985.449 .0303021
986.054 .0302931
986.659 .0302842
987.264 .0302803
987.868 .0302717
988.472 .0302632
989.076 .0302548
989.679 .0302466
990.282 .0302386
990.885 .0302309
991.487 .0302236
992.090 .0302166
992.691 .0302100
993.293 .0302037
993.894 .0301976
994.495 .0301916
995.095 .0301856
995.696 .0301797
996.296 .0301737
996.895 .0301679
997.494 .0301621
998.093 .0301565
998.692 .0301511
999.291 .0301458
999.889 .0301406
1000.487 .0301355
1001.084 .0301304
1001.681 .0301252
1002.278 .0301199
1002.875 .0301147
1003.471 .0301095
1004.067 .0301045
1004.663 .0300997
1005.258 .0300953
1005.854 .0300914
1006.449 .0300878
1007.043 .0300847
1007.638 .0300820
1008.232 .0300797
1008.826 .0300778
1009.419 .0300762
1010.012 .0300750
1010.605 .0300742
1011.198 .0300739
1011.791 .0300740
1012.383 .0300745
1012.975 .0300755
1013.566 .0300769
1014.158 .0300787
1014.749 .0300807
1015.340 .0300829
1015.931 .0300855
1016.521 .0300882
1017.111 .0300911
1017.701 .0300943
1018.291 .0300977
1018.880 .0301014
1019.470 .0301052
1020.059 .0301093
1020.647 .0301135
1021.236 .0301178
1021.824 .0301221
1022.412 .0301264
1023.000 .0301307
1023.588 .0301348
1024.175 .0301388
1024.762 .0301425
1025.349 .0301459
1025.936 .0301489
1026.523 .0301515
1027.109 .0301536
1027.695 .0301554
1028.281 .0301568
1028.867 .0301578
1029.452 .0301586
1030.038 .0301591
1030.623 .0301595
1031.208 .0301597
1031.792 .0301598
1032.377 .0301598
1032.961 .0301597
1033.546 .0301595
1034.130 .0301592
1034.714 .0301589
1035.297 .0301586
1035.881 .0301583
1036.464 .0301581
1037.047 .0301580
1037.630 .0301579
1038.213 .0301579
1038.796 .0301579
1039.378 .0301577
1039.961 .0301574
1040.543 .0301569
1041.125 .0301562
1041.707 .0301552
1042.289 .0301541
1042.871 .0301529
1043.452 .0301516
1044.034 .0301502
1044.615 .0301489
1045.196 .0301474
1045.777 .0301459
1046.358 .0301441
1046.939 .0301419
1047.520 .0301393
1048.101 .0301362
1048.681 .0301325
1049.262 .0301283
1049.842 .0301236
1050.422 .0301185
1051.002 .0301130
1051.582 .0301074
1052.162 .0301015
1052.742 .0300954
1053.322 .0300892
1053.902 .0300827
1054.482 .0300759
1055.061 .0300688
1055.641 .0300614
1056.220 .0300539
1056.800 .0300464
1057.379 .0300389
1057.958 .0300316
1058.538 .0300245
1059.117 .0300177
1059.696 .0300109
1060.275 .0300043
1060.854 .0299975
1061.433 .0299907
1062.012 .0299836
1062.592 .0299763
1063.171 .0299689
1063.750 .0299613
1064.329 .0299538
1064.908 .0299464
1065.487 .0299390
1066.066 .0299318
1066.645 .0299245
1067.224 .0299172
1067.803 .0299098
1068.382 .0299022
1068.961 .0298943
1069.540 .0298862
1070.119 .0298777
1070.698 .0298690
1071.278 .0298600
1071.857 .0298509
1072.436 .0298416
1073.016 .0298321
1073.595 .0298224
1074.175 .0298124
1074.754 .0298023
1075.334 .0297918
1075.913 .0297812
1076.493 .0297702
1077.073 .0297590
1077.653 .0297476
1078.233 .0297361
1078.813 .0297245
1079.393 .0297129
1079.974 .0297014
1080.554 .0296901
1081.135 .0296788
1081.716 .0296676
1082.296 .0296564
1082.877 .0296451
1083.458 .0296338
1084.040 .0296224
1084.621 .0296108
1085.202 .0295992
1085.784 .0295875
1086.366 .0295759
1086.948 .0295645
1087.530 .0295535
1088.112 .0295430
1088.695 .0295330
1089.277 .0295235
1089.860 .0295144
1090.443 .0295058
1091.026 .0294974
1091.610 .0294892
1092.193 .0294811
1092.777 .0294730
1093.361 .0294648
1093.946 .0294566
1094.530 .0294483
1095.115 .0294400
1095.700 .0294317
1096.285 .0294235
1096.871 .0294153
1097.456 .0294071
1098.042 .0293992
1098.628 .0293915
1099.215 .0293840
1099.802 .0293769
1100.389 .0293702
1100.976 .0293639
1101.564 .0293580
1102.152 .0293527
1102.740 .0293481
1103.329 .0293443
1103.917 .0293414
1104.507 .0293394
1105.096 .0293383
1105.686 .0293383
1106.276 .0293392
1106.867 .0293411
1107.457 .0293438
1108.049 .0293472
1108.640 .0293515
1109.232 .0293566
1109.825 .0293627
1110.417 .0293699
1111.010 .0293783
1111.604 .0293879
1112.198 .0293986
1112.792 .0294103
1113.387 .0294227
1113.982 .0294359
1114.577 .0294496
1115.173 .0294637
1115.769 .0294782
1116.366 .0294931
1116.963 .0295085
1117.561 .0295244
1118.159 .0295411
1118.758 .0295585
1119.357 .0295768
1119.957 .0295960
1120.557 .0296163
1121.157 .0296377
1121.758 .0296605
1122.360 .0296850
1122.962 .0297113
1123.564 .0297397
1124.167 .0297499
1124.771 .0297805
1125.375 .0298134
1125.980 .0298485
1126.585 .0298857
1127.191 .0299248
1127.797 .0299657
1128.404 .0300083
1129.012 .0300526
1129.620 .0300989
1130.229 .0301472
1130.838 .0301977
1131.448 .0302504
1132.058 .0303049
1132.669 .0303853
1133.281 .0304457
1133.894 .0305084
1134.507 .0305711
1135.120 .0306330
1135.735 .0307050
1136.350 .0307769
1136.965 .0308738
1137.582 .0309472
1138.199 .0310228
1138.816 .0310968
1139.435 .0311684
1140.054 .0312321
1140.674 .0312975
1141.294 .0313604
1141.916 .0314336
1142.538 .0314430
1143.160 .0314351
1143.784 .0317305
1144.408 .0317534
1145.033 .0320631
