Measurement Sequence started on: 14-45-04-498
Integration time: 36
Scans to Average: 2 
>>>>>Begin Spectral Data<<<<<
433.946 .0799861
434.870 .0745157
435.793 .0646595
436.715 .0621499
437.635 .0607101
438.555 .0608127
439.473 .0589172
440.389 .0574920
441.305 .0565072
442.219 .0556660
443.132 .0568753
444.044 .0556446
444.954 .0549200
445.863 .0543159
446.771 .0537765
447.678 .0532206
448.584 .0527540
449.488 .0523523
450.391 .0519920
451.293 .0516665
452.194 .0513699
453.094 .0510970
453.992 .0508435
454.890 .0506057
455.786 .0503805
456.681 .0501657
457.575 .0499587
458.468 .0497588
459.360 .0495651
460.250 .0493778
461.140 .0491960
462.028 .0490202
462.915 .0488510
463.801 .0486887
464.687 .0485340
465.571 .0483873
466.454 .0482484
467.335 .0481179
468.216 .0479952
469.096 .0478800
469.975 .0477718
470.853 .0476708
471.729 .0475769
472.605 .0474905
473.479 .0474118
474.353 .0473409
475.226 .0472775
476.097 .0472210
476.968 .0471701
477.838 .0471237
478.706 .0470801
479.574 .0470380
480.441 .0469958
481.306 .0469529
482.171 .0469082
483.035 .0468616
483.898 .0468127
484.760 .0467616
485.621 .0467084
486.481 .0466531
487.340 .0465956
488.198 .0465361
489.055 .0464744
489.912 .0464108
490.767 .0463456
491.622 .0462471
492.476 .0461816
493.329 .0461166
494.180 .0460527
495.032 .0459909
495.882 .0459306
496.731 .0458723
497.580 .0458156
498.427 .0457601
499.274 .0457050
500.120 .0456786
500.965 .0456214
501.809 .0455629
502.653 .0455028
503.495 .0454410
504.337 .0453775
505.178 .0453124
506.018 .0452454
506.858 .0451767
507.696 .0451061
508.534 .0450332
509.371 .0449574
510.208 .0448784
511.043 .0447959
511.878 .0447099
512.712 .0446210
513.545 .0445305
514.377 .0444396
515.209 .0443498
516.040 .0442621
516.870 .0441778
517.699 .0440973
518.528 .0440214
519.356 .0439500
520.183 .0438829
521.010 .0438199
521.836 .0437606
522.661 .0437048
523.485 .0436533
524.309 .0436056
525.132 .0435619
525.954 .0435224
526.776 .0434868
527.597 .0434545
528.417 .0434255
529.237 .0433993
530.056 .0433744
530.874 .0433500
531.692 .0433246
532.508 .0432960
533.325 .0432636
534.140 .0432263
534.955 .0431836
535.770 .0431354
536.583 .0430819
537.397 .0430234
538.209 .0429607
539.021 .0428948
539.832 .0428264
540.643 .0427558
541.453 .0426838
542.262 .0426105
543.071 .0425363
543.879 .0424620
544.687 .0423882
545.494 .0423154
546.300 .0422443
547.106 .0421752
547.911 .0421088
548.716 .0420454
549.520 .0419859
550.323 .0419300
551.126 .0418781
551.929 .0418301
552.731 .0417852
553.532 .0417431
554.332 .0417033
555.133 .0416651
555.932 .0416277
556.731 .0415908
557.530 .0415536
558.328 .0415156
559.125 .0414765
559.922 .0414360
560.719 .0413936
561.515 .0413491
562.310 .0413020
563.105 .0412518
563.899 .0411987
564.693 .0411423
565.487 .0410826
566.280 .0410201
567.072 .0409555
567.864 .0408890
568.655 .0408214
569.446 .0407531
570.236 .0406848
571.026 .0406169
571.816 .0405493
572.605 .0404821
573.393 .0404150
574.181 .0403481
574.969 .0402814
575.756 .0402145
576.543 .0401482
577.329 .0400826
578.115 .0400180
578.900 .0399548
579.685 .0398934
580.469 .0398340
581.253 .0397766
582.036 .0397214
582.820 .0396682
583.602 .0396169
584.384 .0395674
585.166 .0395197
585.947 .0394738
586.728 .0394296
587.509 .0393869
588.289 .0393459
589.069 .0393066
589.848 .0392689
590.627 .0392325
591.405 .0391977
592.183 .0391646
592.961 .0391328
593.738 .0391025
594.515 .0390735
595.291 .0390456
596.067 .0390187
596.843 .0389925
597.618 .0389668
598.393 .0389291
599.167 .0389041
599.941 .0388792
600.715 .0388544
601.488 .0388299
602.261 .0388056
603.034 .0387815
603.806 .0387579
604.578 .0387345
605.349 .0387113
606.121 .0386881
606.891 .0386766
607.662 .0386529
608.432 .0386289
609.201 .0386047
609.971 .0385801
610.740 .0385554
611.508 .0385304
612.277 .0385054
613.045 .0384802
613.812 .0384549
614.579 .0384295
615.346 .0384039
616.113 .0383782
616.879 .0383522
617.645 .0383260
618.411 .0382996
619.176 .0382731
619.941 .0382464
620.705 .0382195
621.470 .0381924
622.233 .0381649
622.997 .0381371
623.760 .0381089
624.523 .0380803
625.286 .0380515
626.048 .0380224
626.810 .0379931
627.572 .0379637
628.333 .0379341
629.095 .0379043
629.855 .0378743
630.616 .0378441
631.376 .0378136
632.136 .0377829
632.895 .0377520
633.655 .0377211
634.414 .0376902
635.172 .0376592
635.931 .0376282
636.689 .0375972
637.447 .0375660
638.204 .0375349
638.962 .0375039
639.718 .0374731
640.475 .0374427
641.231 .0374129
641.988 .0373839
642.743 .0373556
643.499 .0373282
644.254 .0373015
645.009 .0372753
645.764 .0372495
646.518 .0372241
647.272 .0371989
648.026 .0371741
648.780 .0371496
649.533 .0371254
650.286 .0371018
651.039 .0370785
651.792 .0370557
652.544 .0370332
653.296 .0370111
654.048 .0369892
654.799 .0369676
655.550 .0369461
656.301 .0369248
657.052 .0369037
657.802 .0368826
658.552 .0368615
659.302 .0368405
660.052 .0368195
660.801 .0367985
661.550 .0367775
662.299 .0367568
663.048 .0367362
663.796 .0367159
664.544 .0366957
665.292 .0366757
666.040 .0366556
666.787 .0366354
667.534 .0366150
668.281 .0365942
669.028 .0365732
669.774 .0365518
670.521 .0365303
671.266 .0365088
672.012 .0364873
672.758 .0364659
673.503 .0364447
674.248 .0364236
674.992 .0364028
675.737 .0363820
676.481 .0363613
677.225 .0363407
677.969 .0363201
678.712 .0362997
679.455 .0362793
680.199 .0362591
680.941 .0362390
681.684 .0362192
682.426 .0361995
683.168 .0361802
683.910 .0361611
684.652 .0361424
685.393 .0361240
686.134 .0361060
686.875 .0360883
687.616 .0360710
688.356 .0360538
689.097 .0360369
689.837 .0360201
690.576 .0360035
691.316 .0359870
692.055 .0359706
692.794 .0359544
693.533 .0359383
694.272 .0359224
695.010 .0359067
695.748 .0358911
696.486 .0358755
697.224 .0358599
697.962 .0358443
698.699 .0358285
699.436 .0358126
700.173 .0357965
700.909 .0357802
701.646 .0357636
702.382 .0357468
703.118 .0357297
703.853 .0357123
704.589 .0356944
705.324 .0356761
706.059 .0356574
706.794 .0356384
707.529 .0356191
708.263 .0355997
708.997 .0355801
709.731 .0355605
710.465 .0355410
711.198 .0355213
711.931 .0355017
712.664 .0354819
713.397 .0354620
714.130 .0354419
714.862 .0354218
715.594 .0354015
716.326 .0353813
717.058 .0353611
717.789 .0353409
718.520 .0353208
719.251 .0353008
719.982 .0352809
720.713 .0352611
721.443 .0352413
722.173 .0352216
722.903 .0352018
723.633 .0351821
724.362 .0351623
725.091 .0351425
725.820 .0351227
726.549 .0351030
727.278 .0350834
728.006 .0350640
728.734 .0350447
729.462 .0350258
730.190 .0350070
730.917 .0349886
731.644 .0349705
732.371 .0349526
733.098 .0349350
733.825 .0349176
734.551 .0349006
735.277 .0348839
736.003 .0348676
736.728 .0348517
737.454 .0348362
738.179 .0348212
738.904 .0348067
739.629 .0347928
740.353 .0347794
741.077 .0347666
741.801 .0347543
742.525 .0347424
743.249 .0347309
743.972 .0347196
744.695 .0347085
745.418 .0346975
746.141 .0346865
746.863 .0346756
747.585 .0346646
748.307 .0346534
749.029 .0346422
749.750 .0346307
750.472 .0346189
751.193 .0346067
751.913 .0345941
752.634 .0345811
753.354 .0345674
754.074 .0345533
754.794 .0345387
755.514 .0345235
756.233 .0345079
756.952 .0344918
757.671 .0344751
758.390 .0344579
759.108 .0344402
759.826 .0344219
760.544 .0344032
761.262 .0343841
761.979 .0343646
762.697 .0343448
763.414 .0343247
764.130 .0343044
764.847 .0342839
765.563 .0342634
766.279 .0342428
766.995 .0342222
767.710 .0342018
768.426 .0341816
769.141 .0341617
769.855 .0341420
770.570 .0341227
771.284 .0341037
771.998 .0340850
772.712 .0340667
773.426 .0340486
774.139 .0340309
774.852 .0340136
775.565 .0339966
776.277 .0339800
776.990 .0339638
777.702 .0339481
778.414 .0339327
779.125 .0339177
779.836 .0339032
780.547 .0338892
781.258 .0338759
781.969 .0338631
782.679 .0338511
783.389 .0338357
784.099 .0338254
784.808 .0338158
785.517 .0338068
786.226 .0337983
786.935 .0337905
787.643 .0337832
788.352 .0337766
789.060 .0337704
789.767 .0337646
790.475 .0337591
791.182 .0337537
791.889 .0337513
792.595 .0337454
793.301 .0337391
794.008 .0337324
794.713 .0337254
795.419 .0337182
796.124 .0337106
796.829 .0337029
797.534 .0336950
798.238 .0336869
798.942 .0336784
799.646 .0336696
800.350 .0336604
801.053 .0336508
801.756 .0336408
802.459 .0336304
803.162 .0336198
803.864 .0336089
804.566 .0335977
805.267 .0335863
805.969 .0335746
806.670 .0335626
807.371 .0335502
808.071 .0335375
808.772 .0335246
809.472 .0335115
810.171 .0334984
810.871 .0334854
811.570 .0334724
812.269 .0334595
812.967 .0334465
813.666 .0334335
814.364 .0334203
815.061 .0334070
815.759 .0333934
816.456 .0333797
817.153 .0333659
817.849 .0333520
818.545 .0333382
819.241 .0333243
819.937 .0333104
820.632 .0332962
821.327 .0332817
822.022 .0332668
822.717 .0332514
823.411 .0332355
824.105 .0332192
824.798 .0332027
825.491 .0331859
826.184 .0331689
826.877 .0331518
827.569 .0331346
828.261 .0331173
828.953 .0330999
829.645 .0330823
830.336 .0330646
831.027 .0330468
831.717 .0330287
832.407 .0330106
833.097 .0329924
833.787 .0329741
834.476 .0329557
835.165 .0329374
835.854 .0329191
836.542 .0329008
837.230 .0328826
837.918 .0328647
838.605 .0328471
839.292 .0328298
839.979 .0328127
840.665 .0327960
841.352 .0327796
842.037 .0327633
842.723 .0327473
843.408 .0327315
844.093 .0327159
844.777 .0327005
845.462 .0326854
846.145 .0326705
846.829 .0326559
847.512 .0326415
848.195 .0326273
848.878 .0326131
849.560 .0325989
850.242 .0325847
850.923 .0325703
851.605 .0325556
852.286 .0325407
852.966 .0325254
853.646 .0325099
854.326 .0324940
855.006 .0324778
855.685 .0324614
856.364 .0324448
857.043 .0324281
857.721 .0324114
858.399 .0323948
859.077 .0323785
859.754 .0323623
860.431 .0323466
861.107 .0323312
861.784 .0323162
862.459 .0323019
863.135 .0322882
863.810 .0322752
864.485 .0322630
865.160 .0322517
865.834 .0322414
866.508 .0322321
867.181 .0322236
867.854 .0322160
868.527 .0322092
869.199 .0322030
869.872 .0321974
870.543 .0321922
871.215 .0321874
871.886 .0321829
872.557 .0321785
873.227 .0321742
873.897 .0321698
874.567 .0321653
875.236 .0321606
875.905 .0321554
876.573 .0321497
877.242 .0321435
877.909 .0321365
878.577 .0321289
879.244 .0321205
879.911 .0321113
880.577 .0321012
881.243 .0320904
881.909 .0320787
882.575 .0320663
883.240 .0320533
883.904 .0320398
884.569 .0320259
885.232 .0320119
885.896 .0319978
886.559 .0319837
887.222 .0319698
887.885 .0319561
888.547 .0319427
889.208 .0319297
889.870 .0319172
890.531 .0319052
891.192 .0318938
891.852 .0318830
892.512 .0318729
893.171 .0318634
893.830 .0318544
894.489 .0318460
895.148 .0318379
895.806 .0318300
896.464 .0318223
897.121 .0318145
897.778 .0318067
898.434 .0317988
899.091 .0317853
899.747 .0317764
900.402 .0317671
901.057 .0317574
901.712 .0317472
902.366 .0317365
903.020 .0317254
903.674 .0317137
904.327 .0317015
904.980 .0316885
905.633 .0316748
906.285 .0316604
906.936 .0316453
907.588 .0316359
908.239 .0316198
908.889 .0316030
909.540 .0315858
910.190 .0315681
910.839 .0315500
911.488 .0315318
912.137 .0315133
912.785 .0314948
913.433 .0314762
914.081 .0314576
914.728 .0314392
915.375 .0314208
916.021 .0314027
916.668 .0313848
917.313 .0313670
917.959 .0313493
918.604 .0313318
919.248 .0313143
919.892 .0312968
920.536 .0312792
921.180 .0312615
921.823 .0312437
922.465 .0312257
923.108 .0312076
923.750 .0311892
924.391 .0311706
925.032 .0311518
925.673 .0311326
926.313 .0311131
926.953 .0310932
927.593 .0310730
928.232 .0310526
928.871 .0310319
929.510 .0310109
930.148 .0309899
930.786 .0309688
931.423 .0309475
932.060 .0309260
932.697 .0309045
933.333 .0308828
933.969 .0308610
934.604 .0308392
935.239 .0308174
935.874 .0307957
936.508 .0307741
937.142 .0307526
937.776 .0307314
938.409 .0307104
939.042 .0306898
939.674 .0306696
940.306 .0306499
940.938 .0306307
941.569 .0306120
942.200 .0305940
942.830 .0305766
943.460 .0305597
944.090 .0305434
944.720 .0305277
945.349 .0305124
945.977 .0304977
946.606 .0304834
947.233 .0304697
947.861 .0304563
948.488 .0304435
949.115 .0304311
949.741 .0304191
950.367 .0304076
950.993 .0303963
951.618 .0303853
952.243 .0303745
952.868 .0303638
953.492 .0303534
954.115 .0303432
954.739 .0303331
955.362 .0303233
955.984 .0303137
956.607 .0303042
957.229 .0302950
957.850 .0302860
958.471 .0302772
959.092 .0302686
959.713 .0302602
960.333 .0302520
960.952 .0302441
961.572 .0302366
962.191 .0302294
962.809 .0302225
963.428 .0302160
964.045 .0302097
964.663 .0302035
965.280 .0301975
965.897 .0301914
966.513 .0301851
967.129 .0301787
967.745 .0301719
968.361 .0301648
968.976 .0301575
969.590 .0301498
970.205 .0301419
970.818 .0301336
971.432 .0301251
972.045 .0301162
972.658 .0301070
973.271 .0300973
973.883 .0300873
974.495 .0300769
975.106 .0300661
975.717 .0300550
976.328 .0300435
976.938 .0300318
977.548 .0300200
978.158 .0300080
978.768 .0299895
979.377 .0299777
979.985 .0299658
980.594 .0299538
981.202 .0299418
981.809 .0299298
982.417 .0299180
983.024 .0299066
983.631 .0298957
984.237 .0298855
984.843 .0298761
985.449 .0298677
986.054 .0298602
986.659 .0298536
987.264 .0298530
987.868 .0298475
988.472 .0298426
989.076 .0298383
989.679 .0298344
990.282 .0298310
990.885 .0298280
991.487 .0298255
992.090 .0298233
992.691 .0298215
993.293 .0298199
993.894 .0298182
994.495 .0298163
995.095 .0298139
995.696 .0298109
996.296 .0298073
996.895 .0298029
997.494 .0297979
998.093 .0297922
998.692 .0297860
999.291 .0297793
999.889 .0297720
1000.487 .0297642
1001.084 .0297558
1001.681 .0297468
1002.278 .0297370
1002.875 .0297264
1003.471 .0297150
1004.067 .0297030
1004.663 .0296903
1005.258 .0296772
1005.854 .0296638
1006.449 .0296502
1007.043 .0296364
1007.638 .0296225
1008.232 .0296087
1008.826 .0295949
1009.419 .0295812
1010.012 .0295676
1010.605 .0295543
1011.198 .0295413
1011.791 .0295288
1012.383 .0295168
1012.975 .0295055
1013.566 .0294949
1014.158 .0294849
1014.749 .0294757
1015.340 .0294671
1015.931 .0294591
1016.521 .0294517
1017.111 .0294447
1017.701 .0294381
1018.291 .0294318
1018.880 .0294259
1019.470 .0294202
1020.059 .0294150
1020.647 .0294101
1021.236 .0294057
1021.824 .0294017
1022.412 .0293983
1023.000 .0293953
1023.588 .0293927
1024.175 .0293905
1024.762 .0293887
1025.349 .0293871
1025.936 .0293858
1026.523 .0293848
1027.109 .0293840
1027.695 .0293835
1028.281 .0293832
1028.867 .0293833
1029.452 .0293836
1030.038 .0293842
1030.623 .0293849
1031.208 .0293856
1031.792 .0293864
1032.377 .0293871
1032.961 .0293878
1033.546 .0293885
1034.130 .0293892
1034.714 .0293900
1035.297 .0293908
1035.881 .0293918
1036.464 .0293928
1037.047 .0293940
1037.630 .0293953
1038.213 .0293965
1038.796 .0293977
1039.378 .0293988
1039.961 .0293997
1040.543 .0294004
1041.125 .0294009
1041.707 .0294012
1042.289 .0294012
1042.871 .0294010
1043.452 .0294005
1044.034 .0293998
1044.615 .0293987
1045.196 .0293972
1045.777 .0293952
1046.358 .0293926
1046.939 .0293895
1047.520 .0293858
1048.101 .0293816
1048.681 .0293769
1049.262 .0293718
1049.842 .0293665
1050.422 .0293610
1051.002 .0293554
1051.582 .0293497
1052.162 .0293440
1052.742 .0293381
1053.322 .0293320
1053.902 .0293257
1054.482 .0293192
1055.061 .0293127
1055.641 .0293062
1056.220 .0292999
1056.800 .0292942
1057.379 .0292890
1057.958 .0292847
1058.538 .0292809
1059.117 .0292779
1059.696 .0292753
1060.275 .0292733
1060.854 .0292716
1061.433 .0292704
1062.012 .0292696
1062.592 .0292694
1063.171 .0292699
1063.750 .0292712
1064.329 .0292732
1064.908 .0292761
1065.487 .0292795
1066.066 .0292833
1066.645 .0292872
1067.224 .0292911
1067.803 .0292948
1068.382 .0292983
1068.961 .0293017
1069.540 .0293049
1070.119 .0293081
1070.698 .0293112
1071.278 .0293141
1071.857 .0293168
1072.436 .0293188
1073.016 .0293201
1073.595 .0293203
1074.175 .0293195
1074.754 .0293174
1075.334 .0293143
1075.913 .0293102
1076.493 .0293053
1077.073 .0292997
1077.653 .0292933
1078.233 .0292863
1078.813 .0292786
1079.393 .0292701
1079.974 .0292608
1080.554 .0292507
1081.135 .0292399
1081.716 .0292287
1082.296 .0292171
1082.877 .0292056
1083.458 .0291944
1084.040 .0291838
1084.621 .0291738
1085.202 .0291645
1085.784 .0291560
1086.366 .0291483
1086.948 .0291414
1087.530 .0291352
1088.112 .0291298
1088.695 .0291252
1089.277 .0291214
1089.860 .0291184
1090.443 .0291161
1091.026 .0291144
1091.610 .0291132
1092.193 .0291126
1092.777 .0291123
1093.361 .0291124
1093.946 .0291128
1094.530 .0291138
1095.115 .0291153
1095.700 .0291173
1096.285 .0291198
1096.871 .0291229
1097.456 .0291264
1098.042 .0291301
1098.628 .0291340
1099.215 .0291380
1099.802 .0291419
1100.389 .0291457
1100.976 .0291494
1101.564 .0291531
1102.152 .0291568
1102.740 .0291603
1103.329 .0291638
1103.917 .0291671
1104.507 .0291702
1105.096 .0291732
1105.686 .0291761
1106.276 .0291790
1106.867 .0291821
1107.457 .0291859
1108.049 .0291904
1108.640 .0291959
1109.232 .0292024
1109.825 .0292097
1110.417 .0292176
1111.010 .0292260
1111.604 .0292344
1112.198 .0292429
1112.792 .0292516
1113.387 .0292605
1113.982 .0292698
1114.577 .0292796
1115.173 .0292902
1115.769 .0293018
1116.366 .0293145
1116.963 .0293282
1117.561 .0293428
1118.159 .0293585
1118.758 .0293753
1119.357 .0293932
1119.957 .0294127
1120.557 .0294339
1121.157 .0294569
1121.758 .0294819
1122.360 .0295086
1122.962 .0295370
1123.564 .0295668
1124.167 .0295781
1124.771 .0296097
1125.375 .0296421
1125.980 .0296753
1126.585 .0297093
1127.191 .0297440
1127.797 .0297796
1128.404 .0298161
1129.012 .0298535
1129.620 .0298917
1130.229 .0299306
1130.838 .0299702
1131.448 .0300105
1132.058 .0300513
1132.669 .0301139
1133.281 .0301546
1133.894 .0301933
1134.507 .0302406
1135.120 .0302778
1135.735 .0303062
1136.350 .0303266
1136.965 .0304587
1137.582 .0304875
1138.199 .0305120
1138.816 .0305378
1139.435 .0305703
1140.054 .0306001
1140.674 .0306223
1141.294 .0306283
1141.916 .0306023
1142.538 .0308623
1143.160 .0306252
1143.784 .0304263
1144.408 .0302541
1145.033 .0297955
