Measurement Sequence started on: 14-45-04-498
Integration time: 36
Scans to Average: 2 
>>>>>Begin Spectral Data<<<<<
433.946 .0387404
434.870 .0467380
435.793 .0411090
436.715 .0411261
437.635 .0406302
438.555 .0408119
439.473 .0406188
440.389 .0402569
441.305 .0401027
442.219 .0399469
443.132 .0402060
444.044 .0397867
444.954 .0396597
445.863 .0395272
446.771 .0394160
447.678 .0392902
448.584 .0391690
449.488 .0390618
450.391 .0389580
451.293 .0388581
452.194 .0387627
453.094 .0386717
453.992 .0385860
454.890 .0385048
455.786 .0384272
456.681 .0383526
457.575 .0382795
458.468 .0382070
459.360 .0381342
460.250 .0380615
461.140 .0379889
462.028 .0379170
462.915 .0378467
463.801 .0377785
464.687 .0377132
465.571 .0376512
466.454 .0375921
467.335 .0375353
468.216 .0374801
469.096 .0374256
469.975 .0373711
470.853 .0373160
471.729 .0372604
472.605 .0372047
473.479 .0371497
474.353 .0370962
475.226 .0370447
476.097 .0369957
476.968 .0369494
477.838 .0369054
478.706 .0368634
479.574 .0368228
480.441 .0367833
481.306 .0367448
482.171 .0367074
483.035 .0366712
483.898 .0366368
484.760 .0366045
485.621 .0365745
486.481 .0365467
487.340 .0365208
488.198 .0364964
489.055 .0364728
489.912 .0364495
490.767 .0364259
491.622 .0363879
492.476 .0363617
493.329 .0363340
494.180 .0363047
495.032 .0362736
495.882 .0362402
496.731 .0362041
497.580 .0361653
498.427 .0361232
499.274 .0360776
500.120 .0360464
500.965 .0359963
501.809 .0359434
502.653 .0358882
503.495 .0358314
504.337 .0357736
505.178 .0357152
506.018 .0356567
506.858 .0355988
507.696 .0355419
508.534 .0354870
509.371 .0354345
510.208 .0353851
511.043 .0353396
511.878 .0352985
512.712 .0352618
513.545 .0352299
514.377 .0352023
515.209 .0351782
516.040 .0351565
516.870 .0351359
517.699 .0351150
518.528 .0350929
519.356 .0350687
520.183 .0350416
521.010 .0350114
521.836 .0349776
522.661 .0349399
523.485 .0348984
524.309 .0348525
525.132 .0348020
525.954 .0347460
526.776 .0346842
527.597 .0346163
528.417 .0345421
529.237 .0344625
530.056 .0343785
530.874 .0342917
531.692 .0342040
532.508 .0341172
533.325 .0340334
534.140 .0339543
534.955 .0338812
535.770 .0338145
536.583 .0337545
537.397 .0337010
538.209 .0336535
539.021 .0336116
539.832 .0335755
540.643 .0335450
541.453 .0335202
542.262 .0335012
543.071 .0334881
543.879 .0334807
544.687 .0334784
545.494 .0334803
546.300 .0334847
547.106 .0334903
547.911 .0334955
548.716 .0334986
549.520 .0334986
550.323 .0334949
551.126 .0334871
551.929 .0334751
552.731 .0334594
553.532 .0334405
554.332 .0334190
555.133 .0333954
555.932 .0333701
556.731 .0333430
557.530 .0333144
558.328 .0332843
559.125 .0332526
559.922 .0332196
560.719 .0331854
561.515 .0331505
562.310 .0331153
563.105 .0330803
563.899 .0330460
564.693 .0330124
565.487 .0329798
566.280 .0329485
567.072 .0329181
567.864 .0328887
568.655 .0328601
569.446 .0328322
570.236 .0328045
571.026 .0327768
571.816 .0327487
572.605 .0327201
573.393 .0326908
574.181 .0326606
574.969 .0326295
575.756 .0325976
576.543 .0325650
577.329 .0325318
578.115 .0324982
578.900 .0324645
579.685 .0324308
580.469 .0323971
581.253 .0323637
582.036 .0323306
582.820 .0322978
583.602 .0322655
584.384 .0322338
585.166 .0322026
585.947 .0321720
586.728 .0321424
587.509 .0321139
588.289 .0320868
589.069 .0320611
589.848 .0320369
590.627 .0320141
591.405 .0319924
592.183 .0319717
592.961 .0319517
593.738 .0319321
594.515 .0319127
595.291 .0318934
596.067 .0318743
596.843 .0318554
597.618 .0318367
598.393 .0318089
599.167 .0317908
599.941 .0317728
600.715 .0317549
601.488 .0317371
602.261 .0317193
603.034 .0317014
603.806 .0316836
604.578 .0316658
605.349 .0316481
606.121 .0316306
606.891 .0316226
607.662 .0316056
608.432 .0315888
609.201 .0315724
609.971 .0315564
610.740 .0315408
611.508 .0315257
612.277 .0315111
613.045 .0314970
613.812 .0314834
614.579 .0314702
615.346 .0314572
616.113 .0314445
616.879 .0314319
617.645 .0314192
618.411 .0314066
619.176 .0313938
619.941 .0313808
620.705 .0313675
621.470 .0313539
622.233 .0313399
622.997 .0313255
623.760 .0313106
624.523 .0312953
625.286 .0312795
626.048 .0312632
626.810 .0312466
627.572 .0312296
628.333 .0312123
629.095 .0311946
629.855 .0311765
630.616 .0311582
631.376 .0311395
632.136 .0311206
632.895 .0311015
633.655 .0310823
634.414 .0310629
635.172 .0310435
635.931 .0310238
636.689 .0310041
637.447 .0309841
638.204 .0309639
638.962 .0309437
639.718 .0309235
640.475 .0309034
641.231 .0308835
641.988 .0308639
642.743 .0308446
643.499 .0308257
644.254 .0308071
645.009 .0307888
645.764 .0307708
646.518 .0307530
647.272 .0307356
648.026 .0307185
648.780 .0307019
649.533 .0306857
650.286 .0306700
651.039 .0306549
651.792 .0306403
652.544 .0306262
653.296 .0306126
654.048 .0305997
654.799 .0305872
655.550 .0305753
656.301 .0305639
657.052 .0305529
657.802 .0305424
658.552 .0305321
659.302 .0305221
660.052 .0305123
660.801 .0305026
661.550 .0304930
662.299 .0304834
663.048 .0304739
663.796 .0304643
664.544 .0304547
665.292 .0304450
666.040 .0304351
666.787 .0304250
667.534 .0304146
668.281 .0304040
669.028 .0303932
669.774 .0303821
670.521 .0303709
671.266 .0303595
672.012 .0303481
672.758 .0303366
673.503 .0303252
674.248 .0303138
674.992 .0303024
675.737 .0302909
676.481 .0302794
677.225 .0302678
677.969 .0302560
678.712 .0302441
679.455 .0302320
680.199 .0302198
680.941 .0302074
681.684 .0301949
682.426 .0301823
683.168 .0301696
683.910 .0301568
684.652 .0301439
685.393 .0301309
686.134 .0301178
686.875 .0301047
687.616 .0300915
688.356 .0300783
689.097 .0300651
689.837 .0300520
690.576 .0300390
691.316 .0300262
692.055 .0300135
692.794 .0300010
693.533 .0299887
694.272 .0299767
695.010 .0299649
695.748 .0299534
696.486 .0299422
697.224 .0299311
697.962 .0299203
698.699 .0299096
699.436 .0298990
700.173 .0298885
700.909 .0298781
701.646 .0298677
702.382 .0298574
703.118 .0298472
703.853 .0298370
704.589 .0298269
705.324 .0298167
706.059 .0298064
706.794 .0297960
707.529 .0297854
708.263 .0297747
708.997 .0297637
709.731 .0297525
710.465 .0297412
711.198 .0297297
711.931 .0297181
712.664 .0297063
713.397 .0296943
714.130 .0296823
714.862 .0296700
715.594 .0296576
716.326 .0296451
717.058 .0296324
717.789 .0296196
718.520 .0296068
719.251 .0295939
719.982 .0295810
720.713 .0295681
721.443 .0295551
722.173 .0295422
722.903 .0295292
723.633 .0295162
724.362 .0295033
725.091 .0294903
725.820 .0294774
726.549 .0294644
727.278 .0294515
728.006 .0294385
728.734 .0294256
729.462 .0294127
730.190 .0293999
730.917 .0293872
731.644 .0293747
732.371 .0293624
733.098 .0293504
733.825 .0293387
734.551 .0293272
735.277 .0293160
736.003 .0293051
736.728 .0292944
737.454 .0292840
738.179 .0292739
738.904 .0292642
739.629 .0292548
740.353 .0292457
741.077 .0292370
741.801 .0292284
742.525 .0292201
743.249 .0292118
743.972 .0292036
744.695 .0291952
745.418 .0291867
746.141 .0291780
746.863 .0291690
747.585 .0291598
748.307 .0291503
749.029 .0291404
749.750 .0291301
750.472 .0291193
751.193 .0291081
751.913 .0290965
752.634 .0290845
753.354 .0290720
754.074 .0290593
754.794 .0290463
755.514 .0290331
756.233 .0290197
756.952 .0290062
757.671 .0289927
758.390 .0289793
759.108 .0289659
759.826 .0289528
760.544 .0289400
761.262 .0289276
761.979 .0289156
762.697 .0289041
763.414 .0288930
764.130 .0288822
764.847 .0288717
765.563 .0288615
766.279 .0288515
766.995 .0288418
767.710 .0288323
768.426 .0288231
769.141 .0288142
769.855 .0288055
770.570 .0287971
771.284 .0287888
771.998 .0287806
772.712 .0287725
773.426 .0287644
774.139 .0287562
774.852 .0287481
775.565 .0287399
776.277 .0287317
776.990 .0287235
777.702 .0287152
778.414 .0287070
779.125 .0286988
779.836 .0286907
780.547 .0286827
781.258 .0286750
781.969 .0286674
782.679 .0286600
783.389 .0286496
784.099 .0286425
784.808 .0286354
785.517 .0286283
786.226 .0286213
786.935 .0286143
787.643 .0286073
788.352 .0286005
789.060 .0285938
789.767 .0285871
790.475 .0285805
791.182 .0285739
791.889 .0285703
792.595 .0285635
793.301 .0285566
794.008 .0285495
794.713 .0285424
795.419 .0285352
796.124 .0285279
796.829 .0285207
797.534 .0285134
798.238 .0285062
798.942 .0284989
799.646 .0284917
800.350 .0284846
801.053 .0284775
801.756 .0284705
802.459 .0284636
803.162 .0284568
803.864 .0284500
804.566 .0284433
805.267 .0284365
805.969 .0284296
806.670 .0284227
807.371 .0284155
808.071 .0284083
808.772 .0284009
809.472 .0283933
810.171 .0283855
810.871 .0283775
811.570 .0283691
812.269 .0283603
812.967 .0283511
813.666 .0283414
814.364 .0283312
815.061 .0283204
815.759 .0283092
816.456 .0282974
817.153 .0282852
817.849 .0282724
818.545 .0282591
819.241 .0282453
819.937 .0282310
820.632 .0282163
821.327 .0282013
822.022 .0281859
822.717 .0281703
823.411 .0281545
824.105 .0281386
824.798 .0281227
825.491 .0281068
826.184 .0280909
826.877 .0280751
827.569 .0280595
828.261 .0280441
828.953 .0280289
829.645 .0280141
830.336 .0279997
831.027 .0279856
831.717 .0279719
832.407 .0279587
833.097 .0279459
833.787 .0279335
834.476 .0279215
835.165 .0279099
835.854 .0278986
836.542 .0278878
837.230 .0278774
837.918 .0278672
838.605 .0278574
839.292 .0278478
839.979 .0278384
840.665 .0278292
841.352 .0278201
842.037 .0278110
842.723 .0278020
843.408 .0277931
844.093 .0277842
844.777 .0277753
845.462 .0277664
846.145 .0277575
846.829 .0277486
847.512 .0277396
848.195 .0277305
848.878 .0277213
849.560 .0277120
850.242 .0277026
850.923 .0276930
851.605 .0276833
852.286 .0276735
852.966 .0276636
853.646 .0276536
854.326 .0276433
855.006 .0276329
855.685 .0276224
856.364 .0276116
857.043 .0276007
857.721 .0275896
858.399 .0275785
859.077 .0275673
859.754 .0275562
860.431 .0275451
861.107 .0275340
861.784 .0275231
862.459 .0275122
863.135 .0275014
863.810 .0274907
864.485 .0274802
865.160 .0274698
865.834 .0274597
866.508 .0274499
867.181 .0274405
867.854 .0274314
868.527 .0274226
869.199 .0274143
869.872 .0274062
870.543 .0273983
871.215 .0273907
871.886 .0273832
872.557 .0273759
873.227 .0273686
873.897 .0273614
874.567 .0273543
875.236 .0273472
875.905 .0273402
876.573 .0273331
877.242 .0273259
877.909 .0273186
878.577 .0273110
879.244 .0273033
879.911 .0272953
880.577 .0272870
881.243 .0272785
881.909 .0272698
882.575 .0272610
883.240 .0272520
883.904 .0272430
884.569 .0272339
885.232 .0272248
885.896 .0272156
886.559 .0272065
887.222 .0271974
887.885 .0271884
888.547 .0271795
889.208 .0271708
889.870 .0271623
890.531 .0271539
891.192 .0271458
891.852 .0271378
892.512 .0271300
893.171 .0271223
893.830 .0271147
894.489 .0271072
895.148 .0270998
895.806 .0270926
896.464 .0270854
897.121 .0270782
897.778 .0270712
898.434 .0270642
899.091 .0270531
899.747 .0270462
900.402 .0270392
901.057 .0270322
901.712 .0270250
902.366 .0270176
903.020 .0270100
903.674 .0270021
904.327 .0269940
904.980 .0269856
905.633 .0269769
906.285 .0269679
906.936 .0269587
907.588 .0269534
908.239 .0269436
908.889 .0269334
909.540 .0269228
910.190 .0269117
910.839 .0269002
911.488 .0268884
912.137 .0268762
912.785 .0268637
913.433 .0268510
914.081 .0268381
914.728 .0268249
915.375 .0268115
916.021 .0267977
916.668 .0267835
917.313 .0267688
917.959 .0267536
918.604 .0267380
919.248 .0267218
919.892 .0267053
920.536 .0266883
921.180 .0266709
921.823 .0266533
922.465 .0266352
923.108 .0266168
923.750 .0265981
924.391 .0265790
925.032 .0265596
925.673 .0265400
926.313 .0265202
926.953 .0265002
927.593 .0264801
928.232 .0264600
928.871 .0264398
929.510 .0264197
930.148 .0263995
930.786 .0263793
931.423 .0263592
932.060 .0263391
932.697 .0263190
933.333 .0262991
933.969 .0262791
934.604 .0262593
935.239 .0262396
935.874 .0262201
936.508 .0262007
937.142 .0261816
937.776 .0261628
938.409 .0261442
939.042 .0261261
939.674 .0261084
940.306 .0260912
940.938 .0260744
941.569 .0260579
942.200 .0260419
942.830 .0260262
943.460 .0260109
944.090 .0259959
944.720 .0259814
945.349 .0259672
945.977 .0259535
946.606 .0259402
947.233 .0259272
947.861 .0259147
948.488 .0259025
949.115 .0258906
949.741 .0258790
950.367 .0258677
950.993 .0258567
951.618 .0258459
952.243 .0258353
952.868 .0258250
953.492 .0258148
954.115 .0258049
954.739 .0257952
955.362 .0257857
955.984 .0257763
956.607 .0257672
957.229 .0257583
957.850 .0257497
958.471 .0257413
959.092 .0257332
959.713 .0257253
960.333 .0257177
960.952 .0257104
961.572 .0257034
962.191 .0256967
962.809 .0256904
963.428 .0256845
964.045 .0256791
964.663 .0256741
965.280 .0256695
965.897 .0256654
966.513 .0256616
967.129 .0256582
967.745 .0256551
968.361 .0256522
968.976 .0256496
969.590 .0256473
970.205 .0256453
970.818 .0256435
971.432 .0256419
972.045 .0256405
972.658 .0256391
973.271 .0256376
973.883 .0256361
974.495 .0256344
975.106 .0256327
975.717 .0256309
976.328 .0256291
976.938 .0256273
977.548 .0256256
978.158 .0256239
978.768 .0256203
979.377 .0256182
979.985 .0256158
980.594 .0256132
981.202 .0256102
981.809 .0256070
982.417 .0256036
983.024 .0256001
983.631 .0255966
984.237 .0255931
984.843 .0255896
985.449 .0255861
986.054 .0255824
986.659 .0255787
987.264 .0255771
987.868 .0255732
988.472 .0255694
989.076 .0255656
989.679 .0255619
990.282 .0255584
990.885 .0255552
991.487 .0255523
992.090 .0255495
992.691 .0255468
993.293 .0255440
993.894 .0255412
994.495 .0255382
995.095 .0255350
995.696 .0255316
996.296 .0255280
996.895 .0255243
997.494 .0255204
998.093 .0255163
998.692 .0255120
999.291 .0255073
999.889 .0255023
1000.487 .0254969
1001.084 .0254911
1001.681 .0254850
1002.278 .0254784
1002.875 .0254717
1003.471 .0254649
1004.067 .0254579
1004.663 .0254509
1005.258 .0254437
1005.854 .0254364
1006.449 .0254288
1007.043 .0254210
1007.638 .0254129
1008.232 .0254045
1008.826 .0253960
1009.419 .0253875
1010.012 .0253791
1010.605 .0253709
1011.198 .0253629
1011.791 .0253553
1012.383 .0253481
1012.975 .0253411
1013.566 .0253344
1014.158 .0253281
1014.749 .0253221
1015.340 .0253164
1015.931 .0253112
1016.521 .0253065
1017.111 .0253023
1017.701 .0252987
1018.291 .0252954
1018.880 .0252926
1019.470 .0252899
1020.059 .0252874
1020.647 .0252850
1021.236 .0252825
1021.824 .0252799
1022.412 .0252773
1023.000 .0252747
1023.588 .0252721
1024.175 .0252696
1024.762 .0252671
1025.349 .0252646
1025.936 .0252620
1026.523 .0252594
1027.109 .0252566
1027.695 .0252536
1028.281 .0252504
1028.867 .0252470
1029.452 .0252434
1030.038 .0252398
1030.623 .0252362
1031.208 .0252326
1031.792 .0252290
1032.377 .0252254
1032.961 .0252218
1033.546 .0252181
1034.130 .0252143
1034.714 .0252104
1035.297 .0252065
1035.881 .0252026
1036.464 .0251987
1037.047 .0251949
1037.630 .0251913
1038.213 .0251877
1038.796 .0251842
1039.378 .0251808
1039.961 .0251773
1040.543 .0251739
1041.125 .0251704
1041.707 .0251668
1042.289 .0251632
1042.871 .0251595
1043.452 .0251558
1044.034 .0251520
1044.615 .0251483
1045.196 .0251446
1045.777 .0251409
1046.358 .0251371
1046.939 .0251334
1047.520 .0251296
1048.101 .0251258
1048.681 .0251220
1049.262 .0251182
1049.842 .0251143
1050.422 .0251105
1051.002 .0251067
1051.582 .0251028
1052.162 .0250988
1052.742 .0250948
1053.322 .0250908
1053.902 .0250868
1054.482 .0250827
1055.061 .0250788
1055.641 .0250750
1056.220 .0250713
1056.800 .0250678
1057.379 .0250645
1057.958 .0250613
1058.538 .0250582
1059.117 .0250552
1059.696 .0250523
1060.275 .0250494
1060.854 .0250466
1061.433 .0250439
1062.012 .0250413
1062.592 .0250388
1063.171 .0250365
1063.750 .0250344
1064.329 .0250324
1064.908 .0250303
1065.487 .0250282
1066.066 .0250260
1066.645 .0250236
1067.224 .0250210
1067.803 .0250184
1068.382 .0250157
1068.961 .0250131
1069.540 .0250106
1070.119 .0250084
1070.698 .0250064
1071.278 .0250047
1071.857 .0250032
1072.436 .0250019
1073.016 .0250008
1073.595 .0249998
1074.175 .0249990
1074.754 .0249986
1075.334 .0249985
1075.913 .0249988
1076.493 .0249996
1077.073 .0250009
1077.653 .0250026
1078.233 .0250047
1078.813 .0250071
1079.393 .0250096
1079.974 .0250123
1080.554 .0250151
1081.135 .0250180
1081.716 .0250212
1082.296 .0250247
1082.877 .0250287
1083.458 .0250331
1084.040 .0250381
1084.621 .0250437
1085.202 .0250497
1085.784 .0250562
1086.366 .0250629
1086.948 .0250698
1087.530 .0250767
1088.112 .0250837
1088.695 .0250907
1089.277 .0250978
1089.860 .0251047
1090.443 .0251116
1091.026 .0251183
1091.610 .0251247
1092.193 .0251304
1092.777 .0251356
1093.361 .0251399
1093.946 .0251433
1094.530 .0251456
1095.115 .0251469
1095.700 .0251473
1096.285 .0251468
1096.871 .0251456
1097.456 .0251439
1098.042 .0251414
1098.628 .0251385
1099.215 .0251351
1099.802 .0251312
1100.389 .0251269
1100.976 .0251223
1101.564 .0251174
1102.152 .0251124
1102.740 .0251075
1103.329 .0251025
1103.917 .0250977
1104.507 .0250933
1105.096 .0250892
1105.686 .0250854
1106.276 .0250821
1106.867 .0250795
1107.457 .0250777
1108.049 .0250768
1108.640 .0250770
1109.232 .0250785
1109.825 .0250813
1110.417 .0250854
1111.010 .0250910
1111.604 .0250982
1112.198 .0251066
1112.792 .0251163
1113.387 .0251272
1113.982 .0251393
1114.577 .0251522
1115.173 .0251659
1115.769 .0251803
1116.366 .0251950
1116.963 .0252100
1117.561 .0252250
1118.159 .0252400
1118.758 .0252547
1119.357 .0252689
1119.957 .0252824
1120.557 .0252949
1121.157 .0253064
1121.758 .0253167
1122.360 .0253258
1122.962 .0253338
1123.564 .0253405
1124.167 .0253479
1124.771 .0253529
1125.375 .0253569
1125.980 .0253602
1126.585 .0253628
1127.191 .0253652
1127.797 .0253675
1128.404 .0253700
1129.012 .0253729
1129.620 .0253765
1130.229 .0253814
1130.838 .0253878
1131.448 .0253960
1132.058 .0254068
1132.669 .0254205
1133.281 .0254382
1133.894 .0254601
1134.507 .0254824
1135.120 .0255156
1135.735 .0255547
1136.350 .0255937
1136.965 .0254043
1137.582 .0254427
1138.199 .0254918
1138.816 .0255534
1139.435 .0256201
1140.054 .0257025
1140.674 .0257979
1141.294 .0259049
1141.916 .0260246
1142.538 .0260355
1143.160 .0263309
1143.784 .0264894
1144.408 .0264777
1145.033 .0267728
