Measurement Sequence started on: 14-45-04-498
Integration time: 36
Scans to Average: 2 
>>>>>Begin Spectral Data<<<<<
433.946 .0446492
434.870 .0505408
435.793 .0443712
436.715 .0432891
437.635 .0418429
438.555 .0424805
439.473 .0418558
440.389 .0411792
441.305 .0407768
442.219 .0404420
443.132 .0411989
444.044 .0406068
444.954 .0403384
445.863 .0401260
446.771 .0399888
447.678 .0398171
448.584 .0396770
449.488 .0395709
450.391 .0394839
451.293 .0394118
452.194 .0393508
453.094 .0392986
453.992 .0392521
454.890 .0392082
455.786 .0391646
456.681 .0391201
457.575 .0390730
458.468 .0390230
459.360 .0389696
460.250 .0389133
461.140 .0388543
462.028 .0387927
462.915 .0387291
463.801 .0386636
464.687 .0385965
465.571 .0385282
466.454 .0384590
467.335 .0383895
468.216 .0383200
469.096 .0382513
469.975 .0381840
470.853 .0381187
471.729 .0380559
472.605 .0379964
473.479 .0379407
474.353 .0378892
475.226 .0378411
476.097 .0377962
476.968 .0377536
477.838 .0377121
478.706 .0376714
479.574 .0376309
480.441 .0375910
481.306 .0375519
482.171 .0375140
483.035 .0374779
483.898 .0374434
484.760 .0374109
485.621 .0373799
486.481 .0373503
487.340 .0373215
488.198 .0372932
489.055 .0372653
489.912 .0372384
490.767 .0372126
491.622 .0371830
492.476 .0371624
493.329 .0371435
494.180 .0371254
495.032 .0371072
495.882 .0370879
496.731 .0370664
497.580 .0370420
498.427 .0370144
499.274 .0369832
500.120 .0369582
500.965 .0369215
501.809 .0368816
502.653 .0368384
503.495 .0367917
504.337 .0367413
505.178 .0366869
506.018 .0366286
506.858 .0365665
507.696 .0365013
508.534 .0364339
509.371 .0363655
510.208 .0362973
511.043 .0362305
511.878 .0361663
512.712 .0361054
513.545 .0360485
514.377 .0359960
515.209 .0359481
516.040 .0359047
516.870 .0358653
517.699 .0358293
518.528 .0357965
519.356 .0357664
520.183 .0357382
521.010 .0357111
521.836 .0356844
522.661 .0356575
523.485 .0356296
524.309 .0356000
525.132 .0355683
525.954 .0355336
526.776 .0354948
527.597 .0354510
528.417 .0354010
529.237 .0353444
530.056 .0352809
530.874 .0352103
531.692 .0351332
532.508 .0350500
533.325 .0349618
534.140 .0348701
534.955 .0347769
535.770 .0346840
536.583 .0345928
537.397 .0345049
538.209 .0344217
539.021 .0343437
539.832 .0342717
540.643 .0342056
541.453 .0341455
542.262 .0340905
543.071 .0340400
543.879 .0339936
544.687 .0339516
545.494 .0339141
546.300 .0338818
547.106 .0338549
547.911 .0338336
548.716 .0338175
549.520 .0338059
550.323 .0337978
551.126 .0337916
551.929 .0337857
552.731 .0337786
553.532 .0337691
554.332 .0337566
555.133 .0337408
555.932 .0337222
556.731 .0337013
557.530 .0336785
558.328 .0336543
559.125 .0336287
559.922 .0336024
560.719 .0335755
561.515 .0335480
562.310 .0335202
563.105 .0334920
563.899 .0334632
564.693 .0334340
565.487 .0334047
566.280 .0333755
567.072 .0333464
567.864 .0333177
568.655 .0332894
569.446 .0332616
570.236 .0332344
571.026 .0332077
571.816 .0331815
572.605 .0331554
573.393 .0331294
574.181 .0331031
574.969 .0330765
575.756 .0330496
576.543 .0330225
577.329 .0329950
578.115 .0329673
578.900 .0329392
579.685 .0329109
580.469 .0328826
581.253 .0328542
582.036 .0328258
582.820 .0327974
583.602 .0327689
584.384 .0327404
585.166 .0327118
585.947 .0326830
586.728 .0326540
587.509 .0326248
588.289 .0325954
589.069 .0325657
589.848 .0325359
590.627 .0325060
591.405 .0324761
592.183 .0324463
592.961 .0324168
593.738 .0323876
594.515 .0323589
595.291 .0323307
596.067 .0323031
596.843 .0322760
597.618 .0322493
598.393 .0322112
599.167 .0321857
599.941 .0321606
600.715 .0321361
601.488 .0321121
602.261 .0320889
603.034 .0320666
603.806 .0320453
604.578 .0320249
605.349 .0320056
606.121 .0319872
606.891 .0319799
607.662 .0319624
608.432 .0319455
609.201 .0319292
609.971 .0319133
610.740 .0318977
611.508 .0318825
612.277 .0318677
613.045 .0318531
613.812 .0318388
614.579 .0318246
615.346 .0318105
616.113 .0317963
616.879 .0317819
617.645 .0317671
618.411 .0317518
619.176 .0317357
619.941 .0317187
620.705 .0317007
621.470 .0316817
622.233 .0316616
622.997 .0316405
623.760 .0316184
624.523 .0315955
625.286 .0315718
626.048 .0315474
626.810 .0315222
627.572 .0314964
628.333 .0314698
629.095 .0314426
629.855 .0314146
630.616 .0313861
631.376 .0313572
632.136 .0313281
632.895 .0312990
633.655 .0312702
634.414 .0312418
635.172 .0312142
635.931 .0311874
636.689 .0311616
637.447 .0311368
638.204 .0311131
638.962 .0310906
639.718 .0310691
640.475 .0310485
641.231 .0310290
641.988 .0310103
642.743 .0309924
643.499 .0309753
644.254 .0309590
645.009 .0309432
645.764 .0309280
646.518 .0309130
647.272 .0308983
648.026 .0308834
648.780 .0308684
649.533 .0308530
650.286 .0308373
651.039 .0308211
651.792 .0308046
652.544 .0307878
653.296 .0307708
654.048 .0307537
654.799 .0307365
655.550 .0307194
656.301 .0307022
657.052 .0306851
657.802 .0306680
658.552 .0306511
659.302 .0306344
660.052 .0306180
660.801 .0306020
661.550 .0305864
662.299 .0305714
663.048 .0305569
663.796 .0305431
664.544 .0305300
665.292 .0305176
666.040 .0305059
666.787 .0304948
667.534 .0304841
668.281 .0304738
669.028 .0304637
669.774 .0304536
670.521 .0304434
671.266 .0304331
672.012 .0304225
672.758 .0304117
673.503 .0304007
674.248 .0303896
674.992 .0303784
675.737 .0303671
676.481 .0303555
677.225 .0303437
677.969 .0303315
678.712 .0303191
679.455 .0303062
680.199 .0302928
680.941 .0302792
681.684 .0302652
682.426 .0302510
683.168 .0302366
683.910 .0302222
684.652 .0302077
685.393 .0301933
686.134 .0301790
686.875 .0301647
687.616 .0301504
688.356 .0301362
689.097 .0301221
689.837 .0301079
690.576 .0300937
691.316 .0300796
692.055 .0300656
692.794 .0300519
693.533 .0300385
694.272 .0300255
695.010 .0300130
695.748 .0300009
696.486 .0299893
697.224 .0299781
697.962 .0299673
698.699 .0299569
699.436 .0299468
700.173 .0299371
700.909 .0299276
701.646 .0299183
702.382 .0299094
703.118 .0299006
703.853 .0298921
704.589 .0298837
705.324 .0298754
706.059 .0298672
706.794 .0298591
707.529 .0298510
708.263 .0298429
708.997 .0298348
709.731 .0298268
710.465 .0298187
711.198 .0298106
711.931 .0298024
712.664 .0297941
713.397 .0297858
714.130 .0297774
714.862 .0297689
715.594 .0297602
716.326 .0297515
717.058 .0297426
717.789 .0297335
718.520 .0297243
719.251 .0297149
719.982 .0297053
720.713 .0296955
721.443 .0296856
722.173 .0296755
722.903 .0296653
723.633 .0296550
724.362 .0296446
725.091 .0296340
725.820 .0296232
726.549 .0296120
727.278 .0296007
728.006 .0295890
728.734 .0295772
729.462 .0295654
730.190 .0295535
730.917 .0295418
731.644 .0295302
732.371 .0295188
733.098 .0295078
733.825 .0294970
734.551 .0294864
735.277 .0294761
736.003 .0294660
736.728 .0294563
737.454 .0294468
738.179 .0294376
738.904 .0294288
739.629 .0294202
740.353 .0294119
741.077 .0294037
741.801 .0293956
742.525 .0293875
743.249 .0293793
743.972 .0293709
744.695 .0293623
745.418 .0293535
746.141 .0293442
746.863 .0293347
747.585 .0293247
748.307 .0293143
749.029 .0293035
749.750 .0292921
750.472 .0292802
751.193 .0292678
751.913 .0292549
752.634 .0292416
753.354 .0292280
754.074 .0292142
754.794 .0292004
755.514 .0291866
756.233 .0291728
756.952 .0291592
757.671 .0291457
758.390 .0291323
759.108 .0291192
759.826 .0291063
760.544 .0290937
761.262 .0290814
761.979 .0290695
762.697 .0290579
763.414 .0290467
764.130 .0290360
764.847 .0290257
765.563 .0290158
766.279 .0290063
766.995 .0289971
767.710 .0289882
768.426 .0289796
769.141 .0289712
769.855 .0289630
770.570 .0289547
771.284 .0289464
771.998 .0289380
772.712 .0289294
773.426 .0289207
774.139 .0289121
774.852 .0289034
775.565 .0288950
776.277 .0288867
776.990 .0288787
777.702 .0288710
778.414 .0288635
779.125 .0288561
779.836 .0288489
780.547 .0288419
781.258 .0288349
781.969 .0288281
782.679 .0288216
783.389 .0288134
784.099 .0288076
784.808 .0288021
785.517 .0287968
786.226 .0287917
786.935 .0287866
787.643 .0287816
788.352 .0287765
789.060 .0287714
789.767 .0287662
790.475 .0287610
791.182 .0287556
791.889 .0287522
792.595 .0287466
793.301 .0287408
794.008 .0287348
794.713 .0287285
795.419 .0287219
796.124 .0287150
796.829 .0287077
797.534 .0287000
798.238 .0286921
798.942 .0286839
799.646 .0286754
800.350 .0286667
801.053 .0286576
801.756 .0286483
802.459 .0286387
803.162 .0286289
803.864 .0286189
804.566 .0286087
805.267 .0285984
805.969 .0285881
806.670 .0285778
807.371 .0285675
808.071 .0285573
808.772 .0285471
809.472 .0285368
810.171 .0285266
810.871 .0285162
811.570 .0285056
812.269 .0284949
812.967 .0284840
813.666 .0284727
814.364 .0284612
815.061 .0284493
815.759 .0284371
816.456 .0284245
817.153 .0284115
817.849 .0283981
818.545 .0283843
819.241 .0283701
819.937 .0283555
820.632 .0283406
821.327 .0283253
822.022 .0283097
822.717 .0282938
823.411 .0282775
824.105 .0282609
824.798 .0282439
825.491 .0282265
826.184 .0282087
826.877 .0281906
827.569 .0281723
828.261 .0281538
828.953 .0281353
829.645 .0281168
830.336 .0280985
831.027 .0280804
831.717 .0280626
832.407 .0280450
833.097 .0280279
833.787 .0280111
834.476 .0279948
835.165 .0279790
835.854 .0279637
836.542 .0279489
837.230 .0279347
837.918 .0279210
838.605 .0279077
839.292 .0278949
839.979 .0278825
840.665 .0278705
841.352 .0278589
842.037 .0278477
842.723 .0278368
843.408 .0278262
844.093 .0278158
844.777 .0278055
845.462 .0277951
846.145 .0277847
846.829 .0277742
847.512 .0277636
848.195 .0277529
848.878 .0277422
849.560 .0277315
850.242 .0277208
850.923 .0277102
851.605 .0276997
852.286 .0276893
852.966 .0276789
853.646 .0276686
854.326 .0276583
855.006 .0276482
855.685 .0276382
856.364 .0276283
857.043 .0276187
857.721 .0276092
858.399 .0276000
859.077 .0275911
859.754 .0275825
860.431 .0275743
861.107 .0275664
861.784 .0275590
862.459 .0275520
863.135 .0275454
863.810 .0275391
864.485 .0275329
865.160 .0275269
865.834 .0275210
866.508 .0275149
867.181 .0275088
867.854 .0275025
868.527 .0274961
869.199 .0274896
869.872 .0274830
870.543 .0274764
871.215 .0274696
871.886 .0274628
872.557 .0274558
873.227 .0274487
873.897 .0274415
874.567 .0274342
875.236 .0274268
875.905 .0274194
876.573 .0274120
877.242 .0274047
877.909 .0273974
878.577 .0273902
879.244 .0273832
879.911 .0273764
880.577 .0273697
881.243 .0273633
881.909 .0273570
882.575 .0273510
883.240 .0273451
883.904 .0273393
884.569 .0273336
885.232 .0273279
885.896 .0273221
886.559 .0273162
887.222 .0273102
887.885 .0273041
888.547 .0272977
889.208 .0272912
889.870 .0272844
890.531 .0272774
891.192 .0272702
891.852 .0272626
892.512 .0272546
893.171 .0272462
893.830 .0272373
894.489 .0272279
895.148 .0272180
895.806 .0272075
896.464 .0271965
897.121 .0271850
897.778 .0271731
898.434 .0271606
899.091 .0271404
899.747 .0271271
900.402 .0271133
901.057 .0270993
901.712 .0270849
902.366 .0270703
903.020 .0270553
903.674 .0270402
904.327 .0270248
904.980 .0270093
905.633 .0269937
906.285 .0269779
906.936 .0269621
907.588 .0269540
908.239 .0269381
908.889 .0269223
909.540 .0269063
910.190 .0268903
910.839 .0268743
911.488 .0268584
912.137 .0268424
912.785 .0268266
913.433 .0268109
914.081 .0267953
914.728 .0267799
915.375 .0267647
916.021 .0267495
916.668 .0267343
917.313 .0267191
917.959 .0267039
918.604 .0266885
919.248 .0266729
919.892 .0266572
920.536 .0266414
921.180 .0266253
921.823 .0266091
922.465 .0265925
923.108 .0265757
923.750 .0265584
924.391 .0265408
925.032 .0265227
925.673 .0265042
926.313 .0264853
926.953 .0264660
927.593 .0264464
928.232 .0264265
928.871 .0264062
929.510 .0263857
930.148 .0263650
930.786 .0263439
931.423 .0263224
932.060 .0263007
932.697 .0262788
933.333 .0262566
933.969 .0262342
934.604 .0262117
935.239 .0261890
935.874 .0261663
936.508 .0261435
937.142 .0261206
937.776 .0260978
938.409 .0260751
939.042 .0260526
939.674 .0260303
940.306 .0260082
940.938 .0259865
941.569 .0259650
942.200 .0259439
942.830 .0259231
943.460 .0259026
944.090 .0258826
944.720 .0258629
945.349 .0258437
945.977 .0258248
946.606 .0258064
947.233 .0257884
947.861 .0257708
948.488 .0257536
949.115 .0257367
949.741 .0257203
950.367 .0257043
950.993 .0256889
951.618 .0256742
952.243 .0256602
952.868 .0256469
953.492 .0256344
954.115 .0256226
954.739 .0256115
955.362 .0256009
955.984 .0255907
956.607 .0255811
957.229 .0255718
957.850 .0255630
958.471 .0255547
959.092 .0255469
959.713 .0255395
960.333 .0255325
960.952 .0255259
961.572 .0255195
962.191 .0255133
962.809 .0255072
963.428 .0255012
964.045 .0254954
964.663 .0254899
965.280 .0254845
965.897 .0254794
966.513 .0254745
967.129 .0254697
967.745 .0254651
968.361 .0254605
968.976 .0254558
969.590 .0254512
970.205 .0254464
970.818 .0254417
971.432 .0254371
972.045 .0254325
972.658 .0254280
973.271 .0254237
973.883 .0254195
974.495 .0254155
975.106 .0254116
975.717 .0254079
976.328 .0254045
976.938 .0254013
977.548 .0253984
978.158 .0253958
978.768 .0253931
979.377 .0253911
979.985 .0253892
980.594 .0253875
981.202 .0253858
981.809 .0253842
982.417 .0253828
983.024 .0253813
983.631 .0253800
984.237 .0253787
984.843 .0253774
985.449 .0253761
986.054 .0253748
986.659 .0253735
987.264 .0253728
987.868 .0253717
988.472 .0253707
989.076 .0253700
989.679 .0253694
990.282 .0253690
990.885 .0253688
991.487 .0253686
992.090 .0253684
992.691 .0253682
993.293 .0253678
993.894 .0253672
994.495 .0253664
995.095 .0253654
995.696 .0253641
996.296 .0253627
996.895 .0253611
997.494 .0253593
998.093 .0253572
998.692 .0253549
999.291 .0253523
999.889 .0253494
1000.487 .0253464
1001.084 .0253432
1001.681 .0253398
1002.278 .0253364
1002.875 .0253330
1003.471 .0253296
1004.067 .0253261
1004.663 .0253225
1005.258 .0253188
1005.854 .0253148
1006.449 .0253107
1007.043 .0253063
1007.638 .0253019
1008.232 .0252974
1008.826 .0252930
1009.419 .0252886
1010.012 .0252843
1010.605 .0252800
1011.198 .0252756
1011.791 .0252712
1012.383 .0252666
1012.975 .0252620
1013.566 .0252573
1014.158 .0252527
1014.749 .0252482
1015.340 .0252439
1015.931 .0252398
1016.521 .0252361
1017.111 .0252326
1017.701 .0252292
1018.291 .0252260
1018.880 .0252228
1019.470 .0252197
1020.059 .0252165
1020.647 .0252135
1021.236 .0252105
1021.824 .0252077
1022.412 .0252050
1023.000 .0252025
1023.588 .0251999
1024.175 .0251973
1024.762 .0251946
1025.349 .0251916
1025.936 .0251884
1026.523 .0251849
1027.109 .0251811
1027.695 .0251771
1028.281 .0251730
1028.867 .0251688
1029.452 .0251645
1030.038 .0251603
1030.623 .0251561
1031.208 .0251520
1031.792 .0251480
1032.377 .0251442
1032.961 .0251404
1033.546 .0251368
1034.130 .0251332
1034.714 .0251296
1035.297 .0251260
1035.881 .0251223
1036.464 .0251185
1037.047 .0251145
1037.630 .0251103
1038.213 .0251061
1038.796 .0251017
1039.378 .0250973
1039.961 .0250928
1040.543 .0250882
1041.125 .0250834
1041.707 .0250784
1042.289 .0250731
1042.871 .0250675
1043.452 .0250615
1044.034 .0250551
1044.615 .0250485
1045.196 .0250416
1045.777 .0250346
1046.358 .0250275
1046.939 .0250203
1047.520 .0250130
1048.101 .0250056
1048.681 .0249980
1049.262 .0249902
1049.842 .0249821
1050.422 .0249737
1051.002 .0249652
1051.582 .0249566
1052.162 .0249481
1052.742 .0249396
1053.322 .0249314
1053.902 .0249234
1054.482 .0249156
1055.061 .0249081
1055.641 .0249007
1056.220 .0248934
1056.800 .0248862
1057.379 .0248791
1057.958 .0248722
1058.538 .0248656
1059.117 .0248593
1059.696 .0248534
1060.275 .0248478
1060.854 .0248426
1061.433 .0248377
1062.012 .0248331
1062.592 .0248288
1063.171 .0248246
1063.750 .0248206
1064.329 .0248168
1064.908 .0248134
1065.487 .0248103
1066.066 .0248078
1066.645 .0248058
1067.224 .0248043
1067.803 .0248032
1068.382 .0248024
1068.961 .0248019
1069.540 .0248016
1070.119 .0248014
1070.698 .0248014
1071.278 .0248016
1071.857 .0248020
1072.436 .0248028
1073.016 .0248040
1073.595 .0248056
1074.175 .0248075
1074.754 .0248096
1075.334 .0248117
1075.913 .0248137
1076.493 .0248155
1077.073 .0248169
1077.653 .0248180
1078.233 .0248188
1078.813 .0248194
1079.393 .0248199
1079.974 .0248204
1080.554 .0248208
1081.135 .0248211
1081.716 .0248211
1082.296 .0248209
1082.877 .0248202
1083.458 .0248191
1084.040 .0248176
1084.621 .0248159
1085.202 .0248142
1085.784 .0248124
1086.366 .0248106
1086.948 .0248089
1087.530 .0248070
1088.112 .0248049
1088.695 .0248021
1089.277 .0247985
1089.860 .0247939
1090.443 .0247883
1091.026 .0247817
1091.610 .0247744
1092.193 .0247667
1092.777 .0247588
1093.361 .0247512
1093.946 .0247438
1094.530 .0247368
1095.115 .0247301
1095.700 .0247237
1096.285 .0247175
1096.871 .0247111
1097.456 .0247046
1098.042 .0246981
1098.628 .0246919
1099.215 .0246861
1099.802 .0246807
1100.389 .0246761
1100.976 .0246721
1101.564 .0246686
1102.152 .0246656
1102.740 .0246630
1103.329 .0246606
1103.917 .0246583
1104.507 .0246562
1105.096 .0246543
1105.686 .0246528
1106.276 .0246520
1106.867 .0246523
1107.457 .0246535
1108.049 .0246557
1108.640 .0246588
1109.232 .0246626
1109.825 .0246670
1110.417 .0246717
1111.010 .0246765
1111.604 .0246813
1112.198 .0246862
1112.792 .0246908
1113.387 .0246955
1113.982 .0247008
1114.577 .0247067
1115.173 .0247135
1115.769 .0247215
1116.366 .0247306
1116.963 .0247410
1117.561 .0247528
1118.159 .0247658
1118.758 .0247801
1119.357 .0247956
1119.957 .0248123
1120.557 .0248302
1121.157 .0248499
1121.758 .0248714
1122.360 .0248951
1122.962 .0249211
1123.564 .0249492
1124.167 .0249569
1124.771 .0249878
1125.375 .0250208
1125.980 .0250559
1126.585 .0250929
1127.191 .0251320
1127.797 .0251732
1128.404 .0252167
1129.012 .0252629
1129.620 .0253118
1130.229 .0253638
1130.838 .0254188
1131.448 .0254764
1132.058 .0255363
1132.669 .0256266
1133.281 .0256893
1133.894 .0257517
1134.507 .0258173
1135.120 .0258805
1135.735 .0259400
1136.350 .0259904
1136.965 .0260562
1137.582 .0261283
1138.199 .0262032
1138.816 .0262821
1139.435 .0263611
1140.054 .0264359
1140.674 .0265029
1141.294 .0265524
1141.916 .0265946
1142.538 .0267326
1143.160 .0267246
1143.784 .0266731
1144.408 .0264800
1145.033 .0266386
