Measurement Sequence started on: 14-45-04-498
Integration time: 36
Scans to Average: 2 
>>>>>Begin Spectral Data<<<<<
433.946 .0515688
434.870 .0476823
435.793 .0414783
436.715 .0414995
437.635 .0414927
438.555 .0420293
439.473 .0414856
440.389 .0412265
441.305 .0411988
442.219 .0411741
443.132 .0416454
444.044 .0413057
444.954 .0412904
445.863 .0412707
446.771 .0412470
447.678 .0411900
448.584 .0411561
449.488 .0411309
450.391 .0411023
451.293 .0410706
452.194 .0410357
453.094 .0409970
453.992 .0409542
454.890 .0409067
455.786 .0408532
456.681 .0407928
457.575 .0407244
458.468 .0406486
459.360 .0405653
460.250 .0404758
461.140 .0403814
462.028 .0402837
462.915 .0401843
463.801 .0400845
464.687 .0399850
465.571 .0398866
466.454 .0397885
467.335 .0396908
468.216 .0395933
469.096 .0394959
469.975 .0393989
470.853 .0393031
471.729 .0392091
472.605 .0391180
473.479 .0390308
474.353 .0389480
475.226 .0388701
476.097 .0387969
476.968 .0387283
477.838 .0386637
478.706 .0386028
479.574 .0385451
480.441 .0384903
481.306 .0384381
482.171 .0383881
483.035 .0383401
483.898 .0382937
484.760 .0382484
485.621 .0382040
486.481 .0381602
487.340 .0381166
488.198 .0380729
489.055 .0380292
489.912 .0379851
490.767 .0379408
491.622 .0378721
492.476 .0378262
493.329 .0377795
494.180 .0377319
495.032 .0376834
495.882 .0376342
496.731 .0375842
497.580 .0375336
498.427 .0374822
499.274 .0374303
500.120 .0374035
500.965 .0373502
501.809 .0372965
502.653 .0372425
503.495 .0371883
504.337 .0371343
505.178 .0370807
506.018 .0370281
506.858 .0369767
507.696 .0369268
508.534 .0368789
509.371 .0368339
510.208 .0367924
511.043 .0367548
511.878 .0367214
512.712 .0366924
513.545 .0366679
514.377 .0366478
515.209 .0366320
516.040 .0366205
516.870 .0366131
517.699 .0366092
518.528 .0366082
519.356 .0366097
520.183 .0366132
521.010 .0366180
521.836 .0366232
522.661 .0366278
523.485 .0366308
524.309 .0366313
525.132 .0366290
525.954 .0366235
526.776 .0366141
527.597 .0366007
528.417 .0365829
529.237 .0365613
530.056 .0365359
530.874 .0365073
531.692 .0364760
532.508 .0364423
533.325 .0364066
534.140 .0363693
534.955 .0363309
535.770 .0362915
536.583 .0362509
537.397 .0362085
538.209 .0361637
539.021 .0361162
539.832 .0360658
540.643 .0360129
541.453 .0359579
542.262 .0359010
543.071 .0358426
543.879 .0357827
544.687 .0357214
545.494 .0356585
546.300 .0355932
547.106 .0355252
547.911 .0354540
548.716 .0353796
549.520 .0353026
550.323 .0352240
551.126 .0351447
551.929 .0350661
552.731 .0349892
553.532 .0349154
554.332 .0348452
555.133 .0347794
555.932 .0347182
556.731 .0346616
557.530 .0346092
558.328 .0345605
559.125 .0345151
559.922 .0344727
560.719 .0344330
561.515 .0343960
562.310 .0343614
563.105 .0343294
563.899 .0342995
564.693 .0342713
565.487 .0342440
566.280 .0342169
567.072 .0341889
567.864 .0341591
568.655 .0341270
569.446 .0340922
570.236 .0340546
571.026 .0340148
571.816 .0339732
572.605 .0339306
573.393 .0338877
574.181 .0338454
574.969 .0338041
575.756 .0337641
576.543 .0337255
577.329 .0336885
578.115 .0336530
578.900 .0336192
579.685 .0335871
580.469 .0335570
581.253 .0335290
582.036 .0335035
582.820 .0334802
583.602 .0334594
584.384 .0334408
585.166 .0334242
585.947 .0334091
586.728 .0333954
587.509 .0333828
588.289 .0333709
589.069 .0333595
589.848 .0333483
590.627 .0333371
591.405 .0333258
592.183 .0333140
592.961 .0333018
593.738 .0332891
594.515 .0332759
595.291 .0332623
596.067 .0332483
596.843 .0332340
597.618 .0332196
598.393 .0331969
599.167 .0331819
599.941 .0331665
600.715 .0331508
601.488 .0331346
602.261 .0331180
603.034 .0331010
603.806 .0330835
604.578 .0330657
605.349 .0330477
606.121 .0330296
606.891 .0330207
607.662 .0330026
608.432 .0329847
609.201 .0329669
609.971 .0329494
610.740 .0329322
611.508 .0329151
612.277 .0328982
613.045 .0328814
613.812 .0328646
614.579 .0328478
615.346 .0328310
616.113 .0328141
616.879 .0327971
617.645 .0327803
618.411 .0327634
619.176 .0327467
619.941 .0327301
620.705 .0327135
621.470 .0326970
622.233 .0326805
622.997 .0326639
623.760 .0326473
624.523 .0326307
625.286 .0326141
626.048 .0325975
626.810 .0325810
627.572 .0325647
628.333 .0325485
629.095 .0325326
629.855 .0325170
630.616 .0325017
631.376 .0324868
632.136 .0324722
632.895 .0324578
633.655 .0324438
634.414 .0324298
635.172 .0324159
635.931 .0324019
636.689 .0323877
637.447 .0323733
638.204 .0323587
638.962 .0323440
639.718 .0323292
640.475 .0323143
641.231 .0322994
641.988 .0322844
642.743 .0322694
643.499 .0322542
644.254 .0322388
645.009 .0322230
645.764 .0322068
646.518 .0321902
647.272 .0321732
648.026 .0321558
648.780 .0321382
649.533 .0321205
650.286 .0321027
651.039 .0320849
651.792 .0320674
652.544 .0320500
653.296 .0320329
654.048 .0320161
654.799 .0319996
655.550 .0319834
656.301 .0319674
657.052 .0319516
657.802 .0319359
658.552 .0319205
659.302 .0319051
660.052 .0318900
660.801 .0318751
661.550 .0318605
662.299 .0318461
663.048 .0318319
663.796 .0318179
664.544 .0318040
665.292 .0317900
666.040 .0317761
666.787 .0317620
667.534 .0317479
668.281 .0317338
669.028 .0317198
669.774 .0317061
670.521 .0316927
671.266 .0316796
672.012 .0316669
672.758 .0316546
673.503 .0316426
674.248 .0316308
674.992 .0316193
675.737 .0316080
676.481 .0315968
677.225 .0315858
677.969 .0315749
678.712 .0315642
679.455 .0315535
680.199 .0315430
680.941 .0315325
681.684 .0315221
682.426 .0315116
683.168 .0315010
683.910 .0314901
684.652 .0314790
685.393 .0314676
686.134 .0314557
686.875 .0314435
687.616 .0314308
688.356 .0314177
689.097 .0314043
689.837 .0313906
690.576 .0313766
691.316 .0313623
692.055 .0313477
692.794 .0313329
693.533 .0313178
694.272 .0313025
695.010 .0312871
695.748 .0312716
696.486 .0312561
697.224 .0312407
697.962 .0312253
698.699 .0312102
699.436 .0311952
700.173 .0311805
700.909 .0311662
701.646 .0311522
702.382 .0311386
703.118 .0311253
703.853 .0311124
704.589 .0310997
705.324 .0310873
706.059 .0310751
706.794 .0310630
707.529 .0310510
708.263 .0310391
708.997 .0310273
709.731 .0310155
710.465 .0310039
711.198 .0309924
711.931 .0309809
712.664 .0309694
713.397 .0309578
714.130 .0309462
714.862 .0309345
715.594 .0309226
716.326 .0309106
717.058 .0308986
717.789 .0308865
718.520 .0308744
719.251 .0308623
719.982 .0308501
720.713 .0308380
721.443 .0308258
722.173 .0308136
722.903 .0308015
723.633 .0307894
724.362 .0307774
725.091 .0307656
725.820 .0307539
726.549 .0307425
727.278 .0307312
728.006 .0307200
728.734 .0307090
729.462 .0306980
730.190 .0306871
730.917 .0306761
731.644 .0306651
732.371 .0306541
733.098 .0306430
733.825 .0306320
734.551 .0306209
735.277 .0306099
736.003 .0305988
736.728 .0305878
737.454 .0305768
738.179 .0305658
738.904 .0305549
739.629 .0305440
740.353 .0305332
741.077 .0305225
741.801 .0305120
742.525 .0305015
743.249 .0304910
743.972 .0304806
744.695 .0304701
745.418 .0304596
746.141 .0304491
746.863 .0304386
747.585 .0304281
748.307 .0304176
749.029 .0304071
749.750 .0303966
750.472 .0303860
751.193 .0303751
751.913 .0303641
752.634 .0303528
753.354 .0303412
754.074 .0303294
754.794 .0303174
755.514 .0303052
756.233 .0302929
756.952 .0302805
757.671 .0302679
758.390 .0302553
759.108 .0302425
759.826 .0302297
760.544 .0302168
761.262 .0302039
761.979 .0301911
762.697 .0301785
763.414 .0301661
764.130 .0301540
764.847 .0301420
765.563 .0301304
766.279 .0301189
766.995 .0301078
767.710 .0300970
768.426 .0300866
769.141 .0300767
769.855 .0300673
770.570 .0300583
771.284 .0300499
771.998 .0300419
772.712 .0300344
773.426 .0300271
774.139 .0300201
774.852 .0300132
775.565 .0300065
776.277 .0299999
776.990 .0299934
777.702 .0299870
778.414 .0299806
779.125 .0299742
779.836 .0299679
780.547 .0299615
781.258 .0299551
781.969 .0299486
782.679 .0299420
783.389 .0299314
784.099 .0299244
784.808 .0299174
785.517 .0299102
786.226 .0299028
786.935 .0298952
787.643 .0298874
788.352 .0298793
789.060 .0298709
789.767 .0298622
790.475 .0298533
791.182 .0298442
791.889 .0298393
792.595 .0298299
793.301 .0298203
794.008 .0298105
794.713 .0298003
795.419 .0297899
796.124 .0297790
796.829 .0297677
797.534 .0297560
798.238 .0297440
798.942 .0297316
799.646 .0297189
800.350 .0297060
801.053 .0296930
801.756 .0296797
802.459 .0296663
803.162 .0296527
803.864 .0296388
804.566 .0296248
805.267 .0296107
805.969 .0295964
806.670 .0295820
807.371 .0295676
808.071 .0295532
808.772 .0295388
809.472 .0295245
810.171 .0295101
810.871 .0294958
811.570 .0294815
812.269 .0294672
812.967 .0294529
813.666 .0294388
814.364 .0294247
815.061 .0294107
815.759 .0293968
816.456 .0293828
817.153 .0293689
817.849 .0293550
818.545 .0293410
819.241 .0293270
819.937 .0293129
820.632 .0292990
821.327 .0292850
822.022 .0292712
822.717 .0292575
823.411 .0292440
824.105 .0292305
824.798 .0292172
825.491 .0292041
826.184 .0291910
826.877 .0291782
827.569 .0291656
828.261 .0291534
828.953 .0291416
829.645 .0291303
830.336 .0291194
831.027 .0291090
831.717 .0290990
832.407 .0290894
833.097 .0290801
833.787 .0290712
834.476 .0290626
835.165 .0290542
835.854 .0290461
836.542 .0290382
837.230 .0290306
837.918 .0290233
838.605 .0290161
839.292 .0290090
839.979 .0290021
840.665 .0289951
841.352 .0289881
842.037 .0289810
842.723 .0289737
843.408 .0289661
844.093 .0289583
844.777 .0289501
845.462 .0289416
846.145 .0289327
846.829 .0289234
847.512 .0289138
848.195 .0289038
848.878 .0288935
849.560 .0288828
850.242 .0288719
850.923 .0288607
851.605 .0288492
852.286 .0288375
852.966 .0288256
853.646 .0288135
854.326 .0288010
855.006 .0287883
855.685 .0287753
856.364 .0287621
857.043 .0287485
857.721 .0287347
858.399 .0287208
859.077 .0287067
859.754 .0286926
860.431 .0286784
861.107 .0286642
861.784 .0286499
862.459 .0286356
863.135 .0286211
863.810 .0286065
864.485 .0285916
865.160 .0285765
865.834 .0285613
866.508 .0285459
867.181 .0285305
867.854 .0285151
868.527 .0284998
869.199 .0284846
869.872 .0284696
870.543 .0284546
871.215 .0284396
871.886 .0284247
872.557 .0284098
873.227 .0283950
873.897 .0283803
874.567 .0283657
875.236 .0283514
875.905 .0283373
876.573 .0283236
877.242 .0283102
877.909 .0282970
878.577 .0282842
879.244 .0282717
879.911 .0282595
880.577 .0282475
881.243 .0282358
881.909 .0282245
882.575 .0282134
883.240 .0282026
883.904 .0281921
884.569 .0281819
885.232 .0281719
885.896 .0281622
886.559 .0281527
887.222 .0281435
887.885 .0281345
888.547 .0281257
889.208 .0281172
889.870 .0281090
890.531 .0281009
891.192 .0280930
891.852 .0280853
892.512 .0280778
893.171 .0280704
893.830 .0280631
894.489 .0280560
895.148 .0280489
895.806 .0280420
896.464 .0280352
897.121 .0280285
897.778 .0280220
898.434 .0280155
899.091 .0280060
899.747 .0279997
900.402 .0279934
901.057 .0279873
901.712 .0279812
902.366 .0279752
903.020 .0279691
903.674 .0279631
904.327 .0279570
904.980 .0279507
905.633 .0279444
906.285 .0279378
906.936 .0279310
907.588 .0279267
908.239 .0279194
908.889 .0279118
909.540 .0279040
910.190 .0278958
910.839 .0278872
911.488 .0278783
912.137 .0278690
912.785 .0278594
913.433 .0278494
914.081 .0278391
914.728 .0278286
915.375 .0278178
916.021 .0278068
916.668 .0277956
917.313 .0277841
917.959 .0277723
918.604 .0277602
919.248 .0277475
919.892 .0277345
920.536 .0277209
921.180 .0277069
921.823 .0276925
922.465 .0276777
923.108 .0276626
923.750 .0276473
924.391 .0276317
925.032 .0276159
925.673 .0275999
926.313 .0275835
926.953 .0275669
927.593 .0275500
928.232 .0275328
928.871 .0275154
929.510 .0274978
930.148 .0274800
930.786 .0274621
931.423 .0274441
932.060 .0274260
932.697 .0274077
933.333 .0273893
933.969 .0273707
934.604 .0273520
935.239 .0273332
935.874 .0273143
936.508 .0272954
937.142 .0272765
937.776 .0272577
938.409 .0272389
939.042 .0272202
939.674 .0272016
940.306 .0271831
940.938 .0271647
941.569 .0271464
942.200 .0271281
942.830 .0271099
943.460 .0270918
944.090 .0270737
944.720 .0270557
945.349 .0270377
945.977 .0270197
946.606 .0270016
947.233 .0269835
947.861 .0269653
948.488 .0269470
949.115 .0269287
949.741 .0269103
950.367 .0268920
950.993 .0268736
951.618 .0268552
952.243 .0268368
952.868 .0268186
953.492 .0268004
954.115 .0267823
954.739 .0267645
955.362 .0267469
955.984 .0267295
956.607 .0267124
957.229 .0266956
957.850 .0266791
958.471 .0266629
959.092 .0266470
959.713 .0266315
960.333 .0266163
960.952 .0266015
961.572 .0265872
962.191 .0265734
962.809 .0265602
963.428 .0265476
964.045 .0265357
964.663 .0265245
965.280 .0265140
965.897 .0265041
966.513 .0264950
967.129 .0264864
967.745 .0264785
968.361 .0264713
968.976 .0264646
969.590 .0264586
970.205 .0264532
970.818 .0264484
971.432 .0264443
972.045 .0264406
972.658 .0264375
973.271 .0264349
973.883 .0264325
974.495 .0264305
975.106 .0264287
975.717 .0264271
976.328 .0264257
976.938 .0264244
977.548 .0264233
978.158 .0264223
978.768 .0264208
979.377 .0264199
979.985 .0264189
980.594 .0264179
981.202 .0264168
981.809 .0264158
982.417 .0264147
983.024 .0264137
983.631 .0264129
984.237 .0264123
984.843 .0264118
985.449 .0264114
986.054 .0264111
986.659 .0264109
987.264 .0264110
987.868 .0264109
988.472 .0264108
989.076 .0264107
989.679 .0264107
990.282 .0264108
990.885 .0264111
991.487 .0264116
992.090 .0264123
992.691 .0264131
993.293 .0264139
993.894 .0264148
994.495 .0264156
995.095 .0264163
995.696 .0264170
996.296 .0264176
996.895 .0264183
997.494 .0264189
998.093 .0264196
998.692 .0264203
999.291 .0264209
999.889 .0264213
1000.487 .0264216
1001.084 .0264215
1001.681 .0264211
1002.278 .0264204
1002.875 .0264195
1003.471 .0264184
1004.067 .0264171
1004.663 .0264156
1005.258 .0264138
1005.854 .0264118
1006.449 .0264094
1007.043 .0264065
1007.638 .0264032
1008.232 .0263994
1008.826 .0263952
1009.419 .0263906
1010.012 .0263858
1010.605 .0263808
1011.198 .0263758
1011.791 .0263707
1012.383 .0263657
1012.975 .0263608
1013.566 .0263559
1014.158 .0263511
1014.749 .0263465
1015.340 .0263419
1015.931 .0263375
1016.521 .0263334
1017.111 .0263296
1017.701 .0263261
1018.291 .0263230
1018.880 .0263202
1019.470 .0263178
1020.059 .0263157
1020.647 .0263139
1021.236 .0263122
1021.824 .0263106
1022.412 .0263091
1023.000 .0263076
1023.588 .0263061
1024.175 .0263047
1024.762 .0263034
1025.349 .0263022
1025.936 .0263011
1026.523 .0263002
1027.109 .0262994
1027.695 .0262987
1028.281 .0262980
1028.867 .0262972
1029.452 .0262963
1030.038 .0262953
1030.623 .0262941
1031.208 .0262927
1031.792 .0262913
1032.377 .0262897
1032.961 .0262881
1033.546 .0262864
1034.130 .0262846
1034.714 .0262826
1035.297 .0262802
1035.881 .0262775
1036.464 .0262745
1037.047 .0262710
1037.630 .0262673
1038.213 .0262633
1038.796 .0262592
1039.378 .0262550
1039.961 .0262510
1040.543 .0262470
1041.125 .0262431
1041.707 .0262392
1042.289 .0262353
1042.871 .0262313
1043.452 .0262273
1044.034 .0262231
1044.615 .0262188
1045.196 .0262145
1045.777 .0262101
1046.358 .0262057
1046.939 .0262011
1047.520 .0261964
1048.101 .0261913
1048.681 .0261859
1049.262 .0261800
1049.842 .0261737
1050.422 .0261670
1051.002 .0261600
1051.582 .0261527
1052.162 .0261453
1052.742 .0261377
1053.322 .0261301
1053.902 .0261224
1054.482 .0261145
1055.061 .0261066
1055.641 .0260986
1056.220 .0260905
1056.800 .0260825
1057.379 .0260747
1057.958 .0260670
1058.538 .0260595
1059.117 .0260524
1059.696 .0260455
1060.275 .0260387
1060.854 .0260322
1061.433 .0260259
1062.012 .0260197
1062.592 .0260139
1063.171 .0260083
1063.750 .0260031
1064.329 .0259985
1064.908 .0259945
1065.487 .0259910
1066.066 .0259881
1066.645 .0259858
1067.224 .0259838
1067.803 .0259822
1068.382 .0259810
1068.961 .0259799
1069.540 .0259791
1070.119 .0259786
1070.698 .0259783
1071.278 .0259783
1071.857 .0259785
1072.436 .0259788
1073.016 .0259791
1073.595 .0259793
1074.175 .0259792
1074.754 .0259788
1075.334 .0259783
1075.913 .0259776
1076.493 .0259767
1077.073 .0259759
1077.653 .0259751
1078.233 .0259743
1078.813 .0259736
1079.393 .0259729
1079.974 .0259723
1080.554 .0259715
1081.135 .0259706
1081.716 .0259696
1082.296 .0259685
1082.877 .0259675
1083.458 .0259665
1084.040 .0259657
1084.621 .0259653
1085.202 .0259652
1085.784 .0259656
1086.366 .0259664
1086.948 .0259675
1087.530 .0259689
1088.112 .0259704
1088.695 .0259718
1089.277 .0259733
1089.860 .0259748
1090.443 .0259763
1091.026 .0259781
1091.610 .0259802
1092.193 .0259826
1092.777 .0259852
1093.361 .0259881
1093.946 .0259910
1094.530 .0259938
1095.115 .0259964
1095.700 .0259986
1096.285 .0260006
1096.871 .0260025
1097.456 .0260046
1098.042 .0260071
1098.628 .0260102
1099.215 .0260140
1099.802 .0260187
1100.389 .0260238
1100.976 .0260293
1101.564 .0260349
1102.152 .0260404
1102.740 .0260457
1103.329 .0260509
1103.917 .0260562
1104.507 .0260619
1105.096 .0260682
1105.686 .0260753
1106.276 .0260835
1106.867 .0260926
1107.457 .0261026
1108.049 .0261132
1108.640 .0261243
1109.232 .0261355
1109.825 .0261470
1110.417 .0261587
1111.010 .0261708
1111.604 .0261834
1112.198 .0261968
1112.792 .0262109
1113.387 .0262258
1113.982 .0262413
1114.577 .0262571
1115.173 .0262730
1115.769 .0262888
1116.366 .0263043
1116.963 .0263193
1117.561 .0263340
1118.159 .0263487
1118.758 .0263634
1119.357 .0263782
1119.957 .0263932
1120.557 .0264083
1121.157 .0264234
1121.758 .0264384
1122.360 .0264531
1122.962 .0264673
1123.564 .0264811
1124.167 .0264880
1124.771 .0265009
1125.375 .0265132
1125.980 .0265253
1126.585 .0265371
1127.191 .0265488
1127.797 .0265605
1128.404 .0265724
1129.012 .0265848
1129.620 .0265977
1130.229 .0266114
1130.838 .0266258
1131.448 .0266412
1132.058 .0266580
1132.669 .0266832
1133.281 .0267037
1133.894 .0267259
1134.507 .0267510
1135.120 .0267822
1135.735 .0268210
1136.350 .0268434
1136.965 .0267432
1137.582 .0267737
1138.199 .0268072
1138.816 .0268439
1139.435 .0268876
1140.054 .0269409
1140.674 .0270051
1141.294 .0270646
1141.916 .0271247
1142.538 .0272148
1143.160 .0273942
1143.784 .0276146
1144.408 .0271799
1145.033 .0272095
