Measurement Sequence started on: 14-45-04-498
Integration time: 36
Scans to Average: 2 
>>>>>Begin Spectral Data<<<<<
433.946 .0402551
434.870 .0447255
435.793 .0416988
436.715 .0418915
437.635 .0409267
438.555 .0414125
439.473 .0413158
440.389 .0411162
441.305 .0410244
442.219 .0409082
443.132 .0409405
444.044 .0406720
444.954 .0405548
445.863 .0404193
446.771 .0403266
447.678 .0402006
448.584 .0400720
449.488 .0399467
450.391 .0398189
451.293 .0396903
452.194 .0395604
453.094 .0394300
453.992 .0393003
454.890 .0391718
455.786 .0390434
456.681 .0389155
457.575 .0387882
458.468 .0386618
459.360 .0385371
460.250 .0384155
461.140 .0382975
462.028 .0381844
462.915 .0380769
463.801 .0379754
464.687 .0378801
465.571 .0377911
466.454 .0377079
467.335 .0376305
468.216 .0375583
469.096 .0374904
469.975 .0374268
470.853 .0373669
471.729 .0373107
472.605 .0372583
473.479 .0372100
474.353 .0371657
475.226 .0371256
476.097 .0370893
476.968 .0370562
477.838 .0370256
478.706 .0369970
479.574 .0369697
480.441 .0369433
481.306 .0369174
482.171 .0368922
483.035 .0368679
483.898 .0368449
484.760 .0368236
485.621 .0368043
486.481 .0367871
487.340 .0367719
488.198 .0367580
489.055 .0367451
489.912 .0367327
490.767 .0367203
491.622 .0367012
492.476 .0366867
493.329 .0366708
494.180 .0366531
495.032 .0366336
495.882 .0366121
496.731 .0365884
497.580 .0365625
498.427 .0365342
499.274 .0365035
500.120 .0364809
500.965 .0364474
501.809 .0364123
502.653 .0363758
503.495 .0363382
504.337 .0362999
505.178 .0362611
506.018 .0362220
506.858 .0361826
507.696 .0361432
508.534 .0361037
509.371 .0360641
510.208 .0360250
511.043 .0359869
511.878 .0359502
512.712 .0359156
513.545 .0358835
514.377 .0358542
515.209 .0358276
516.040 .0358031
516.870 .0357797
517.699 .0357569
518.528 .0357336
519.356 .0357092
520.183 .0356831
521.010 .0356557
521.836 .0356274
522.661 .0355987
523.485 .0355696
524.309 .0355405
525.132 .0355113
525.954 .0354815
526.776 .0354503
527.597 .0354167
528.417 .0353797
529.237 .0353390
530.056 .0352941
530.874 .0352450
531.692 .0351920
532.508 .0351365
533.325 .0350797
534.140 .0350234
534.955 .0349687
535.770 .0349167
536.583 .0348678
537.397 .0348223
538.209 .0347798
539.021 .0347397
539.832 .0347014
540.643 .0346649
541.453 .0346300
542.262 .0345966
543.071 .0345651
543.879 .0345361
544.687 .0345101
545.494 .0344871
546.300 .0344663
547.106 .0344474
547.911 .0344294
548.716 .0344115
549.520 .0343924
550.323 .0343714
551.126 .0343476
551.929 .0343205
552.731 .0342900
553.532 .0342563
554.332 .0342198
555.133 .0341804
555.932 .0341385
556.731 .0340941
557.530 .0340473
558.328 .0339983
559.125 .0339477
559.922 .0338963
560.719 .0338448
561.515 .0337940
562.310 .0337446
563.105 .0336977
563.899 .0336538
564.693 .0336130
565.487 .0335754
566.280 .0335408
567.072 .0335088
567.864 .0334787
568.655 .0334503
569.446 .0334232
570.236 .0333969
571.026 .0333712
571.816 .0333458
572.605 .0333208
573.393 .0332958
574.181 .0332707
574.969 .0332450
575.756 .0332183
576.543 .0331903
577.329 .0331607
578.115 .0331298
578.900 .0330975
579.685 .0330645
580.469 .0330310
581.253 .0329975
582.036 .0329644
582.820 .0329319
583.602 .0329003
584.384 .0328696
585.166 .0328396
585.947 .0328104
586.728 .0327817
587.509 .0327538
588.289 .0327263
589.069 .0326995
589.848 .0326732
590.627 .0326475
591.405 .0326225
592.183 .0325980
592.961 .0325740
593.738 .0325504
594.515 .0325268
595.291 .0325032
596.067 .0324791
596.843 .0324545
597.618 .0324292
598.393 .0323896
599.167 .0323632
599.941 .0323364
600.715 .0323095
601.488 .0322826
602.261 .0322559
603.034 .0322296
603.806 .0322036
604.578 .0321780
605.349 .0321527
606.121 .0321275
606.891 .0321155
607.662 .0320904
608.432 .0320653
609.201 .0320404
609.971 .0320158
610.740 .0319914
611.508 .0319675
612.277 .0319441
613.045 .0319211
613.812 .0318988
614.579 .0318769
615.346 .0318557
616.113 .0318349
616.879 .0318146
617.645 .0317946
618.411 .0317751
619.176 .0317558
619.941 .0317368
620.705 .0317181
621.470 .0316997
622.233 .0316816
622.997 .0316641
623.760 .0316471
624.523 .0316308
625.286 .0316149
626.048 .0315995
626.810 .0315843
627.572 .0315693
628.333 .0315542
629.095 .0315391
629.855 .0315238
630.616 .0315083
631.376 .0314927
632.136 .0314770
632.895 .0314613
633.655 .0314455
634.414 .0314295
635.172 .0314132
635.931 .0313965
636.689 .0313794
637.447 .0313618
638.204 .0313437
638.962 .0313252
639.718 .0313063
640.475 .0312869
641.231 .0312672
641.988 .0312473
642.743 .0312272
643.499 .0312071
644.254 .0311870
645.009 .0311670
645.764 .0311471
646.518 .0311275
647.272 .0311080
648.026 .0310887
648.780 .0310694
649.533 .0310501
650.286 .0310306
651.039 .0310112
651.792 .0309918
652.544 .0309725
653.296 .0309535
654.048 .0309349
654.799 .0309168
655.550 .0308991
656.301 .0308819
657.052 .0308650
657.802 .0308484
658.552 .0308320
659.302 .0308157
660.052 .0307995
660.801 .0307834
661.550 .0307676
662.299 .0307520
663.048 .0307368
663.796 .0307220
664.544 .0307076
665.292 .0306935
666.040 .0306798
666.787 .0306664
667.534 .0306532
668.281 .0306403
669.028 .0306275
669.774 .0306151
670.521 .0306029
671.266 .0305910
672.012 .0305795
672.758 .0305684
673.503 .0305575
674.248 .0305469
674.992 .0305364
675.737 .0305260
676.481 .0305155
677.225 .0305050
677.969 .0304945
678.712 .0304837
679.455 .0304728
680.199 .0304616
680.941 .0304502
681.684 .0304385
682.426 .0304265
683.168 .0304142
683.910 .0304016
684.652 .0303888
685.393 .0303758
686.134 .0303626
686.875 .0303494
687.616 .0303362
688.356 .0303229
689.097 .0303097
689.837 .0302964
690.576 .0302832
691.316 .0302699
692.055 .0302568
692.794 .0302437
693.533 .0302308
694.272 .0302181
695.010 .0302055
695.748 .0301931
696.486 .0301809
697.224 .0301687
697.962 .0301565
698.699 .0301441
699.436 .0301316
700.173 .0301189
700.909 .0301061
701.646 .0300933
702.382 .0300805
703.118 .0300676
703.853 .0300547
704.589 .0300416
705.324 .0300282
706.059 .0300145
706.794 .0300003
707.529 .0299858
708.263 .0299707
708.997 .0299553
709.731 .0299395
710.465 .0299235
711.198 .0299073
711.931 .0298910
712.664 .0298746
713.397 .0298581
714.130 .0298415
714.862 .0298249
715.594 .0298084
716.326 .0297919
717.058 .0297756
717.789 .0297594
718.520 .0297433
719.251 .0297273
719.982 .0297115
720.713 .0296957
721.443 .0296801
722.173 .0296647
722.903 .0296495
723.633 .0296347
724.362 .0296203
725.091 .0296064
725.820 .0295930
726.549 .0295801
727.278 .0295676
728.006 .0295555
728.734 .0295437
729.462 .0295321
730.190 .0295208
730.917 .0295099
731.644 .0294993
732.371 .0294893
733.098 .0294797
733.825 .0294705
734.551 .0294617
735.277 .0294534
736.003 .0294453
736.728 .0294376
737.454 .0294301
738.179 .0294229
738.904 .0294160
739.629 .0294094
740.353 .0294031
741.077 .0293972
741.801 .0293916
742.525 .0293863
743.249 .0293812
743.972 .0293763
744.695 .0293716
745.418 .0293671
746.141 .0293626
746.863 .0293582
747.585 .0293536
748.307 .0293489
749.029 .0293439
749.750 .0293385
750.472 .0293327
751.193 .0293265
751.913 .0293198
752.634 .0293127
753.354 .0293052
754.074 .0292973
754.794 .0292891
755.514 .0292805
756.233 .0292715
756.952 .0292621
757.671 .0292522
758.390 .0292418
759.108 .0292311
759.826 .0292200
760.544 .0292086
761.262 .0291971
761.979 .0291854
762.697 .0291736
763.414 .0291619
764.130 .0291501
764.847 .0291383
765.563 .0291265
766.279 .0291147
766.995 .0291029
767.710 .0290912
768.426 .0290795
769.141 .0290680
769.855 .0290566
770.570 .0290453
771.284 .0290341
771.998 .0290231
772.712 .0290121
773.426 .0290012
774.139 .0289905
774.852 .0289797
775.565 .0289690
776.277 .0289582
776.990 .0289473
777.702 .0289362
778.414 .0289249
779.125 .0289134
779.836 .0289017
780.547 .0288899
781.258 .0288781
781.969 .0288664
782.679 .0288549
783.389 .0288381
784.099 .0288272
784.808 .0288165
785.517 .0288061
786.226 .0287959
786.935 .0287859
787.643 .0287762
788.352 .0287667
789.060 .0287574
789.767 .0287484
790.475 .0287395
791.182 .0287308
791.889 .0287273
792.595 .0287188
793.301 .0287104
794.008 .0287021
794.713 .0286939
795.419 .0286859
796.124 .0286780
796.829 .0286702
797.534 .0286624
798.238 .0286546
798.942 .0286467
799.646 .0286387
800.350 .0286306
801.053 .0286225
801.756 .0286143
802.459 .0286060
803.162 .0285978
803.864 .0285895
804.566 .0285812
805.267 .0285727
805.969 .0285642
806.670 .0285554
807.371 .0285464
808.071 .0285373
808.772 .0285280
809.472 .0285188
810.171 .0285097
810.871 .0285006
811.570 .0284918
812.269 .0284831
812.967 .0284745
813.666 .0284661
814.364 .0284579
815.061 .0284498
815.759 .0284418
816.456 .0284341
817.153 .0284265
817.849 .0284190
818.545 .0284116
819.241 .0284042
819.937 .0283966
820.632 .0283887
821.327 .0283807
822.022 .0283725
822.717 .0283641
823.411 .0283557
824.105 .0283473
824.798 .0283389
825.491 .0283307
826.184 .0283225
826.877 .0283143
827.569 .0283062
828.261 .0282981
828.953 .0282899
829.645 .0282819
830.336 .0282740
831.027 .0282663
831.717 .0282589
832.407 .0282518
833.097 .0282449
833.787 .0282382
834.476 .0282316
835.165 .0282250
835.854 .0282184
836.542 .0282117
837.230 .0282048
837.918 .0281978
838.605 .0281905
839.292 .0281830
839.979 .0281751
840.665 .0281668
841.352 .0281581
842.037 .0281488
842.723 .0281390
843.408 .0281285
844.093 .0281173
844.777 .0281056
845.462 .0280931
846.145 .0280800
846.829 .0280663
847.512 .0280518
848.195 .0280367
848.878 .0280210
849.560 .0280047
850.242 .0279879
850.923 .0279707
851.605 .0279531
852.286 .0279353
852.966 .0279173
853.646 .0278994
854.326 .0278814
855.006 .0278635
855.685 .0278457
856.364 .0278281
857.043 .0278106
857.721 .0277932
858.399 .0277761
859.077 .0277592
859.754 .0277426
860.431 .0277263
861.107 .0277104
861.784 .0276948
862.459 .0276794
863.135 .0276642
863.810 .0276491
864.485 .0276342
865.160 .0276193
865.834 .0276045
866.508 .0275896
867.181 .0275749
867.854 .0275603
868.527 .0275457
869.199 .0275311
869.872 .0275167
870.543 .0275023
871.215 .0274881
871.886 .0274739
872.557 .0274599
873.227 .0274461
873.897 .0274325
874.567 .0274192
875.236 .0274062
875.905 .0273935
876.573 .0273810
877.242 .0273689
877.909 .0273570
878.577 .0273453
879.244 .0273339
879.911 .0273228
880.577 .0273119
881.243 .0273013
881.909 .0272910
882.575 .0272810
883.240 .0272713
883.904 .0272619
884.569 .0272527
885.232 .0272438
885.896 .0272352
886.559 .0272270
887.222 .0272190
887.885 .0272115
888.547 .0272043
889.208 .0271976
889.870 .0271914
890.531 .0271857
891.192 .0271804
891.852 .0271756
892.512 .0271712
893.171 .0271672
893.830 .0271636
894.489 .0271604
895.148 .0271575
895.806 .0271549
896.464 .0271525
897.121 .0271504
897.778 .0271486
898.434 .0271469
899.091 .0271448
899.747 .0271432
900.402 .0271416
901.057 .0271400
901.712 .0271382
902.366 .0271362
903.020 .0271340
903.674 .0271314
904.327 .0271283
904.980 .0271248
905.633 .0271207
906.285 .0271160
906.936 .0271107
907.588 .0271061
908.239 .0270999
908.889 .0270931
909.540 .0270858
910.190 .0270779
910.839 .0270695
911.488 .0270606
912.137 .0270512
912.785 .0270415
913.433 .0270315
914.081 .0270213
914.728 .0270109
915.375 .0270004
916.021 .0269898
916.668 .0269793
917.313 .0269688
917.959 .0269583
918.604 .0269479
919.248 .0269376
919.892 .0269272
920.536 .0269169
921.180 .0269066
921.823 .0268963
922.465 .0268860
923.108 .0268757
923.750 .0268654
924.391 .0268551
925.032 .0268448
925.673 .0268345
926.313 .0268242
926.953 .0268139
927.593 .0268035
928.232 .0267930
928.871 .0267825
929.510 .0267720
930.148 .0267613
930.786 .0267506
931.423 .0267397
932.060 .0267285
932.697 .0267171
933.333 .0267053
933.969 .0266930
934.604 .0266801
935.239 .0266666
935.874 .0266524
936.508 .0266375
937.142 .0266221
937.776 .0266061
938.409 .0265896
939.042 .0265726
939.674 .0265551
940.306 .0265373
940.938 .0265191
941.569 .0265004
942.200 .0264814
942.830 .0264620
943.460 .0264423
944.090 .0264223
944.720 .0264022
945.349 .0263819
945.977 .0263616
946.606 .0263412
947.233 .0263208
947.861 .0263006
948.488 .0262804
949.115 .0262603
949.741 .0262403
950.367 .0262205
950.993 .0262007
951.618 .0261810
952.243 .0261614
952.868 .0261417
953.492 .0261221
954.115 .0261025
954.739 .0260831
955.362 .0260639
955.984 .0260449
956.607 .0260262
957.229 .0260077
957.850 .0259895
958.471 .0259715
959.092 .0259537
959.713 .0259360
960.333 .0259184
960.952 .0259010
961.572 .0258838
962.191 .0258668
962.809 .0258502
963.428 .0258340
964.045 .0258182
964.663 .0258028
965.280 .0257877
965.897 .0257729
966.513 .0257584
967.129 .0257441
967.745 .0257302
968.361 .0257166
968.976 .0257034
969.590 .0256908
970.205 .0256788
970.818 .0256673
971.432 .0256563
972.045 .0256457
972.658 .0256356
973.271 .0256257
973.883 .0256160
974.495 .0256064
975.106 .0255971
975.717 .0255879
976.328 .0255788
976.938 .0255699
977.548 .0255611
978.158 .0255524
978.768 .0255383
979.377 .0255294
979.985 .0255202
980.594 .0255107
981.202 .0255009
981.809 .0254909
982.417 .0254808
983.024 .0254707
983.631 .0254607
984.237 .0254511
984.843 .0254418
985.449 .0254329
986.054 .0254244
986.659 .0254163
987.264 .0254137
987.868 .0254062
988.472 .0253992
989.076 .0253926
989.679 .0253866
990.282 .0253813
990.885 .0253768
991.487 .0253731
992.090 .0253703
992.691 .0253683
993.293 .0253670
993.894 .0253663
994.495 .0253661
995.095 .0253663
995.696 .0253670
996.296 .0253681
996.895 .0253696
997.494 .0253717
998.093 .0253742
998.692 .0253772
999.291 .0253806
999.889 .0253841
1000.487 .0253877
1001.084 .0253912
1001.681 .0253945
1002.278 .0253975
1002.875 .0254004
1003.471 .0254031
1004.067 .0254058
1004.663 .0254085
1005.258 .0254112
1005.854 .0254139
1006.449 .0254167
1007.043 .0254194
1007.638 .0254221
1008.232 .0254246
1008.826 .0254270
1009.419 .0254294
1010.012 .0254318
1010.605 .0254343
1011.198 .0254370
1011.791 .0254399
1012.383 .0254429
1012.975 .0254460
1013.566 .0254491
1014.158 .0254522
1014.749 .0254552
1015.340 .0254581
1015.931 .0254609
1016.521 .0254637
1017.111 .0254664
1017.701 .0254691
1018.291 .0254718
1018.880 .0254744
1019.470 .0254769
1020.059 .0254793
1020.647 .0254815
1021.236 .0254836
1021.824 .0254856
1022.412 .0254876
1023.000 .0254897
1023.588 .0254918
1024.175 .0254941
1024.762 .0254965
1025.349 .0254989
1025.936 .0255015
1026.523 .0255040
1027.109 .0255065
1027.695 .0255090
1028.281 .0255115
1028.867 .0255141
1029.452 .0255169
1030.038 .0255199
1030.623 .0255231
1031.208 .0255264
1031.792 .0255300
1032.377 .0255336
1032.961 .0255374
1033.546 .0255411
1034.130 .0255448
1034.714 .0255485
1035.297 .0255522
1035.881 .0255559
1036.464 .0255596
1037.047 .0255632
1037.630 .0255668
1038.213 .0255701
1038.796 .0255732
1039.378 .0255759
1039.961 .0255780
1040.543 .0255796
1041.125 .0255804
1041.707 .0255805
1042.289 .0255798
1042.871 .0255784
1043.452 .0255762
1044.034 .0255733
1044.615 .0255697
1045.196 .0255656
1045.777 .0255609
1046.358 .0255556
1046.939 .0255500
1047.520 .0255440
1048.101 .0255375
1048.681 .0255308
1049.262 .0255239
1049.842 .0255168
1050.422 .0255099
1051.002 .0255030
1051.582 .0254965
1052.162 .0254903
1052.742 .0254846
1053.322 .0254795
1053.902 .0254750
1054.482 .0254710
1055.061 .0254675
1055.641 .0254645
1056.220 .0254619
1056.800 .0254596
1057.379 .0254577
1057.958 .0254561
1058.538 .0254548
1059.117 .0254536
1059.696 .0254526
1060.275 .0254517
1060.854 .0254508
1061.433 .0254499
1062.012 .0254487
1062.592 .0254473
1063.171 .0254455
1063.750 .0254432
1064.329 .0254404
1064.908 .0254369
1065.487 .0254328
1066.066 .0254279
1066.645 .0254223
1067.224 .0254158
1067.803 .0254085
1068.382 .0254004
1068.961 .0253913
1069.540 .0253813
1070.119 .0253701
1070.698 .0253577
1071.278 .0253441
1071.857 .0253294
1072.436 .0253134
1073.016 .0252964
1073.595 .0252785
1074.175 .0252601
1074.754 .0252414
1075.334 .0252225
1075.913 .0252036
1076.493 .0251849
1077.073 .0251665
1077.653 .0251483
1078.233 .0251306
1078.813 .0251134
1079.393 .0250970
1079.974 .0250814
1080.554 .0250668
1081.135 .0250532
1081.716 .0250406
1082.296 .0250289
1082.877 .0250180
1083.458 .0250077
1084.040 .0249978
1084.621 .0249883
1085.202 .0249791
1085.784 .0249703
1086.366 .0249618
1086.948 .0249539
1087.530 .0249466
1088.112 .0249399
1088.695 .0249340
1089.277 .0249287
1089.860 .0249240
1090.443 .0249198
1091.026 .0249160
1091.610 .0249125
1092.193 .0249091
1092.777 .0249060
1093.361 .0249030
1093.946 .0249001
1094.530 .0248973
1095.115 .0248946
1095.700 .0248920
1096.285 .0248892
1096.871 .0248866
1097.456 .0248840
1098.042 .0248816
1098.628 .0248797
1099.215 .0248786
1099.802 .0248785
1100.389 .0248795
1100.976 .0248820
1101.564 .0248858
1102.152 .0248911
1102.740 .0248976
1103.329 .0249051
1103.917 .0249133
1104.507 .0249220
1105.096 .0249310
1105.686 .0249403
1106.276 .0249496
1106.867 .0249591
1107.457 .0249686
1108.049 .0249778
1108.640 .0249867
1109.232 .0249949
1109.825 .0250023
1110.417 .0250086
1111.010 .0250137
1111.604 .0250179
1112.198 .0250212
1112.792 .0250241
1113.387 .0250269
1113.982 .0250300
1114.577 .0250336
1115.173 .0250378
1115.769 .0250424
1116.366 .0250474
1116.963 .0250525
1117.561 .0250575
1118.159 .0250621
1118.758 .0250663
1119.357 .0250702
1119.957 .0250740
1120.557 .0250778
1121.157 .0250820
1121.758 .0250867
1122.360 .0250922
1122.962 .0250983
1123.564 .0251053
1124.167 .0251045
1124.771 .0251129
1125.375 .0251224
1125.980 .0251332
1126.585 .0251458
1127.191 .0251605
1127.797 .0251777
1128.404 .0251977
1129.012 .0252205
1129.620 .0252460
1130.229 .0252738
1130.838 .0253037
1131.448 .0253351
1132.058 .0253676
1132.669 .0254144
1133.281 .0254490
1133.894 .0254847
1134.507 .0255209
1135.120 .0255569
1135.735 .0256022
1136.350 .0256470
1136.965 .0255911
1137.582 .0256437
1138.199 .0257024
1138.816 .0257622
1139.435 .0258240
1140.054 .0258839
1140.674 .0259480
1141.294 .0260142
1141.916 .0260717
1142.538 .0261147
1143.160 .0261277
1143.784 .0263987
1144.408 .0264087
1145.033 .0261501
