Measurement Sequence started on: 14-45-04-498
Integration time: 36
Scans to Average: 2 
>>>>>Begin Spectral Data<<<<<
433.946 .0503907
434.870 .0448227
435.793 .0426347
436.715 .0393428
437.635 .0397628
438.555 .0422597
439.473 .0421221
440.389 .0422797
441.305 .0425079
442.219 .0427659
443.132 .0425959
444.044 .0424884
444.954 .0424890
445.863 .0426553
446.771 .0427919
447.678 .0427899
448.584 .0427876
449.488 .0427698
450.391 .0427326
451.293 .0426742
452.194 .0425992
453.094 .0425122
453.992 .0424144
454.890 .0423081
455.786 .0421935
456.681 .0420721
457.575 .0419454
458.468 .0418156
459.360 .0416845
460.250 .0415532
461.140 .0414226
462.028 .0412939
462.915 .0411678
463.801 .0410445
464.687 .0409239
465.571 .0408067
466.454 .0406931
467.335 .0405829
468.216 .0404762
469.096 .0403726
469.975 .0402717
470.853 .0401735
471.729 .0400779
472.605 .0399851
473.479 .0398953
474.353 .0398089
475.226 .0397259
476.097 .0396464
476.968 .0395707
477.838 .0394986
478.706 .0394298
479.574 .0393645
480.441 .0393020
481.306 .0392424
482.171 .0391854
483.035 .0391306
483.898 .0390782
484.760 .0390283
485.621 .0389806
486.481 .0389355
487.340 .0388927
488.198 .0388523
489.055 .0388144
489.912 .0387790
490.767 .0387460
491.622 .0387023
492.476 .0386734
493.329 .0386454
494.180 .0386178
495.032 .0385902
495.882 .0385626
496.731 .0385352
497.580 .0385083
498.427 .0384821
499.274 .0384569
500.120 .0384457
500.965 .0384213
501.809 .0383968
502.653 .0383713
503.495 .0383442
504.337 .0383149
505.178 .0382830
506.018 .0382479
506.858 .0382098
507.696 .0381689
508.534 .0381255
509.371 .0380803
510.208 .0380333
511.043 .0379849
511.878 .0379349
512.712 .0378827
513.545 .0378277
514.377 .0377695
515.209 .0377078
516.040 .0376419
516.870 .0375718
517.699 .0374979
518.528 .0374213
519.356 .0373423
520.183 .0372617
521.010 .0371800
521.836 .0370974
522.661 .0370134
523.485 .0369276
524.309 .0368395
525.132 .0367491
525.954 .0366564
526.776 .0365619
527.597 .0364666
528.417 .0363713
529.237 .0362779
530.056 .0361878
530.874 .0361024
531.692 .0360221
532.508 .0359465
533.325 .0358762
534.140 .0358109
534.955 .0357500
535.770 .0356929
536.583 .0356396
537.397 .0355908
538.209 .0355463
539.021 .0355064
539.832 .0354719
540.643 .0354434
541.453 .0354208
542.262 .0354037
543.071 .0353911
543.879 .0353819
544.687 .0353748
545.494 .0353686
546.300 .0353617
547.106 .0353530
547.911 .0353418
548.716 .0353282
549.520 .0353122
550.323 .0352942
551.126 .0352744
551.929 .0352532
552.731 .0352311
553.532 .0352078
554.332 .0351831
555.133 .0351574
555.932 .0351313
556.731 .0351048
557.530 .0350781
558.328 .0350516
559.125 .0350261
559.922 .0350021
560.719 .0349797
561.515 .0349593
562.310 .0349406
563.105 .0349234
563.899 .0349073
564.693 .0348918
565.487 .0348766
566.280 .0348615
567.072 .0348463
567.864 .0348308
568.655 .0348151
569.446 .0347992
570.236 .0347830
571.026 .0347669
571.816 .0347503
572.605 .0347327
573.393 .0347138
574.181 .0346935
574.969 .0346714
575.756 .0346476
576.543 .0346220
577.329 .0345949
578.115 .0345668
578.900 .0345382
579.685 .0345096
580.469 .0344817
581.253 .0344549
582.036 .0344291
582.820 .0344045
583.602 .0343809
584.384 .0343582
585.166 .0343361
585.947 .0343143
586.728 .0342929
587.509 .0342718
588.289 .0342511
589.069 .0342310
589.848 .0342116
590.627 .0341928
591.405 .0341746
592.183 .0341567
592.961 .0341389
593.738 .0341210
594.515 .0341026
595.291 .0340836
596.067 .0340639
596.843 .0340435
597.618 .0340224
598.393 .0339894
599.167 .0339673
599.941 .0339451
600.715 .0339228
601.488 .0339004
602.261 .0338780
603.034 .0338555
603.806 .0338329
604.578 .0338104
605.349 .0337878
606.121 .0337652
606.891 .0337541
607.662 .0337316
608.432 .0337093
609.201 .0336872
609.971 .0336653
610.740 .0336438
611.508 .0336225
612.277 .0336016
613.045 .0335809
613.812 .0335604
614.579 .0335400
615.346 .0335198
616.113 .0334997
616.879 .0334797
617.645 .0334598
618.411 .0334397
619.176 .0334196
619.941 .0333993
620.705 .0333787
621.470 .0333578
622.233 .0333367
622.997 .0333154
623.760 .0332940
624.523 .0332726
625.286 .0332513
626.048 .0332301
626.810 .0332091
627.572 .0331881
628.333 .0331671
629.095 .0331461
629.855 .0331251
630.616 .0331041
631.376 .0330833
632.136 .0330627
632.895 .0330425
633.655 .0330226
634.414 .0330031
635.172 .0329839
635.931 .0329651
636.689 .0329466
637.447 .0329285
638.204 .0329106
638.962 .0328932
639.718 .0328763
640.475 .0328598
641.231 .0328438
641.988 .0328282
642.743 .0328130
643.499 .0327980
644.254 .0327833
645.009 .0327688
645.764 .0327546
646.518 .0327408
647.272 .0327274
648.026 .0327143
648.780 .0327016
649.533 .0326891
650.286 .0326767
651.039 .0326643
651.792 .0326519
652.544 .0326395
653.296 .0326269
654.048 .0326144
654.799 .0326019
655.550 .0325895
656.301 .0325771
657.052 .0325647
657.802 .0325521
658.552 .0325394
659.302 .0325263
660.052 .0325131
660.801 .0324995
661.550 .0324857
662.299 .0324715
663.048 .0324571
663.796 .0324424
664.544 .0324275
665.292 .0324123
666.040 .0323969
666.787 .0323815
667.534 .0323661
668.281 .0323507
669.028 .0323356
669.774 .0323207
670.521 .0323062
671.266 .0322921
672.012 .0322784
672.758 .0322652
673.503 .0322524
674.248 .0322402
674.992 .0322285
675.737 .0322172
676.481 .0322064
677.225 .0321958
677.969 .0321855
678.712 .0321755
679.455 .0321657
680.199 .0321561
680.941 .0321469
681.684 .0321378
682.426 .0321291
683.168 .0321205
683.910 .0321121
684.652 .0321037
685.393 .0320952
686.134 .0320866
686.875 .0320778
687.616 .0320690
688.356 .0320602
689.097 .0320514
689.837 .0320427
690.576 .0320342
691.316 .0320258
692.055 .0320175
692.794 .0320093
693.533 .0320012
694.272 .0319932
695.010 .0319853
695.748 .0319775
696.486 .0319698
697.224 .0319622
697.962 .0319547
698.699 .0319473
699.436 .0319399
700.173 .0319325
700.909 .0319251
701.646 .0319176
702.382 .0319101
703.118 .0319024
703.853 .0318945
704.589 .0318863
705.324 .0318776
706.059 .0318684
706.794 .0318586
707.529 .0318480
708.263 .0318367
708.997 .0318247
709.731 .0318121
710.465 .0317989
711.198 .0317852
711.931 .0317710
712.664 .0317563
713.397 .0317411
714.130 .0317253
714.862 .0317088
715.594 .0316917
716.326 .0316740
717.058 .0316557
717.789 .0316371
718.520 .0316181
719.251 .0315990
719.982 .0315797
720.713 .0315605
721.443 .0315412
722.173 .0315221
722.903 .0315031
723.633 .0314844
724.362 .0314660
725.091 .0314480
725.820 .0314304
726.549 .0314134
727.278 .0313970
728.006 .0313811
728.734 .0313659
729.462 .0313513
730.190 .0313373
730.917 .0313240
731.644 .0313113
732.371 .0312994
733.098 .0312880
733.825 .0312773
734.551 .0312671
735.277 .0312574
736.003 .0312481
736.728 .0312391
737.454 .0312304
738.179 .0312218
738.904 .0312134
739.629 .0312051
740.353 .0311969
741.077 .0311887
741.801 .0311804
742.525 .0311721
743.249 .0311637
743.972 .0311551
744.695 .0311463
745.418 .0311373
746.141 .0311280
746.863 .0311184
747.585 .0311084
748.307 .0310982
749.029 .0310876
749.750 .0310767
750.472 .0310657
751.193 .0310545
751.913 .0310432
752.634 .0310320
753.354 .0310207
754.074 .0310096
754.794 .0309984
755.514 .0309873
756.233 .0309761
756.952 .0309649
757.671 .0309535
758.390 .0309421
759.108 .0309307
759.826 .0309193
760.544 .0309078
761.262 .0308964
761.979 .0308851
762.697 .0308737
763.414 .0308622
764.130 .0308506
764.847 .0308389
765.563 .0308270
766.279 .0308148
766.995 .0308025
767.710 .0307900
768.426 .0307772
769.141 .0307644
769.855 .0307513
770.570 .0307382
771.284 .0307249
771.998 .0307116
772.712 .0306981
773.426 .0306846
774.139 .0306711
774.852 .0306574
775.565 .0306437
776.277 .0306299
776.990 .0306160
777.702 .0306021
778.414 .0305883
779.125 .0305745
779.836 .0305609
780.547 .0305475
781.258 .0305344
781.969 .0305214
782.679 .0305086
783.389 .0304896
784.099 .0304770
784.808 .0304643
785.517 .0304518
786.226 .0304394
786.935 .0304271
787.643 .0304151
788.352 .0304032
789.060 .0303916
789.767 .0303803
790.475 .0303690
791.182 .0303580
791.889 .0303526
792.595 .0303415
793.301 .0303306
794.008 .0303197
794.713 .0303088
795.419 .0302979
796.124 .0302870
796.829 .0302760
797.534 .0302649
798.238 .0302537
798.942 .0302423
799.646 .0302307
800.350 .0302191
801.053 .0302074
801.756 .0301957
802.459 .0301839
803.162 .0301721
803.864 .0301603
804.566 .0301485
805.267 .0301366
805.969 .0301247
806.670 .0301128
807.371 .0301010
808.071 .0300894
808.772 .0300778
809.472 .0300665
810.171 .0300554
810.871 .0300445
811.570 .0300337
812.269 .0300231
812.967 .0300126
813.666 .0300021
814.364 .0299916
815.061 .0299812
815.759 .0299707
816.456 .0299602
817.153 .0299496
817.849 .0299389
818.545 .0299279
819.241 .0299166
819.937 .0299050
820.632 .0298931
821.327 .0298807
822.022 .0298679
822.717 .0298547
823.411 .0298411
824.105 .0298271
824.798 .0298126
825.491 .0297977
826.184 .0297825
826.877 .0297669
827.569 .0297510
828.261 .0297348
828.953 .0297184
829.645 .0297017
830.336 .0296849
831.027 .0296681
831.717 .0296512
832.407 .0296344
833.097 .0296177
833.787 .0296014
834.476 .0295854
835.165 .0295699
835.854 .0295548
836.542 .0295401
837.230 .0295259
837.918 .0295119
838.605 .0294983
839.292 .0294849
839.979 .0294716
840.665 .0294584
841.352 .0294452
842.037 .0294322
842.723 .0294192
843.408 .0294062
844.093 .0293931
844.777 .0293798
845.462 .0293662
846.145 .0293523
846.829 .0293381
847.512 .0293234
848.195 .0293083
848.878 .0292929
849.560 .0292771
850.242 .0292612
850.923 .0292450
851.605 .0292286
852.286 .0292120
852.966 .0291952
853.646 .0291782
854.326 .0291609
855.006 .0291435
855.685 .0291260
856.364 .0291082
857.043 .0290904
857.721 .0290725
858.399 .0290546
859.077 .0290366
859.754 .0290187
860.431 .0290008
861.107 .0289831
861.784 .0289655
862.459 .0289482
863.135 .0289312
863.810 .0289145
864.485 .0288983
865.160 .0288825
865.834 .0288671
866.508 .0288522
867.181 .0288377
867.854 .0288234
868.527 .0288095
869.199 .0287958
869.872 .0287824
870.543 .0287691
871.215 .0287561
871.886 .0287433
872.557 .0287307
873.227 .0287184
873.897 .0287063
874.567 .0286944
875.236 .0286827
875.905 .0286711
876.573 .0286596
877.242 .0286482
877.909 .0286371
878.577 .0286261
879.244 .0286153
879.911 .0286047
880.577 .0285942
881.243 .0285838
881.909 .0285736
882.575 .0285635
883.240 .0285534
883.904 .0285435
884.569 .0285338
885.232 .0285242
885.896 .0285149
886.559 .0285059
887.222 .0284971
887.885 .0284887
888.547 .0284805
889.208 .0284726
889.870 .0284650
890.531 .0284577
891.192 .0284507
891.852 .0284440
892.512 .0284376
893.171 .0284315
893.830 .0284256
894.489 .0284198
895.148 .0284141
895.806 .0284083
896.464 .0284026
897.121 .0283967
897.778 .0283906
898.434 .0283844
899.091 .0283736
899.747 .0283665
900.402 .0283590
901.057 .0283511
901.712 .0283427
902.366 .0283339
903.020 .0283245
903.674 .0283148
904.327 .0283046
904.980 .0282941
905.633 .0282833
906.285 .0282720
906.936 .0282604
907.588 .0282536
908.239 .0282414
908.889 .0282288
909.540 .0282158
910.190 .0282026
910.839 .0281891
911.488 .0281755
912.137 .0281617
912.785 .0281478
913.433 .0281338
914.081 .0281197
914.728 .0281054
915.375 .0280909
916.021 .0280763
916.668 .0280616
917.313 .0280468
917.959 .0280318
918.604 .0280167
919.248 .0280015
919.892 .0279860
920.536 .0279703
921.180 .0279542
921.823 .0279376
922.465 .0279206
923.108 .0279032
923.750 .0278853
924.391 .0278671
925.032 .0278485
925.673 .0278296
926.313 .0278104
926.953 .0277909
927.593 .0277710
928.232 .0277508
928.871 .0277302
929.510 .0277093
930.148 .0276880
930.786 .0276665
931.423 .0276448
932.060 .0276230
932.697 .0276010
933.333 .0275788
933.969 .0275566
934.604 .0275342
935.239 .0275116
935.874 .0274889
936.508 .0274660
937.142 .0274430
937.776 .0274198
938.409 .0273965
939.042 .0273731
939.674 .0273495
940.306 .0273259
940.938 .0273022
941.569 .0272784
942.200 .0272546
942.830 .0272307
943.460 .0272070
944.090 .0271833
944.720 .0271597
945.349 .0271363
945.977 .0271131
946.606 .0270901
947.233 .0270672
947.861 .0270445
948.488 .0270220
949.115 .0269998
949.741 .0269779
950.367 .0269563
950.993 .0269350
951.618 .0269143
952.243 .0268939
952.868 .0268740
953.492 .0268546
954.115 .0268357
954.739 .0268173
955.362 .0267994
955.984 .0267821
956.607 .0267654
957.229 .0267494
957.850 .0267340
958.471 .0267194
959.092 .0267054
959.713 .0266920
960.333 .0266793
960.952 .0266672
961.572 .0266558
962.191 .0266449
962.809 .0266347
963.428 .0266251
964.045 .0266161
964.663 .0266076
965.280 .0265996
965.897 .0265921
966.513 .0265850
967.129 .0265781
967.745 .0265715
968.361 .0265650
968.976 .0265586
969.590 .0265524
970.205 .0265463
970.818 .0265403
971.432 .0265346
972.045 .0265289
972.658 .0265235
973.271 .0265182
973.883 .0265131
974.495 .0265081
975.106 .0265032
975.717 .0264983
976.328 .0264936
976.938 .0264889
977.548 .0264841
978.158 .0264793
978.768 .0264713
979.377 .0264661
979.985 .0264605
980.594 .0264547
981.202 .0264486
981.809 .0264423
982.417 .0264358
983.024 .0264293
983.631 .0264228
984.237 .0264163
984.843 .0264100
985.449 .0264038
986.054 .0263977
986.659 .0263918
987.264 .0263894
987.868 .0263840
988.472 .0263789
989.076 .0263743
989.679 .0263703
990.282 .0263666
990.885 .0263635
991.487 .0263608
992.090 .0263584
992.691 .0263562
993.293 .0263541
993.894 .0263520
994.495 .0263500
995.095 .0263480
995.696 .0263460
996.296 .0263441
996.895 .0263424
997.494 .0263408
998.093 .0263395
998.692 .0263383
999.291 .0263373
999.889 .0263366
1000.487 .0263360
1001.084 .0263357
1001.681 .0263356
1002.278 .0263358
1002.875 .0263364
1003.471 .0263372
1004.067 .0263382
1004.663 .0263394
1005.258 .0263405
1005.854 .0263416
1006.449 .0263425
1007.043 .0263431
1007.638 .0263435
1008.232 .0263438
1008.826 .0263441
1009.419 .0263443
1010.012 .0263447
1010.605 .0263452
1011.198 .0263459
1011.791 .0263468
1012.383 .0263478
1012.975 .0263490
1013.566 .0263504
1014.158 .0263520
1014.749 .0263539
1015.340 .0263561
1015.931 .0263585
1016.521 .0263612
1017.111 .0263639
1017.701 .0263665
1018.291 .0263688
1018.880 .0263708
1019.470 .0263723
1020.059 .0263733
1020.647 .0263739
1021.236 .0263740
1021.824 .0263738
1022.412 .0263734
1023.000 .0263728
1023.588 .0263718
1024.175 .0263707
1024.762 .0263691
1025.349 .0263673
1025.936 .0263651
1026.523 .0263626
1027.109 .0263599
1027.695 .0263570
1028.281 .0263541
1028.867 .0263512
1029.452 .0263483
1030.038 .0263454
1030.623 .0263425
1031.208 .0263393
1031.792 .0263360
1032.377 .0263324
1032.961 .0263284
1033.546 .0263242
1034.130 .0263198
1034.714 .0263151
1035.297 .0263102
1035.881 .0263053
1036.464 .0263003
1037.047 .0262952
1037.630 .0262902
1038.213 .0262850
1038.796 .0262798
1039.378 .0262744
1039.961 .0262689
1040.543 .0262632
1041.125 .0262574
1041.707 .0262515
1042.289 .0262454
1042.871 .0262392
1043.452 .0262329
1044.034 .0262266
1044.615 .0262202
1045.196 .0262137
1045.777 .0262070
1046.358 .0262000
1046.939 .0261928
1047.520 .0261852
1048.101 .0261772
1048.681 .0261688
1049.262 .0261600
1049.842 .0261507
1050.422 .0261409
1051.002 .0261308
1051.582 .0261202
1052.162 .0261093
1052.742 .0260981
1053.322 .0260867
1053.902 .0260750
1054.482 .0260633
1055.061 .0260515
1055.641 .0260400
1056.220 .0260287
1056.800 .0260180
1057.379 .0260078
1057.958 .0259985
1058.538 .0259899
1059.117 .0259821
1059.696 .0259752
1060.275 .0259689
1060.854 .0259633
1061.433 .0259582
1062.012 .0259534
1062.592 .0259489
1063.171 .0259446
1063.750 .0259404
1064.329 .0259363
1064.908 .0259323
1065.487 .0259283
1066.066 .0259243
1066.645 .0259203
1067.224 .0259163
1067.803 .0259124
1068.382 .0259086
1068.961 .0259048
1069.540 .0259012
1070.119 .0258979
1070.698 .0258949
1071.278 .0258922
1071.857 .0258899
1072.436 .0258880
1073.016 .0258862
1073.595 .0258847
1074.175 .0258832
1074.754 .0258817
1075.334 .0258803
1075.913 .0258787
1076.493 .0258771
1077.073 .0258753
1077.653 .0258735
1078.233 .0258716
1078.813 .0258696
1079.393 .0258676
1079.974 .0258654
1080.554 .0258632
1081.135 .0258609
1081.716 .0258589
1082.296 .0258571
1082.877 .0258557
1083.458 .0258549
1084.040 .0258548
1084.621 .0258555
1085.202 .0258571
1085.784 .0258596
1086.366 .0258631
1086.948 .0258674
1087.530 .0258725
1088.112 .0258782
1088.695 .0258846
1089.277 .0258915
1089.860 .0258988
1090.443 .0259063
1091.026 .0259140
1091.610 .0259217
1092.193 .0259293
1092.777 .0259367
1093.361 .0259438
1093.946 .0259506
1094.530 .0259568
1095.115 .0259623
1095.700 .0259671
1096.285 .0259712
1096.871 .0259745
1097.456 .0259771
1098.042 .0259791
1098.628 .0259807
1099.215 .0259819
1099.802 .0259828
1100.389 .0259838
1100.976 .0259847
1101.564 .0259856
1102.152 .0259862
1102.740 .0259866
1103.329 .0259866
1103.917 .0259861
1104.507 .0259853
1105.096 .0259843
1105.686 .0259832
1106.276 .0259823
1106.867 .0259817
1107.457 .0259815
1108.049 .0259818
1108.640 .0259825
1109.232 .0259837
1109.825 .0259852
1110.417 .0259873
1111.010 .0259899
1111.604 .0259934
1112.198 .0259981
1112.792 .0260045
1113.387 .0260125
1113.982 .0260223
1114.577 .0260340
1115.173 .0260472
1115.769 .0260618
1116.366 .0260777
1116.963 .0260946
1117.561 .0261124
1118.159 .0261311
1118.758 .0261507
1119.357 .0261711
1119.957 .0261926
1120.557 .0262154
1121.157 .0262395
1121.758 .0262651
1122.360 .0262921
1122.962 .0263205
1123.564 .0263503
1124.167 .0263626
1124.771 .0263938
1125.375 .0264262
1125.980 .0264596
1126.585 .0264940
1127.191 .0265289
1127.797 .0265641
1128.404 .0265995
1129.012 .0266347
1129.620 .0266698
1130.229 .0267044
1130.838 .0267381
1131.448 .0267706
1132.058 .0268019
1132.669 .0268501
1133.281 .0268795
1133.894 .0269075
1134.507 .0269294
1135.120 .0269485
1135.735 .0269834
1136.350 .0270122
1136.965 .0271601
1137.582 .0271813
1138.199 .0271939
1138.816 .0271952
1139.435 .0271925
1140.054 .0271805
1140.674 .0271734
1141.294 .0271616
1141.916 .0271485
1142.538 .0270078
1143.160 .0269634
1143.784 .0274171
1144.408 .0272856
1145.033 .0270506
