Measurement Sequence started on: 14-45-04-498
Integration time: 36
Scans to Average: 2 
>>>>>Begin Spectral Data<<<<<
433.946 .0702259
434.870 .0513947
435.793 .0483135
436.715 .0445450
437.635 .0418042
438.555 .0438891
439.473 .0420945
440.389 .0411457
441.305 .0404288
442.219 .0399035
443.132 .0411031
444.044 .0404143
444.954 .0398840
445.863 .0395490
446.771 .0393552
447.678 .0390488
448.584 .0388350
449.488 .0386689
450.391 .0385381
451.293 .0384329
452.194 .0383461
453.094 .0382754
453.992 .0382151
454.890 .0381612
455.786 .0381103
456.681 .0380597
457.575 .0380082
458.468 .0379557
459.360 .0379023
460.250 .0378487
461.140 .0377948
462.028 .0377407
462.915 .0376861
463.801 .0376307
464.687 .0375742
465.571 .0375157
466.454 .0374552
467.335 .0373927
468.216 .0373277
469.096 .0372600
469.975 .0371902
470.853 .0371181
471.729 .0370442
472.605 .0369693
473.479 .0368944
474.353 .0368202
475.226 .0367474
476.097 .0366770
476.968 .0366095
477.838 .0365456
478.706 .0364854
479.574 .0364290
480.441 .0363766
481.306 .0363284
482.171 .0362842
483.035 .0362438
483.898 .0362074
484.760 .0361747
485.621 .0361451
486.481 .0361185
487.340 .0360943
488.198 .0360715
489.055 .0360494
489.912 .0360273
490.767 .0360041
491.622 .0359581
492.476 .0359269
493.329 .0358918
494.180 .0358527
495.032 .0358093
495.882 .0357619
496.731 .0357109
497.580 .0356568
498.427 .0356002
499.274 .0355418
500.120 .0355097
500.965 .0354511
501.809 .0353920
502.653 .0353336
503.495 .0352767
504.337 .0352223
505.178 .0351714
506.018 .0351253
506.858 .0350846
507.696 .0350498
508.534 .0350212
509.371 .0349991
510.208 .0349833
511.043 .0349736
511.878 .0349697
512.712 .0349715
513.545 .0349789
514.377 .0349915
515.209 .0350089
516.040 .0350306
516.870 .0350552
517.699 .0350818
518.528 .0351089
519.356 .0351354
520.183 .0351596
521.010 .0351803
521.836 .0351969
522.661 .0352083
523.485 .0352135
524.309 .0352117
525.132 .0352025
525.954 .0351859
526.776 .0351613
527.597 .0351284
528.417 .0350874
529.237 .0350388
530.056 .0349828
530.874 .0349196
531.692 .0348494
532.508 .0347730
533.325 .0346904
534.140 .0346024
534.955 .0345098
535.770 .0344135
536.583 .0343149
537.397 .0342152
538.209 .0341156
539.021 .0340173
539.832 .0339216
540.643 .0338300
541.453 .0337434
542.262 .0336630
543.071 .0335885
543.879 .0335202
544.687 .0334582
545.494 .0334020
546.300 .0333509
547.106 .0333046
547.911 .0332627
548.716 .0332252
549.520 .0331918
550.323 .0331632
551.126 .0331394
551.929 .0331208
552.731 .0331071
553.532 .0330975
554.332 .0330914
555.133 .0330876
555.932 .0330846
556.731 .0330813
557.530 .0330763
558.328 .0330689
559.125 .0330587
559.922 .0330459
560.719 .0330309
561.515 .0330140
562.310 .0329956
563.105 .0329755
563.899 .0329534
564.693 .0329290
565.487 .0329018
566.280 .0328714
567.072 .0328376
567.864 .0328006
568.655 .0327604
569.446 .0327178
570.236 .0326734
571.026 .0326275
571.816 .0325809
572.605 .0325338
573.393 .0324866
574.181 .0324394
574.969 .0323924
575.756 .0323458
576.543 .0322998
577.329 .0322546
578.115 .0322107
578.900 .0321682
579.685 .0321277
580.469 .0320895
581.253 .0320536
582.036 .0320201
582.820 .0319892
583.602 .0319606
584.384 .0319342
585.166 .0319101
585.947 .0318880
586.728 .0318680
587.509 .0318499
588.289 .0318335
589.069 .0318187
589.848 .0318052
590.627 .0317928
591.405 .0317810
592.183 .0317698
592.961 .0317588
593.738 .0317479
594.515 .0317370
595.291 .0317263
596.067 .0317157
596.843 .0317052
597.618 .0316946
598.393 .0316773
599.167 .0316656
599.941 .0316533
600.715 .0316403
601.488 .0316263
602.261 .0316112
603.034 .0315949
603.806 .0315775
604.578 .0315590
605.349 .0315395
606.121 .0315191
606.891 .0315064
607.662 .0314847
608.432 .0314621
609.201 .0314386
609.971 .0314144
610.740 .0313894
611.508 .0313635
612.277 .0313369
613.045 .0313096
613.812 .0312818
614.579 .0312537
615.346 .0312253
616.113 .0311968
616.879 .0311683
617.645 .0311398
618.411 .0311114
619.176 .0310833
619.941 .0310553
620.705 .0310277
621.470 .0310004
622.233 .0309734
622.997 .0309468
623.760 .0309207
624.523 .0308952
625.286 .0308705
626.048 .0308464
626.810 .0308232
627.572 .0308008
628.333 .0307794
629.095 .0307588
629.855 .0307393
630.616 .0307207
631.376 .0307031
632.136 .0306866
632.895 .0306709
633.655 .0306563
634.414 .0306425
635.172 .0306295
635.931 .0306172
636.689 .0306054
637.447 .0305941
638.204 .0305832
638.962 .0305727
639.718 .0305625
640.475 .0305525
641.231 .0305429
641.988 .0305334
642.743 .0305240
643.499 .0305146
644.254 .0305051
645.009 .0304954
645.764 .0304854
646.518 .0304750
647.272 .0304641
648.026 .0304526
648.780 .0304404
649.533 .0304276
650.286 .0304142
651.039 .0304002
651.792 .0303856
652.544 .0303706
653.296 .0303552
654.048 .0303395
654.799 .0303236
655.550 .0303075
656.301 .0302912
657.052 .0302747
657.802 .0302579
658.552 .0302408
659.302 .0302234
660.052 .0302058
660.801 .0301880
661.550 .0301701
662.299 .0301522
663.048 .0301344
663.796 .0301168
664.544 .0300993
665.292 .0300819
666.040 .0300646
666.787 .0300473
667.534 .0300299
668.281 .0300124
669.028 .0299948
669.774 .0299771
670.521 .0299593
671.266 .0299415
672.012 .0299239
672.758 .0299065
673.503 .0298894
674.248 .0298727
674.992 .0298565
675.737 .0298407
676.481 .0298254
677.225 .0298104
677.969 .0297957
678.712 .0297813
679.455 .0297673
680.199 .0297536
680.941 .0297402
681.684 .0297273
682.426 .0297147
683.168 .0297025
683.910 .0296907
684.652 .0296792
685.393 .0296680
686.134 .0296570
686.875 .0296461
687.616 .0296351
688.356 .0296241
689.097 .0296129
689.837 .0296015
690.576 .0295898
691.316 .0295779
692.055 .0295657
692.794 .0295533
693.533 .0295407
694.272 .0295281
695.010 .0295154
695.748 .0295028
696.486 .0294903
697.224 .0294778
697.962 .0294656
698.699 .0294534
699.436 .0294415
700.173 .0294297
700.909 .0294182
701.646 .0294069
702.382 .0293959
703.118 .0293853
703.853 .0293751
704.589 .0293652
705.324 .0293556
706.059 .0293463
706.794 .0293369
707.529 .0293276
708.263 .0293181
708.997 .0293084
709.731 .0292984
710.465 .0292882
711.198 .0292776
711.931 .0292667
712.664 .0292555
713.397 .0292439
714.130 .0292319
714.862 .0292195
715.594 .0292066
716.326 .0291932
717.058 .0291793
717.789 .0291650
718.520 .0291503
719.251 .0291353
719.982 .0291200
720.713 .0291046
721.443 .0290891
722.173 .0290736
722.903 .0290580
723.633 .0290426
724.362 .0290274
725.091 .0290124
725.820 .0289977
726.549 .0289832
727.278 .0289691
728.006 .0289552
728.734 .0289415
729.462 .0289278
730.190 .0289143
730.917 .0289007
731.644 .0288871
732.371 .0288735
733.098 .0288601
733.825 .0288469
734.551 .0288338
735.277 .0288209
736.003 .0288082
736.728 .0287956
737.454 .0287831
738.179 .0287706
738.904 .0287583
739.629 .0287460
740.353 .0287337
741.077 .0287216
741.801 .0287097
742.525 .0286980
743.249 .0286865
743.972 .0286752
744.695 .0286642
745.418 .0286534
746.141 .0286428
746.863 .0286325
747.585 .0286225
748.307 .0286127
749.029 .0286032
749.750 .0285940
750.472 .0285851
751.193 .0285764
751.913 .0285680
752.634 .0285599
753.354 .0285521
754.074 .0285445
754.794 .0285373
755.514 .0285303
756.233 .0285237
756.952 .0285173
757.671 .0285111
758.390 .0285052
759.108 .0284993
759.826 .0284936
760.544 .0284880
761.262 .0284826
761.979 .0284773
762.697 .0284721
763.414 .0284671
764.130 .0284622
764.847 .0284574
765.563 .0284527
766.279 .0284480
766.995 .0284435
767.710 .0284391
768.426 .0284348
769.141 .0284306
769.855 .0284265
770.570 .0284225
771.284 .0284185
771.998 .0284145
772.712 .0284104
773.426 .0284061
774.139 .0284017
774.852 .0283971
775.565 .0283923
776.277 .0283873
776.990 .0283822
777.702 .0283768
778.414 .0283713
779.125 .0283657
779.836 .0283599
780.547 .0283540
781.258 .0283480
781.969 .0283420
782.679 .0283358
783.389 .0283259
784.099 .0283193
784.808 .0283125
785.517 .0283053
786.226 .0282976
786.935 .0282896
787.643 .0282811
788.352 .0282723
789.060 .0282631
789.767 .0282536
790.475 .0282437
791.182 .0282335
791.889 .0282273
792.595 .0282164
793.301 .0282050
794.008 .0281933
794.713 .0281811
795.419 .0281685
796.124 .0281554
796.829 .0281420
797.534 .0281281
798.238 .0281138
798.942 .0280992
799.646 .0280843
800.350 .0280692
801.053 .0280538
801.756 .0280384
802.459 .0280229
803.162 .0280074
803.864 .0279919
804.566 .0279765
805.267 .0279611
805.969 .0279458
806.670 .0279306
807.371 .0279156
808.071 .0279007
808.772 .0278861
809.472 .0278718
810.171 .0278577
810.871 .0278438
811.570 .0278303
812.269 .0278170
812.967 .0278041
813.666 .0277913
814.364 .0277788
815.061 .0277665
815.759 .0277544
816.456 .0277423
817.153 .0277302
817.849 .0277181
818.545 .0277059
819.241 .0276937
819.937 .0276813
820.632 .0276690
821.327 .0276566
822.022 .0276443
822.717 .0276321
823.411 .0276201
824.105 .0276082
824.798 .0275967
825.491 .0275854
826.184 .0275745
826.877 .0275641
827.569 .0275541
828.261 .0275447
828.953 .0275359
829.645 .0275276
830.336 .0275198
831.027 .0275126
831.717 .0275060
832.407 .0274998
833.097 .0274942
833.787 .0274890
834.476 .0274843
835.165 .0274799
835.854 .0274757
836.542 .0274716
837.230 .0274674
837.918 .0274631
838.605 .0274585
839.292 .0274535
839.979 .0274481
840.665 .0274423
841.352 .0274361
842.037 .0274296
842.723 .0274227
843.408 .0274155
844.093 .0274080
844.777 .0274003
845.462 .0273923
846.145 .0273840
846.829 .0273754
847.512 .0273666
848.195 .0273574
848.878 .0273480
849.560 .0273384
850.242 .0273285
850.923 .0273185
851.605 .0273083
852.286 .0272980
852.966 .0272878
853.646 .0272775
854.326 .0272674
855.006 .0272575
855.685 .0272479
856.364 .0272385
857.043 .0272295
857.721 .0272208
858.399 .0272125
859.077 .0272045
859.754 .0271967
860.431 .0271892
861.107 .0271819
861.784 .0271747
862.459 .0271677
863.135 .0271608
863.810 .0271540
864.485 .0271471
865.160 .0271402
865.834 .0271332
866.508 .0271259
867.181 .0271182
867.854 .0271102
868.527 .0271017
869.199 .0270927
869.872 .0270833
870.543 .0270734
871.215 .0270632
871.886 .0270526
872.557 .0270417
873.227 .0270305
873.897 .0270189
874.567 .0270070
875.236 .0269946
875.905 .0269817
876.573 .0269684
877.242 .0269546
877.909 .0269404
878.577 .0269258
879.244 .0269109
879.911 .0268957
880.577 .0268804
881.243 .0268649
881.909 .0268493
882.575 .0268337
883.240 .0268181
883.904 .0268026
884.569 .0267871
885.232 .0267718
885.896 .0267567
886.559 .0267418
887.222 .0267270
887.885 .0267124
888.547 .0266981
889.208 .0266839
889.870 .0266699
890.531 .0266562
891.192 .0266428
891.852 .0266297
892.512 .0266170
893.171 .0266046
893.830 .0265924
894.489 .0265806
895.148 .0265689
895.806 .0265574
896.464 .0265460
897.121 .0265346
897.778 .0265233
898.434 .0265122
899.091 .0264970
899.747 .0264866
900.402 .0264765
901.057 .0264668
901.712 .0264573
902.366 .0264482
903.020 .0264393
903.674 .0264308
904.327 .0264225
904.980 .0264146
905.633 .0264069
906.285 .0263996
906.936 .0263925
907.588 .0263894
908.239 .0263828
908.889 .0263763
909.540 .0263701
910.190 .0263640
910.839 .0263580
911.488 .0263520
912.137 .0263460
912.785 .0263398
913.433 .0263335
914.081 .0263269
914.728 .0263201
915.375 .0263129
916.021 .0263053
916.668 .0262972
917.313 .0262888
917.959 .0262799
918.604 .0262706
919.248 .0262609
919.892 .0262509
920.536 .0262406
921.180 .0262302
921.823 .0262194
922.465 .0262086
923.108 .0261975
923.750 .0261862
924.391 .0261748
925.032 .0261633
925.673 .0261516
926.313 .0261397
926.953 .0261278
927.593 .0261159
928.232 .0261039
928.871 .0260920
929.510 .0260802
930.148 .0260686
930.786 .0260571
931.423 .0260458
932.060 .0260346
932.697 .0260236
933.333 .0260128
933.969 .0260020
934.604 .0259914
935.239 .0259807
935.874 .0259702
936.508 .0259596
937.142 .0259490
937.776 .0259385
938.409 .0259279
939.042 .0259173
939.674 .0259066
940.306 .0258958
940.938 .0258846
941.569 .0258732
942.200 .0258615
942.830 .0258494
943.460 .0258370
944.090 .0258242
944.720 .0258112
945.349 .0257979
945.977 .0257845
946.606 .0257708
947.233 .0257569
947.861 .0257427
948.488 .0257283
949.115 .0257135
949.741 .0256986
950.367 .0256836
950.993 .0256684
951.618 .0256533
952.243 .0256383
952.868 .0256233
953.492 .0256085
954.115 .0255937
954.739 .0255789
955.362 .0255641
955.984 .0255492
956.607 .0255343
957.229 .0255194
957.850 .0255046
958.471 .0254900
959.092 .0254757
959.713 .0254616
960.333 .0254478
960.952 .0254343
961.572 .0254209
962.191 .0254077
962.809 .0253947
963.428 .0253818
964.045 .0253691
964.663 .0253567
965.280 .0253447
965.897 .0253330
966.513 .0253219
967.129 .0253111
967.745 .0253008
968.361 .0252909
968.976 .0252813
969.590 .0252719
970.205 .0252627
970.818 .0252538
971.432 .0252451
972.045 .0252366
972.658 .0252285
973.271 .0252206
973.883 .0252130
974.495 .0252057
975.106 .0251985
975.717 .0251913
976.328 .0251840
976.938 .0251766
977.548 .0251689
978.158 .0251610
978.768 .0251479
979.377 .0251395
979.985 .0251311
980.594 .0251226
981.202 .0251140
981.809 .0251053
982.417 .0250964
983.024 .0250872
983.631 .0250778
984.237 .0250681
984.843 .0250581
985.449 .0250479
986.054 .0250376
986.659 .0250272
987.264 .0250220
987.868 .0250118
988.472 .0250018
989.076 .0249918
989.679 .0249819
990.282 .0249720
990.885 .0249623
991.487 .0249526
992.090 .0249431
992.691 .0249338
993.293 .0249249
993.894 .0249164
994.495 .0249083
995.095 .0249008
995.696 .0248939
996.296 .0248874
996.895 .0248814
997.494 .0248757
998.093 .0248704
998.692 .0248652
999.291 .0248602
999.889 .0248553
1000.487 .0248505
1001.084 .0248456
1001.681 .0248409
1002.278 .0248362
1002.875 .0248316
1003.471 .0248270
1004.067 .0248224
1004.663 .0248178
1005.258 .0248131
1005.854 .0248083
1006.449 .0248034
1007.043 .0247985
1007.638 .0247934
1008.232 .0247884
1008.826 .0247835
1009.419 .0247787
1010.012 .0247740
1010.605 .0247694
1011.198 .0247649
1011.791 .0247604
1012.383 .0247559
1012.975 .0247511
1013.566 .0247462
1014.158 .0247412
1014.749 .0247361
1015.340 .0247309
1015.931 .0247260
1016.521 .0247214
1017.111 .0247171
1017.701 .0247134
1018.291 .0247103
1018.880 .0247078
1019.470 .0247057
1020.059 .0247042
1020.647 .0247033
1021.236 .0247028
1021.824 .0247029
1022.412 .0247036
1023.000 .0247051
1023.588 .0247072
1024.175 .0247100
1024.762 .0247136
1025.349 .0247177
1025.936 .0247223
1026.523 .0247272
1027.109 .0247323
1027.695 .0247374
1028.281 .0247425
1028.867 .0247476
1029.452 .0247528
1030.038 .0247581
1030.623 .0247636
1031.208 .0247693
1031.792 .0247752
1032.377 .0247812
1032.961 .0247873
1033.546 .0247933
1034.130 .0247991
1034.714 .0248045
1035.297 .0248097
1035.881 .0248146
1036.464 .0248192
1037.047 .0248237
1037.630 .0248281
1038.213 .0248324
1038.796 .0248366
1039.378 .0248406
1039.961 .0248443
1040.543 .0248477
1041.125 .0248507
1041.707 .0248531
1042.289 .0248551
1042.871 .0248566
1043.452 .0248579
1044.034 .0248589
1044.615 .0248599
1045.196 .0248609
1045.777 .0248619
1046.358 .0248629
1046.939 .0248639
1047.520 .0248648
1048.101 .0248655
1048.681 .0248661
1049.262 .0248666
1049.842 .0248670
1050.422 .0248673
1051.002 .0248677
1051.582 .0248683
1052.162 .0248690
1052.742 .0248700
1053.322 .0248712
1053.902 .0248724
1054.482 .0248738
1055.061 .0248752
1055.641 .0248765
1056.220 .0248778
1056.800 .0248791
1057.379 .0248802
1057.958 .0248814
1058.538 .0248827
1059.117 .0248841
1059.696 .0248856
1060.275 .0248873
1060.854 .0248890
1061.433 .0248907
1062.012 .0248925
1062.592 .0248942
1063.171 .0248959
1063.750 .0248977
1064.329 .0248993
1064.908 .0249010
1065.487 .0249027
1066.066 .0249043
1066.645 .0249059
1067.224 .0249073
1067.803 .0249085
1068.382 .0249093
1068.961 .0249097
1069.540 .0249097
1070.119 .0249092
1070.698 .0249084
1071.278 .0249073
1071.857 .0249059
1072.436 .0249043
1073.016 .0249024
1073.595 .0249002
1074.175 .0248978
1074.754 .0248950
1075.334 .0248917
1075.913 .0248880
1076.493 .0248838
1077.073 .0248791
1077.653 .0248740
1078.233 .0248687
1078.813 .0248632
1079.393 .0248577
1079.974 .0248524
1080.554 .0248471
1081.135 .0248422
1081.716 .0248374
1082.296 .0248327
1082.877 .0248282
1083.458 .0248238
1084.040 .0248194
1084.621 .0248152
1085.202 .0248111
1085.784 .0248073
1086.366 .0248038
1086.948 .0248004
1087.530 .0247972
1088.112 .0247939
1088.695 .0247903
1089.277 .0247862
1089.860 .0247815
1090.443 .0247760
1091.026 .0247697
1091.610 .0247628
1092.193 .0247555
1092.777 .0247477
1093.361 .0247397
1093.946 .0247315
1094.530 .0247231
1095.115 .0247143
1095.700 .0247051
1096.285 .0246952
1096.871 .0246846
1097.456 .0246734
1098.042 .0246617
1098.628 .0246497
1099.215 .0246376
1099.802 .0246255
1100.389 .0246136
1100.976 .0246018
1101.564 .0245901
1102.152 .0245783
1102.740 .0245664
1103.329 .0245543
1103.917 .0245419
1104.507 .0245293
1105.096 .0245166
1105.686 .0245043
1106.276 .0244924
1106.867 .0244814
1107.457 .0244712
1108.049 .0244619
1108.640 .0244534
1109.232 .0244456
1109.825 .0244383
1110.417 .0244315
1111.010 .0244251
1111.604 .0244191
1112.198 .0244137
1112.792 .0244088
1113.387 .0244049
1113.982 .0244020
1114.577 .0244002
1115.173 .0243996
1115.769 .0244003
1116.366 .0244024
1116.963 .0244061
1117.561 .0244116
1118.159 .0244190
1118.758 .0244284
1119.357 .0244398
1119.957 .0244534
1120.557 .0244692
1121.157 .0244872
1121.758 .0245073
1122.360 .0245298
1122.962 .0245544
1123.564 .0245810
1124.167 .0245875
1124.771 .0246172
1125.375 .0246488
1125.980 .0246824
1126.585 .0247179
1127.191 .0247549
1127.797 .0247933
1128.404 .0248328
1129.012 .0248733
1129.620 .0249146
1130.229 .0249568
1130.838 .0249997
1131.448 .0250431
1132.058 .0250869
1132.669 .0251561
1133.281 .0252000
1133.894 .0252434
1134.507 .0252837
1135.120 .0253282
1135.735 .0253698
1136.350 .0254022
1136.965 .0254909
1137.582 .0255122
1138.199 .0255361
1138.816 .0255631
1139.435 .0255889
1140.054 .0256201
1140.674 .0256520
1141.294 .0256789
1141.916 .0257142
1142.538 .0256858
1143.160 .0258568
1143.784 .0258357
1144.408 .0256436
1145.033 .0260500
