Measurement Sequence started on: 14-45-04-498
Integration time: 36
Scans to Average: 2 
>>>>>Begin Spectral Data<<<<<
433.946 .0509473
434.870 .0441333
435.793 .0419530
436.715 .0423320
437.635 .0413532
438.555 .0418291
439.473 .0412417
440.389 .0409297
441.305 .0406973
442.219 .0404673
443.132 .0406087
444.044 .0403391
444.954 .0401784
445.863 .0399923
446.771 .0398522
447.678 .0396820
448.584 .0395379
449.488 .0394058
450.391 .0392816
451.293 .0391653
452.194 .0390553
453.094 .0389511
453.992 .0388515
454.890 .0387558
455.786 .0386634
456.681 .0385741
457.575 .0384882
458.468 .0384058
459.360 .0383271
460.250 .0382525
461.140 .0381820
462.028 .0381159
462.915 .0380546
463.801 .0379979
464.687 .0379455
465.571 .0378973
466.454 .0378525
467.335 .0378107
468.216 .0377714
469.096 .0377336
469.975 .0376974
470.853 .0376623
471.729 .0376285
472.605 .0375963
473.479 .0375660
474.353 .0375380
475.226 .0375124
476.097 .0374890
476.968 .0374672
477.838 .0374463
478.706 .0374257
479.574 .0374046
480.441 .0373830
481.306 .0373611
482.171 .0373390
483.035 .0373174
483.898 .0372969
484.760 .0372779
485.621 .0372606
486.481 .0372450
487.340 .0372307
488.198 .0372172
489.055 .0372038
489.912 .0371900
490.767 .0371754
491.622 .0371514
492.476 .0371349
493.329 .0371177
494.180 .0371000
495.032 .0370820
495.882 .0370636
496.731 .0370448
497.580 .0370257
498.427 .0370058
499.274 .0369851
500.120 .0369723
500.965 .0369500
501.809 .0369262
502.653 .0369009
503.495 .0368742
504.337 .0368459
505.178 .0368162
506.018 .0367853
506.858 .0367531
507.696 .0367196
508.534 .0366848
509.371 .0366483
510.208 .0366098
511.043 .0365691
511.878 .0365259
512.712 .0364801
513.545 .0364316
514.377 .0363803
515.209 .0363258
516.040 .0362681
516.870 .0362064
517.699 .0361409
518.528 .0360717
519.356 .0359991
520.183 .0359237
521.010 .0358467
521.836 .0357688
522.661 .0356912
523.485 .0356147
524.309 .0355400
525.132 .0354676
525.954 .0353979
526.776 .0353310
527.597 .0352673
528.417 .0352072
529.237 .0351512
530.056 .0350994
530.874 .0350527
531.692 .0350105
532.508 .0349725
533.325 .0349385
534.140 .0349083
534.955 .0348810
535.770 .0348561
536.583 .0348332
537.397 .0348115
538.209 .0347901
539.021 .0347683
539.832 .0347454
540.643 .0347210
541.453 .0346944
542.262 .0346652
543.071 .0346330
543.879 .0345984
544.687 .0345610
545.494 .0345209
546.300 .0344787
547.106 .0344343
547.911 .0343878
548.716 .0343396
549.520 .0342901
550.323 .0342397
551.126 .0341889
551.929 .0341384
552.731 .0340885
553.532 .0340395
554.332 .0339919
555.133 .0339459
555.932 .0339016
556.731 .0338589
557.530 .0338175
558.328 .0337772
559.125 .0337383
559.922 .0337004
560.719 .0336631
561.515 .0336265
562.310 .0335904
563.105 .0335544
563.899 .0335180
564.693 .0334812
565.487 .0334438
566.280 .0334060
567.072 .0333679
567.864 .0333295
568.655 .0332913
569.446 .0332536
570.236 .0332164
571.026 .0331798
571.816 .0331437
572.605 .0331080
573.393 .0330726
574.181 .0330374
574.969 .0330022
575.756 .0329671
576.543 .0329323
577.329 .0328977
578.115 .0328634
578.900 .0328296
579.685 .0327962
580.469 .0327634
581.253 .0327312
582.036 .0326995
582.820 .0326682
583.602 .0326372
584.384 .0326066
585.166 .0325762
585.947 .0325460
586.728 .0325160
587.509 .0324860
588.289 .0324560
589.069 .0324261
589.848 .0323963
590.627 .0323665
591.405 .0323369
592.183 .0323076
592.961 .0322783
593.738 .0322493
594.515 .0322202
595.291 .0321912
596.067 .0321623
596.843 .0321333
597.618 .0321044
598.393 .0320618
599.167 .0320335
599.941 .0320057
600.715 .0319783
601.488 .0319514
602.261 .0319249
603.034 .0318988
603.806 .0318731
604.578 .0318478
605.349 .0318229
606.121 .0317985
606.891 .0317877
607.662 .0317644
608.432 .0317418
609.201 .0317198
609.971 .0316985
610.740 .0316780
611.508 .0316581
612.277 .0316390
613.045 .0316206
613.812 .0316027
614.579 .0315855
615.346 .0315687
616.113 .0315523
616.879 .0315363
617.645 .0315205
618.411 .0315050
619.176 .0314895
619.941 .0314742
620.705 .0314587
621.470 .0314432
622.233 .0314275
622.997 .0314115
623.760 .0313952
624.523 .0313785
625.286 .0313613
626.048 .0313438
626.810 .0313257
627.572 .0313073
628.333 .0312884
629.095 .0312691
629.855 .0312495
630.616 .0312295
631.376 .0312093
632.136 .0311886
632.895 .0311676
633.655 .0311462
634.414 .0311242
635.172 .0311018
635.931 .0310788
636.689 .0310553
637.447 .0310313
638.204 .0310068
638.962 .0309818
639.718 .0309565
640.475 .0309307
641.231 .0309046
641.988 .0308782
642.743 .0308514
643.499 .0308244
644.254 .0307971
645.009 .0307697
645.764 .0307421
646.518 .0307145
647.272 .0306870
648.026 .0306596
648.780 .0306325
649.533 .0306057
650.286 .0305793
651.039 .0305534
651.792 .0305280
652.544 .0305032
653.296 .0304791
654.048 .0304556
654.799 .0304329
655.550 .0304110
656.301 .0303898
657.052 .0303693
657.802 .0303496
658.552 .0303306
659.302 .0303121
660.052 .0302941
660.801 .0302766
661.550 .0302595
662.299 .0302429
663.048 .0302266
663.796 .0302108
664.544 .0301954
665.292 .0301803
666.040 .0301657
666.787 .0301515
667.534 .0301377
668.281 .0301242
669.028 .0301112
669.774 .0300985
670.521 .0300864
671.266 .0300747
672.012 .0300637
672.758 .0300532
673.503 .0300432
674.248 .0300338
674.992 .0300249
675.737 .0300165
676.481 .0300085
677.225 .0300009
677.969 .0299936
678.712 .0299865
679.455 .0299796
680.199 .0299729
680.941 .0299661
681.684 .0299593
682.426 .0299523
683.168 .0299450
683.910 .0299374
684.652 .0299294
685.393 .0299211
686.134 .0299124
686.875 .0299033
687.616 .0298937
688.356 .0298837
689.097 .0298732
689.837 .0298623
690.576 .0298508
691.316 .0298388
692.055 .0298263
692.794 .0298134
693.533 .0298001
694.272 .0297865
695.010 .0297726
695.748 .0297585
696.486 .0297442
697.224 .0297298
697.962 .0297152
698.699 .0297005
699.436 .0296857
700.173 .0296708
700.909 .0296560
701.646 .0296410
702.382 .0296261
703.118 .0296111
703.853 .0295962
704.589 .0295812
705.324 .0295663
706.059 .0295515
706.794 .0295369
707.529 .0295224
708.263 .0295082
708.997 .0294942
709.731 .0294804
710.465 .0294668
711.198 .0294534
711.931 .0294402
712.664 .0294272
713.397 .0294143
714.130 .0294015
714.862 .0293889
715.594 .0293765
716.326 .0293643
717.058 .0293523
717.789 .0293404
718.520 .0293287
719.251 .0293171
719.982 .0293056
720.713 .0292941
721.443 .0292827
722.173 .0292712
722.903 .0292598
723.633 .0292483
724.362 .0292368
725.091 .0292256
725.820 .0292145
726.549 .0292037
727.278 .0291933
728.006 .0291834
728.734 .0291739
729.462 .0291649
730.190 .0291565
730.917 .0291485
731.644 .0291410
732.371 .0291341
733.098 .0291277
733.825 .0291220
734.551 .0291169
735.277 .0291126
736.003 .0291090
736.728 .0291061
737.454 .0291038
738.179 .0291021
738.904 .0291009
739.629 .0291001
740.353 .0290996
741.077 .0290993
741.801 .0290990
742.525 .0290987
743.249 .0290983
743.972 .0290976
744.695 .0290967
745.418 .0290955
746.141 .0290940
746.863 .0290923
747.585 .0290902
748.307 .0290879
749.029 .0290852
749.750 .0290820
750.472 .0290784
751.193 .0290742
751.913 .0290695
752.634 .0290643
753.354 .0290586
754.074 .0290525
754.794 .0290462
755.514 .0290397
756.233 .0290329
756.952 .0290261
757.671 .0290189
758.390 .0290116
759.108 .0290040
759.826 .0289962
760.544 .0289881
761.262 .0289799
761.979 .0289714
762.697 .0289629
763.414 .0289542
764.130 .0289456
764.847 .0289369
765.563 .0289283
766.279 .0289196
766.995 .0289110
767.710 .0289025
768.426 .0288941
769.141 .0288857
769.855 .0288773
770.570 .0288690
771.284 .0288605
771.998 .0288520
772.712 .0288433
773.426 .0288346
774.139 .0288257
774.852 .0288168
775.565 .0288077
776.277 .0287986
776.990 .0287895
777.702 .0287802
778.414 .0287709
779.125 .0287615
779.836 .0287519
780.547 .0287422
781.258 .0287323
781.969 .0287223
782.679 .0287121
783.389 .0286964
784.099 .0286860
784.808 .0286754
785.517 .0286646
786.226 .0286536
786.935 .0286425
787.643 .0286313
788.352 .0286201
789.060 .0286087
789.767 .0285973
790.475 .0285859
791.182 .0285744
791.889 .0285686
792.595 .0285572
793.301 .0285458
794.008 .0285346
794.713 .0285237
795.419 .0285130
796.124 .0285027
796.829 .0284927
797.534 .0284831
798.238 .0284739
798.942 .0284651
799.646 .0284566
800.350 .0284485
801.053 .0284408
801.756 .0284336
802.459 .0284268
803.162 .0284204
803.864 .0284144
804.566 .0284088
805.267 .0284035
805.969 .0283985
806.670 .0283938
807.371 .0283893
808.071 .0283851
808.772 .0283812
809.472 .0283774
810.171 .0283739
810.871 .0283705
811.570 .0283672
812.269 .0283639
812.967 .0283605
813.666 .0283569
814.364 .0283533
815.061 .0283494
815.759 .0283454
816.456 .0283412
817.153 .0283368
817.849 .0283323
818.545 .0283276
819.241 .0283227
819.937 .0283177
820.632 .0283124
821.327 .0283070
822.022 .0283014
822.717 .0282958
823.411 .0282901
824.105 .0282845
824.798 .0282790
825.491 .0282737
826.184 .0282686
826.877 .0282636
827.569 .0282590
828.261 .0282546
828.953 .0282506
829.645 .0282468
830.336 .0282435
831.027 .0282404
831.717 .0282377
832.407 .0282353
833.097 .0282333
833.787 .0282314
834.476 .0282298
835.165 .0282284
835.854 .0282271
836.542 .0282258
837.230 .0282245
837.918 .0282232
838.605 .0282217
839.292 .0282200
839.979 .0282181
840.665 .0282158
841.352 .0282132
842.037 .0282101
842.723 .0282067
843.408 .0282027
844.093 .0281983
844.777 .0281932
845.462 .0281876
846.145 .0281813
846.829 .0281743
847.512 .0281667
848.195 .0281583
848.878 .0281494
849.560 .0281398
850.242 .0281296
850.923 .0281188
851.605 .0281076
852.286 .0280958
852.966 .0280837
853.646 .0280711
854.326 .0280582
855.006 .0280450
855.685 .0280316
856.364 .0280180
857.043 .0280042
857.721 .0279903
858.399 .0279763
859.077 .0279622
859.754 .0279480
860.431 .0279338
861.107 .0279194
861.784 .0279051
862.459 .0278906
863.135 .0278761
863.810 .0278616
864.485 .0278469
865.160 .0278322
865.834 .0278174
866.508 .0278025
867.181 .0277874
867.854 .0277722
868.527 .0277569
869.199 .0277414
869.872 .0277259
870.543 .0277102
871.215 .0276945
871.886 .0276787
872.557 .0276628
873.227 .0276467
873.897 .0276305
874.567 .0276142
875.236 .0275978
875.905 .0275812
876.573 .0275644
877.242 .0275475
877.909 .0275304
878.577 .0275131
879.244 .0274956
879.911 .0274779
880.577 .0274600
881.243 .0274420
881.909 .0274239
882.575 .0274057
883.240 .0273875
883.904 .0273694
884.569 .0273514
885.232 .0273335
885.896 .0273158
886.559 .0272984
887.222 .0272813
887.885 .0272646
888.547 .0272484
889.208 .0272327
889.870 .0272175
890.531 .0272030
891.192 .0271892
891.852 .0271762
892.512 .0271640
893.171 .0271525
893.830 .0271419
894.489 .0271322
895.148 .0271232
895.806 .0271150
896.464 .0271075
897.121 .0271008
897.778 .0270947
898.434 .0270894
899.091 .0270835
899.747 .0270794
900.402 .0270758
901.057 .0270726
901.712 .0270697
902.366 .0270669
903.020 .0270643
903.674 .0270617
904.327 .0270591
904.980 .0270563
905.633 .0270533
906.285 .0270501
906.936 .0270465
907.588 .0270436
908.239 .0270394
908.889 .0270349
909.540 .0270299
910.190 .0270246
910.839 .0270188
911.488 .0270128
912.137 .0270065
912.785 .0269999
913.433 .0269932
914.081 .0269863
914.728 .0269793
915.375 .0269723
916.021 .0269651
916.668 .0269580
917.313 .0269507
917.959 .0269434
918.604 .0269361
919.248 .0269288
919.892 .0269213
920.536 .0269139
921.180 .0269064
921.823 .0268988
922.465 .0268912
923.108 .0268836
923.750 .0268760
924.391 .0268684
925.032 .0268608
925.673 .0268532
926.313 .0268454
926.953 .0268375
927.593 .0268293
928.232 .0268210
928.871 .0268124
929.510 .0268035
930.148 .0267944
930.786 .0267851
931.423 .0267756
932.060 .0267659
932.697 .0267558
933.333 .0267456
933.969 .0267350
934.604 .0267241
935.239 .0267129
935.874 .0267014
936.508 .0266897
937.142 .0266778
937.776 .0266659
938.409 .0266538
939.042 .0266417
939.674 .0266295
940.306 .0266174
940.938 .0266052
941.569 .0265930
942.200 .0265809
942.830 .0265688
943.460 .0265568
944.090 .0265449
944.720 .0265332
945.349 .0265215
945.977 .0265100
946.606 .0264986
947.233 .0264872
947.861 .0264760
948.488 .0264649
949.115 .0264539
949.741 .0264432
950.367 .0264325
950.993 .0264221
951.618 .0264117
952.243 .0264014
952.868 .0263912
953.492 .0263809
954.115 .0263707
954.739 .0263605
955.362 .0263503
955.984 .0263404
956.607 .0263306
957.229 .0263210
957.850 .0263115
958.471 .0263022
959.092 .0262930
959.713 .0262838
960.333 .0262746
960.952 .0262655
961.572 .0262563
962.191 .0262473
962.809 .0262385
963.428 .0262298
964.045 .0262213
964.663 .0262129
965.280 .0262046
965.897 .0261963
966.513 .0261880
967.129 .0261796
967.745 .0261710
968.361 .0261622
968.976 .0261534
969.590 .0261445
970.205 .0261356
970.818 .0261266
971.432 .0261175
972.045 .0261082
972.658 .0260987
973.271 .0260889
973.883 .0260788
974.495 .0260682
975.106 .0260572
975.717 .0260459
976.328 .0260342
976.938 .0260222
977.548 .0260098
978.158 .0259972
978.768 .0259763
979.377 .0259628
979.985 .0259488
980.594 .0259345
981.202 .0259198
981.809 .0259046
982.417 .0258891
983.024 .0258734
983.631 .0258575
984.237 .0258414
984.843 .0258254
985.449 .0258093
986.054 .0257932
986.659 .0257773
987.264 .0257695
987.868 .0257539
988.472 .0257383
989.076 .0257227
989.679 .0257073
990.282 .0256920
990.885 .0256768
991.487 .0256620
992.090 .0256475
992.691 .0256334
993.293 .0256198
993.894 .0256065
994.495 .0255938
995.095 .0255815
995.696 .0255695
996.296 .0255579
996.895 .0255465
997.494 .0255355
998.093 .0255247
998.692 .0255143
999.291 .0255042
999.889 .0254944
1000.487 .0254849
1001.084 .0254757
1001.681 .0254668
1002.278 .0254582
1002.875 .0254497
1003.471 .0254413
1004.067 .0254331
1004.663 .0254250
1005.258 .0254169
1005.854 .0254091
1006.449 .0254013
1007.043 .0253938
1007.638 .0253865
1008.232 .0253795
1008.826 .0253726
1009.419 .0253660
1010.012 .0253595
1010.605 .0253533
1011.198 .0253472
1011.791 .0253413
1012.383 .0253357
1012.975 .0253302
1013.566 .0253251
1014.158 .0253202
1014.749 .0253156
1015.340 .0253112
1015.931 .0253071
1016.521 .0253032
1017.111 .0252994
1017.701 .0252957
1018.291 .0252922
1018.880 .0252889
1019.470 .0252857
1020.059 .0252827
1020.647 .0252799
1021.236 .0252774
1021.824 .0252753
1022.412 .0252734
1023.000 .0252719
1023.588 .0252707
1024.175 .0252698
1024.762 .0252692
1025.349 .0252689
1025.936 .0252689
1026.523 .0252691
1027.109 .0252697
1027.695 .0252706
1028.281 .0252718
1028.867 .0252733
1029.452 .0252752
1030.038 .0252773
1030.623 .0252797
1031.208 .0252824
1031.792 .0252852
1032.377 .0252882
1032.961 .0252914
1033.546 .0252946
1034.130 .0252980
1034.714 .0253016
1035.297 .0253053
1035.881 .0253091
1036.464 .0253131
1037.047 .0253171
1037.630 .0253211
1038.213 .0253251
1038.796 .0253288
1039.378 .0253324
1039.961 .0253358
1040.543 .0253389
1041.125 .0253417
1041.707 .0253442
1042.289 .0253466
1042.871 .0253487
1043.452 .0253506
1044.034 .0253523
1044.615 .0253538
1045.196 .0253551
1045.777 .0253563
1046.358 .0253574
1046.939 .0253584
1047.520 .0253595
1048.101 .0253607
1048.681 .0253622
1049.262 .0253639
1049.842 .0253659
1050.422 .0253683
1051.002 .0253710
1051.582 .0253738
1052.162 .0253769
1052.742 .0253802
1053.322 .0253836
1053.902 .0253872
1054.482 .0253910
1055.061 .0253950
1055.641 .0253993
1056.220 .0254039
1056.800 .0254087
1057.379 .0254138
1057.958 .0254190
1058.538 .0254245
1059.117 .0254300
1059.696 .0254356
1060.275 .0254412
1060.854 .0254469
1061.433 .0254526
1062.012 .0254584
1062.592 .0254643
1063.171 .0254702
1063.750 .0254762
1064.329 .0254821
1064.908 .0254879
1065.487 .0254936
1066.066 .0254990
1066.645 .0255044
1067.224 .0255096
1067.803 .0255148
1068.382 .0255200
1068.961 .0255252
1069.540 .0255304
1070.119 .0255356
1070.698 .0255407
1071.278 .0255458
1071.857 .0255506
1072.436 .0255553
1073.016 .0255597
1073.595 .0255639
1074.175 .0255679
1074.754 .0255718
1075.334 .0255757
1075.913 .0255795
1076.493 .0255832
1077.073 .0255867
1077.653 .0255900
1078.233 .0255931
1078.813 .0255959
1079.393 .0255985
1079.974 .0256008
1080.554 .0256029
1081.135 .0256049
1081.716 .0256069
1082.296 .0256089
1082.877 .0256109
1083.458 .0256129
1084.040 .0256149
1084.621 .0256169
1085.202 .0256188
1085.784 .0256207
1086.366 .0256226
1086.948 .0256246
1087.530 .0256266
1088.112 .0256288
1088.695 .0256311
1089.277 .0256336
1089.860 .0256364
1090.443 .0256393
1091.026 .0256424
1091.610 .0256455
1092.193 .0256487
1092.777 .0256519
1093.361 .0256550
1093.946 .0256580
1094.530 .0256609
1095.115 .0256635
1095.700 .0256657
1096.285 .0256675
1096.871 .0256686
1097.456 .0256691
1098.042 .0256688
1098.628 .0256679
1099.215 .0256663
1099.802 .0256643
1100.389 .0256619
1100.976 .0256591
1101.564 .0256561
1102.152 .0256530
1102.740 .0256498
1103.329 .0256466
1103.917 .0256434
1104.507 .0256403
1105.096 .0256373
1105.686 .0256346
1106.276 .0256323
1106.867 .0256303
1107.457 .0256287
1108.049 .0256273
1108.640 .0256261
1109.232 .0256249
1109.825 .0256238
1110.417 .0256227
1111.010 .0256218
1111.604 .0256210
1112.198 .0256203
1112.792 .0256199
1113.387 .0256197
1113.982 .0256199
1114.577 .0256205
1115.173 .0256215
1115.769 .0256228
1116.366 .0256244
1116.963 .0256264
1117.561 .0256288
1118.159 .0256317
1118.758 .0256350
1119.357 .0256386
1119.957 .0256427
1120.557 .0256471
1121.157 .0256519
1121.758 .0256573
1122.360 .0256635
1122.962 .0256706
1123.564 .0256785
1124.167 .0256797
1124.771 .0256884
1125.375 .0256982
1125.980 .0257093
1126.585 .0257215
1127.191 .0257350
1127.797 .0257498
1128.404 .0257660
1129.012 .0257838
1129.620 .0258034
1130.229 .0258251
1130.838 .0258489
1131.448 .0258748
1132.058 .0259026
1132.669 .0259433
1133.281 .0259755
1133.894 .0260089
1134.507 .0260399
1135.120 .0260737
1135.735 .0261066
1136.350 .0261466
1136.965 .0261667
1137.582 .0262128
1138.199 .0262645
1138.816 .0263161
1139.435 .0263664
1140.054 .0264129
1140.674 .0264516
1141.294 .0264905
1141.916 .0265273
1142.538 .0264710
1143.160 .0265572
1143.784 .0265443
1144.408 .0267473
1145.033 .0268197
