Measurement Sequence started on: 14-45-04-498
Integration time: 36
Scans to Average: 2 
>>>>>Begin Spectral Data<<<<<
433.946 .0218860
434.870 .0396644
435.793 .0406653
436.715 .0409946
437.635 .0400024
438.555 .0394175
439.473 .0399564
440.389 .0398290
441.305 .0396775
442.219 .0395225
443.132 .0394919
444.044 .0394470
444.954 .0393460
445.863 .0392231
446.771 .0391472
447.678 .0390972
448.584 .0390136
449.488 .0389317
450.391 .0388533
451.293 .0387789
452.194 .0387069
453.094 .0386369
453.992 .0385680
454.890 .0384988
455.786 .0384273
456.681 .0383530
457.575 .0382742
458.468 .0381907
459.360 .0381028
460.250 .0380116
461.140 .0379178
462.028 .0378234
462.915 .0377295
463.801 .0376375
464.687 .0375474
465.571 .0374594
466.454 .0373736
467.335 .0372894
468.216 .0372066
469.096 .0371254
469.975 .0370463
470.853 .0369704
471.729 .0368985
472.605 .0368323
473.479 .0367728
474.353 .0367210
475.226 .0366774
476.097 .0366420
476.968 .0366149
477.838 .0365955
478.706 .0365827
479.574 .0365759
480.441 .0365745
481.306 .0365777
482.171 .0365852
483.035 .0365969
483.898 .0366125
484.760 .0366311
485.621 .0366521
486.481 .0366739
487.340 .0366953
488.198 .0367147
489.055 .0367304
489.912 .0367412
490.767 .0367464
491.622 .0367274
492.476 .0367156
493.329 .0366978
494.180 .0366740
495.032 .0366449
495.882 .0366106
496.731 .0365714
497.580 .0365279
498.427 .0364807
499.274 .0364303
500.120 .0364018
500.965 .0363507
501.809 .0362988
502.653 .0362465
503.495 .0361944
504.337 .0361426
505.178 .0360919
506.018 .0360423
506.858 .0359945
507.696 .0359486
508.534 .0359054
509.371 .0358652
510.208 .0358280
511.043 .0357937
511.878 .0357620
512.712 .0357324
513.545 .0357046
514.377 .0356780
515.209 .0356519
516.040 .0356259
516.870 .0356000
517.699 .0355740
518.528 .0355476
519.356 .0355209
520.183 .0354937
521.010 .0354654
521.836 .0354360
522.661 .0354044
523.485 .0353699
524.309 .0353317
525.132 .0352891
525.954 .0352414
526.776 .0351885
527.597 .0351306
528.417 .0350684
529.237 .0350030
530.056 .0349355
530.874 .0348668
531.692 .0347978
532.508 .0347298
533.325 .0346630
534.140 .0345973
534.955 .0345327
535.770 .0344691
536.583 .0344067
537.397 .0343461
538.209 .0342881
539.021 .0342338
539.832 .0341844
540.643 .0341413
541.453 .0341048
542.262 .0340756
543.071 .0340538
543.879 .0340388
544.687 .0340299
545.494 .0340260
546.300 .0340261
547.106 .0340290
547.911 .0340335
548.716 .0340386
549.520 .0340430
550.323 .0340459
551.126 .0340468
551.929 .0340453
552.731 .0340417
553.532 .0340355
554.332 .0340271
555.133 .0340165
555.932 .0340037
556.731 .0339887
557.530 .0339714
558.328 .0339516
559.125 .0339292
559.922 .0339041
560.719 .0338760
561.515 .0338452
562.310 .0338118
563.105 .0337765
563.899 .0337399
564.693 .0337028
565.487 .0336660
566.280 .0336302
567.072 .0335961
567.864 .0335633
568.655 .0335317
569.446 .0335005
570.236 .0334692
571.026 .0334371
571.816 .0334041
572.605 .0333703
573.393 .0333359
574.181 .0333014
574.969 .0332676
575.756 .0332349
576.543 .0332036
577.329 .0331741
578.115 .0331461
578.900 .0331196
579.685 .0330941
580.469 .0330694
581.253 .0330452
582.036 .0330215
582.820 .0329982
583.602 .0329756
584.384 .0329540
585.166 .0329338
585.947 .0329153
586.728 .0328988
587.509 .0328843
588.289 .0328716
589.069 .0328602
589.848 .0328496
590.627 .0328392
591.405 .0328286
592.183 .0328178
592.961 .0328065
593.738 .0327949
594.515 .0327832
595.291 .0327715
596.067 .0327599
596.843 .0327483
597.618 .0327366
598.393 .0327170
599.167 .0327040
599.941 .0326901
600.715 .0326753
601.488 .0326595
602.261 .0326428
603.034 .0326254
603.806 .0326072
604.578 .0325886
605.349 .0325695
606.121 .0325501
606.891 .0325397
607.662 .0325200
608.432 .0325000
609.201 .0324797
609.971 .0324589
610.740 .0324378
611.508 .0324161
612.277 .0323940
613.045 .0323714
613.812 .0323484
614.579 .0323253
615.346 .0323021
616.113 .0322791
616.879 .0322562
617.645 .0322336
618.411 .0322112
619.176 .0321889
619.941 .0321666
620.705 .0321444
621.470 .0321220
622.233 .0320995
622.997 .0320768
623.760 .0320542
624.523 .0320317
625.286 .0320095
626.048 .0319876
626.810 .0319662
627.572 .0319454
628.333 .0319251
629.095 .0319054
629.855 .0318863
630.616 .0318678
631.376 .0318498
632.136 .0318321
632.895 .0318148
633.655 .0317978
634.414 .0317810
635.172 .0317646
635.931 .0317485
636.689 .0317330
637.447 .0317180
638.204 .0317037
638.962 .0316901
639.718 .0316774
640.475 .0316655
641.231 .0316543
641.988 .0316438
642.743 .0316337
643.499 .0316239
644.254 .0316144
645.009 .0316051
645.764 .0315960
646.518 .0315869
647.272 .0315780
648.026 .0315691
648.780 .0315604
649.533 .0315517
650.286 .0315430
651.039 .0315342
651.792 .0315254
652.544 .0315164
653.296 .0315071
654.048 .0314976
654.799 .0314877
655.550 .0314775
656.301 .0314667
657.052 .0314555
657.802 .0314437
658.552 .0314314
659.302 .0314187
660.052 .0314057
660.801 .0313925
661.550 .0313792
662.299 .0313658
663.048 .0313524
663.796 .0313390
664.544 .0313255
665.292 .0313119
666.040 .0312982
666.787 .0312844
667.534 .0312706
668.281 .0312567
669.028 .0312429
669.774 .0312291
670.521 .0312156
671.266 .0312021
672.012 .0311889
672.758 .0311757
673.503 .0311626
674.248 .0311494
674.992 .0311362
675.737 .0311228
676.481 .0311092
677.225 .0310954
677.969 .0310812
678.712 .0310668
679.455 .0310520
680.199 .0310370
680.941 .0310218
681.684 .0310065
682.426 .0309910
683.168 .0309754
683.910 .0309597
684.652 .0309441
685.393 .0309284
686.134 .0309126
686.875 .0308968
687.616 .0308810
688.356 .0308653
689.097 .0308497
689.837 .0308343
690.576 .0308192
691.316 .0308043
692.055 .0307897
692.794 .0307755
693.533 .0307615
694.272 .0307479
695.010 .0307346
695.748 .0307217
696.486 .0307091
697.224 .0306969
697.962 .0306851
698.699 .0306737
699.436 .0306627
700.173 .0306522
700.909 .0306420
701.646 .0306323
702.382 .0306229
703.118 .0306139
703.853 .0306052
704.589 .0305968
705.324 .0305887
706.059 .0305808
706.794 .0305732
707.529 .0305657
708.263 .0305584
708.997 .0305511
709.731 .0305439
710.465 .0305366
711.198 .0305293
711.931 .0305219
712.664 .0305144
713.397 .0305068
714.130 .0304990
714.862 .0304910
715.594 .0304828
716.326 .0304742
717.058 .0304653
717.789 .0304561
718.520 .0304466
719.251 .0304369
719.982 .0304269
720.713 .0304168
721.443 .0304065
722.173 .0303960
722.903 .0303854
723.633 .0303745
724.362 .0303633
725.091 .0303519
725.820 .0303401
726.549 .0303280
727.278 .0303156
728.006 .0303029
728.734 .0302900
729.462 .0302767
730.190 .0302633
730.917 .0302495
731.644 .0302355
732.371 .0302212
733.098 .0302068
733.825 .0301922
734.551 .0301776
735.277 .0301629
736.003 .0301482
736.728 .0301336
737.454 .0301189
738.179 .0301042
738.904 .0300896
739.629 .0300749
740.353 .0300603
741.077 .0300458
741.801 .0300314
742.525 .0300171
743.249 .0300031
743.972 .0299892
744.695 .0299755
745.418 .0299619
746.141 .0299484
746.863 .0299349
747.585 .0299214
748.307 .0299080
749.029 .0298944
749.750 .0298807
750.472 .0298669
751.193 .0298529
751.913 .0298387
752.634 .0298242
753.354 .0298094
754.074 .0297943
754.794 .0297789
755.514 .0297632
756.233 .0297473
756.952 .0297312
757.671 .0297149
758.390 .0296986
759.108 .0296821
759.826 .0296657
760.544 .0296493
761.262 .0296330
761.979 .0296169
762.697 .0296010
763.414 .0295854
764.130 .0295702
764.847 .0295555
765.563 .0295413
766.279 .0295276
766.995 .0295145
767.710 .0295018
768.426 .0294897
769.141 .0294781
769.855 .0294670
770.570 .0294564
771.284 .0294462
771.998 .0294365
772.712 .0294273
773.426 .0294185
774.139 .0294102
774.852 .0294023
775.565 .0293948
776.277 .0293878
776.990 .0293811
777.702 .0293748
778.414 .0293687
779.125 .0293629
779.836 .0293573
780.547 .0293518
781.258 .0293463
781.969 .0293410
782.679 .0293356
783.389 .0293273
784.099 .0293217
784.808 .0293159
785.517 .0293099
786.226 .0293039
786.935 .0292976
787.643 .0292913
788.352 .0292848
789.060 .0292782
789.767 .0292714
790.475 .0292644
791.182 .0292572
791.889 .0292530
792.595 .0292454
793.301 .0292375
794.008 .0292293
794.713 .0292208
795.419 .0292121
796.124 .0292031
796.829 .0291940
797.534 .0291847
798.238 .0291752
798.942 .0291656
799.646 .0291557
800.350 .0291458
801.053 .0291357
801.756 .0291255
802.459 .0291152
803.162 .0291047
803.864 .0290942
804.566 .0290835
805.267 .0290727
805.969 .0290616
806.670 .0290502
807.371 .0290386
808.071 .0290268
808.772 .0290147
809.472 .0290026
810.171 .0289903
810.871 .0289779
811.570 .0289655
812.269 .0289529
812.967 .0289401
813.666 .0289271
814.364 .0289138
815.061 .0289003
815.759 .0288866
816.456 .0288728
817.153 .0288590
817.849 .0288450
818.545 .0288311
819.241 .0288172
819.937 .0288032
820.632 .0287892
821.327 .0287750
822.022 .0287607
822.717 .0287462
823.411 .0287315
824.105 .0287167
824.798 .0287017
825.491 .0286867
826.184 .0286716
826.877 .0286564
827.569 .0286412
828.261 .0286258
828.953 .0286104
829.645 .0285950
830.336 .0285795
831.027 .0285641
831.717 .0285486
832.407 .0285333
833.097 .0285182
833.787 .0285031
834.476 .0284882
835.165 .0284734
835.854 .0284587
836.542 .0284441
837.230 .0284296
837.918 .0284153
838.605 .0284012
839.292 .0283873
839.979 .0283737
840.665 .0283604
841.352 .0283473
842.037 .0283346
842.723 .0283220
843.408 .0283095
844.093 .0282972
844.777 .0282849
845.462 .0282725
846.145 .0282602
846.829 .0282479
847.512 .0282356
848.195 .0282233
848.878 .0282111
849.560 .0281989
850.242 .0281866
850.923 .0281743
851.605 .0281617
852.286 .0281490
852.966 .0281360
853.646 .0281228
854.326 .0281094
855.006 .0280959
855.685 .0280823
856.364 .0280687
857.043 .0280551
857.721 .0280414
858.399 .0280278
859.077 .0280141
859.754 .0280004
860.431 .0279868
861.107 .0279733
861.784 .0279601
862.459 .0279471
863.135 .0279344
863.810 .0279221
864.485 .0279102
865.160 .0278984
865.834 .0278869
866.508 .0278754
867.181 .0278640
867.854 .0278527
868.527 .0278415
869.199 .0278304
869.872 .0278195
870.543 .0278088
871.215 .0277982
871.886 .0277878
872.557 .0277775
873.227 .0277673
873.897 .0277571
874.567 .0277470
875.236 .0277370
875.905 .0277271
876.573 .0277173
877.242 .0277076
877.909 .0276980
878.577 .0276884
879.244 .0276789
879.911 .0276693
880.577 .0276599
881.243 .0276504
881.909 .0276412
882.575 .0276321
883.240 .0276232
883.904 .0276146
884.569 .0276062
885.232 .0275980
885.896 .0275900
886.559 .0275821
887.222 .0275743
887.885 .0275666
888.547 .0275591
889.208 .0275518
889.870 .0275448
890.531 .0275380
891.192 .0275315
891.852 .0275252
892.512 .0275189
893.171 .0275128
893.830 .0275066
894.489 .0275003
895.148 .0274939
895.806 .0274873
896.464 .0274804
897.121 .0274733
897.778 .0274660
898.434 .0274584
899.091 .0274460
899.747 .0274379
900.402 .0274297
901.057 .0274213
901.712 .0274127
902.366 .0274039
903.020 .0273950
903.674 .0273859
904.327 .0273766
904.980 .0273670
905.633 .0273572
906.285 .0273472
906.936 .0273370
907.588 .0273316
908.239 .0273214
908.889 .0273111
909.540 .0273007
910.190 .0272903
910.839 .0272798
911.488 .0272692
912.137 .0272585
912.785 .0272476
913.433 .0272367
914.081 .0272256
914.728 .0272144
915.375 .0272031
916.021 .0271916
916.668 .0271800
917.313 .0271682
917.959 .0271561
918.604 .0271436
919.248 .0271308
919.892 .0271175
920.536 .0271038
921.180 .0270897
921.823 .0270752
922.465 .0270605
923.108 .0270455
923.750 .0270302
924.391 .0270146
925.032 .0269987
925.673 .0269825
926.313 .0269659
926.953 .0269489
927.593 .0269316
928.232 .0269140
928.871 .0268963
929.510 .0268785
930.148 .0268607
930.786 .0268429
931.423 .0268250
932.060 .0268071
932.697 .0267890
933.333 .0267707
933.969 .0267522
934.604 .0267335
935.239 .0267146
935.874 .0266956
936.508 .0266766
937.142 .0266577
937.776 .0266389
938.409 .0266203
939.042 .0266018
939.674 .0265833
940.306 .0265650
940.938 .0265465
941.569 .0265281
942.200 .0265097
942.830 .0264912
943.460 .0264728
944.090 .0264545
944.720 .0264363
945.349 .0264181
945.977 .0263999
946.606 .0263817
947.233 .0263634
947.861 .0263450
948.488 .0263266
949.115 .0263081
949.741 .0262896
950.367 .0262711
950.993 .0262528
951.618 .0262345
952.243 .0262164
952.868 .0261983
953.492 .0261803
954.115 .0261624
954.739 .0261447
955.362 .0261272
955.984 .0261099
956.607 .0260928
957.229 .0260761
957.850 .0260597
958.471 .0260437
959.092 .0260279
959.713 .0260124
960.333 .0259971
960.952 .0259819
961.572 .0259669
962.191 .0259520
962.809 .0259374
963.428 .0259231
964.045 .0259092
964.663 .0258959
965.280 .0258830
965.897 .0258706
966.513 .0258587
967.129 .0258471
967.745 .0258358
968.361 .0258247
968.976 .0258138
969.590 .0258032
970.205 .0257930
970.818 .0257831
971.432 .0257737
972.045 .0257647
972.658 .0257561
973.271 .0257478
973.883 .0257399
974.495 .0257321
975.106 .0257245
975.717 .0257171
976.328 .0257100
976.938 .0257031
977.548 .0256966
978.158 .0256905
978.768 .0256827
979.377 .0256774
979.985 .0256722
980.594 .0256671
981.202 .0256619
981.809 .0256566
982.417 .0256512
983.024 .0256457
983.631 .0256402
984.237 .0256347
984.843 .0256293
985.449 .0256240
986.054 .0256189
986.659 .0256139
987.264 .0256107
987.868 .0256058
988.472 .0256009
989.076 .0255959
989.679 .0255908
990.282 .0255857
990.885 .0255805
991.487 .0255753
992.090 .0255702
992.691 .0255652
993.293 .0255603
993.894 .0255555
994.495 .0255508
995.095 .0255462
995.696 .0255416
996.296 .0255371
996.895 .0255326
997.494 .0255283
998.093 .0255241
998.692 .0255203
999.291 .0255168
999.889 .0255137
1000.487 .0255111
1001.084 .0255090
1001.681 .0255073
1002.278 .0255060
1002.875 .0255050
1003.471 .0255044
1004.067 .0255040
1004.663 .0255038
1005.258 .0255038
1005.854 .0255038
1006.449 .0255038
1007.043 .0255039
1007.638 .0255039
1008.232 .0255039
1008.826 .0255038
1009.419 .0255036
1010.012 .0255033
1010.605 .0255029
1011.198 .0255022
1011.791 .0255012
1012.383 .0255000
1012.975 .0254986
1013.566 .0254969
1014.158 .0254951
1014.749 .0254932
1015.340 .0254911
1015.931 .0254890
1016.521 .0254867
1017.111 .0254843
1017.701 .0254818
1018.291 .0254789
1018.880 .0254759
1019.470 .0254725
1020.059 .0254690
1020.647 .0254653
1021.236 .0254614
1021.824 .0254575
1022.412 .0254534
1023.000 .0254494
1023.588 .0254452
1024.175 .0254411
1024.762 .0254370
1025.349 .0254328
1025.936 .0254287
1026.523 .0254248
1027.109 .0254210
1027.695 .0254175
1028.281 .0254143
1028.867 .0254116
1029.452 .0254092
1030.038 .0254073
1030.623 .0254059
1031.208 .0254050
1031.792 .0254045
1032.377 .0254045
1032.961 .0254050
1033.546 .0254059
1034.130 .0254073
1034.714 .0254090
1035.297 .0254109
1035.881 .0254129
1036.464 .0254150
1037.047 .0254171
1037.630 .0254191
1038.213 .0254209
1038.796 .0254224
1039.378 .0254238
1039.961 .0254249
1040.543 .0254257
1041.125 .0254262
1041.707 .0254264
1042.289 .0254262
1042.871 .0254258
1043.452 .0254250
1044.034 .0254240
1044.615 .0254226
1045.196 .0254210
1045.777 .0254190
1046.358 .0254166
1046.939 .0254137
1047.520 .0254102
1048.101 .0254060
1048.681 .0254010
1049.262 .0253953
1049.842 .0253888
1050.422 .0253816
1051.002 .0253738
1051.582 .0253656
1052.162 .0253571
1052.742 .0253483
1053.322 .0253393
1053.902 .0253303
1054.482 .0253212
1055.061 .0253124
1055.641 .0253041
1056.220 .0252964
1056.800 .0252898
1057.379 .0252843
1057.958 .0252803
1058.538 .0252777
1059.117 .0252765
1059.696 .0252765
1060.275 .0252776
1060.854 .0252795
1061.433 .0252822
1062.012 .0252855
1062.592 .0252896
1063.171 .0252944
1063.750 .0253002
1064.329 .0253069
1064.908 .0253145
1065.487 .0253230
1066.066 .0253321
1066.645 .0253416
1067.224 .0253513
1067.803 .0253608
1068.382 .0253702
1068.961 .0253793
1069.540 .0253881
1070.119 .0253968
1070.698 .0254052
1071.278 .0254134
1071.857 .0254212
1072.436 .0254282
1073.016 .0254341
1073.595 .0254386
1074.175 .0254413
1074.754 .0254423
1075.334 .0254414
1075.913 .0254387
1076.493 .0254345
1077.073 .0254290
1077.653 .0254223
1078.233 .0254147
1078.813 .0254062
1079.393 .0253969
1079.974 .0253868
1080.554 .0253760
1081.135 .0253642
1081.716 .0253516
1082.296 .0253383
1082.877 .0253244
1083.458 .0253100
1084.040 .0252955
1084.621 .0252808
1085.202 .0252662
1085.784 .0252518
1086.366 .0252376
1086.948 .0252236
1087.530 .0252099
1088.112 .0251966
1088.695 .0251836
1089.277 .0251714
1089.860 .0251599
1090.443 .0251495
1091.026 .0251403
1091.610 .0251325
1092.193 .0251261
1092.777 .0251209
1093.361 .0251171
1093.946 .0251142
1094.530 .0251123
1095.115 .0251109
1095.700 .0251100
1096.285 .0251093
1096.871 .0251087
1097.456 .0251080
1098.042 .0251074
1098.628 .0251069
1099.215 .0251063
1099.802 .0251057
1100.389 .0251053
1100.976 .0251049
1101.564 .0251047
1102.152 .0251047
1102.740 .0251047
1103.329 .0251049
1103.917 .0251053
1104.507 .0251060
1105.096 .0251070
1105.686 .0251084
1106.276 .0251103
1106.867 .0251129
1107.457 .0251159
1108.049 .0251193
1108.640 .0251230
1109.232 .0251269
1109.825 .0251309
1110.417 .0251348
1111.010 .0251388
1111.604 .0251429
1112.198 .0251474
1112.792 .0251525
1113.387 .0251582
1113.982 .0251647
1114.577 .0251720
1115.173 .0251800
1115.769 .0251886
1116.366 .0251977
1116.963 .0252074
1117.561 .0252178
1118.159 .0252291
1118.758 .0252415
1119.357 .0252552
1119.957 .0252702
1120.557 .0252866
1121.157 .0253042
1121.758 .0253227
1122.360 .0253419
1122.962 .0253613
1123.564 .0253811
1124.167 .0253901
1124.771 .0254100
1125.375 .0254302
1125.980 .0254510
1126.585 .0254728
1127.191 .0254959
1127.797 .0255205
1128.404 .0255465
1129.012 .0255737
1129.620 .0256020
1130.229 .0256309
1130.838 .0256604
1131.448 .0256905
1132.058 .0257213
1132.669 .0257667
1133.281 .0258000
1133.894 .0258338
1134.507 .0258746
1135.120 .0259154
1135.735 .0259488
1136.350 .0259785
1136.965 .0260366
1137.582 .0260806
1138.199 .0261186
1138.816 .0261510
1139.435 .0261862
1140.054 .0262237
1140.674 .0262580
1141.294 .0262904
1141.916 .0263070
1142.538 .0265146
1143.160 .0265276
1143.784 .0263550
1144.408 .0262872
1145.033 .0259083
