Measurement Sequence started on: 14-45-04-498
Integration time: 36
Scans to Average: 2 
>>>>>Begin Spectral Data<<<<<
433.946 .0466185
434.870 .0457764
435.793 .0438791
436.715 .0439335
437.635 .0434937
438.555 .0433963
439.473 .0430318
440.389 .0427336
441.305 .0425160
442.219 .0423188
443.132 .0426293
444.044 .0424129
444.954 .0422935
445.863 .0421680
446.771 .0420619
447.678 .0419574
448.584 .0418682
449.488 .0417908
450.391 .0417202
451.293 .0416557
452.194 .0415949
453.094 .0415358
453.992 .0414757
454.890 .0414138
455.786 .0413487
456.681 .0412797
457.575 .0412065
458.468 .0411297
459.360 .0410500
460.250 .0409681
461.140 .0408849
462.028 .0408011
462.915 .0407174
463.801 .0406346
464.687 .0405528
465.571 .0404726
466.454 .0403940
467.335 .0403178
468.216 .0402439
469.096 .0401726
469.975 .0401042
470.853 .0400391
471.729 .0399778
472.605 .0399203
473.479 .0398672
474.353 .0398185
475.226 .0397743
476.097 .0397344
476.968 .0396986
477.838 .0396664
478.706 .0396374
479.574 .0396113
480.441 .0395879
481.306 .0395668
482.171 .0395477
483.035 .0395304
483.898 .0395143
484.760 .0394990
485.621 .0394839
486.481 .0394684
487.340 .0394522
488.198 .0394345
489.055 .0394151
489.912 .0393938
490.767 .0393705
491.622 .0393267
492.476 .0392987
493.329 .0392689
494.180 .0392375
495.032 .0392044
495.882 .0391694
496.731 .0391327
497.580 .0390945
498.427 .0390553
499.274 .0390157
500.120 .0389975
500.965 .0389595
501.809 .0389226
502.653 .0388872
503.495 .0388537
504.337 .0388222
505.178 .0387928
506.018 .0387654
506.858 .0387394
507.696 .0387146
508.534 .0386906
509.371 .0386672
510.208 .0386441
511.043 .0386212
511.878 .0385983
512.712 .0385758
513.545 .0385533
514.377 .0385311
515.209 .0385093
516.040 .0384876
516.870 .0384652
517.699 .0384418
518.528 .0384169
519.356 .0383898
520.183 .0383600
521.010 .0383276
521.836 .0382923
522.661 .0382542
523.485 .0382133
524.309 .0381699
525.132 .0381245
525.954 .0380774
526.776 .0380285
527.597 .0379778
528.417 .0379253
529.237 .0378709
530.056 .0378140
530.874 .0377550
531.692 .0376936
532.508 .0376296
533.325 .0375632
534.140 .0374951
534.955 .0374256
535.770 .0373555
536.583 .0372853
537.397 .0372156
538.209 .0371466
539.021 .0370787
539.832 .0370117
540.643 .0369459
541.453 .0368815
542.262 .0368180
543.071 .0367552
543.879 .0366937
544.687 .0366336
545.494 .0365749
546.300 .0365179
547.106 .0364630
547.911 .0364100
548.716 .0363587
549.520 .0363090
550.323 .0362605
551.126 .0362131
551.929 .0361669
552.731 .0361218
553.532 .0360780
554.332 .0360358
555.133 .0359955
555.932 .0359572
556.731 .0359212
557.530 .0358871
558.328 .0358545
559.125 .0358235
559.922 .0357937
560.719 .0357645
561.515 .0357358
562.310 .0357075
563.105 .0356793
563.899 .0356511
564.693 .0356230
565.487 .0355949
566.280 .0355671
567.072 .0355396
567.864 .0355120
568.655 .0354841
569.446 .0354558
570.236 .0354264
571.026 .0353956
571.816 .0353631
572.605 .0353288
573.393 .0352929
574.181 .0352556
574.969 .0352177
575.756 .0351793
576.543 .0351412
577.329 .0351038
578.115 .0350671
578.900 .0350313
579.685 .0349965
580.469 .0349627
581.253 .0349297
582.036 .0348975
582.820 .0348660
583.602 .0348351
584.384 .0348051
585.166 .0347758
585.947 .0347472
586.728 .0347192
587.509 .0346919
588.289 .0346650
589.069 .0346386
589.848 .0346123
590.627 .0345860
591.405 .0345595
592.183 .0345325
592.961 .0345050
593.738 .0344769
594.515 .0344482
595.291 .0344190
596.067 .0343895
596.843 .0343598
597.618 .0343301
598.393 .0342862
599.167 .0342572
599.941 .0342285
600.715 .0342001
601.488 .0341722
602.261 .0341446
603.034 .0341174
603.806 .0340907
604.578 .0340646
605.349 .0340391
606.121 .0340142
606.891 .0340035
607.662 .0339796
608.432 .0339562
609.201 .0339336
609.971 .0339116
610.740 .0338903
611.508 .0338694
612.277 .0338490
613.045 .0338289
613.812 .0338091
614.579 .0337894
615.346 .0337697
616.113 .0337499
616.879 .0337299
617.645 .0337097
618.411 .0336892
619.176 .0336684
619.941 .0336472
620.705 .0336256
621.470 .0336036
622.233 .0335813
622.997 .0335587
623.760 .0335358
624.523 .0335129
625.286 .0334898
626.048 .0334666
626.810 .0334434
627.572 .0334202
628.333 .0333970
629.095 .0333738
629.855 .0333506
630.616 .0333274
631.376 .0333044
632.136 .0332813
632.895 .0332584
633.655 .0332355
634.414 .0332126
635.172 .0331897
635.931 .0331668
636.689 .0331438
637.447 .0331207
638.204 .0330975
638.962 .0330741
639.718 .0330507
640.475 .0330270
641.231 .0330031
641.988 .0329791
642.743 .0329548
643.499 .0329304
644.254 .0329059
645.009 .0328813
645.764 .0328567
646.518 .0328322
647.272 .0328078
648.026 .0327836
648.780 .0327597
649.533 .0327361
650.286 .0327130
651.039 .0326903
651.792 .0326681
652.544 .0326466
653.296 .0326258
654.048 .0326057
654.799 .0325864
655.550 .0325678
656.301 .0325500
657.052 .0325328
657.802 .0325163
658.552 .0325004
659.302 .0324851
660.052 .0324703
660.801 .0324559
661.550 .0324419
662.299 .0324283
663.048 .0324148
663.796 .0324015
664.544 .0323883
665.292 .0323751
666.040 .0323618
666.787 .0323484
667.534 .0323349
668.281 .0323215
669.028 .0323080
669.774 .0322945
670.521 .0322810
671.266 .0322675
672.012 .0322539
672.758 .0322403
673.503 .0322264
674.248 .0322124
674.992 .0321982
675.737 .0321838
676.481 .0321693
677.225 .0321546
677.969 .0321398
678.712 .0321249
679.455 .0321099
680.199 .0320949
680.941 .0320798
681.684 .0320646
682.426 .0320492
683.168 .0320337
683.910 .0320180
684.652 .0320020
685.393 .0319858
686.134 .0319693
686.875 .0319526
687.616 .0319357
688.356 .0319186
689.097 .0319014
689.837 .0318841
690.576 .0318668
691.316 .0318493
692.055 .0318319
692.794 .0318143
693.533 .0317967
694.272 .0317790
695.010 .0317611
695.748 .0317432
696.486 .0317252
697.224 .0317071
697.962 .0316890
698.699 .0316709
699.436 .0316528
700.173 .0316348
700.909 .0316168
701.646 .0315990
702.382 .0315813
703.118 .0315637
703.853 .0315462
704.589 .0315288
705.324 .0315116
706.059 .0314945
706.794 .0314776
707.529 .0314609
708.263 .0314445
708.997 .0314283
709.731 .0314124
710.465 .0313969
711.198 .0313818
711.931 .0313670
712.664 .0313526
713.397 .0313386
714.130 .0313248
714.862 .0313114
715.594 .0312984
716.326 .0312857
717.058 .0312734
717.789 .0312615
718.520 .0312501
719.251 .0312391
719.982 .0312287
720.713 .0312186
721.443 .0312089
722.173 .0311994
722.903 .0311901
723.633 .0311810
724.362 .0311722
725.091 .0311635
725.820 .0311552
726.549 .0311471
727.278 .0311393
728.006 .0311318
728.734 .0311244
729.462 .0311172
730.190 .0311100
730.917 .0311028
731.644 .0310957
732.371 .0310886
733.098 .0310815
733.825 .0310746
734.551 .0310678
735.277 .0310611
736.003 .0310545
736.728 .0310480
737.454 .0310415
738.179 .0310350
738.904 .0310284
739.629 .0310218
740.353 .0310151
741.077 .0310083
741.801 .0310012
742.525 .0309939
743.249 .0309863
743.972 .0309782
744.695 .0309697
745.418 .0309607
746.141 .0309513
746.863 .0309415
747.585 .0309313
748.307 .0309208
749.029 .0309097
749.750 .0308982
750.472 .0308860
751.193 .0308732
751.913 .0308596
752.634 .0308453
753.354 .0308303
754.074 .0308147
754.794 .0307986
755.514 .0307822
756.233 .0307654
756.952 .0307484
757.671 .0307312
758.390 .0307138
759.108 .0306962
759.826 .0306785
760.544 .0306607
761.262 .0306427
761.979 .0306247
762.697 .0306068
763.414 .0305889
764.130 .0305713
764.847 .0305539
765.563 .0305369
766.279 .0305203
766.995 .0305041
767.710 .0304885
768.426 .0304734
769.141 .0304588
769.855 .0304447
770.570 .0304311
771.284 .0304180
771.998 .0304052
772.712 .0303930
773.426 .0303813
774.139 .0303700
774.852 .0303593
775.565 .0303491
776.277 .0303393
776.990 .0303301
777.702 .0303213
778.414 .0303129
779.125 .0303049
779.836 .0302973
780.547 .0302900
781.258 .0302829
781.969 .0302762
782.679 .0302696
783.389 .0302606
784.099 .0302544
784.808 .0302485
785.517 .0302426
786.226 .0302369
786.935 .0302314
787.643 .0302260
788.352 .0302208
789.060 .0302156
789.767 .0302104
790.475 .0302053
791.182 .0302002
791.889 .0301977
792.595 .0301926
793.301 .0301876
794.008 .0301828
794.713 .0301780
795.419 .0301735
796.124 .0301691
796.829 .0301650
797.534 .0301609
798.238 .0301570
798.942 .0301532
799.646 .0301495
800.350 .0301458
801.053 .0301421
801.756 .0301385
802.459 .0301350
803.162 .0301314
803.864 .0301279
804.566 .0301244
805.267 .0301208
805.969 .0301172
806.670 .0301136
807.371 .0301098
808.071 .0301060
808.772 .0301020
809.472 .0300979
810.171 .0300937
810.871 .0300893
811.570 .0300847
812.269 .0300799
812.967 .0300747
813.666 .0300692
814.364 .0300634
815.061 .0300572
815.759 .0300506
816.456 .0300436
817.153 .0300362
817.849 .0300284
818.545 .0300202
819.241 .0300116
819.937 .0300025
820.632 .0299929
821.327 .0299828
822.022 .0299722
822.717 .0299609
823.411 .0299492
824.105 .0299368
824.798 .0299240
825.491 .0299106
826.184 .0298968
826.877 .0298825
827.569 .0298678
828.261 .0298527
828.953 .0298373
829.645 .0298215
830.336 .0298055
831.027 .0297893
831.717 .0297730
832.407 .0297566
833.097 .0297401
833.787 .0297237
834.476 .0297074
835.165 .0296911
835.854 .0296750
836.542 .0296590
837.230 .0296431
837.918 .0296273
838.605 .0296116
839.292 .0295960
839.979 .0295804
840.665 .0295648
841.352 .0295492
842.037 .0295335
842.723 .0295178
843.408 .0295021
844.093 .0294862
844.777 .0294703
845.462 .0294542
846.145 .0294380
846.829 .0294217
847.512 .0294052
848.195 .0293885
848.878 .0293716
849.560 .0293546
850.242 .0293372
850.923 .0293197
851.605 .0293020
852.286 .0292841
852.966 .0292661
853.646 .0292481
854.326 .0292300
855.006 .0292120
855.685 .0291941
856.364 .0291764
857.043 .0291588
857.721 .0291416
858.399 .0291246
859.077 .0291080
859.754 .0290918
860.431 .0290760
861.107 .0290608
861.784 .0290460
862.459 .0290317
863.135 .0290178
863.810 .0290045
864.485 .0289915
865.160 .0289791
865.834 .0289670
866.508 .0289553
867.181 .0289440
867.854 .0289332
868.527 .0289227
869.199 .0289127
869.872 .0289031
870.543 .0288939
871.215 .0288852
871.886 .0288770
872.557 .0288692
873.227 .0288618
873.897 .0288549
874.567 .0288483
875.236 .0288420
875.905 .0288361
876.573 .0288304
877.242 .0288250
877.909 .0288197
878.577 .0288146
879.244 .0288096
879.911 .0288048
880.577 .0288001
881.243 .0287955
881.909 .0287910
882.575 .0287867
883.240 .0287824
883.904 .0287784
884.569 .0287745
885.232 .0287709
885.896 .0287675
886.559 .0287644
887.222 .0287615
887.885 .0287589
888.547 .0287566
889.208 .0287546
889.870 .0287529
890.531 .0287516
891.192 .0287506
891.852 .0287501
892.512 .0287500
893.171 .0287504
893.830 .0287512
894.489 .0287525
895.148 .0287542
895.806 .0287562
896.464 .0287584
897.121 .0287608
897.778 .0287634
898.434 .0287661
899.091 .0287703
899.747 .0287729
900.402 .0287756
901.057 .0287781
901.712 .0287803
902.366 .0287821
903.020 .0287833
903.674 .0287838
904.327 .0287836
904.980 .0287826
905.633 .0287808
906.285 .0287781
906.936 .0287745
907.588 .0287699
908.239 .0287648
908.889 .0287588
909.540 .0287518
910.190 .0287437
910.839 .0287345
911.488 .0287243
912.137 .0287130
912.785 .0287008
913.433 .0286877
914.081 .0286738
914.728 .0286592
915.375 .0286437
916.021 .0286276
916.668 .0286107
917.313 .0285931
917.959 .0285748
918.604 .0285558
919.248 .0285362
919.892 .0285161
920.536 .0284955
921.180 .0284745
921.823 .0284531
922.465 .0284313
923.108 .0284091
923.750 .0283866
924.391 .0283638
925.032 .0283407
925.673 .0283174
926.313 .0282939
926.953 .0282702
927.593 .0282464
928.232 .0282226
928.871 .0281986
929.510 .0281746
930.148 .0281506
930.786 .0281264
931.423 .0281022
932.060 .0280779
932.697 .0280535
933.333 .0280290
933.969 .0280044
934.604 .0279796
935.239 .0279547
935.874 .0279295
936.508 .0279040
937.142 .0278782
937.776 .0278521
938.409 .0278257
939.042 .0277989
939.674 .0277719
940.306 .0277445
940.938 .0277170
941.569 .0276892
942.200 .0276613
942.830 .0276334
943.460 .0276053
944.090 .0275774
944.720 .0275496
945.349 .0275220
945.977 .0274947
946.606 .0274678
947.233 .0274413
947.861 .0274154
948.488 .0273900
949.115 .0273651
949.741 .0273409
950.367 .0273172
950.993 .0272942
951.618 .0272718
952.243 .0272501
952.868 .0272290
953.492 .0272086
954.115 .0271888
954.739 .0271698
955.362 .0271514
955.984 .0271337
956.607 .0271167
957.229 .0271003
957.850 .0270847
958.471 .0270696
959.092 .0270552
959.713 .0270414
960.333 .0270282
960.952 .0270155
961.572 .0270034
962.191 .0269917
962.809 .0269804
963.428 .0269695
964.045 .0269591
964.663 .0269490
965.280 .0269392
965.897 .0269297
966.513 .0269205
967.129 .0269116
967.745 .0269029
968.361 .0268945
968.976 .0268865
969.590 .0268789
970.205 .0268718
970.818 .0268652
971.432 .0268592
972.045 .0268538
972.658 .0268491
973.271 .0268450
973.883 .0268415
974.495 .0268385
975.106 .0268360
975.717 .0268339
976.328 .0268322
976.938 .0268307
977.548 .0268294
978.158 .0268282
978.768 .0268264
979.377 .0268252
979.985 .0268239
980.594 .0268227
981.202 .0268213
981.809 .0268200
982.417 .0268186
983.024 .0268173
983.631 .0268160
984.237 .0268148
984.843 .0268138
985.449 .0268129
986.054 .0268121
986.659 .0268116
987.264 .0268117
987.868 .0268115
988.472 .0268115
989.076 .0268117
989.679 .0268120
990.282 .0268124
990.885 .0268129
991.487 .0268135
992.090 .0268144
992.691 .0268154
993.293 .0268167
993.894 .0268184
994.495 .0268203
995.095 .0268227
995.696 .0268255
996.296 .0268288
996.895 .0268325
997.494 .0268366
998.093 .0268412
998.692 .0268461
999.291 .0268514
999.889 .0268570
1000.487 .0268628
1001.084 .0268688
1001.681 .0268749
1002.278 .0268811
1002.875 .0268874
1003.471 .0268936
1004.067 .0268997
1004.663 .0269057
1005.258 .0269114
1005.854 .0269169
1006.449 .0269221
1007.043 .0269271
1007.638 .0269319
1008.232 .0269366
1008.826 .0269413
1009.419 .0269460
1010.012 .0269507
1010.605 .0269555
1011.198 .0269604
1011.791 .0269652
1012.383 .0269700
1012.975 .0269748
1013.566 .0269794
1014.158 .0269840
1014.749 .0269886
1015.340 .0269930
1015.931 .0269975
1016.521 .0270018
1017.111 .0270061
1017.701 .0270102
1018.291 .0270142
1018.880 .0270179
1019.470 .0270213
1020.059 .0270244
1020.647 .0270272
1021.236 .0270297
1021.824 .0270318
1022.412 .0270337
1023.000 .0270354
1023.588 .0270368
1024.175 .0270379
1024.762 .0270386
1025.349 .0270389
1025.936 .0270387
1026.523 .0270380
1027.109 .0270367
1027.695 .0270349
1028.281 .0270326
1028.867 .0270297
1029.452 .0270264
1030.038 .0270225
1030.623 .0270181
1031.208 .0270132
1031.792 .0270076
1032.377 .0270014
1032.961 .0269947
1033.546 .0269873
1034.130 .0269795
1034.714 .0269714
1035.297 .0269628
1035.881 .0269540
1036.464 .0269449
1037.047 .0269356
1037.630 .0269260
1038.213 .0269162
1038.796 .0269061
1039.378 .0268959
1039.961 .0268856
1040.543 .0268753
1041.125 .0268651
1041.707 .0268551
1042.289 .0268454
1042.871 .0268359
1043.452 .0268265
1044.034 .0268172
1044.615 .0268079
1045.196 .0267985
1045.777 .0267889
1046.358 .0267794
1046.939 .0267698
1047.520 .0267603
1048.101 .0267509
1048.681 .0267417
1049.262 .0267327
1049.842 .0267237
1050.422 .0267147
1051.002 .0267055
1051.582 .0266960
1052.162 .0266862
1052.742 .0266761
1053.322 .0266656
1053.902 .0266549
1054.482 .0266440
1055.061 .0266330
1055.641 .0266218
1056.220 .0266104
1056.800 .0265987
1057.379 .0265866
1057.958 .0265740
1058.538 .0265609
1059.117 .0265472
1059.696 .0265330
1060.275 .0265184
1060.854 .0265036
1061.433 .0264886
1062.012 .0264735
1062.592 .0264585
1063.171 .0264435
1063.750 .0264285
1064.329 .0264133
1064.908 .0263979
1065.487 .0263824
1066.066 .0263668
1066.645 .0263512
1067.224 .0263357
1067.803 .0263204
1068.382 .0263055
1068.961 .0262912
1069.540 .0262774
1070.119 .0262641
1070.698 .0262514
1071.278 .0262391
1071.857 .0262271
1072.436 .0262156
1073.016 .0262045
1073.595 .0261940
1074.175 .0261843
1074.754 .0261755
1075.334 .0261676
1075.913 .0261605
1076.493 .0261543
1077.073 .0261487
1077.653 .0261436
1078.233 .0261388
1078.813 .0261341
1079.393 .0261295
1079.974 .0261248
1080.554 .0261200
1081.135 .0261152
1081.716 .0261104
1082.296 .0261054
1082.877 .0261002
1083.458 .0260945
1084.040 .0260882
1084.621 .0260813
1085.202 .0260736
1085.784 .0260653
1086.366 .0260564
1086.948 .0260472
1087.530 .0260379
1088.112 .0260286
1088.695 .0260195
1089.277 .0260107
1089.860 .0260023
1090.443 .0259941
1091.026 .0259861
1091.610 .0259781
1092.193 .0259702
1092.777 .0259624
1093.361 .0259547
1093.946 .0259474
1094.530 .0259403
1095.115 .0259336
1095.700 .0259273
1096.285 .0259215
1096.871 .0259161
1097.456 .0259110
1098.042 .0259063
1098.628 .0259020
1099.215 .0258982
1099.802 .0258950
1100.389 .0258926
1100.976 .0258912
1101.564 .0258912
1102.152 .0258925
1102.740 .0258951
1103.329 .0258992
1103.917 .0259046
1104.507 .0259114
1105.096 .0259194
1105.686 .0259286
1106.276 .0259389
1106.867 .0259502
1107.457 .0259626
1108.049 .0259758
1108.640 .0259900
1109.232 .0260051
1109.825 .0260209
1110.417 .0260375
1111.010 .0260545
1111.604 .0260719
1112.198 .0260896
1112.792 .0261074
1113.387 .0261253
1113.982 .0261433
1114.577 .0261613
1115.173 .0261793
1115.769 .0261974
1116.366 .0262158
1116.963 .0262346
1117.561 .0262540
1118.159 .0262742
1118.758 .0262952
1119.357 .0263169
1119.957 .0263393
1120.557 .0263622
1121.157 .0263858
1121.758 .0264097
1122.360 .0264339
1122.962 .0264584
1123.564 .0264834
1124.167 .0264944
1124.771 .0265194
1125.375 .0265452
1125.980 .0265717
1126.585 .0265990
1127.191 .0266271
1127.797 .0266559
1128.404 .0266854
1129.012 .0267159
1129.620 .0267474
1130.229 .0267801
1130.838 .0268144
1131.448 .0268505
1132.058 .0268888
1132.669 .0269478
1133.281 .0269932
1133.894 .0270420
1134.507 .0270900
1135.120 .0271432
1135.735 .0272054
1136.350 .0272673
1136.965 .0272621
1137.582 .0273043
1138.199 .0273475
1138.816 .0273970
1139.435 .0274520
1140.054 .0275147
1140.674 .0275920
1141.294 .0276797
1141.916 .0277812
1142.538 .0277822
1143.160 .0279494
1143.784 .0282247
1144.408 .0282544
1145.033 .0284208
