Measurement Sequence started on: 14-45-04-498
Integration time: 36
Scans to Average: 2 
>>>>>Begin Spectral Data<<<<<
433.946 .0401358
434.870 .0449162
435.793 .0399407
436.715 .0402299
437.635 .0399248
438.555 .0406991
439.473 .0406638
440.389 .0405343
441.305 .0405536
442.219 .0405280
443.132 .0406850
444.044 .0404495
444.954 .0404701
445.863 .0404688
446.771 .0404773
447.678 .0404400
448.584 .0404006
449.488 .0403653
450.391 .0403274
451.293 .0402899
452.194 .0402535
453.094 .0402181
453.992 .0401824
454.890 .0401447
455.786 .0401025
456.681 .0400554
457.575 .0400029
458.468 .0399470
459.360 .0398903
460.250 .0398358
461.140 .0397856
462.028 .0397413
462.915 .0397035
463.801 .0396717
464.687 .0396441
465.571 .0396188
466.454 .0395940
467.335 .0395683
468.216 .0395409
469.096 .0395116
469.975 .0394810
470.853 .0394498
471.729 .0394190
472.605 .0393894
473.479 .0393613
474.353 .0393348
475.226 .0393094
476.097 .0392846
476.968 .0392596
477.838 .0392344
478.706 .0392086
479.574 .0391828
480.441 .0391574
481.306 .0391331
482.171 .0391104
483.035 .0390898
483.898 .0390715
484.760 .0390554
485.621 .0390412
486.481 .0390283
487.340 .0390160
488.198 .0390036
489.055 .0389906
489.912 .0389764
490.767 .0389607
491.622 .0389293
492.476 .0389082
493.329 .0388850
494.180 .0388595
495.032 .0388317
495.882 .0388012
496.731 .0387678
497.580 .0387311
498.427 .0386911
499.274 .0386478
500.120 .0386203
500.965 .0385730
501.809 .0385231
502.653 .0384713
503.495 .0384180
504.337 .0383636
505.178 .0383082
506.018 .0382520
506.858 .0381944
507.696 .0381355
508.534 .0380752
509.371 .0380136
510.208 .0379515
511.043 .0378896
511.878 .0378285
512.712 .0377688
513.545 .0377113
514.377 .0376562
515.209 .0376034
516.040 .0375527
516.870 .0375036
517.699 .0374558
518.528 .0374090
519.356 .0373634
520.183 .0373191
521.010 .0372767
521.836 .0372362
522.661 .0371975
523.485 .0371604
524.309 .0371247
525.132 .0370898
525.954 .0370552
526.776 .0370203
527.597 .0369848
528.417 .0369481
529.237 .0369106
530.056 .0368725
530.874 .0368336
531.692 .0367943
532.508 .0367546
533.325 .0367145
534.140 .0366744
534.955 .0366342
535.770 .0365938
536.583 .0365532
537.397 .0365126
538.209 .0364714
539.021 .0364299
539.832 .0363891
540.643 .0363495
541.453 .0363113
542.262 .0362752
543.071 .0362415
543.879 .0362102
544.687 .0361809
545.494 .0361532
546.300 .0361259
547.106 .0360986
547.911 .0360706
548.716 .0360419
549.520 .0360126
550.323 .0359833
551.126 .0359541
551.929 .0359257
552.731 .0358982
553.532 .0358713
554.332 .0358446
555.133 .0358180
555.932 .0357913
556.731 .0357639
557.530 .0357359
558.328 .0357075
559.125 .0356788
559.922 .0356499
560.719 .0356207
561.515 .0355911
562.310 .0355611
563.105 .0355302
563.899 .0354981
564.693 .0354646
565.487 .0354298
566.280 .0353938
567.072 .0353567
567.864 .0353188
568.655 .0352801
569.446 .0352405
570.236 .0352002
571.026 .0351590
571.816 .0351169
572.605 .0350738
573.393 .0350297
574.181 .0349848
574.969 .0349393
575.756 .0348935
576.543 .0348478
577.329 .0348030
578.115 .0347595
578.900 .0347175
579.685 .0346775
580.469 .0346397
581.253 .0346038
582.036 .0345698
582.820 .0345374
583.602 .0345064
584.384 .0344767
585.166 .0344481
585.947 .0344208
586.728 .0343950
587.509 .0343706
588.289 .0343477
589.069 .0343262
589.848 .0343059
590.627 .0342865
591.405 .0342677
592.183 .0342492
592.961 .0342310
593.738 .0342128
594.515 .0341948
595.291 .0341767
596.067 .0341587
596.843 .0341409
597.618 .0341231
598.393 .0340958
599.167 .0340771
599.941 .0340580
600.715 .0340384
601.488 .0340182
602.261 .0339975
603.034 .0339761
603.806 .0339542
604.578 .0339316
605.349 .0339084
606.121 .0338848
606.891 .0338718
607.662 .0338478
608.432 .0338235
609.201 .0337990
609.971 .0337744
610.740 .0337499
611.508 .0337255
612.277 .0337012
613.045 .0336773
613.812 .0336535
614.579 .0336301
615.346 .0336071
616.113 .0335846
616.879 .0335626
617.645 .0335412
618.411 .0335204
619.176 .0335000
619.941 .0334799
620.705 .0334601
621.470 .0334404
622.233 .0334208
622.997 .0334013
623.760 .0333818
624.523 .0333625
625.286 .0333432
626.048 .0333240
626.810 .0333048
627.572 .0332856
628.333 .0332664
629.095 .0332470
629.855 .0332274
630.616 .0332078
631.376 .0331880
632.136 .0331683
632.895 .0331486
633.655 .0331291
634.414 .0331096
635.172 .0330902
635.931 .0330710
636.689 .0330518
637.447 .0330328
638.204 .0330139
638.962 .0329953
639.718 .0329770
640.475 .0329589
641.231 .0329412
641.988 .0329239
642.743 .0329068
643.499 .0328901
644.254 .0328735
645.009 .0328571
645.764 .0328409
646.518 .0328248
647.272 .0328087
648.026 .0327928
648.780 .0327769
649.533 .0327611
650.286 .0327453
651.039 .0327297
651.792 .0327142
652.544 .0326987
653.296 .0326833
654.048 .0326680
654.799 .0326528
655.550 .0326375
656.301 .0326222
657.052 .0326067
657.802 .0325910
658.552 .0325750
659.302 .0325586
660.052 .0325419
660.801 .0325250
661.550 .0325077
662.299 .0324902
663.048 .0324725
663.796 .0324545
664.544 .0324364
665.292 .0324181
666.040 .0323996
666.787 .0323808
667.534 .0323618
668.281 .0323426
669.028 .0323233
669.774 .0323039
670.521 .0322846
671.266 .0322654
672.012 .0322463
672.758 .0322275
673.503 .0322090
674.248 .0321909
674.992 .0321730
675.737 .0321555
676.481 .0321384
677.225 .0321216
677.969 .0321052
678.712 .0320891
679.455 .0320733
680.199 .0320579
680.941 .0320427
681.684 .0320279
682.426 .0320133
683.168 .0319989
683.910 .0319846
684.652 .0319706
685.393 .0319566
686.134 .0319427
686.875 .0319288
687.616 .0319149
688.356 .0319010
689.097 .0318870
689.837 .0318729
690.576 .0318587
691.316 .0318444
692.055 .0318300
692.794 .0318155
693.533 .0318009
694.272 .0317863
695.010 .0317716
695.748 .0317570
696.486 .0317424
697.224 .0317278
697.962 .0317132
698.699 .0316986
699.436 .0316839
700.173 .0316692
700.909 .0316544
701.646 .0316396
702.382 .0316247
703.118 .0316098
703.853 .0315950
704.589 .0315802
705.324 .0315655
706.059 .0315509
706.794 .0315364
707.529 .0315220
708.263 .0315077
708.997 .0314936
709.731 .0314796
710.465 .0314658
711.198 .0314523
711.931 .0314390
712.664 .0314260
713.397 .0314132
714.130 .0314007
714.862 .0313884
715.594 .0313764
716.326 .0313645
717.058 .0313528
717.789 .0313412
718.520 .0313297
719.251 .0313181
719.982 .0313066
720.713 .0312949
721.443 .0312831
722.173 .0312712
722.903 .0312591
723.633 .0312469
724.362 .0312344
725.091 .0312218
725.820 .0312090
726.549 .0311960
727.278 .0311827
728.006 .0311692
728.734 .0311553
729.462 .0311411
730.190 .0311266
730.917 .0311119
731.644 .0310971
732.371 .0310821
733.098 .0310672
733.825 .0310525
734.551 .0310380
735.277 .0310237
736.003 .0310098
736.728 .0309962
737.454 .0309829
738.179 .0309700
738.904 .0309575
739.629 .0309453
740.353 .0309334
741.077 .0309219
741.801 .0309108
742.525 .0308999
743.249 .0308894
743.972 .0308792
744.695 .0308693
745.418 .0308594
746.141 .0308497
746.863 .0308398
747.585 .0308298
748.307 .0308196
749.029 .0308090
749.750 .0307980
750.472 .0307865
751.193 .0307745
751.913 .0307621
752.634 .0307491
753.354 .0307357
754.074 .0307217
754.794 .0307072
755.514 .0306922
756.233 .0306768
756.952 .0306610
757.671 .0306447
758.390 .0306282
759.108 .0306114
759.826 .0305944
760.544 .0305772
761.262 .0305600
761.979 .0305428
762.697 .0305256
763.414 .0305087
764.130 .0304920
764.847 .0304756
765.563 .0304597
766.279 .0304443
766.995 .0304293
767.710 .0304150
768.426 .0304011
769.141 .0303878
769.855 .0303751
770.570 .0303629
771.284 .0303513
771.998 .0303402
772.712 .0303297
773.426 .0303197
774.139 .0303102
774.852 .0303011
775.565 .0302924
776.277 .0302841
776.990 .0302761
777.702 .0302683
778.414 .0302608
779.125 .0302536
779.836 .0302465
780.547 .0302397
781.258 .0302331
781.969 .0302267
782.679 .0302205
783.389 .0302117
784.099 .0302056
784.808 .0301995
785.517 .0301934
786.226 .0301871
786.935 .0301807
787.643 .0301742
788.352 .0301676
789.060 .0301609
789.767 .0301541
790.475 .0301472
791.182 .0301402
791.889 .0301362
792.595 .0301291
793.301 .0301218
794.008 .0301144
794.713 .0301068
795.419 .0300990
796.124 .0300911
796.829 .0300829
797.534 .0300746
798.238 .0300662
798.942 .0300576
799.646 .0300489
800.350 .0300400
801.053 .0300311
801.756 .0300220
802.459 .0300127
803.162 .0300033
803.864 .0299937
804.566 .0299838
805.267 .0299736
805.969 .0299630
806.670 .0299522
807.371 .0299411
808.071 .0299298
808.772 .0299182
809.472 .0299064
810.171 .0298944
810.871 .0298822
811.570 .0298696
812.269 .0298569
812.967 .0298439
813.666 .0298306
814.364 .0298172
815.061 .0298036
815.759 .0297898
816.456 .0297759
817.153 .0297618
817.849 .0297475
818.545 .0297330
819.241 .0297183
819.937 .0297035
820.632 .0296886
821.327 .0296737
822.022 .0296588
822.717 .0296441
823.411 .0296296
824.105 .0296152
824.798 .0296010
825.491 .0295869
826.184 .0295728
826.877 .0295588
827.569 .0295448
828.261 .0295309
828.953 .0295170
829.645 .0295033
830.336 .0294896
831.027 .0294761
831.717 .0294627
832.407 .0294493
833.097 .0294360
833.787 .0294227
834.476 .0294093
835.165 .0293958
835.854 .0293822
836.542 .0293686
837.230 .0293550
837.918 .0293413
838.605 .0293276
839.292 .0293139
839.979 .0293002
840.665 .0292864
841.352 .0292726
842.037 .0292588
842.723 .0292449
843.408 .0292310
844.093 .0292170
844.777 .0292031
845.462 .0291892
846.145 .0291754
846.829 .0291616
847.512 .0291479
848.195 .0291343
848.878 .0291207
849.560 .0291071
850.242 .0290935
850.923 .0290799
851.605 .0290664
852.286 .0290529
852.966 .0290395
853.646 .0290262
854.326 .0290131
855.006 .0290002
855.685 .0289875
856.364 .0289749
857.043 .0289625
857.721 .0289501
858.399 .0289379
859.077 .0289256
859.754 .0289134
860.431 .0289012
861.107 .0288889
861.784 .0288766
862.459 .0288643
863.135 .0288518
863.810 .0288393
864.485 .0288266
865.160 .0288138
865.834 .0288009
866.508 .0287879
867.181 .0287747
867.854 .0287615
868.527 .0287482
869.199 .0287349
869.872 .0287215
870.543 .0287082
871.215 .0286949
871.886 .0286817
872.557 .0286685
873.227 .0286554
873.897 .0286424
874.567 .0286296
875.236 .0286169
875.905 .0286043
876.573 .0285919
877.242 .0285796
877.909 .0285675
878.577 .0285555
879.244 .0285437
879.911 .0285320
880.577 .0285205
881.243 .0285091
881.909 .0284980
882.575 .0284871
883.240 .0284764
883.904 .0284661
884.569 .0284560
885.232 .0284463
885.896 .0284369
886.559 .0284278
887.222 .0284190
887.885 .0284105
888.547 .0284024
889.208 .0283945
889.870 .0283868
890.531 .0283794
891.192 .0283722
891.852 .0283651
892.512 .0283582
893.171 .0283515
893.830 .0283449
894.489 .0283384
895.148 .0283319
895.806 .0283254
896.464 .0283189
897.121 .0283124
897.778 .0283057
898.434 .0282988
899.091 .0282872
899.747 .0282796
900.402 .0282716
901.057 .0282634
901.712 .0282549
902.366 .0282460
903.020 .0282367
903.674 .0282271
904.327 .0282169
904.980 .0282064
905.633 .0281953
906.285 .0281838
906.936 .0281719
907.588 .0281651
908.239 .0281529
908.889 .0281404
909.540 .0281278
910.190 .0281150
910.839 .0281021
911.488 .0280891
912.137 .0280760
912.785 .0280629
913.433 .0280497
914.081 .0280364
914.728 .0280231
915.375 .0280097
916.021 .0279962
916.668 .0279826
917.313 .0279689
917.959 .0279552
918.604 .0279413
919.248 .0279273
919.892 .0279132
920.536 .0278989
921.180 .0278844
921.823 .0278697
922.465 .0278547
923.108 .0278395
923.750 .0278240
924.391 .0278082
925.032 .0277921
925.673 .0277758
926.313 .0277592
926.953 .0277424
927.593 .0277253
928.232 .0277079
928.871 .0276903
929.510 .0276723
930.148 .0276541
930.786 .0276356
931.423 .0276169
932.060 .0275980
932.697 .0275790
933.333 .0275599
933.969 .0275408
934.604 .0275217
935.239 .0275026
935.874 .0274835
936.508 .0274644
937.142 .0274453
937.776 .0274263
938.409 .0274073
939.042 .0273885
939.674 .0273699
940.306 .0273514
940.938 .0273331
941.569 .0273149
942.200 .0272967
942.830 .0272784
943.460 .0272601
944.090 .0272417
944.720 .0272232
945.349 .0272047
945.977 .0271862
946.606 .0271678
947.233 .0271494
947.861 .0271312
948.488 .0271131
949.115 .0270951
949.741 .0270772
950.367 .0270594
950.993 .0270418
951.618 .0270244
952.243 .0270072
952.868 .0269902
953.492 .0269734
954.115 .0269569
954.739 .0269405
955.362 .0269243
955.984 .0269081
956.607 .0268921
957.229 .0268762
957.850 .0268605
958.471 .0268450
959.092 .0268299
959.713 .0268151
960.333 .0268006
960.952 .0267865
961.572 .0267726
962.191 .0267591
962.809 .0267458
963.428 .0267329
964.045 .0267203
964.663 .0267082
965.280 .0266965
965.897 .0266854
966.513 .0266748
967.129 .0266647
967.745 .0266549
968.361 .0266454
968.976 .0266361
969.590 .0266269
970.205 .0266179
970.818 .0266091
971.432 .0266005
972.045 .0265922
972.658 .0265842
973.271 .0265765
973.883 .0265691
974.495 .0265618
975.106 .0265546
975.717 .0265475
976.328 .0265404
976.938 .0265334
977.548 .0265264
978.158 .0265195
978.768 .0265092
979.377 .0265027
979.985 .0264963
980.594 .0264900
981.202 .0264837
981.809 .0264773
982.417 .0264710
983.024 .0264646
983.631 .0264583
984.237 .0264521
984.843 .0264461
985.449 .0264404
986.054 .0264349
986.659 .0264297
987.264 .0264281
987.868 .0264233
988.472 .0264187
989.076 .0264143
989.679 .0264100
990.282 .0264057
990.885 .0264016
991.487 .0263977
992.090 .0263938
992.691 .0263901
993.293 .0263864
993.894 .0263828
994.495 .0263792
995.095 .0263755
995.696 .0263718
996.296 .0263680
996.895 .0263641
997.494 .0263602
998.093 .0263562
998.692 .0263522
999.291 .0263482
999.889 .0263441
1000.487 .0263399
1001.084 .0263356
1001.681 .0263311
1002.278 .0263264
1002.875 .0263216
1003.471 .0263167
1004.067 .0263116
1004.663 .0263065
1005.258 .0263013
1005.854 .0262961
1006.449 .0262908
1007.043 .0262856
1007.638 .0262803
1008.232 .0262751
1008.826 .0262701
1009.419 .0262652
1010.012 .0262605
1010.605 .0262561
1011.198 .0262519
1011.791 .0262481
1012.383 .0262446
1012.975 .0262414
1013.566 .0262385
1014.158 .0262359
1014.749 .0262337
1015.340 .0262318
1015.931 .0262302
1016.521 .0262290
1017.111 .0262280
1017.701 .0262272
1018.291 .0262265
1018.880 .0262259
1019.470 .0262253
1020.059 .0262246
1020.647 .0262238
1021.236 .0262229
1021.824 .0262220
1022.412 .0262211
1023.000 .0262202
1023.588 .0262195
1024.175 .0262187
1024.762 .0262181
1025.349 .0262175
1025.936 .0262169
1026.523 .0262162
1027.109 .0262154
1027.695 .0262146
1028.281 .0262138
1028.867 .0262130
1029.452 .0262123
1030.038 .0262116
1030.623 .0262110
1031.208 .0262104
1031.792 .0262099
1032.377 .0262093
1032.961 .0262085
1033.546 .0262076
1034.130 .0262064
1034.714 .0262051
1035.297 .0262037
1035.881 .0262022
1036.464 .0262007
1037.047 .0261993
1037.630 .0261981
1038.213 .0261970
1038.796 .0261962
1039.378 .0261955
1039.961 .0261950
1040.543 .0261946
1041.125 .0261943
1041.707 .0261941
1042.289 .0261939
1042.871 .0261939
1043.452 .0261939
1044.034 .0261939
1044.615 .0261939
1045.196 .0261938
1045.777 .0261935
1046.358 .0261929
1046.939 .0261921
1047.520 .0261910
1048.101 .0261896
1048.681 .0261880
1049.262 .0261861
1049.842 .0261840
1050.422 .0261817
1051.002 .0261793
1051.582 .0261765
1052.162 .0261735
1052.742 .0261701
1053.322 .0261662
1053.902 .0261619
1054.482 .0261572
1055.061 .0261519
1055.641 .0261462
1056.220 .0261401
1056.800 .0261335
1057.379 .0261265
1057.958 .0261192
1058.538 .0261114
1059.117 .0261032
1059.696 .0260947
1060.275 .0260860
1060.854 .0260771
1061.433 .0260682
1062.012 .0260595
1062.592 .0260509
1063.171 .0260427
1063.750 .0260348
1064.329 .0260273
1064.908 .0260201
1065.487 .0260133
1066.066 .0260067
1066.645 .0260002
1067.224 .0259939
1067.803 .0259878
1068.382 .0259820
1068.961 .0259764
1069.540 .0259711
1070.119 .0259662
1070.698 .0259617
1071.278 .0259575
1071.857 .0259534
1072.436 .0259496
1073.016 .0259458
1073.595 .0259420
1074.175 .0259383
1074.754 .0259346
1075.334 .0259310
1075.913 .0259276
1076.493 .0259242
1077.073 .0259209
1077.653 .0259177
1078.233 .0259147
1078.813 .0259117
1079.393 .0259090
1079.974 .0259064
1080.554 .0259040
1081.135 .0259018
1081.716 .0259000
1082.296 .0258985
1082.877 .0258974
1083.458 .0258969
1084.040 .0258968
1084.621 .0258972
1085.202 .0258981
1085.784 .0258995
1086.366 .0259014
1086.948 .0259036
1087.530 .0259059
1088.112 .0259083
1088.695 .0259105
1089.277 .0259126
1089.860 .0259144
1090.443 .0259160
1091.026 .0259172
1091.610 .0259181
1092.193 .0259187
1092.777 .0259190
1093.361 .0259190
1093.946 .0259188
1094.530 .0259182
1095.115 .0259174
1095.700 .0259163
1096.285 .0259150
1096.871 .0259135
1097.456 .0259121
1098.042 .0259105
1098.628 .0259088
1099.215 .0259071
1099.802 .0259051
1100.389 .0259031
1100.976 .0259010
1101.564 .0258989
1102.152 .0258967
1102.740 .0258946
1103.329 .0258926
1103.917 .0258909
1104.507 .0258895
1105.096 .0258884
1105.686 .0258877
1106.276 .0258874
1106.867 .0258878
1107.457 .0258888
1108.049 .0258908
1108.640 .0258939
1109.232 .0258981
1109.825 .0259035
1110.417 .0259100
1111.010 .0259174
1111.604 .0259257
1112.198 .0259346
1112.792 .0259438
1113.387 .0259532
1113.982 .0259626
1114.577 .0259719
1115.173 .0259813
1115.769 .0259909
1116.366 .0260010
1116.963 .0260118
1117.561 .0260233
1118.159 .0260355
1118.758 .0260485
1119.357 .0260620
1119.957 .0260760
1120.557 .0260904
1121.157 .0261055
1121.758 .0261214
1122.360 .0261385
1122.962 .0261572
1123.564 .0261777
1124.167 .0261855
1124.771 .0262088
1125.375 .0262342
1125.980 .0262618
1126.585 .0262912
1127.191 .0263221
1127.797 .0263545
1128.404 .0263882
1129.012 .0264229
1129.620 .0264586
1130.229 .0264954
1130.838 .0265334
1131.448 .0265723
1132.058 .0266123
1132.669 .0266722
1133.281 .0267137
1133.894 .0267548
1134.507 .0267958
1135.120 .0268390
1135.735 .0268765
1136.350 .0269119
1136.965 .0270419
1137.582 .0270797
1138.199 .0271169
1138.816 .0271520
1139.435 .0271860
1140.054 .0272210
1140.674 .0272526
1141.294 .0272804
1141.916 .0272984
1142.538 .0273252
1143.160 .0274162
1143.784 .0272890
1144.408 .0272614
1145.033 .0271992
