Measurement Sequence started on: 14-45-04-498
Integration time: 36
Scans to Average: 2 
>>>>>Begin Spectral Data<<<<<
433.946 .0527446
434.870 .0534045
435.793 .0478979
436.715 .0510172
437.635 .0503897
438.555 .0504478
439.473 .0502894
440.389 .0501519
441.305 .0501535
442.219 .0500471
443.132 .0499699
444.044 .0497424
444.954 .0497998
445.863 .0496871
446.771 .0496010
447.678 .0495050
448.584 .0494100
449.488 .0493151
450.391 .0492134
451.293 .0491111
452.194 .0490082
453.094 .0489058
453.992 .0488044
454.890 .0487041
455.786 .0486053
456.681 .0485087
457.575 .0484136
458.468 .0483205
459.360 .0482296
460.250 .0481417
461.140 .0480572
462.028 .0479772
462.915 .0479027
463.801 .0478346
464.687 .0477726
465.571 .0477168
466.454 .0476660
467.335 .0476191
468.216 .0475747
469.096 .0475315
469.975 .0474879
470.853 .0474435
471.729 .0473975
472.605 .0473500
473.479 .0473008
474.353 .0472498
475.226 .0471964
476.097 .0471402
476.968 .0470806
477.838 .0470171
478.706 .0469494
479.574 .0468782
480.441 .0468037
481.306 .0467270
482.171 .0466494
483.035 .0465721
483.898 .0464962
484.760 .0464230
485.621 .0463530
486.481 .0462869
487.340 .0462248
488.198 .0461672
489.055 .0461142
489.912 .0460661
490.767 .0460231
491.622 .0459786
492.476 .0459476
493.329 .0459206
494.180 .0458969
495.032 .0458757
495.882 .0458558
496.731 .0458364
497.580 .0458165
498.427 .0457955
499.274 .0457733
500.120 .0457563
500.965 .0457314
501.809 .0457056
502.653 .0456785
503.495 .0456502
504.337 .0456206
505.178 .0455895
506.018 .0455570
506.858 .0455236
507.696 .0454897
508.534 .0454560
509.371 .0454239
510.208 .0453948
511.043 .0453701
511.878 .0453508
512.712 .0453380
513.545 .0453319
514.377 .0453324
515.209 .0453390
516.040 .0453509
516.870 .0453671
517.699 .0453865
518.528 .0454083
519.356 .0454315
520.183 .0454555
521.010 .0454800
521.836 .0455048
522.661 .0455294
523.485 .0455530
524.309 .0455751
525.132 .0455946
525.954 .0456103
526.776 .0456206
527.597 .0456239
528.417 .0456191
529.237 .0456056
530.056 .0455827
530.874 .0455504
531.692 .0455096
532.508 .0454613
533.325 .0454067
534.140 .0453467
534.955 .0452827
535.770 .0452150
536.583 .0451445
537.397 .0450712
538.209 .0449948
539.021 .0449157
539.832 .0448340
540.643 .0447504
541.453 .0446651
542.262 .0445790
543.071 .0444931
543.879 .0444081
544.687 .0443251
545.494 .0442442
546.300 .0441654
547.106 .0440889
547.911 .0440143
548.716 .0439412
549.520 .0438698
550.323 .0438000
551.126 .0437321
551.929 .0436665
552.731 .0436036
553.532 .0435436
554.332 .0434870
555.133 .0434340
555.932 .0433843
556.731 .0433376
557.530 .0432935
558.328 .0432514
559.125 .0432109
559.922 .0431716
560.719 .0431331
561.515 .0430951
562.310 .0430580
563.105 .0430212
563.899 .0429846
564.693 .0429481
565.487 .0429114
566.280 .0428740
567.072 .0428354
567.864 .0427950
568.655 .0427526
569.446 .0427081
570.236 .0426614
571.026 .0426127
571.816 .0425623
572.605 .0425107
573.393 .0424584
574.181 .0424057
574.969 .0423532
575.756 .0423010
576.543 .0422494
577.329 .0421984
578.115 .0421483
578.900 .0420990
579.685 .0420509
580.469 .0420044
581.253 .0419599
582.036 .0419179
582.820 .0418786
583.602 .0418422
584.384 .0418087
585.166 .0417779
585.947 .0417495
586.728 .0417232
587.509 .0416989
588.289 .0416762
589.069 .0416549
589.848 .0416348
590.627 .0416157
591.405 .0415975
592.183 .0415799
592.961 .0415627
593.738 .0415458
594.515 .0415292
595.291 .0415126
596.067 .0414963
596.843 .0414802
597.618 .0414642
598.393 .0414412
599.167 .0414263
599.941 .0414120
600.715 .0413981
601.488 .0413847
602.261 .0413717
603.034 .0413594
603.806 .0413476
604.578 .0413365
605.349 .0413262
606.121 .0413167
606.891 .0413143
607.662 .0413059
608.432 .0412983
609.201 .0412916
609.971 .0412856
610.740 .0412803
611.508 .0412756
612.277 .0412713
613.045 .0412673
613.812 .0412636
614.579 .0412601
615.346 .0412566
616.113 .0412532
616.879 .0412497
617.645 .0412461
618.411 .0412423
619.176 .0412384
619.941 .0412340
620.705 .0412293
621.470 .0412240
622.233 .0412181
622.997 .0412116
623.760 .0412044
624.523 .0411967
625.286 .0411883
626.048 .0411792
626.810 .0411695
627.572 .0411592
628.333 .0411482
629.095 .0411366
629.855 .0411244
630.616 .0411116
631.376 .0410984
632.136 .0410848
632.895 .0410710
633.655 .0410569
634.414 .0410426
635.172 .0410282
635.931 .0410136
636.689 .0409988
637.447 .0409837
638.204 .0409685
638.962 .0409532
639.718 .0409378
640.475 .0409225
641.231 .0409074
641.988 .0408924
642.743 .0408777
643.499 .0408631
644.254 .0408487
645.009 .0408344
645.764 .0408202
646.518 .0408061
647.272 .0407921
648.026 .0407782
648.780 .0407645
649.533 .0407509
650.286 .0407375
651.039 .0407241
651.792 .0407108
652.544 .0406974
653.296 .0406841
654.048 .0406707
654.799 .0406573
655.550 .0406439
656.301 .0406307
657.052 .0406176
657.802 .0406046
658.552 .0405916
659.302 .0405786
660.052 .0405657
660.801 .0405528
661.550 .0405399
662.299 .0405271
663.048 .0405143
663.796 .0405016
664.544 .0404890
665.292 .0404765
666.040 .0404641
666.787 .0404515
667.534 .0404388
668.281 .0404258
669.028 .0404125
669.774 .0403988
670.521 .0403847
671.266 .0403702
672.012 .0403554
672.758 .0403401
673.503 .0403246
674.248 .0403089
674.992 .0402929
675.737 .0402767
676.481 .0402602
677.225 .0402436
677.969 .0402268
678.712 .0402100
679.455 .0401930
680.199 .0401761
680.941 .0401592
681.684 .0401423
682.426 .0401255
683.168 .0401087
683.910 .0400920
684.652 .0400754
685.393 .0400588
686.134 .0400424
686.875 .0400261
687.616 .0400101
688.356 .0399944
689.097 .0399789
689.837 .0399637
690.576 .0399486
691.316 .0399335
692.055 .0399184
692.794 .0399032
693.533 .0398878
694.272 .0398723
695.010 .0398568
695.748 .0398412
696.486 .0398256
697.224 .0398101
697.962 .0397947
698.699 .0397792
699.436 .0397636
700.173 .0397479
700.909 .0397321
701.646 .0397162
702.382 .0397002
703.118 .0396842
703.853 .0396683
704.589 .0396525
705.324 .0396369
706.059 .0396214
706.794 .0396059
707.529 .0395905
708.263 .0395751
708.997 .0395597
709.731 .0395442
710.465 .0395286
711.198 .0395129
711.931 .0394971
712.664 .0394812
713.397 .0394651
714.130 .0394488
714.862 .0394324
715.594 .0394158
716.326 .0393990
717.058 .0393821
717.789 .0393651
718.520 .0393480
719.251 .0393308
719.982 .0393136
720.713 .0392963
721.443 .0392789
722.173 .0392615
722.903 .0392441
723.633 .0392267
724.362 .0392093
725.091 .0391922
725.820 .0391752
726.549 .0391585
727.278 .0391422
728.006 .0391261
728.734 .0391104
729.462 .0390951
730.190 .0390800
730.917 .0390652
731.644 .0390506
732.371 .0390363
733.098 .0390223
733.825 .0390086
734.551 .0389952
735.277 .0389822
736.003 .0389695
736.728 .0389571
737.454 .0389449
738.179 .0389330
738.904 .0389212
739.629 .0389096
740.353 .0388980
741.077 .0388865
741.801 .0388751
742.525 .0388638
743.249 .0388525
743.972 .0388412
744.695 .0388299
745.418 .0388186
746.141 .0388073
746.863 .0387960
747.585 .0387846
748.307 .0387733
749.029 .0387619
749.750 .0387504
750.472 .0387389
751.193 .0387273
751.913 .0387154
752.634 .0387034
753.354 .0386912
754.074 .0386788
754.794 .0386663
755.514 .0386536
756.233 .0386409
756.952 .0386282
757.671 .0386155
758.390 .0386029
759.108 .0385904
759.826 .0385779
760.544 .0385656
761.262 .0385532
761.979 .0385409
762.697 .0385286
763.414 .0385163
764.130 .0385041
764.847 .0384918
765.563 .0384795
766.279 .0384674
766.995 .0384553
767.710 .0384433
768.426 .0384314
769.141 .0384196
769.855 .0384079
770.570 .0383961
771.284 .0383843
771.998 .0383723
772.712 .0383602
773.426 .0383477
774.139 .0383350
774.852 .0383219
775.565 .0383084
776.277 .0382948
776.990 .0382809
777.702 .0382668
778.414 .0382525
779.125 .0382380
779.836 .0382233
780.547 .0382083
781.258 .0381932
781.969 .0381777
782.679 .0381621
783.389 .0381380
784.099 .0381221
784.808 .0381063
785.517 .0380905
786.226 .0380749
786.935 .0380594
787.643 .0380441
788.352 .0380290
789.060 .0380142
789.767 .0379996
790.475 .0379853
791.182 .0379712
791.889 .0379650
792.595 .0379513
793.301 .0379379
794.008 .0379245
794.713 .0379113
795.419 .0378981
796.124 .0378849
796.829 .0378717
797.534 .0378583
798.238 .0378450
798.942 .0378315
799.646 .0378181
800.350 .0378046
801.053 .0377911
801.756 .0377777
802.459 .0377642
803.162 .0377507
803.864 .0377372
804.566 .0377236
805.267 .0377101
805.969 .0376965
806.670 .0376829
807.371 .0376693
808.071 .0376558
808.772 .0376423
809.472 .0376288
810.171 .0376154
810.871 .0376020
811.570 .0375887
812.269 .0375753
812.967 .0375619
813.666 .0375485
814.364 .0375349
815.061 .0375213
815.759 .0375077
816.456 .0374940
817.153 .0374803
817.849 .0374666
818.545 .0374529
819.241 .0374392
819.937 .0374255
820.632 .0374116
821.327 .0373976
822.022 .0373835
822.717 .0373690
823.411 .0373544
824.105 .0373394
824.798 .0373242
825.491 .0373087
826.184 .0372929
826.877 .0372769
827.569 .0372605
828.261 .0372439
828.953 .0372269
829.645 .0372096
830.336 .0371920
831.027 .0371743
831.717 .0371565
832.407 .0371386
833.097 .0371207
833.787 .0371028
834.476 .0370849
835.165 .0370670
835.854 .0370491
836.542 .0370311
837.230 .0370130
837.918 .0369949
838.605 .0369767
839.292 .0369585
839.979 .0369403
840.665 .0369222
841.352 .0369041
842.037 .0368861
842.723 .0368681
843.408 .0368501
844.093 .0368319
844.777 .0368136
845.462 .0367951
846.145 .0367763
846.829 .0367574
847.512 .0367382
848.195 .0367189
848.878 .0366993
849.560 .0366796
850.242 .0366596
850.923 .0366394
851.605 .0366188
852.286 .0365979
852.966 .0365764
853.646 .0365546
854.326 .0365324
855.006 .0365098
855.685 .0364870
856.364 .0364641
857.043 .0364412
857.721 .0364183
858.399 .0363957
859.077 .0363733
859.754 .0363513
860.431 .0363295
861.107 .0363083
861.784 .0362875
862.459 .0362674
863.135 .0362479
863.810 .0362291
864.485 .0362112
865.160 .0361940
865.834 .0361776
866.508 .0361620
867.181 .0361470
867.854 .0361327
868.527 .0361190
869.199 .0361058
869.872 .0360933
870.543 .0360813
871.215 .0360699
871.886 .0360590
872.557 .0360486
873.227 .0360385
873.897 .0360286
874.567 .0360189
875.236 .0360093
875.905 .0359997
876.573 .0359901
877.242 .0359805
877.909 .0359708
878.577 .0359612
879.244 .0359515
879.911 .0359418
880.577 .0359320
881.243 .0359220
881.909 .0359118
882.575 .0359015
883.240 .0358908
883.904 .0358799
884.569 .0358687
885.232 .0358573
885.896 .0358457
886.559 .0358341
887.222 .0358223
887.885 .0358105
888.547 .0357986
889.208 .0357867
889.870 .0357746
890.531 .0357624
891.192 .0357501
891.852 .0357375
892.512 .0357248
893.171 .0357118
893.830 .0356985
894.489 .0356850
895.148 .0356712
895.806 .0356572
896.464 .0356429
897.121 .0356283
897.778 .0356134
898.434 .0355983
899.091 .0355747
899.747 .0355589
900.402 .0355429
901.057 .0355266
901.712 .0355101
902.366 .0354934
903.020 .0354763
903.674 .0354589
904.327 .0354411
904.980 .0354229
905.633 .0354042
906.285 .0353850
906.936 .0353654
907.588 .0353546
908.239 .0353345
908.889 .0353140
909.540 .0352932
910.190 .0352720
910.839 .0352506
911.488 .0352288
912.137 .0352067
912.785 .0351843
913.433 .0351616
914.081 .0351387
914.728 .0351157
915.375 .0350926
916.021 .0350696
916.668 .0350465
917.313 .0350235
917.959 .0350005
918.604 .0349775
919.248 .0349546
919.892 .0349317
920.536 .0349088
921.180 .0348860
921.823 .0348633
922.465 .0348407
923.108 .0348183
923.750 .0347959
924.391 .0347736
925.032 .0347514
925.673 .0347292
926.313 .0347071
926.953 .0346850
927.593 .0346631
928.232 .0346412
928.871 .0346195
929.510 .0345979
930.148 .0345764
930.786 .0345551
931.423 .0345339
932.060 .0345128
932.697 .0344919
933.333 .0344711
933.969 .0344505
934.604 .0344303
935.239 .0344105
935.874 .0343911
936.508 .0343723
937.142 .0343540
937.776 .0343363
938.409 .0343192
939.042 .0343026
939.674 .0342867
940.306 .0342714
940.938 .0342565
941.569 .0342422
942.200 .0342284
942.830 .0342150
943.460 .0342021
944.090 .0341896
944.720 .0341775
945.349 .0341658
945.977 .0341545
946.606 .0341435
947.233 .0341328
947.861 .0341224
948.488 .0341121
949.115 .0341021
949.741 .0340922
950.367 .0340825
950.993 .0340727
951.618 .0340631
952.243 .0340533
952.868 .0340436
953.492 .0340338
954.115 .0340239
954.739 .0340139
955.362 .0340037
955.984 .0339934
956.607 .0339829
957.229 .0339723
957.850 .0339615
958.471 .0339506
959.092 .0339397
959.713 .0339287
960.333 .0339177
960.952 .0339067
961.572 .0338958
962.191 .0338848
962.809 .0338739
963.428 .0338630
964.045 .0338523
964.663 .0338416
965.280 .0338312
965.897 .0338209
966.513 .0338107
967.129 .0338006
967.745 .0337905
968.361 .0337804
968.976 .0337702
969.590 .0337598
970.205 .0337491
970.818 .0337382
971.432 .0337271
972.045 .0337158
972.658 .0337042
973.271 .0336924
973.883 .0336805
974.495 .0336684
975.106 .0336562
975.717 .0336439
976.328 .0336316
976.938 .0336193
977.548 .0336069
978.158 .0335946
978.768 .0335761
979.377 .0335640
979.985 .0335521
980.594 .0335403
981.202 .0335287
981.809 .0335173
982.417 .0335061
983.024 .0334951
983.631 .0334843
984.237 .0334736
984.843 .0334629
985.449 .0334522
986.054 .0334414
986.659 .0334306
987.264 .0334254
987.868 .0334142
988.472 .0334030
989.076 .0333916
989.679 .0333801
990.282 .0333685
990.885 .0333567
991.487 .0333447
992.090 .0333324
992.691 .0333198
993.293 .0333068
993.894 .0332934
994.495 .0332797
995.095 .0332657
995.696 .0332514
996.296 .0332369
996.895 .0332222
997.494 .0332073
998.093 .0331922
998.692 .0331768
999.291 .0331613
999.889 .0331455
1000.487 .0331296
1001.084 .0331137
1001.681 .0330978
1002.278 .0330821
1002.875 .0330669
1003.471 .0330520
1004.067 .0330377
1004.663 .0330238
1005.258 .0330104
1005.854 .0329975
1006.449 .0329850
1007.043 .0329729
1007.638 .0329613
1008.232 .0329502
1008.826 .0329397
1009.419 .0329299
1010.012 .0329208
1010.605 .0329124
1011.198 .0329045
1011.791 .0328971
1012.383 .0328900
1012.975 .0328832
1013.566 .0328765
1014.158 .0328700
1014.749 .0328636
1015.340 .0328573
1015.931 .0328511
1016.521 .0328451
1017.111 .0328391
1017.701 .0328331
1018.291 .0328270
1018.880 .0328207
1019.470 .0328140
1020.059 .0328071
1020.647 .0327998
1021.236 .0327924
1021.824 .0327848
1022.412 .0327773
1023.000 .0327700
1023.588 .0327630
1024.175 .0327564
1024.762 .0327503
1025.349 .0327445
1025.936 .0327392
1026.523 .0327343
1027.109 .0327299
1027.695 .0327261
1028.281 .0327229
1028.867 .0327206
1029.452 .0327192
1030.038 .0327188
1030.623 .0327193
1031.208 .0327209
1031.792 .0327234
1032.377 .0327266
1032.961 .0327304
1033.546 .0327348
1034.130 .0327396
1034.714 .0327448
1035.297 .0327506
1035.881 .0327568
1036.464 .0327635
1037.047 .0327707
1037.630 .0327784
1038.213 .0327865
1038.796 .0327947
1039.378 .0328030
1039.961 .0328111
1040.543 .0328190
1041.125 .0328266
1041.707 .0328338
1042.289 .0328407
1042.871 .0328472
1043.452 .0328534
1044.034 .0328593
1044.615 .0328647
1045.196 .0328696
1045.777 .0328739
1046.358 .0328774
1046.939 .0328801
1047.520 .0328818
1048.101 .0328825
1048.681 .0328824
1049.262 .0328816
1049.842 .0328802
1050.422 .0328782
1051.002 .0328759
1051.582 .0328732
1052.162 .0328702
1052.742 .0328668
1053.322 .0328629
1053.902 .0328587
1054.482 .0328541
1055.061 .0328493
1055.641 .0328446
1056.220 .0328399
1056.800 .0328356
1057.379 .0328317
1057.958 .0328282
1058.538 .0328250
1059.117 .0328219
1059.696 .0328189
1060.275 .0328158
1060.854 .0328125
1061.433 .0328090
1062.012 .0328052
1062.592 .0328014
1063.171 .0327975
1063.750 .0327936
1064.329 .0327897
1064.908 .0327858
1065.487 .0327818
1066.066 .0327777
1066.645 .0327734
1067.224 .0327689
1067.803 .0327644
1068.382 .0327599
1068.961 .0327554
1069.540 .0327510
1070.119 .0327467
1070.698 .0327426
1071.278 .0327387
1071.857 .0327348
1072.436 .0327310
1073.016 .0327272
1073.595 .0327234
1074.175 .0327196
1074.754 .0327157
1075.334 .0327116
1075.913 .0327071
1076.493 .0327022
1077.073 .0326969
1077.653 .0326910
1078.233 .0326845
1078.813 .0326777
1079.393 .0326706
1079.974 .0326633
1080.554 .0326559
1081.135 .0326486
1081.716 .0326412
1082.296 .0326337
1082.877 .0326260
1083.458 .0326177
1084.040 .0326090
1084.621 .0325998
1085.202 .0325899
1085.784 .0325797
1086.366 .0325691
1086.948 .0325583
1087.530 .0325474
1088.112 .0325362
1088.695 .0325248
1089.277 .0325130
1089.860 .0325006
1090.443 .0324876
1091.026 .0324739
1091.610 .0324598
1092.193 .0324454
1092.777 .0324311
1093.361 .0324170
1093.946 .0324036
1094.530 .0323907
1095.115 .0323786
1095.700 .0323671
1096.285 .0323561
1096.871 .0323456
1097.456 .0323355
1098.042 .0323259
1098.628 .0323169
1099.215 .0323087
1099.802 .0323014
1100.389 .0322952
1100.976 .0322899
1101.564 .0322857
1102.152 .0322821
1102.740 .0322791
1103.329 .0322765
1103.917 .0322742
1104.507 .0322722
1105.096 .0322706
1105.686 .0322695
1106.276 .0322693
1106.867 .0322701
1107.457 .0322719
1108.049 .0322747
1108.640 .0322785
1109.232 .0322831
1109.825 .0322884
1110.417 .0322943
1111.010 .0323008
1111.604 .0323078
1112.198 .0323156
1112.792 .0323242
1113.387 .0323334
1113.982 .0323435
1114.577 .0323540
1115.173 .0323650
1115.769 .0323761
1116.366 .0323873
1116.963 .0323985
1117.561 .0324095
1118.159 .0324206
1118.758 .0324318
1119.357 .0324435
1119.957 .0324558
1120.557 .0324688
1121.157 .0324828
1121.758 .0324978
1122.360 .0325137
1122.962 .0325304
1123.564 .0325479
1124.167 .0325561
1124.771 .0325740
1125.375 .0325925
1125.980 .0326117
1126.585 .0326317
1127.191 .0326527
1127.797 .0326749
1128.404 .0326986
1129.012 .0327236
1129.620 .0327501
1130.229 .0327781
1130.838 .0328076
1131.448 .0328385
1132.058 .0328710
1132.669 .0329169
1133.281 .0329540
1133.894 .0329927
1134.507 .0330335
1135.120 .0330809
1135.735 .0331264
1136.350 .0331759
1136.965 .0331504
1137.582 .0332123
1138.199 .0332755
1138.816 .0333388
1139.435 .0334018
1140.054 .0334662
1140.674 .0335311
1141.294 .0335979
1141.916 .0336444
1142.538 .0337094
1143.160 .0338902
1143.784 .0338459
1144.408 .0339648
1145.033 .0334118
