Measurement Sequence started on: 14-45-04-498
Integration time: 36
Scans to Average: 2 
>>>>>Begin Spectral Data<<<<<
433.946 .0481600
434.870 .0537437
435.793 .0487498
436.715 .0478275
437.635 .0470485
438.555 .0482645
439.473 .0481207
440.389 .0479139
441.305 .0479047
442.219 .0479276
443.132 .0482787
444.044 .0479643
444.954 .0479079
445.863 .0478951
446.771 .0479174
447.678 .0478698
448.584 .0478235
449.488 .0477816
450.391 .0477338
451.293 .0476786
452.194 .0476160
453.094 .0475479
453.992 .0474739
454.890 .0473948
455.786 .0473111
456.681 .0472234
457.575 .0471327
458.468 .0470400
459.360 .0469467
460.250 .0468535
461.140 .0467612
462.028 .0466706
462.915 .0465819
463.801 .0464960
464.687 .0464128
465.571 .0463320
466.454 .0462537
467.335 .0461772
468.216 .0461021
469.096 .0460276
469.975 .0459536
470.853 .0458798
471.729 .0458062
472.605 .0457333
473.479 .0456614
474.353 .0455907
475.226 .0455216
476.097 .0454539
476.968 .0453875
477.838 .0453223
478.706 .0452581
479.574 .0451949
480.441 .0451330
481.306 .0450727
482.171 .0450145
483.035 .0449587
483.898 .0449059
484.760 .0448564
485.621 .0448100
486.481 .0447665
487.340 .0447256
488.198 .0446867
489.055 .0446490
489.912 .0446118
490.767 .0445747
491.622 .0445168
492.476 .0444770
493.329 .0444358
494.180 .0443930
495.032 .0443489
495.882 .0443034
496.731 .0442565
497.580 .0442085
498.427 .0441594
499.274 .0441095
500.120 .0440816
500.965 .0440310
501.809 .0439795
502.653 .0439277
503.495 .0438759
504.337 .0438245
505.178 .0437743
506.018 .0437262
506.858 .0436812
507.696 .0436401
508.534 .0436039
509.371 .0435731
510.208 .0435482
511.043 .0435294
511.878 .0435164
512.712 .0435088
513.545 .0435059
514.377 .0435068
515.209 .0435105
516.040 .0435164
516.870 .0435237
517.699 .0435320
518.528 .0435413
519.356 .0435515
520.183 .0435622
521.010 .0435731
521.836 .0435839
522.661 .0435931
523.485 .0435997
524.309 .0436026
525.132 .0436005
525.954 .0435923
526.776 .0435770
527.597 .0435548
528.417 .0435260
529.237 .0434916
530.056 .0434522
530.874 .0434087
531.692 .0433621
532.508 .0433132
533.325 .0432618
534.140 .0432087
534.955 .0431537
535.770 .0430964
536.583 .0430368
537.397 .0429752
538.209 .0429120
539.021 .0428478
539.832 .0427837
540.643 .0427209
541.453 .0426597
542.262 .0426007
543.071 .0425439
543.879 .0424893
544.687 .0424364
545.494 .0423838
546.300 .0423304
547.106 .0422758
547.911 .0422194
548.716 .0421611
549.520 .0421012
550.323 .0420407
551.126 .0419801
551.929 .0419196
552.731 .0418599
553.532 .0418010
554.332 .0417425
555.133 .0416841
555.932 .0416253
556.731 .0415658
557.530 .0415051
558.328 .0414440
559.125 .0413828
559.922 .0413222
560.719 .0412629
561.515 .0412052
562.310 .0411500
563.105 .0410973
563.899 .0410469
564.693 .0409986
565.487 .0409520
566.280 .0409069
567.072 .0408625
567.864 .0408188
568.655 .0407755
569.446 .0407328
570.236 .0406905
571.026 .0406485
571.816 .0406068
572.605 .0405652
573.393 .0405235
574.181 .0404816
574.969 .0404391
575.756 .0403958
576.543 .0403516
577.329 .0403067
578.115 .0402613
578.900 .0402156
579.685 .0401699
580.469 .0401248
581.253 .0400803
582.036 .0400367
582.820 .0399940
583.602 .0399526
584.384 .0399122
585.166 .0398730
585.947 .0398350
586.728 .0397983
587.509 .0397629
588.289 .0397290
589.069 .0396965
589.848 .0396653
590.627 .0396354
591.405 .0396065
592.183 .0395784
592.961 .0395510
593.738 .0395241
594.515 .0394976
595.291 .0394717
596.067 .0394464
596.843 .0394219
597.618 .0393982
598.393 .0393657
599.167 .0393444
599.941 .0393241
600.715 .0393046
601.488 .0392858
602.261 .0392679
603.034 .0392508
603.806 .0392347
604.578 .0392194
605.349 .0392052
606.121 .0391918
606.891 .0391873
607.662 .0391748
608.432 .0391630
609.201 .0391518
609.971 .0391411
610.740 .0391307
611.508 .0391205
612.277 .0391105
613.045 .0391005
613.812 .0390905
614.579 .0390804
615.346 .0390700
616.113 .0390591
616.879 .0390477
617.645 .0390358
618.411 .0390233
619.176 .0390101
619.941 .0389963
620.705 .0389818
621.470 .0389667
622.233 .0389509
622.997 .0389344
623.760 .0389173
624.523 .0388997
625.286 .0388816
626.048 .0388633
626.810 .0388446
627.572 .0388259
628.333 .0388070
629.095 .0387882
629.855 .0387693
630.616 .0387504
631.376 .0387316
632.136 .0387127
632.895 .0386938
633.655 .0386748
634.414 .0386559
635.172 .0386369
635.931 .0386179
636.689 .0385989
637.447 .0385798
638.204 .0385607
638.962 .0385414
639.718 .0385221
640.475 .0385027
641.231 .0384833
641.988 .0384637
642.743 .0384441
643.499 .0384243
644.254 .0384043
645.009 .0383842
645.764 .0383638
646.518 .0383432
647.272 .0383224
648.026 .0383013
648.780 .0382801
649.533 .0382588
650.286 .0382376
651.039 .0382165
651.792 .0381956
652.544 .0381747
653.296 .0381540
654.048 .0381335
654.799 .0381131
655.550 .0380929
656.301 .0380730
657.052 .0380533
657.802 .0380340
658.552 .0380151
659.302 .0379968
660.052 .0379789
660.801 .0379616
661.550 .0379447
662.299 .0379282
663.048 .0379120
663.796 .0378960
664.544 .0378803
665.292 .0378646
666.040 .0378490
666.787 .0378335
667.534 .0378180
668.281 .0378025
669.028 .0377870
669.774 .0377714
670.521 .0377558
671.266 .0377401
672.012 .0377243
672.758 .0377082
673.503 .0376918
674.248 .0376751
674.992 .0376580
675.737 .0376405
676.481 .0376225
677.225 .0376040
677.969 .0375850
678.712 .0375657
679.455 .0375459
680.199 .0375258
680.941 .0375054
681.684 .0374848
682.426 .0374641
683.168 .0374433
683.910 .0374224
684.652 .0374014
685.393 .0373804
686.134 .0373595
686.875 .0373386
687.616 .0373178
688.356 .0372974
689.097 .0372772
689.837 .0372575
690.576 .0372382
691.316 .0372194
692.055 .0372010
692.794 .0371831
693.533 .0371657
694.272 .0371487
695.010 .0371321
695.748 .0371159
696.486 .0371001
697.224 .0370846
697.962 .0370695
698.699 .0370548
699.436 .0370403
700.173 .0370262
700.909 .0370123
701.646 .0369987
702.382 .0369853
703.118 .0369722
703.853 .0369592
704.589 .0369463
705.324 .0369335
706.059 .0369207
706.794 .0369078
707.529 .0368949
708.263 .0368819
708.997 .0368687
709.731 .0368555
710.465 .0368421
711.198 .0368285
711.931 .0368148
712.664 .0368009
713.397 .0367868
714.130 .0367726
714.862 .0367581
715.594 .0367435
716.326 .0367287
717.058 .0367137
717.789 .0366985
718.520 .0366832
719.251 .0366678
719.982 .0366522
720.713 .0366365
721.443 .0366208
722.173 .0366050
722.903 .0365891
723.633 .0365732
724.362 .0365572
725.091 .0365412
725.820 .0365252
726.549 .0365092
727.278 .0364933
728.006 .0364774
728.734 .0364617
729.462 .0364461
730.190 .0364307
730.917 .0364154
731.644 .0364003
732.371 .0363852
733.098 .0363703
733.825 .0363555
734.551 .0363408
735.277 .0363262
736.003 .0363118
736.728 .0362975
737.454 .0362833
738.179 .0362694
738.904 .0362555
739.629 .0362417
740.353 .0362281
741.077 .0362144
741.801 .0362007
742.525 .0361869
743.249 .0361730
743.972 .0361589
744.695 .0361447
745.418 .0361302
746.141 .0361156
746.863 .0361007
747.585 .0360856
748.307 .0360704
749.029 .0360551
749.750 .0360395
750.472 .0360238
751.193 .0360079
751.913 .0359917
752.634 .0359753
753.354 .0359587
754.074 .0359419
754.794 .0359249
755.514 .0359078
756.233 .0358906
756.952 .0358735
757.671 .0358566
758.390 .0358399
759.108 .0358234
759.826 .0358074
760.544 .0357917
761.262 .0357766
761.979 .0357619
762.697 .0357478
763.414 .0357341
764.130 .0357210
764.847 .0357083
765.563 .0356962
766.279 .0356846
766.995 .0356736
767.710 .0356632
768.426 .0356535
769.141 .0356443
769.855 .0356357
770.570 .0356277
771.284 .0356201
771.998 .0356130
772.712 .0356061
773.426 .0355995
774.139 .0355932
774.852 .0355870
775.565 .0355809
776.277 .0355750
776.990 .0355692
777.702 .0355634
778.414 .0355577
779.125 .0355520
779.836 .0355463
780.547 .0355405
781.258 .0355346
781.969 .0355286
782.679 .0355225
783.389 .0355123
784.099 .0355055
784.808 .0354984
785.517 .0354910
786.226 .0354833
786.935 .0354752
787.643 .0354668
788.352 .0354582
789.060 .0354493
789.767 .0354403
790.475 .0354312
791.182 .0354220
791.889 .0354169
792.595 .0354074
793.301 .0353977
794.008 .0353877
794.713 .0353772
795.419 .0353662
796.124 .0353547
796.829 .0353427
797.534 .0353301
798.238 .0353171
798.942 .0353036
799.646 .0352898
800.350 .0352755
801.053 .0352609
801.756 .0352459
802.459 .0352306
803.162 .0352149
803.864 .0351989
804.566 .0351827
805.267 .0351664
805.969 .0351499
806.670 .0351334
807.371 .0351169
808.071 .0351003
808.772 .0350837
809.472 .0350672
810.171 .0350506
810.871 .0350339
811.570 .0350172
812.269 .0350005
812.967 .0349837
813.666 .0349668
814.364 .0349498
815.061 .0349328
815.759 .0349156
816.456 .0348983
817.153 .0348809
817.849 .0348633
818.545 .0348455
819.241 .0348277
819.937 .0348096
820.632 .0347914
821.327 .0347731
822.022 .0347547
822.717 .0347360
823.411 .0347172
824.105 .0346982
824.798 .0346790
825.491 .0346596
826.184 .0346401
826.877 .0346205
827.569 .0346010
828.261 .0345816
828.953 .0345624
829.645 .0345436
830.336 .0345252
831.027 .0345073
831.717 .0344900
832.407 .0344732
833.097 .0344572
833.787 .0344419
834.476 .0344273
835.165 .0344136
835.854 .0344007
836.542 .0343886
837.230 .0343774
837.918 .0343670
838.605 .0343573
839.292 .0343484
839.979 .0343401
840.665 .0343324
841.352 .0343252
842.037 .0343185
842.723 .0343122
843.408 .0343063
844.093 .0343006
844.777 .0342951
845.462 .0342896
846.145 .0342841
846.829 .0342785
847.512 .0342728
848.195 .0342669
848.878 .0342608
849.560 .0342545
850.242 .0342480
850.923 .0342412
851.605 .0342340
852.286 .0342265
852.966 .0342186
853.646 .0342102
854.326 .0342014
855.006 .0341921
855.685 .0341825
856.364 .0341724
857.043 .0341619
857.721 .0341512
858.399 .0341402
859.077 .0341289
859.754 .0341174
860.431 .0341057
861.107 .0340938
861.784 .0340817
862.459 .0340695
863.135 .0340572
863.810 .0340450
864.485 .0340327
865.160 .0340204
865.834 .0340081
866.508 .0339958
867.181 .0339834
867.854 .0339709
868.527 .0339585
869.199 .0339460
869.872 .0339336
870.543 .0339212
871.215 .0339089
871.886 .0338967
872.557 .0338844
873.227 .0338721
873.897 .0338597
874.567 .0338470
875.236 .0338340
875.905 .0338208
876.573 .0338072
877.242 .0337933
877.909 .0337791
878.577 .0337646
879.244 .0337498
879.911 .0337346
880.577 .0337192
881.243 .0337034
881.909 .0336872
882.575 .0336707
883.240 .0336538
883.904 .0336366
884.569 .0336191
885.232 .0336013
885.896 .0335833
886.559 .0335651
887.222 .0335468
887.885 .0335284
888.547 .0335099
889.208 .0334913
889.870 .0334727
890.531 .0334542
891.192 .0334358
891.852 .0334174
892.512 .0333991
893.171 .0333808
893.830 .0333626
894.489 .0333443
895.148 .0333259
895.806 .0333075
896.464 .0332890
897.121 .0332703
897.778 .0332516
898.434 .0332329
899.091 .0332044
899.747 .0331857
900.402 .0331669
901.057 .0331482
901.712 .0331294
902.366 .0331104
903.020 .0330913
903.674 .0330719
904.327 .0330523
904.980 .0330323
905.633 .0330121
906.285 .0329916
906.936 .0329708
907.588 .0329599
908.239 .0329389
908.889 .0329176
909.540 .0328960
910.190 .0328742
910.839 .0328520
911.488 .0328297
912.137 .0328072
912.785 .0327846
913.433 .0327620
914.081 .0327395
914.728 .0327172
915.375 .0326951
916.021 .0326732
916.668 .0326516
917.313 .0326301
917.959 .0326089
918.604 .0325878
919.248 .0325670
919.892 .0325463
920.536 .0325259
921.180 .0325057
921.823 .0324859
922.465 .0324663
923.108 .0324470
923.750 .0324280
924.391 .0324094
925.032 .0323910
925.673 .0323729
926.313 .0323552
926.953 .0323378
927.593 .0323208
928.232 .0323042
928.871 .0322879
929.510 .0322721
930.148 .0322566
930.786 .0322414
931.423 .0322265
932.060 .0322119
932.697 .0321975
933.333 .0321833
933.969 .0321693
934.604 .0321556
935.239 .0321420
935.874 .0321286
936.508 .0321155
937.142 .0321026
937.776 .0320901
938.409 .0320779
939.042 .0320661
939.674 .0320548
940.306 .0320438
940.938 .0320332
941.569 .0320229
942.200 .0320129
942.830 .0320032
943.460 .0319937
944.090 .0319845
944.720 .0319756
945.349 .0319669
945.977 .0319585
946.606 .0319503
947.233 .0319423
947.861 .0319345
948.488 .0319266
949.115 .0319188
949.741 .0319109
950.367 .0319030
950.993 .0318951
951.618 .0318873
952.243 .0318795
952.868 .0318718
953.492 .0318642
954.115 .0318567
954.739 .0318493
955.362 .0318419
955.984 .0318345
956.607 .0318271
957.229 .0318197
957.850 .0318123
958.471 .0318050
959.092 .0317978
959.713 .0317907
960.333 .0317837
960.952 .0317769
961.572 .0317702
962.191 .0317636
962.809 .0317572
963.428 .0317511
964.045 .0317451
964.663 .0317393
965.280 .0317339
965.897 .0317286
966.513 .0317234
967.129 .0317182
967.745 .0317129
968.361 .0317074
968.976 .0317016
969.590 .0316954
970.205 .0316887
970.818 .0316816
971.432 .0316740
972.045 .0316659
972.658 .0316573
973.271 .0316482
973.883 .0316384
974.495 .0316281
975.106 .0316173
975.717 .0316059
976.328 .0315941
976.938 .0315820
977.548 .0315696
978.158 .0315569
978.768 .0315368
979.377 .0315239
979.985 .0315107
980.594 .0314973
981.202 .0314836
981.809 .0314697
982.417 .0314555
983.024 .0314413
983.631 .0314269
984.237 .0314124
984.843 .0313979
985.449 .0313833
986.054 .0313686
986.659 .0313538
987.264 .0313464
987.868 .0313314
988.472 .0313163
989.076 .0313012
989.679 .0312861
990.282 .0312711
990.885 .0312562
991.487 .0312414
992.090 .0312266
992.691 .0312117
993.293 .0311968
993.894 .0311817
994.495 .0311664
995.095 .0311510
995.696 .0311354
996.296 .0311196
996.895 .0311037
997.494 .0310877
998.093 .0310715
998.692 .0310551
999.291 .0310386
999.889 .0310219
1000.487 .0310051
1001.084 .0309882
1001.681 .0309714
1002.278 .0309546
1002.875 .0309381
1003.471 .0309218
1004.067 .0309058
1004.663 .0308901
1005.258 .0308746
1005.854 .0308593
1006.449 .0308442
1007.043 .0308291
1007.638 .0308141
1008.232 .0307993
1008.826 .0307847
1009.419 .0307704
1010.012 .0307565
1010.605 .0307431
1011.198 .0307300
1011.791 .0307174
1012.383 .0307052
1012.975 .0306933
1013.566 .0306818
1014.158 .0306705
1014.749 .0306596
1015.340 .0306490
1015.931 .0306388
1016.521 .0306290
1017.111 .0306196
1017.701 .0306106
1018.291 .0306019
1018.880 .0305934
1019.470 .0305850
1020.059 .0305768
1020.647 .0305687
1021.236 .0305607
1021.824 .0305528
1022.412 .0305452
1023.000 .0305379
1023.588 .0305309
1024.175 .0305243
1024.762 .0305181
1025.349 .0305123
1025.936 .0305068
1026.523 .0305017
1027.109 .0304968
1027.695 .0304923
1028.281 .0304880
1028.867 .0304842
1029.452 .0304807
1030.038 .0304777
1030.623 .0304750
1031.208 .0304728
1031.792 .0304708
1032.377 .0304692
1032.961 .0304677
1033.546 .0304662
1034.130 .0304648
1034.714 .0304634
1035.297 .0304619
1035.881 .0304605
1036.464 .0304590
1037.047 .0304577
1037.630 .0304565
1038.213 .0304554
1038.796 .0304543
1039.378 .0304532
1039.961 .0304521
1040.543 .0304509
1041.125 .0304496
1041.707 .0304483
1042.289 .0304468
1042.871 .0304453
1043.452 .0304438
1044.034 .0304424
1044.615 .0304410
1045.196 .0304395
1045.777 .0304380
1046.358 .0304363
1046.939 .0304345
1047.520 .0304326
1048.101 .0304305
1048.681 .0304284
1049.262 .0304264
1049.842 .0304244
1050.422 .0304227
1051.002 .0304213
1051.582 .0304203
1052.162 .0304197
1052.742 .0304195
1053.322 .0304200
1053.902 .0304210
1054.482 .0304227
1055.061 .0304251
1055.641 .0304284
1056.220 .0304325
1056.800 .0304376
1057.379 .0304434
1057.958 .0304499
1058.538 .0304571
1059.117 .0304647
1059.696 .0304728
1060.275 .0304811
1060.854 .0304896
1061.433 .0304981
1062.012 .0305068
1062.592 .0305155
1063.171 .0305242
1063.750 .0305328
1064.329 .0305413
1064.908 .0305497
1065.487 .0305581
1066.066 .0305664
1066.645 .0305747
1067.224 .0305833
1067.803 .0305921
1068.382 .0306011
1068.961 .0306103
1069.540 .0306196
1070.119 .0306289
1070.698 .0306378
1071.278 .0306464
1071.857 .0306544
1072.436 .0306619
1073.016 .0306688
1073.595 .0306751
1074.175 .0306809
1074.754 .0306863
1075.334 .0306912
1075.913 .0306957
1076.493 .0306997
1077.073 .0307033
1077.653 .0307064
1078.233 .0307093
1078.813 .0307119
1079.393 .0307146
1079.974 .0307173
1080.554 .0307201
1081.135 .0307230
1081.716 .0307259
1082.296 .0307286
1082.877 .0307309
1083.458 .0307327
1084.040 .0307338
1084.621 .0307342
1085.202 .0307340
1085.784 .0307331
1086.366 .0307319
1086.948 .0307302
1087.530 .0307281
1088.112 .0307256
1088.695 .0307226
1089.277 .0307192
1089.860 .0307153
1090.443 .0307110
1091.026 .0307065
1091.610 .0307019
1092.193 .0306975
1092.777 .0306932
1093.361 .0306891
1093.946 .0306852
1094.530 .0306812
1095.115 .0306771
1095.700 .0306727
1096.285 .0306676
1096.871 .0306618
1097.456 .0306553
1098.042 .0306482
1098.628 .0306405
1099.215 .0306326
1099.802 .0306245
1100.389 .0306164
1100.976 .0306084
1101.564 .0306005
1102.152 .0305927
1102.740 .0305850
1103.329 .0305772
1103.917 .0305697
1104.507 .0305624
1105.096 .0305556
1105.686 .0305494
1106.276 .0305443
1106.867 .0305401
1107.457 .0305370
1108.049 .0305350
1108.640 .0305340
1109.232 .0305338
1109.825 .0305345
1110.417 .0305359
1111.010 .0305381
1111.604 .0305413
1112.198 .0305455
1112.792 .0305510
1113.387 .0305578
1113.982 .0305660
1114.577 .0305756
1115.173 .0305865
1115.769 .0305984
1116.366 .0306110
1116.963 .0306241
1117.561 .0306375
1118.159 .0306510
1118.758 .0306644
1119.357 .0306778
1119.957 .0306912
1120.557 .0307048
1121.157 .0307184
1121.758 .0307322
1122.360 .0307461
1122.962 .0307600
1123.564 .0307739
1124.167 .0307835
1124.771 .0307970
1125.375 .0308102
1125.980 .0308232
1126.585 .0308362
1127.191 .0308493
1127.797 .0308629
1128.404 .0308769
1129.012 .0308915
1129.620 .0309066
1130.229 .0309219
1130.838 .0309375
1131.448 .0309533
1132.058 .0309693
1132.669 .0309895
1133.281 .0310057
1133.894 .0310220
1134.507 .0310421
1135.120 .0310579
1135.735 .0310753
1136.350 .0310894
1136.965 .0311158
1137.582 .0311548
1138.199 .0311885
1138.816 .0312209
1139.435 .0312544
1140.054 .0312810
1140.674 .0313032
1141.294 .0313172
1141.916 .0313232
1142.538 .0314247
1143.160 .0313050
1143.784 .0313379
1144.408 .0312455
1145.033 .0312412
