Measurement Sequence started on: 14-45-04-498
Integration time: 36
Scans to Average: 2 
>>>>>Begin Spectral Data<<<<<
433.946 .0649657
434.870 .0588708
435.793 .0533892
436.715 .0517980
437.635 .0515647
438.555 .0518710
439.473 .0508477
440.389 .0501981
441.305 .0497968
442.219 .0494856
443.132 .0502699
444.044 .0497031
444.954 .0494157
445.863 .0492030
446.771 .0489936
447.678 .0487593
448.584 .0485702
449.488 .0484069
450.391 .0482562
451.293 .0481138
452.194 .0479773
453.094 .0478434
453.992 .0477091
454.890 .0475733
455.786 .0474353
456.681 .0472953
457.575 .0471541
458.468 .0470129
459.360 .0468738
460.250 .0467384
461.140 .0466071
462.028 .0464809
462.915 .0463600
463.801 .0462441
464.687 .0461329
465.571 .0460263
466.454 .0459234
467.335 .0458238
468.216 .0457268
469.096 .0456316
469.975 .0455377
470.853 .0454448
471.729 .0453523
472.605 .0452603
473.479 .0451691
474.353 .0450785
475.226 .0449886
476.097 .0448997
476.968 .0448115
477.838 .0447240
478.706 .0446373
479.574 .0445513
480.441 .0444665
481.306 .0443832
482.171 .0443016
483.035 .0442226
483.898 .0441468
484.760 .0440746
485.621 .0440062
486.481 .0439420
487.340 .0438815
488.198 .0438245
489.055 .0437704
489.912 .0437183
490.767 .0436679
491.622 .0435956
492.476 .0435468
493.329 .0434981
494.180 .0434493
495.032 .0434003
495.882 .0433507
496.731 .0433002
497.580 .0432486
498.427 .0431956
499.274 .0431411
500.120 .0431098
500.965 .0430534
501.809 .0429957
502.653 .0429367
503.495 .0428765
504.337 .0428154
505.178 .0427535
506.018 .0426913
506.858 .0426290
507.696 .0425670
508.534 .0425060
509.371 .0424463
510.208 .0423883
511.043 .0423328
511.878 .0422803
512.712 .0422306
513.545 .0421837
514.377 .0421397
515.209 .0420977
516.040 .0420574
516.870 .0420180
517.699 .0419786
518.528 .0419387
519.356 .0418977
520.183 .0418551
521.010 .0418104
521.836 .0417633
522.661 .0417130
523.485 .0416589
524.309 .0416008
525.132 .0415376
525.954 .0414688
526.776 .0413944
527.597 .0413142
528.417 .0412284
529.237 .0411380
530.056 .0410442
530.874 .0409483
531.692 .0408518
532.508 .0407562
533.325 .0406627
534.140 .0405726
534.955 .0404864
535.770 .0404043
536.583 .0403266
537.397 .0402533
538.209 .0401839
539.021 .0401186
539.832 .0400578
540.643 .0400016
541.453 .0399502
542.262 .0399044
543.071 .0398642
543.879 .0398297
544.687 .0398006
545.494 .0397765
546.300 .0397559
547.106 .0397376
547.911 .0397201
548.716 .0397022
549.520 .0396828
550.323 .0396610
551.126 .0396362
551.929 .0396085
552.731 .0395783
553.532 .0395459
554.332 .0395116
555.133 .0394765
555.932 .0394409
556.731 .0394052
557.530 .0393693
558.328 .0393332
559.125 .0392964
559.922 .0392589
560.719 .0392198
561.515 .0391790
562.310 .0391362
563.105 .0390916
563.899 .0390452
564.693 .0389977
565.487 .0389492
566.280 .0389003
567.072 .0388514
567.864 .0388026
568.655 .0387538
569.446 .0387050
570.236 .0386559
571.026 .0386065
571.816 .0385566
572.605 .0385061
573.393 .0384552
574.181 .0384041
574.969 .0383530
575.756 .0383026
576.543 .0382534
577.329 .0382057
578.115 .0381599
578.900 .0381164
579.685 .0380750
580.469 .0380356
581.253 .0379980
582.036 .0379619
582.820 .0379269
583.602 .0378928
584.384 .0378594
585.166 .0378269
585.947 .0377953
586.728 .0377648
587.509 .0377355
588.289 .0377073
589.069 .0376802
589.848 .0376539
590.627 .0376283
591.405 .0376030
592.183 .0375777
592.961 .0375521
593.738 .0375261
594.515 .0374995
595.291 .0374724
596.067 .0374449
596.843 .0374170
597.618 .0373888
598.393 .0373457
599.167 .0373173
599.941 .0372889
600.715 .0372607
601.488 .0372325
602.261 .0372044
603.034 .0371766
603.806 .0371490
604.578 .0371218
605.349 .0370951
606.121 .0370690
606.891 .0370579
607.662 .0370327
608.432 .0370082
609.201 .0369844
609.971 .0369613
610.740 .0369388
611.508 .0369172
612.277 .0368963
613.045 .0368761
613.812 .0368565
614.579 .0368374
615.346 .0368186
616.113 .0368001
616.879 .0367815
617.645 .0367628
618.411 .0367439
619.176 .0367246
619.941 .0367050
620.705 .0366849
621.470 .0366644
622.233 .0366434
622.997 .0366218
623.760 .0365996
624.523 .0365769
625.286 .0365536
626.048 .0365298
626.810 .0365055
627.572 .0364808
628.333 .0364558
629.095 .0364303
629.855 .0364045
630.616 .0363783
631.376 .0363519
632.136 .0363254
632.895 .0362987
633.655 .0362720
634.414 .0362455
635.172 .0362191
635.931 .0361928
636.689 .0361666
637.447 .0361404
638.204 .0361142
638.962 .0360878
639.718 .0360614
640.475 .0360348
641.231 .0360082
641.988 .0359817
642.743 .0359552
643.499 .0359286
644.254 .0359020
645.009 .0358754
645.764 .0358486
646.518 .0358218
647.272 .0357949
648.026 .0357681
648.780 .0357413
649.533 .0357148
650.286 .0356885
651.039 .0356625
651.792 .0356370
652.544 .0356119
653.296 .0355875
654.048 .0355637
654.799 .0355406
655.550 .0355183
656.301 .0354969
657.052 .0354764
657.802 .0354568
658.552 .0354379
659.302 .0354197
660.052 .0354021
660.801 .0353852
661.550 .0353688
662.299 .0353529
663.048 .0353374
663.796 .0353223
664.544 .0353075
665.292 .0352929
666.040 .0352782
666.787 .0352635
667.534 .0352485
668.281 .0352332
669.028 .0352176
669.774 .0352016
670.521 .0351853
671.266 .0351686
672.012 .0351517
672.758 .0351345
673.503 .0351171
674.248 .0350995
674.992 .0350818
675.737 .0350640
676.481 .0350461
677.225 .0350282
677.969 .0350103
678.712 .0349925
679.455 .0349749
680.199 .0349574
680.941 .0349401
681.684 .0349232
682.426 .0349065
683.168 .0348901
683.910 .0348739
684.652 .0348580
685.393 .0348423
686.134 .0348267
686.875 .0348113
687.616 .0347960
688.356 .0347808
689.097 .0347656
689.837 .0347503
690.576 .0347348
691.316 .0347191
692.055 .0347032
692.794 .0346869
693.533 .0346702
694.272 .0346530
695.010 .0346355
695.748 .0346176
696.486 .0345994
697.224 .0345808
697.962 .0345619
698.699 .0345427
699.436 .0345230
700.173 .0345031
700.909 .0344829
701.646 .0344624
702.382 .0344417
703.118 .0344208
703.853 .0343998
704.589 .0343786
705.324 .0343575
706.059 .0343363
706.794 .0343151
707.529 .0342940
708.263 .0342729
708.997 .0342519
709.731 .0342309
710.465 .0342100
711.198 .0341892
711.931 .0341683
712.664 .0341474
713.397 .0341264
714.130 .0341053
714.862 .0340840
715.594 .0340626
716.326 .0340410
717.058 .0340194
717.789 .0339977
718.520 .0339761
719.251 .0339545
719.982 .0339329
720.713 .0339113
721.443 .0338898
722.173 .0338683
722.903 .0338468
723.633 .0338254
724.362 .0338042
725.091 .0337831
725.820 .0337624
726.549 .0337419
727.278 .0337219
728.006 .0337024
728.734 .0336833
729.462 .0336646
730.190 .0336464
730.917 .0336286
731.644 .0336111
732.371 .0335940
733.098 .0335771
733.825 .0335606
734.551 .0335445
735.277 .0335285
736.003 .0335129
736.728 .0334976
737.454 .0334825
738.179 .0334676
738.904 .0334530
739.629 .0334385
740.353 .0334242
741.077 .0334100
741.801 .0333960
742.525 .0333819
743.249 .0333680
743.972 .0333540
744.695 .0333400
745.418 .0333261
746.141 .0333122
746.863 .0332983
747.585 .0332844
748.307 .0332704
749.029 .0332564
749.750 .0332422
750.472 .0332278
751.193 .0332131
751.913 .0331981
752.634 .0331827
753.354 .0331671
754.074 .0331512
754.794 .0331351
755.514 .0331188
756.233 .0331023
756.952 .0330858
757.671 .0330691
758.390 .0330523
759.108 .0330355
759.826 .0330186
760.544 .0330016
761.262 .0329848
761.979 .0329680
762.697 .0329514
763.414 .0329350
764.130 .0329188
764.847 .0329028
765.563 .0328871
766.279 .0328715
766.995 .0328562
767.710 .0328411
768.426 .0328262
769.141 .0328116
769.855 .0327971
770.570 .0327828
771.284 .0327686
771.998 .0327545
772.712 .0327402
773.426 .0327259
774.139 .0327114
774.852 .0326967
775.565 .0326819
776.277 .0326668
776.990 .0326514
777.702 .0326358
778.414 .0326199
779.125 .0326037
779.836 .0325873
780.547 .0325706
781.258 .0325538
781.969 .0325369
782.679 .0325200
783.389 .0324952
784.099 .0324787
784.808 .0324624
785.517 .0324462
786.226 .0324302
786.935 .0324143
787.643 .0323986
788.352 .0323831
789.060 .0323679
789.767 .0323530
790.475 .0323385
791.182 .0323242
791.889 .0323177
792.595 .0323038
793.301 .0322902
794.008 .0322768
794.713 .0322635
795.419 .0322504
796.124 .0322374
796.829 .0322245
797.534 .0322117
798.238 .0321989
798.942 .0321861
799.646 .0321733
800.350 .0321605
801.053 .0321476
801.756 .0321347
802.459 .0321218
803.162 .0321089
803.864 .0320961
804.566 .0320833
805.267 .0320705
805.969 .0320578
806.670 .0320450
807.371 .0320322
808.071 .0320194
808.772 .0320065
809.472 .0319937
810.171 .0319809
810.871 .0319682
811.570 .0319556
812.269 .0319430
812.967 .0319304
813.666 .0319177
814.364 .0319049
815.061 .0318919
815.759 .0318786
816.456 .0318652
817.153 .0318516
817.849 .0318377
818.545 .0318236
819.241 .0318091
819.937 .0317944
820.632 .0317793
821.327 .0317638
822.022 .0317480
822.717 .0317319
823.411 .0317155
824.105 .0316987
824.798 .0316818
825.491 .0316646
826.184 .0316472
826.877 .0316296
827.569 .0316117
828.261 .0315937
828.953 .0315754
829.645 .0315569
830.336 .0315384
831.027 .0315197
831.717 .0315011
832.407 .0314825
833.097 .0314640
833.787 .0314456
834.476 .0314275
835.165 .0314095
835.854 .0313918
836.542 .0313743
837.230 .0313571
837.918 .0313402
838.605 .0313235
839.292 .0313070
839.979 .0312908
840.665 .0312747
841.352 .0312590
842.037 .0312434
842.723 .0312279
843.408 .0312127
844.093 .0311975
844.777 .0311823
845.462 .0311671
846.145 .0311518
846.829 .0311364
847.512 .0311208
848.195 .0311050
848.878 .0310891
849.560 .0310731
850.242 .0310569
850.923 .0310405
851.605 .0310239
852.286 .0310071
852.966 .0309901
853.646 .0309728
854.326 .0309554
855.006 .0309378
855.685 .0309201
856.364 .0309025
857.043 .0308849
857.721 .0308675
858.399 .0308501
859.077 .0308330
859.754 .0308160
860.431 .0307993
861.107 .0307829
861.784 .0307668
862.459 .0307511
863.135 .0307357
863.810 .0307208
864.485 .0307064
865.160 .0306924
865.834 .0306787
866.508 .0306655
867.181 .0306526
867.854 .0306401
868.527 .0306280
869.199 .0306163
869.872 .0306050
870.543 .0305941
871.215 .0305835
871.886 .0305733
872.557 .0305633
873.227 .0305535
873.897 .0305438
874.567 .0305342
875.236 .0305246
875.905 .0305150
876.573 .0305052
877.242 .0304953
877.909 .0304853
878.577 .0304752
879.244 .0304648
879.911 .0304542
880.577 .0304433
881.243 .0304322
881.909 .0304210
882.575 .0304096
883.240 .0303980
883.904 .0303865
884.569 .0303749
885.232 .0303634
885.896 .0303520
886.559 .0303406
887.222 .0303295
887.885 .0303185
888.547 .0303076
889.208 .0302970
889.870 .0302866
890.531 .0302764
891.192 .0302664
891.852 .0302566
892.512 .0302471
893.171 .0302377
893.830 .0302284
894.489 .0302193
895.148 .0302103
895.806 .0302013
896.464 .0301925
897.121 .0301837
897.778 .0301749
898.434 .0301661
899.091 .0301522
899.747 .0301430
900.402 .0301335
901.057 .0301238
901.712 .0301138
902.366 .0301033
903.020 .0300923
903.674 .0300808
904.327 .0300687
904.980 .0300559
905.633 .0300425
906.285 .0300285
906.936 .0300137
907.588 .0300044
908.239 .0299886
908.889 .0299722
909.540 .0299552
910.190 .0299376
910.839 .0299194
911.488 .0299008
912.137 .0298818
912.785 .0298625
913.433 .0298431
914.081 .0298234
914.728 .0298037
915.375 .0297839
916.021 .0297639
916.668 .0297439
917.313 .0297238
917.959 .0297036
918.604 .0296834
919.248 .0296631
919.892 .0296429
920.536 .0296227
921.180 .0296025
921.823 .0295825
922.465 .0295626
923.108 .0295428
923.750 .0295230
924.391 .0295033
925.032 .0294837
925.673 .0294642
926.313 .0294447
926.953 .0294254
927.593 .0294062
928.232 .0293870
928.871 .0293680
929.510 .0293490
930.148 .0293300
930.786 .0293109
931.423 .0292918
932.060 .0292727
932.697 .0292535
933.333 .0292342
933.969 .0292150
934.604 .0291957
935.239 .0291765
935.874 .0291573
936.508 .0291381
937.142 .0291190
937.776 .0291000
938.409 .0290811
939.042 .0290622
939.674 .0290435
940.306 .0290250
940.938 .0290066
941.569 .0289885
942.200 .0289707
942.830 .0289531
943.460 .0289357
944.090 .0289187
944.720 .0289018
945.349 .0288853
945.977 .0288689
946.606 .0288529
947.233 .0288371
947.861 .0288216
948.488 .0288064
949.115 .0287916
949.741 .0287772
950.367 .0287632
950.993 .0287496
951.618 .0287364
952.243 .0287234
952.868 .0287107
953.492 .0286982
954.115 .0286859
954.739 .0286738
955.362 .0286619
955.984 .0286502
956.607 .0286388
957.229 .0286276
957.850 .0286168
958.471 .0286061
959.092 .0285958
959.713 .0285857
960.333 .0285757
960.952 .0285661
961.572 .0285566
962.191 .0285473
962.809 .0285384
963.428 .0285297
964.045 .0285214
964.663 .0285134
965.280 .0285057
965.897 .0284984
966.513 .0284914
967.129 .0284847
967.745 .0284782
968.361 .0284719
968.976 .0284658
969.590 .0284598
970.205 .0284539
970.818 .0284481
971.432 .0284424
972.045 .0284369
972.658 .0284314
973.271 .0284261
973.883 .0284208
974.495 .0284155
975.106 .0284103
975.717 .0284051
976.328 .0283998
976.938 .0283945
977.548 .0283892
978.158 .0283839
978.768 .0283754
979.377 .0283701
979.985 .0283648
980.594 .0283594
981.202 .0283541
981.809 .0283486
982.417 .0283431
983.024 .0283376
983.631 .0283320
984.237 .0283264
984.843 .0283208
985.449 .0283152
986.054 .0283097
986.659 .0283043
987.264 .0283020
987.868 .0282966
988.472 .0282912
989.076 .0282858
989.679 .0282805
990.282 .0282751
990.885 .0282698
991.487 .0282644
992.090 .0282589
992.691 .0282533
993.293 .0282476
993.894 .0282418
994.495 .0282357
995.095 .0282294
995.696 .0282229
996.296 .0282160
996.895 .0282090
997.494 .0282016
998.093 .0281939
998.692 .0281859
999.291 .0281775
999.889 .0281687
1000.487 .0281594
1001.084 .0281497
1001.681 .0281396
1002.278 .0281291
1002.875 .0281181
1003.471 .0281069
1004.067 .0280953
1004.663 .0280834
1005.258 .0280713
1005.854 .0280589
1006.449 .0280463
1007.043 .0280335
1007.638 .0280204
1008.232 .0280073
1008.826 .0279941
1009.419 .0279810
1010.012 .0279680
1010.605 .0279552
1011.198 .0279428
1011.791 .0279307
1012.383 .0279190
1012.975 .0279076
1013.566 .0278967
1014.158 .0278861
1014.749 .0278760
1015.340 .0278663
1015.931 .0278570
1016.521 .0278480
1017.111 .0278395
1017.701 .0278312
1018.291 .0278232
1018.880 .0278154
1019.470 .0278077
1020.059 .0278002
1020.647 .0277927
1021.236 .0277854
1021.824 .0277782
1022.412 .0277712
1023.000 .0277643
1023.588 .0277576
1024.175 .0277510
1024.762 .0277445
1025.349 .0277380
1025.936 .0277316
1026.523 .0277252
1027.109 .0277189
1027.695 .0277126
1028.281 .0277065
1028.867 .0277004
1029.452 .0276945
1030.038 .0276888
1030.623 .0276832
1031.208 .0276777
1031.792 .0276723
1032.377 .0276670
1032.961 .0276617
1033.546 .0276565
1034.130 .0276513
1034.714 .0276460
1035.297 .0276409
1035.881 .0276359
1036.464 .0276311
1037.047 .0276265
1037.630 .0276221
1038.213 .0276180
1038.796 .0276142
1039.378 .0276107
1039.961 .0276075
1040.543 .0276045
1041.125 .0276019
1041.707 .0275995
1042.289 .0275973
1042.871 .0275954
1043.452 .0275936
1044.034 .0275921
1044.615 .0275907
1045.196 .0275895
1045.777 .0275883
1046.358 .0275873
1046.939 .0275863
1047.520 .0275853
1048.101 .0275843
1048.681 .0275833
1049.262 .0275823
1049.842 .0275812
1050.422 .0275801
1051.002 .0275791
1051.582 .0275782
1052.162 .0275775
1052.742 .0275771
1053.322 .0275769
1053.902 .0275771
1054.482 .0275775
1055.061 .0275781
1055.641 .0275790
1056.220 .0275800
1056.800 .0275809
1057.379 .0275818
1057.958 .0275826
1058.538 .0275832
1059.117 .0275836
1059.696 .0275838
1060.275 .0275839
1060.854 .0275837
1061.433 .0275833
1062.012 .0275828
1062.592 .0275822
1063.171 .0275815
1063.750 .0275809
1064.329 .0275802
1064.908 .0275796
1065.487 .0275788
1066.066 .0275780
1066.645 .0275772
1067.224 .0275763
1067.803 .0275753
1068.382 .0275742
1068.961 .0275730
1069.540 .0275717
1070.119 .0275704
1070.698 .0275689
1071.278 .0275674
1071.857 .0275657
1072.436 .0275640
1073.016 .0275624
1073.595 .0275608
1074.175 .0275596
1074.754 .0275588
1075.334 .0275586
1075.913 .0275589
1076.493 .0275598
1077.073 .0275612
1077.653 .0275634
1078.233 .0275661
1078.813 .0275694
1079.393 .0275732
1079.974 .0275776
1080.554 .0275824
1081.135 .0275876
1081.716 .0275931
1082.296 .0275988
1082.877 .0276045
1083.458 .0276100
1084.040 .0276153
1084.621 .0276202
1085.202 .0276248
1085.784 .0276293
1086.366 .0276335
1086.948 .0276375
1087.530 .0276412
1088.112 .0276446
1088.695 .0276476
1089.277 .0276501
1089.860 .0276519
1090.443 .0276530
1091.026 .0276533
1091.610 .0276528
1092.193 .0276517
1092.777 .0276501
1093.361 .0276481
1093.946 .0276458
1094.530 .0276433
1095.115 .0276404
1095.700 .0276373
1096.285 .0276339
1096.871 .0276302
1097.456 .0276264
1098.042 .0276224
1098.628 .0276185
1099.215 .0276148
1099.802 .0276117
1100.389 .0276092
1100.976 .0276074
1101.564 .0276064
1102.152 .0276061
1102.740 .0276063
1103.329 .0276069
1103.917 .0276080
1104.507 .0276097
1105.096 .0276120
1105.686 .0276151
1106.276 .0276192
1106.867 .0276245
1107.457 .0276312
1108.049 .0276393
1108.640 .0276485
1109.232 .0276588
1109.825 .0276699
1110.417 .0276817
1111.010 .0276940
1111.604 .0277066
1112.198 .0277196
1112.792 .0277330
1113.387 .0277467
1113.982 .0277608
1114.577 .0277751
1115.173 .0277896
1115.769 .0278041
1116.366 .0278185
1116.963 .0278327
1117.561 .0278465
1118.159 .0278600
1118.758 .0278731
1119.357 .0278860
1119.957 .0278984
1120.557 .0279103
1121.157 .0279219
1121.758 .0279329
1122.360 .0279433
1122.962 .0279529
1123.564 .0279619
1124.167 .0279691
1124.771 .0279769
1125.375 .0279838
1125.980 .0279901
1126.585 .0279960
1127.191 .0280016
1127.797 .0280073
1128.404 .0280134
1129.012 .0280203
1129.620 .0280284
1130.229 .0280381
1130.838 .0280500
1131.448 .0280642
1132.058 .0280816
1132.669 .0281054
1133.281 .0281318
1133.894 .0281636
1134.507 .0281955
1135.120 .0282388
1135.735 .0282933
1136.350 .0283592
1136.965 .0281035
1137.582 .0281529
1138.199 .0282186
1138.816 .0282958
1139.435 .0283849
1140.054 .0284891
1140.674 .0286118
1141.294 .0287564
1141.916 .0289059
1142.538 .0289149
1143.160 .0292238
1143.784 .0295246
1144.408 .0298320
1145.033 .0295978
