Measurement Sequence started on: 14-45-04-498
Integration time: 36
Scans to Average: 2 
>>>>>Begin Spectral Data<<<<<
433.946 .0532766
434.870 .0451599
435.793 .0432101
436.715 .0436817
437.635 .0434209
438.555 .0431244
439.473 .0424503
440.389 .0420913
441.305 .0418107
442.219 .0415353
443.132 .0417165
444.044 .0414387
444.954 .0412572
445.863 .0410448
446.771 .0408403
447.678 .0406452
448.584 .0404796
449.488 .0403268
450.391 .0401825
451.293 .0400465
452.194 .0399167
453.094 .0397914
453.992 .0396695
454.890 .0395499
455.786 .0394331
456.681 .0393188
457.575 .0392070
458.468 .0390979
459.360 .0389915
460.250 .0388879
461.140 .0387867
462.028 .0386881
462.915 .0385924
463.801 .0384995
464.687 .0384102
465.571 .0383247
466.454 .0382435
467.335 .0381668
468.216 .0380949
469.096 .0380278
469.975 .0379653
470.853 .0379072
471.729 .0378535
472.605 .0378040
473.479 .0377592
474.353 .0377190
475.226 .0376832
476.097 .0376519
476.968 .0376245
477.838 .0376009
478.706 .0375801
479.574 .0375613
480.441 .0375440
481.306 .0375272
482.171 .0375105
483.035 .0374931
483.898 .0374747
484.760 .0374552
485.621 .0374340
486.481 .0374111
487.340 .0373861
488.198 .0373587
489.055 .0373287
489.912 .0372957
490.767 .0372597
491.622 .0371961
492.476 .0371545
493.329 .0371113
494.180 .0370669
495.032 .0370221
495.882 .0369774
496.731 .0369336
497.580 .0368909
498.427 .0368495
499.274 .0368095
500.120 .0367944
500.965 .0367564
501.809 .0367190
502.653 .0366827
503.495 .0366473
504.337 .0366129
505.178 .0365795
506.018 .0365473
506.858 .0365165
507.696 .0364873
508.534 .0364599
509.371 .0364347
510.208 .0364117
511.043 .0363905
511.878 .0363711
512.712 .0363533
513.545 .0363366
514.377 .0363207
515.209 .0363051
516.040 .0362894
516.870 .0362736
517.699 .0362577
518.528 .0362416
519.356 .0362257
520.183 .0362096
521.010 .0361928
521.836 .0361745
522.661 .0361539
523.485 .0361297
524.309 .0361007
525.132 .0360661
525.954 .0360254
526.776 .0359780
527.597 .0359240
528.417 .0358640
529.237 .0357991
530.056 .0357296
530.874 .0356562
531.692 .0355788
532.508 .0354980
533.325 .0354136
534.140 .0353258
534.955 .0352348
535.770 .0351412
536.583 .0350456
537.397 .0349495
538.209 .0348541
539.021 .0347616
539.832 .0346735
540.643 .0345917
541.453 .0345172
542.262 .0344506
543.071 .0343917
543.879 .0343406
544.687 .0342964
545.494 .0342583
546.300 .0342251
547.106 .0341964
547.911 .0341716
548.716 .0341508
549.520 .0341339
550.323 .0341211
551.126 .0341123
551.929 .0341073
552.731 .0341053
553.532 .0341049
554.332 .0341047
555.133 .0341034
555.932 .0340996
556.731 .0340921
557.530 .0340802
558.328 .0340634
559.125 .0340419
559.922 .0340164
560.719 .0339870
561.515 .0339544
562.310 .0339188
563.105 .0338805
563.899 .0338391
564.693 .0337947
565.487 .0337474
566.280 .0336970
567.072 .0336440
567.864 .0335886
568.655 .0335311
569.446 .0334724
570.236 .0334132
571.026 .0333542
571.816 .0332961
572.605 .0332393
573.393 .0331842
574.181 .0331309
574.969 .0330796
575.756 .0330301
576.543 .0329825
577.329 .0329367
578.115 .0328926
578.900 .0328502
579.685 .0328096
580.469 .0327711
581.253 .0327350
582.036 .0327012
582.820 .0326699
583.602 .0326408
584.384 .0326138
585.166 .0325888
585.947 .0325654
586.728 .0325433
587.509 .0325221
588.289 .0325016
589.069 .0324815
589.848 .0324615
590.627 .0324416
591.405 .0324217
592.183 .0324018
592.961 .0323818
593.738 .0323615
594.515 .0323408
595.291 .0323195
596.067 .0322974
596.843 .0322745
597.618 .0322506
598.393 .0322114
599.167 .0321853
599.941 .0321585
600.715 .0321310
601.488 .0321030
602.261 .0320747
603.034 .0320460
603.806 .0320171
604.578 .0319881
605.349 .0319590
606.121 .0319299
606.891 .0319156
607.662 .0318866
608.432 .0318576
609.201 .0318288
609.971 .0318001
610.740 .0317715
611.508 .0317430
612.277 .0317146
613.045 .0316863
613.812 .0316580
614.579 .0316298
615.346 .0316018
616.113 .0315738
616.879 .0315459
617.645 .0315181
618.411 .0314904
619.176 .0314628
619.941 .0314353
620.705 .0314079
621.470 .0313809
622.233 .0313541
622.997 .0313279
623.760 .0313022
624.523 .0312772
625.286 .0312530
626.048 .0312296
626.810 .0312070
627.572 .0311853
628.333 .0311644
629.095 .0311445
629.855 .0311254
630.616 .0311074
631.376 .0310903
632.136 .0310741
632.895 .0310587
633.655 .0310442
634.414 .0310303
635.172 .0310169
635.931 .0310039
636.689 .0309911
637.447 .0309782
638.204 .0309653
638.962 .0309522
639.718 .0309388
640.475 .0309250
641.231 .0309108
641.988 .0308961
642.743 .0308808
643.499 .0308648
644.254 .0308482
645.009 .0308307
645.764 .0308125
646.518 .0307933
647.272 .0307733
648.026 .0307524
648.780 .0307307
649.533 .0307082
650.286 .0306850
651.039 .0306612
651.792 .0306370
652.544 .0306123
653.296 .0305873
654.048 .0305621
654.799 .0305367
655.550 .0305112
656.301 .0304856
657.052 .0304598
657.802 .0304340
658.552 .0304081
659.302 .0303820
660.052 .0303560
660.801 .0303299
661.550 .0303040
662.299 .0302782
663.048 .0302527
663.796 .0302275
664.544 .0302027
665.292 .0301783
666.040 .0301544
666.787 .0301310
667.534 .0301080
668.281 .0300855
669.028 .0300634
669.774 .0300417
670.521 .0300206
671.266 .0300000
672.012 .0299801
672.758 .0299610
673.503 .0299427
674.248 .0299253
674.992 .0299089
675.737 .0298934
676.481 .0298789
677.225 .0298653
677.969 .0298525
678.712 .0298404
679.455 .0298292
680.199 .0298186
680.941 .0298088
681.684 .0297997
682.426 .0297913
683.168 .0297836
683.910 .0297765
684.652 .0297700
685.393 .0297639
686.134 .0297583
686.875 .0297530
687.616 .0297480
688.356 .0297433
689.097 .0297387
689.837 .0297343
690.576 .0297300
691.316 .0297256
692.055 .0297211
692.794 .0297165
693.533 .0297117
694.272 .0297066
695.010 .0297014
695.748 .0296959
696.486 .0296901
697.224 .0296842
697.962 .0296780
698.699 .0296715
699.436 .0296648
700.173 .0296577
700.909 .0296502
701.646 .0296425
702.382 .0296345
703.118 .0296262
703.853 .0296177
704.589 .0296090
705.324 .0296000
706.059 .0295908
706.794 .0295812
707.529 .0295713
708.263 .0295610
708.997 .0295503
709.731 .0295392
710.465 .0295276
711.198 .0295156
711.931 .0295032
712.664 .0294902
713.397 .0294768
714.130 .0294628
714.862 .0294481
715.594 .0294330
716.326 .0294172
717.058 .0294009
717.789 .0293841
718.520 .0293668
719.251 .0293492
719.982 .0293311
720.713 .0293128
721.443 .0292942
722.173 .0292754
722.903 .0292566
723.633 .0292376
724.362 .0292188
725.091 .0292000
725.820 .0291815
726.549 .0291632
727.278 .0291453
728.006 .0291277
728.734 .0291106
729.462 .0290940
730.190 .0290779
730.917 .0290624
731.644 .0290474
732.371 .0290330
733.098 .0290192
733.825 .0290059
734.551 .0289933
735.277 .0289812
736.003 .0289698
736.728 .0289589
737.454 .0289486
738.179 .0289388
738.904 .0289295
739.629 .0289206
740.353 .0289121
741.077 .0289040
741.801 .0288961
742.525 .0288885
743.249 .0288812
743.972 .0288740
744.695 .0288670
745.418 .0288602
746.141 .0288535
746.863 .0288468
747.585 .0288402
748.307 .0288336
749.029 .0288270
749.750 .0288205
750.472 .0288139
751.193 .0288074
751.913 .0288009
752.634 .0287945
753.354 .0287881
754.074 .0287818
754.794 .0287757
755.514 .0287698
756.233 .0287641
756.952 .0287587
757.671 .0287537
758.390 .0287490
759.108 .0287448
759.826 .0287409
760.544 .0287375
761.262 .0287345
761.979 .0287319
762.697 .0287296
763.414 .0287278
764.130 .0287264
764.847 .0287254
765.563 .0287248
766.279 .0287245
766.995 .0287246
767.710 .0287250
768.426 .0287257
769.141 .0287266
769.855 .0287277
770.570 .0287289
771.284 .0287303
771.998 .0287316
772.712 .0287328
773.426 .0287339
774.139 .0287347
774.852 .0287353
775.565 .0287356
776.277 .0287355
776.990 .0287351
777.702 .0287342
778.414 .0287329
779.125 .0287312
779.836 .0287290
780.547 .0287264
781.258 .0287234
781.969 .0287198
782.679 .0287158
783.389 .0287078
784.099 .0287025
784.808 .0286967
785.517 .0286903
786.226 .0286833
786.935 .0286758
787.643 .0286677
788.352 .0286592
789.060 .0286501
789.767 .0286406
790.475 .0286305
791.182 .0286200
791.889 .0286136
792.595 .0286024
793.301 .0285907
794.008 .0285787
794.713 .0285662
795.419 .0285534
796.124 .0285403
796.829 .0285268
797.534 .0285131
798.238 .0284991
798.942 .0284849
799.646 .0284705
800.350 .0284560
801.053 .0284414
801.756 .0284268
802.459 .0284122
803.162 .0283977
803.864 .0283833
804.566 .0283690
805.267 .0283548
805.969 .0283407
806.670 .0283268
807.371 .0283130
808.071 .0282995
808.772 .0282861
809.472 .0282731
810.171 .0282603
810.871 .0282477
811.570 .0282353
812.269 .0282231
812.967 .0282110
813.666 .0281989
814.364 .0281869
815.061 .0281748
815.759 .0281627
816.456 .0281505
817.153 .0281384
817.849 .0281261
818.545 .0281138
819.241 .0281014
819.937 .0280889
820.632 .0280762
821.327 .0280634
822.022 .0280505
822.717 .0280375
823.411 .0280244
824.105 .0280112
824.798 .0279980
825.491 .0279848
826.184 .0279718
826.877 .0279589
827.569 .0279463
828.261 .0279340
828.953 .0279221
829.645 .0279107
830.336 .0278998
831.027 .0278895
831.717 .0278797
832.407 .0278706
833.097 .0278622
833.787 .0278545
834.476 .0278476
835.165 .0278414
835.854 .0278359
836.542 .0278313
837.230 .0278273
837.918 .0278240
838.605 .0278214
839.292 .0278193
839.979 .0278178
840.665 .0278167
841.352 .0278160
842.037 .0278157
842.723 .0278156
843.408 .0278157
844.093 .0278159
844.777 .0278161
845.462 .0278163
846.145 .0278163
846.829 .0278162
847.512 .0278160
848.195 .0278156
848.878 .0278151
849.560 .0278144
850.242 .0278136
850.923 .0278125
851.605 .0278112
852.286 .0278096
852.966 .0278076
853.646 .0278053
854.326 .0278026
855.006 .0277997
855.685 .0277965
856.364 .0277931
857.043 .0277896
857.721 .0277860
858.399 .0277824
859.077 .0277787
859.754 .0277750
860.431 .0277712
861.107 .0277672
861.784 .0277632
862.459 .0277591
863.135 .0277549
863.810 .0277505
864.485 .0277460
865.160 .0277413
865.834 .0277365
866.508 .0277315
867.181 .0277262
867.854 .0277208
868.527 .0277151
869.199 .0277092
869.872 .0277030
870.543 .0276965
871.215 .0276897
871.886 .0276825
872.557 .0276749
873.227 .0276667
873.897 .0276581
874.567 .0276489
875.236 .0276392
875.905 .0276290
876.573 .0276184
877.242 .0276072
877.909 .0275956
878.577 .0275834
879.244 .0275707
879.911 .0275575
880.577 .0275437
881.243 .0275293
881.909 .0275144
882.575 .0274991
883.240 .0274832
883.904 .0274671
884.569 .0274506
885.232 .0274339
885.896 .0274169
886.559 .0273998
887.222 .0273825
887.885 .0273652
888.547 .0273479
889.208 .0273305
889.870 .0273133
890.531 .0272962
891.192 .0272793
891.852 .0272626
892.512 .0272460
893.171 .0272297
893.830 .0272135
894.489 .0271974
895.148 .0271816
895.806 .0271658
896.464 .0271503
897.121 .0271350
897.778 .0271200
898.434 .0271052
899.091 .0270834
899.747 .0270691
900.402 .0270548
901.057 .0270406
901.712 .0270264
902.366 .0270122
903.020 .0269980
903.674 .0269839
904.327 .0269697
904.980 .0269556
905.633 .0269415
906.285 .0269274
906.936 .0269132
907.588 .0269061
908.239 .0268919
908.889 .0268776
909.540 .0268631
910.190 .0268484
910.839 .0268336
911.488 .0268187
912.137 .0268037
912.785 .0267888
913.433 .0267739
914.081 .0267590
914.728 .0267442
915.375 .0267294
916.021 .0267147
916.668 .0266999
917.313 .0266850
917.959 .0266702
918.604 .0266552
919.248 .0266403
919.892 .0266254
920.536 .0266105
921.180 .0265956
921.823 .0265806
922.465 .0265656
923.108 .0265505
923.750 .0265352
924.391 .0265197
925.032 .0265039
925.673 .0264879
926.313 .0264718
926.953 .0264555
927.593 .0264391
928.232 .0264227
928.871 .0264063
929.510 .0263900
930.148 .0263738
930.786 .0263576
931.423 .0263416
932.060 .0263257
932.697 .0263100
933.333 .0262945
933.969 .0262793
934.604 .0262644
935.239 .0262499
935.874 .0262358
936.508 .0262222
937.142 .0262090
937.776 .0261963
938.409 .0261840
939.042 .0261721
939.674 .0261605
940.306 .0261493
940.938 .0261384
941.569 .0261279
942.200 .0261178
942.830 .0261082
943.460 .0260990
944.090 .0260903
944.720 .0260821
945.349 .0260743
945.977 .0260671
946.606 .0260602
947.233 .0260538
947.861 .0260476
948.488 .0260418
949.115 .0260361
949.741 .0260307
950.367 .0260255
950.993 .0260205
951.618 .0260157
952.243 .0260109
952.868 .0260063
953.492 .0260017
954.115 .0259971
954.739 .0259925
955.362 .0259879
955.984 .0259832
956.607 .0259786
957.229 .0259741
957.850 .0259698
958.471 .0259658
959.092 .0259622
959.713 .0259590
960.333 .0259561
960.952 .0259536
961.572 .0259514
962.191 .0259494
962.809 .0259477
963.428 .0259462
964.045 .0259450
964.663 .0259440
965.280 .0259434
965.897 .0259430
966.513 .0259428
967.129 .0259428
967.745 .0259429
968.361 .0259430
968.976 .0259429
969.590 .0259428
970.205 .0259426
970.818 .0259423
971.432 .0259421
972.045 .0259419
972.658 .0259418
973.271 .0259418
973.883 .0259417
974.495 .0259415
975.106 .0259411
975.717 .0259403
976.328 .0259392
976.938 .0259376
977.548 .0259357
978.158 .0259332
978.768 .0259274
979.377 .0259238
979.985 .0259197
980.594 .0259150
981.202 .0259096
981.809 .0259036
982.417 .0258971
983.024 .0258900
983.631 .0258824
984.237 .0258746
984.843 .0258664
985.449 .0258581
986.054 .0258496
986.659 .0258410
987.264 .0258361
987.868 .0258273
988.472 .0258184
989.076 .0258094
989.679 .0258002
990.282 .0257909
990.885 .0257815
991.487 .0257720
992.090 .0257625
992.691 .0257529
993.293 .0257433
993.894 .0257337
994.495 .0257239
995.095 .0257141
995.696 .0257042
996.296 .0256943
996.895 .0256844
997.494 .0256746
998.093 .0256649
998.692 .0256553
999.291 .0256458
999.889 .0256363
1000.487 .0256270
1001.084 .0256176
1001.681 .0256082
1002.278 .0255987
1002.875 .0255892
1003.471 .0255796
1004.067 .0255700
1004.663 .0255603
1005.258 .0255505
1005.854 .0255405
1006.449 .0255304
1007.043 .0255201
1007.638 .0255095
1008.232 .0254988
1008.826 .0254879
1009.419 .0254769
1010.012 .0254659
1010.605 .0254548
1011.198 .0254439
1011.791 .0254330
1012.383 .0254222
1012.975 .0254116
1013.566 .0254011
1014.158 .0253907
1014.749 .0253805
1015.340 .0253705
1015.931 .0253606
1016.521 .0253511
1017.111 .0253417
1017.701 .0253326
1018.291 .0253238
1018.880 .0253152
1019.470 .0253068
1020.059 .0252984
1020.647 .0252902
1021.236 .0252820
1021.824 .0252739
1022.412 .0252657
1023.000 .0252576
1023.588 .0252494
1024.175 .0252412
1024.762 .0252330
1025.349 .0252247
1025.936 .0252164
1026.523 .0252082
1027.109 .0252000
1027.695 .0251920
1028.281 .0251842
1028.867 .0251766
1029.452 .0251693
1030.038 .0251623
1030.623 .0251556
1031.208 .0251491
1031.792 .0251429
1032.377 .0251368
1032.961 .0251308
1033.546 .0251249
1034.130 .0251190
1034.714 .0251131
1035.297 .0251071
1035.881 .0251012
1036.464 .0250953
1037.047 .0250892
1037.630 .0250831
1038.213 .0250768
1038.796 .0250704
1039.378 .0250638
1039.961 .0250572
1040.543 .0250504
1041.125 .0250436
1041.707 .0250368
1042.289 .0250301
1042.871 .0250235
1043.452 .0250170
1044.034 .0250106
1044.615 .0250042
1045.196 .0249980
1045.777 .0249917
1046.358 .0249854
1046.939 .0249791
1047.520 .0249729
1048.101 .0249667
1048.681 .0249606
1049.262 .0249548
1049.842 .0249494
1050.422 .0249444
1051.002 .0249398
1051.582 .0249358
1052.162 .0249322
1052.742 .0249292
1053.322 .0249267
1053.902 .0249248
1054.482 .0249235
1055.061 .0249229
1055.641 .0249231
1056.220 .0249242
1056.800 .0249261
1057.379 .0249288
1057.958 .0249321
1058.538 .0249360
1059.117 .0249401
1059.696 .0249443
1060.275 .0249485
1060.854 .0249527
1061.433 .0249567
1062.012 .0249608
1062.592 .0249648
1063.171 .0249690
1063.750 .0249734
1064.329 .0249778
1064.908 .0249821
1065.487 .0249862
1066.066 .0249899
1066.645 .0249931
1067.224 .0249958
1067.803 .0249980
1068.382 .0249997
1068.961 .0250013
1069.540 .0250027
1070.119 .0250041
1070.698 .0250054
1071.278 .0250068
1071.857 .0250079
1072.436 .0250089
1073.016 .0250095
1073.595 .0250099
1074.175 .0250102
1074.754 .0250107
1075.334 .0250114
1075.913 .0250126
1076.493 .0250143
1077.073 .0250168
1077.653 .0250198
1078.233 .0250233
1078.813 .0250271
1079.393 .0250312
1079.974 .0250355
1080.554 .0250400
1081.135 .0250448
1081.716 .0250499
1082.296 .0250556
1082.877 .0250618
1083.458 .0250686
1084.040 .0250760
1084.621 .0250837
1085.202 .0250916
1085.784 .0250995
1086.366 .0251073
1086.948 .0251149
1087.530 .0251223
1088.112 .0251296
1088.695 .0251369
1089.277 .0251441
1089.860 .0251513
1090.443 .0251587
1091.026 .0251661
1091.610 .0251734
1092.193 .0251806
1092.777 .0251876
1093.361 .0251944
1093.946 .0252010
1094.530 .0252075
1095.115 .0252140
1095.700 .0252206
1096.285 .0252273
1096.871 .0252341
1097.456 .0252411
1098.042 .0252484
1098.628 .0252560
1099.215 .0252639
1099.802 .0252722
1100.389 .0252809
1100.976 .0252900
1101.564 .0252995
1102.152 .0253094
1102.740 .0253196
1103.329 .0253300
1103.917 .0253406
1104.507 .0253514
1105.096 .0253623
1105.686 .0253734
1106.276 .0253848
1106.867 .0253964
1107.457 .0254082
1108.049 .0254201
1108.640 .0254320
1109.232 .0254436
1109.825 .0254549
1110.417 .0254657
1111.010 .0254758
1111.604 .0254853
1112.198 .0254941
1112.792 .0255023
1113.387 .0255098
1113.982 .0255167
1114.577 .0255230
1115.173 .0255287
1115.769 .0255337
1116.366 .0255381
1116.963 .0255419
1117.561 .0255452
1118.159 .0255482
1118.758 .0255512
1119.357 .0255543
1119.957 .0255578
1120.557 .0255621
1121.157 .0255675
1121.758 .0255743
1122.360 .0255827
1122.962 .0255926
1123.564 .0256042
1124.167 .0256052
1124.771 .0256184
1125.375 .0256335
1125.980 .0256505
1126.585 .0256695
1127.191 .0256904
1127.797 .0257134
1128.404 .0257384
1129.012 .0257651
1129.620 .0257936
1130.229 .0258237
1130.838 .0258549
1131.448 .0258870
1132.058 .0259198
1132.669 .0259689
1133.281 .0260037
1133.894 .0260388
1134.507 .0260718
1135.120 .0261099
1135.735 .0261403
1136.350 .0261757
1136.965 .0263066
1137.582 .0263405
1138.199 .0263738
1138.816 .0263996
1139.435 .0264209
1140.054 .0264409
1140.674 .0264539
1141.294 .0264680
1141.916 .0264792
1142.538 .0264355
1143.160 .0265828
1143.784 .0263939
1144.408 .0265495
1145.033 .0265516
