Measurement Sequence started on: 14-45-04-498
Integration time: 36
Scans to Average: 2 
>>>>>Begin Spectral Data<<<<<
433.946 .0471484
434.870 .0527016
435.793 .0442849
436.715 .0416872
437.635 .0415425
438.555 .0427461
439.473 .0421030
440.389 .0414594
441.305 .0411250
442.219 .0408481
443.132 .0414852
444.044 .0408064
444.954 .0405699
445.863 .0404691
446.771 .0403747
447.678 .0402163
448.584 .0400911
449.488 .0399994
450.391 .0399250
451.293 .0398648
452.194 .0398189
453.094 .0397862
453.992 .0397628
454.890 .0397446
455.786 .0397270
456.681 .0397072
457.575 .0396826
458.468 .0396521
459.360 .0396159
460.250 .0395751
461.140 .0395307
462.028 .0394835
462.915 .0394340
463.801 .0393825
464.687 .0393283
465.571 .0392712
466.454 .0392103
467.335 .0391452
468.216 .0390759
469.096 .0390026
469.975 .0389260
470.853 .0388472
471.729 .0387675
472.605 .0386883
473.479 .0386110
474.353 .0385361
475.226 .0384641
476.097 .0383947
476.968 .0383277
477.838 .0382626
478.706 .0381990
479.574 .0381369
480.441 .0380763
481.306 .0380176
482.171 .0379611
483.035 .0379070
483.898 .0378558
484.760 .0378074
485.621 .0377615
486.481 .0377176
487.340 .0376753
488.198 .0376341
489.055 .0375933
489.912 .0375528
490.767 .0375120
491.622 .0374490
492.476 .0374074
493.329 .0373656
494.180 .0373235
495.032 .0372807
495.882 .0372373
496.731 .0371927
497.580 .0371466
498.427 .0370988
499.274 .0370492
500.120 .0370218
500.965 .0369692
501.809 .0369143
502.653 .0368574
503.495 .0367986
504.337 .0367385
505.178 .0366771
506.018 .0366154
506.858 .0365538
507.696 .0364931
508.534 .0364340
509.371 .0363774
510.208 .0363239
511.043 .0362744
511.878 .0362297
512.712 .0361904
513.545 .0361573
514.377 .0361310
515.209 .0361122
516.040 .0361012
516.870 .0360981
517.699 .0361024
518.528 .0361137
519.356 .0361311
520.183 .0361529
521.010 .0361776
521.836 .0362035
522.661 .0362292
523.485 .0362529
524.309 .0362734
525.132 .0362899
525.954 .0363012
526.776 .0363068
527.597 .0363063
528.417 .0362991
529.237 .0362848
530.056 .0362630
530.874 .0362333
531.692 .0361955
532.508 .0361496
533.325 .0360952
534.140 .0360331
534.955 .0359640
535.770 .0358888
536.583 .0358084
537.397 .0357250
538.209 .0356402
539.021 .0355556
539.832 .0354725
540.643 .0353921
541.453 .0353148
542.262 .0352406
543.071 .0351697
543.879 .0351019
544.687 .0350367
545.494 .0349738
546.300 .0349130
547.106 .0348541
547.911 .0347969
548.716 .0347413
549.520 .0346873
550.323 .0346353
551.126 .0345848
551.929 .0345360
552.731 .0344889
553.532 .0344438
554.332 .0344001
555.133 .0343576
555.932 .0343161
556.731 .0342755
557.530 .0342355
558.328 .0341965
559.125 .0341588
559.922 .0341228
560.719 .0340887
561.515 .0340567
562.310 .0340271
563.105 .0339996
563.899 .0339741
564.693 .0339501
565.487 .0339271
566.280 .0339048
567.072 .0338826
567.864 .0338603
568.655 .0338378
569.446 .0338151
570.236 .0337920
571.026 .0337688
571.816 .0337457
572.605 .0337228
573.393 .0337002
574.181 .0336782
574.969 .0336563
575.756 .0336346
576.543 .0336127
577.329 .0335904
578.115 .0335675
578.900 .0335440
579.685 .0335197
580.469 .0334948
581.253 .0334696
582.036 .0334443
582.820 .0334190
583.602 .0333941
584.384 .0333696
585.166 .0333456
585.947 .0333221
586.728 .0332991
587.509 .0332766
588.289 .0332545
589.069 .0332327
589.848 .0332112
590.627 .0331899
591.405 .0331687
592.183 .0331477
592.961 .0331268
593.738 .0331062
594.515 .0330858
595.291 .0330657
596.067 .0330462
596.843 .0330274
597.618 .0330091
598.393 .0329838
599.167 .0329672
599.941 .0329511
600.715 .0329354
601.488 .0329202
602.261 .0329052
603.034 .0328905
603.806 .0328761
604.578 .0328621
605.349 .0328484
606.121 .0328352
606.891 .0328297
607.662 .0328169
608.432 .0328045
609.201 .0327923
609.971 .0327805
610.740 .0327687
611.508 .0327570
612.277 .0327452
613.045 .0327333
613.812 .0327213
614.579 .0327092
615.346 .0326970
616.113 .0326848
616.879 .0326725
617.645 .0326601
618.411 .0326479
619.176 .0326358
619.941 .0326238
620.705 .0326119
621.470 .0326001
622.233 .0325883
622.997 .0325766
623.760 .0325650
624.523 .0325534
625.286 .0325421
626.048 .0325310
626.810 .0325201
627.572 .0325093
628.333 .0324987
629.095 .0324882
629.855 .0324777
630.616 .0324671
631.376 .0324563
632.136 .0324453
632.895 .0324338
633.655 .0324219
634.414 .0324094
635.172 .0323964
635.931 .0323828
636.689 .0323686
637.447 .0323538
638.204 .0323384
638.962 .0323224
639.718 .0323059
640.475 .0322889
641.231 .0322715
641.988 .0322537
642.743 .0322354
643.499 .0322168
644.254 .0321980
645.009 .0321790
645.764 .0321601
646.518 .0321412
647.272 .0321227
648.026 .0321046
648.780 .0320870
649.533 .0320701
650.286 .0320537
651.039 .0320381
651.792 .0320230
652.544 .0320086
653.296 .0319948
654.048 .0319816
654.799 .0319690
655.550 .0319569
656.301 .0319454
657.052 .0319343
657.802 .0319237
658.552 .0319135
659.302 .0319036
660.052 .0318939
660.801 .0318843
661.550 .0318746
662.299 .0318648
663.048 .0318548
663.796 .0318443
664.544 .0318333
665.292 .0318219
666.040 .0318100
666.787 .0317977
667.534 .0317849
668.281 .0317718
669.028 .0317584
669.774 .0317447
670.521 .0317307
671.266 .0317163
672.012 .0317017
672.758 .0316868
673.503 .0316716
674.248 .0316563
674.992 .0316408
675.737 .0316252
676.481 .0316097
677.225 .0315943
677.969 .0315792
678.712 .0315643
679.455 .0315498
680.199 .0315358
680.941 .0315223
681.684 .0315093
682.426 .0314967
683.168 .0314847
683.910 .0314730
684.652 .0314617
685.393 .0314506
686.134 .0314398
686.875 .0314293
687.616 .0314191
688.356 .0314091
689.097 .0313993
689.837 .0313897
690.576 .0313802
691.316 .0313708
692.055 .0313613
692.794 .0313517
693.533 .0313419
694.272 .0313319
695.010 .0313217
695.748 .0313114
696.486 .0313009
697.224 .0312903
697.962 .0312796
698.699 .0312689
699.436 .0312582
700.173 .0312475
700.909 .0312369
701.646 .0312264
702.382 .0312159
703.118 .0312054
703.853 .0311949
704.589 .0311844
705.324 .0311736
706.059 .0311627
706.794 .0311517
707.529 .0311405
708.263 .0311292
708.997 .0311178
709.731 .0311064
710.465 .0310950
711.198 .0310836
711.931 .0310722
712.664 .0310607
713.397 .0310489
714.130 .0310370
714.862 .0310249
715.594 .0310125
716.326 .0309998
717.058 .0309869
717.789 .0309739
718.520 .0309606
719.251 .0309472
719.982 .0309337
720.713 .0309201
721.443 .0309064
722.173 .0308926
722.903 .0308786
723.633 .0308645
724.362 .0308502
725.091 .0308357
725.820 .0308211
726.549 .0308063
727.278 .0307914
728.006 .0307765
728.734 .0307615
729.462 .0307467
730.190 .0307321
730.917 .0307176
731.644 .0307033
732.371 .0306892
733.098 .0306753
733.825 .0306616
734.551 .0306481
735.277 .0306348
736.003 .0306218
736.728 .0306092
737.454 .0305970
738.179 .0305853
738.904 .0305742
739.629 .0305636
740.353 .0305537
741.077 .0305443
741.801 .0305355
742.525 .0305270
743.249 .0305188
743.972 .0305108
744.695 .0305028
745.418 .0304949
746.141 .0304869
746.863 .0304788
747.585 .0304706
748.307 .0304621
749.029 .0304534
749.750 .0304443
750.472 .0304349
751.193 .0304250
751.913 .0304147
752.634 .0304039
753.354 .0303926
754.074 .0303808
754.794 .0303686
755.514 .0303560
756.233 .0303431
756.952 .0303300
757.671 .0303167
758.390 .0303034
759.108 .0302900
759.826 .0302767
760.544 .0302635
761.262 .0302505
761.979 .0302376
762.697 .0302249
763.414 .0302124
764.130 .0302000
764.847 .0301880
765.563 .0301762
766.279 .0301647
766.995 .0301535
767.710 .0301427
768.426 .0301323
769.141 .0301223
769.855 .0301126
770.570 .0301031
771.284 .0300937
771.998 .0300845
772.712 .0300752
773.426 .0300661
774.139 .0300569
774.852 .0300477
775.565 .0300385
776.277 .0300293
776.990 .0300200
777.702 .0300107
778.414 .0300012
779.125 .0299916
779.836 .0299819
780.547 .0299720
781.258 .0299619
781.969 .0299517
782.679 .0299414
783.389 .0299249
784.099 .0299140
784.808 .0299029
785.517 .0298915
786.226 .0298799
786.935 .0298681
787.643 .0298561
788.352 .0298439
789.060 .0298317
789.767 .0298193
790.475 .0298068
791.182 .0297942
791.889 .0297876
792.595 .0297748
793.301 .0297619
794.008 .0297489
794.713 .0297359
795.419 .0297227
796.124 .0297096
796.829 .0296965
797.534 .0296834
798.238 .0296703
798.942 .0296572
799.646 .0296442
800.350 .0296313
801.053 .0296185
801.756 .0296058
802.459 .0295932
803.162 .0295809
803.864 .0295687
804.566 .0295566
805.267 .0295447
805.969 .0295328
806.670 .0295212
807.371 .0295097
808.071 .0294985
808.772 .0294874
809.472 .0294765
810.171 .0294658
810.871 .0294551
811.570 .0294446
812.269 .0294340
812.967 .0294234
813.666 .0294127
814.364 .0294019
815.061 .0293911
815.759 .0293802
816.456 .0293694
817.153 .0293585
817.849 .0293475
818.545 .0293364
819.241 .0293252
819.937 .0293139
820.632 .0293024
821.327 .0292907
822.022 .0292788
822.717 .0292668
823.411 .0292547
824.105 .0292423
824.798 .0292298
825.491 .0292172
826.184 .0292045
826.877 .0291918
827.569 .0291790
828.261 .0291662
828.953 .0291536
829.645 .0291411
830.336 .0291288
831.027 .0291166
831.717 .0291047
832.407 .0290931
833.097 .0290816
833.787 .0290704
834.476 .0290594
835.165 .0290487
835.854 .0290382
836.542 .0290279
837.230 .0290178
837.918 .0290079
838.605 .0289981
839.292 .0289884
839.979 .0289787
840.665 .0289690
841.352 .0289592
842.037 .0289493
842.723 .0289391
843.408 .0289287
844.093 .0289180
844.777 .0289070
845.462 .0288956
846.145 .0288839
846.829 .0288718
847.512 .0288595
848.195 .0288468
848.878 .0288338
849.560 .0288206
850.242 .0288070
850.923 .0287930
851.605 .0287786
852.286 .0287637
852.966 .0287484
853.646 .0287327
854.326 .0287166
855.006 .0287002
855.685 .0286835
856.364 .0286667
857.043 .0286496
857.721 .0286325
858.399 .0286152
859.077 .0285980
859.754 .0285808
860.431 .0285637
861.107 .0285467
861.784 .0285299
862.459 .0285134
863.135 .0284971
863.810 .0284810
864.485 .0284652
865.160 .0284497
865.834 .0284344
866.508 .0284192
867.181 .0284044
867.854 .0283898
868.527 .0283755
869.199 .0283615
869.872 .0283478
870.543 .0283344
871.215 .0283212
871.886 .0283083
872.557 .0282956
873.227 .0282831
873.897 .0282707
874.567 .0282586
875.236 .0282467
875.905 .0282350
876.573 .0282237
877.242 .0282125
877.909 .0282016
878.577 .0281910
879.244 .0281805
879.911 .0281701
880.577 .0281599
881.243 .0281499
881.909 .0281400
882.575 .0281303
883.240 .0281209
883.904 .0281116
884.569 .0281025
885.232 .0280936
885.896 .0280849
886.559 .0280764
887.222 .0280680
887.885 .0280599
888.547 .0280520
889.208 .0280444
889.870 .0280372
890.531 .0280303
891.192 .0280236
891.852 .0280173
892.512 .0280111
893.171 .0280051
893.830 .0279990
894.489 .0279930
895.148 .0279869
895.806 .0279807
896.464 .0279744
897.121 .0279681
897.778 .0279618
898.434 .0279554
899.091 .0279454
899.747 .0279389
900.402 .0279322
901.057 .0279255
901.712 .0279187
902.366 .0279118
903.020 .0279047
903.674 .0278975
904.327 .0278900
904.980 .0278824
905.633 .0278745
906.285 .0278663
906.936 .0278578
907.588 .0278529
908.239 .0278439
908.889 .0278345
909.540 .0278247
910.190 .0278145
910.839 .0278038
911.488 .0277928
912.137 .0277814
912.785 .0277696
913.433 .0277575
914.081 .0277450
914.728 .0277321
915.375 .0277190
916.021 .0277055
916.668 .0276916
917.313 .0276775
917.959 .0276630
918.604 .0276482
919.248 .0276332
919.892 .0276179
920.536 .0276025
921.180 .0275868
921.823 .0275709
922.465 .0275547
923.108 .0275384
923.750 .0275218
924.391 .0275050
925.032 .0274879
925.673 .0274705
926.313 .0274530
926.953 .0274353
927.593 .0274174
928.232 .0273994
928.871 .0273813
929.510 .0273631
930.148 .0273448
930.786 .0273263
931.423 .0273076
932.060 .0272887
932.697 .0272697
933.333 .0272505
933.969 .0272312
934.604 .0272117
935.239 .0271922
935.874 .0271726
936.508 .0271529
937.142 .0271331
937.776 .0271133
938.409 .0270934
939.042 .0270736
939.674 .0270539
940.306 .0270342
940.938 .0270147
941.569 .0269954
942.200 .0269761
942.830 .0269571
943.460 .0269381
944.090 .0269193
944.720 .0269006
945.349 .0268820
945.977 .0268637
946.606 .0268456
947.233 .0268277
947.861 .0268101
948.488 .0267927
949.115 .0267756
949.741 .0267588
950.367 .0267422
950.993 .0267259
951.618 .0267099
952.243 .0266942
952.868 .0266788
953.492 .0266638
954.115 .0266490
954.739 .0266347
955.362 .0266206
955.984 .0266069
956.607 .0265935
957.229 .0265805
957.850 .0265679
958.471 .0265557
959.092 .0265440
959.713 .0265327
960.333 .0265220
960.952 .0265117
961.572 .0265018
962.191 .0264924
962.809 .0264835
963.428 .0264751
964.045 .0264672
964.663 .0264599
965.280 .0264532
965.897 .0264470
966.513 .0264415
967.129 .0264365
967.745 .0264319
968.361 .0264277
968.976 .0264239
969.590 .0264205
970.205 .0264173
970.818 .0264145
971.432 .0264120
972.045 .0264099
972.658 .0264080
973.271 .0264064
973.883 .0264049
974.495 .0264035
975.106 .0264022
975.717 .0264010
976.328 .0263998
976.938 .0263987
977.548 .0263977
978.158 .0263968
978.768 .0263955
979.377 .0263948
979.985 .0263943
980.594 .0263939
981.202 .0263936
981.809 .0263934
982.417 .0263933
983.024 .0263934
983.631 .0263936
984.237 .0263940
984.843 .0263945
985.449 .0263951
986.054 .0263959
986.659 .0263966
987.264 .0263975
987.868 .0263984
988.472 .0263994
989.076 .0264004
989.679 .0264014
990.282 .0264024
990.885 .0264034
991.487 .0264044
992.090 .0264052
992.691 .0264058
993.293 .0264062
993.894 .0264063
994.495 .0264061
995.095 .0264056
995.696 .0264048
996.296 .0264037
996.895 .0264023
997.494 .0264005
998.093 .0263983
998.692 .0263958
999.291 .0263927
999.889 .0263890
1000.487 .0263849
1001.084 .0263801
1001.681 .0263748
1002.278 .0263691
1002.875 .0263630
1003.471 .0263567
1004.067 .0263502
1004.663 .0263436
1005.258 .0263369
1005.854 .0263300
1006.449 .0263231
1007.043 .0263161
1007.638 .0263089
1008.232 .0263015
1008.826 .0262940
1009.419 .0262866
1010.012 .0262791
1010.605 .0262718
1011.198 .0262648
1011.791 .0262580
1012.383 .0262515
1012.975 .0262452
1013.566 .0262392
1014.158 .0262332
1014.749 .0262273
1015.340 .0262215
1015.931 .0262158
1016.521 .0262101
1017.111 .0262045
1017.701 .0261992
1018.291 .0261941
1018.880 .0261893
1019.470 .0261848
1020.059 .0261804
1020.647 .0261762
1021.236 .0261719
1021.824 .0261676
1022.412 .0261631
1023.000 .0261585
1023.588 .0261538
1024.175 .0261491
1024.762 .0261445
1025.349 .0261400
1025.936 .0261358
1026.523 .0261317
1027.109 .0261278
1027.695 .0261241
1028.281 .0261205
1028.867 .0261169
1029.452 .0261134
1030.038 .0261099
1030.623 .0261064
1031.208 .0261031
1031.792 .0260998
1032.377 .0260966
1032.961 .0260934
1033.546 .0260903
1034.130 .0260872
1034.714 .0260840
1035.297 .0260806
1035.881 .0260771
1036.464 .0260732
1037.047 .0260691
1037.630 .0260646
1038.213 .0260599
1038.796 .0260549
1039.378 .0260497
1039.961 .0260442
1040.543 .0260384
1041.125 .0260324
1041.707 .0260262
1042.289 .0260198
1042.871 .0260134
1043.452 .0260069
1044.034 .0260005
1044.615 .0259942
1045.196 .0259882
1045.777 .0259824
1046.358 .0259770
1046.939 .0259718
1047.520 .0259670
1048.101 .0259625
1048.681 .0259584
1049.262 .0259548
1049.842 .0259518
1050.422 .0259493
1051.002 .0259473
1051.582 .0259458
1052.162 .0259449
1052.742 .0259445
1053.322 .0259446
1053.902 .0259451
1054.482 .0259459
1055.061 .0259471
1055.641 .0259485
1056.220 .0259501
1056.800 .0259520
1057.379 .0259540
1057.958 .0259560
1058.538 .0259580
1059.117 .0259599
1059.696 .0259614
1060.275 .0259626
1060.854 .0259633
1061.433 .0259634
1062.012 .0259630
1062.592 .0259620
1063.171 .0259605
1063.750 .0259585
1064.329 .0259562
1064.908 .0259537
1065.487 .0259509
1066.066 .0259481
1066.645 .0259451
1067.224 .0259422
1067.803 .0259393
1068.382 .0259366
1068.961 .0259342
1069.540 .0259322
1070.119 .0259307
1070.698 .0259297
1071.278 .0259293
1071.857 .0259294
1072.436 .0259300
1073.016 .0259309
1073.595 .0259322
1074.175 .0259338
1074.754 .0259358
1075.334 .0259381
1075.913 .0259407
1076.493 .0259437
1077.073 .0259470
1077.653 .0259505
1078.233 .0259542
1078.813 .0259581
1079.393 .0259621
1079.974 .0259661
1080.554 .0259703
1081.135 .0259747
1081.716 .0259792
1082.296 .0259837
1082.877 .0259883
1083.458 .0259928
1084.040 .0259970
1084.621 .0260009
1085.202 .0260043
1085.784 .0260072
1086.366 .0260098
1086.948 .0260120
1087.530 .0260139
1088.112 .0260157
1088.695 .0260174
1089.277 .0260190
1089.860 .0260204
1090.443 .0260217
1091.026 .0260226
1091.610 .0260234
1092.193 .0260239
1092.777 .0260243
1093.361 .0260248
1093.946 .0260253
1094.530 .0260259
1095.115 .0260266
1095.700 .0260274
1096.285 .0260280
1096.871 .0260284
1097.456 .0260284
1098.042 .0260279
1098.628 .0260269
1099.215 .0260255
1099.802 .0260239
1100.389 .0260222
1100.976 .0260205
1101.564 .0260191
1102.152 .0260178
1102.740 .0260165
1103.329 .0260150
1103.917 .0260134
1104.507 .0260114
1105.096 .0260092
1105.686 .0260070
1106.276 .0260052
1106.867 .0260041
1107.457 .0260038
1108.049 .0260047
1108.640 .0260066
1109.232 .0260094
1109.825 .0260129
1110.417 .0260169
1111.010 .0260213
1111.604 .0260261
1112.198 .0260314
1112.792 .0260372
1113.387 .0260439
1113.982 .0260517
1114.577 .0260606
1115.173 .0260705
1115.769 .0260814
1116.366 .0260930
1116.963 .0261051
1117.561 .0261177
1118.159 .0261307
1118.758 .0261440
1119.357 .0261579
1119.957 .0261723
1120.557 .0261875
1121.157 .0262034
1121.758 .0262202
1122.360 .0262376
1122.962 .0262552
1123.564 .0262729
1124.167 .0262815
1124.771 .0262986
1125.375 .0263149
1125.980 .0263305
1126.585 .0263454
1127.191 .0263597
1127.797 .0263736
1128.404 .0263871
1129.012 .0264006
1129.620 .0264142
1130.229 .0264281
1130.838 .0264423
1131.448 .0264570
1132.058 .0264724
1132.669 .0264967
1133.281 .0265153
1133.894 .0265361
1134.507 .0265564
1135.120 .0265841
1135.735 .0266150
1136.350 .0266520
1136.965 .0265553
1137.582 .0265677
1138.199 .0265885
1138.816 .0266109
1139.435 .0266413
1140.054 .0266821
1140.674 .0267336
1141.294 .0267994
1141.916 .0268716
1142.538 .0268748
1143.160 .0270848
1143.784 .0271908
1144.408 .0273734
1145.033 .0272671
