Measurement Sequence started on: 14-45-04-498
Integration time: 36
Scans to Average: 2 
>>>>>Begin Spectral Data<<<<<
433.946 .0543948
434.870 .0633258
435.793 .0558064
436.715 .0528633
437.635 .0517717
438.555 .0530792
439.473 .0524904
440.389 .0518237
441.305 .0514994
442.219 .0512958
443.132 .0523069
444.044 .0516565
444.954 .0514005
445.863 .0512978
446.771 .0512507
447.678 .0511327
448.584 .0510431
449.488 .0509854
450.391 .0509408
451.293 .0509019
452.194 .0508654
453.094 .0508292
453.992 .0507900
454.890 .0507449
455.786 .0506911
456.681 .0506285
457.575 .0505558
458.468 .0504738
459.360 .0503833
460.250 .0502856
461.140 .0501810
462.028 .0500708
462.915 .0499557
463.801 .0498366
464.687 .0497140
465.571 .0495890
466.454 .0494624
467.335 .0493350
468.216 .0492080
469.096 .0490822
469.975 .0489583
470.853 .0488374
471.729 .0487196
472.605 .0486060
473.479 .0484970
474.353 .0483931
475.226 .0482946
476.097 .0482017
476.968 .0481143
477.838 .0480322
478.706 .0479546
479.574 .0478811
480.441 .0478113
481.306 .0477444
482.171 .0476800
483.035 .0476177
483.898 .0475573
484.760 .0474987
485.621 .0474420
486.481 .0473873
487.340 .0473349
488.198 .0472851
489.055 .0472379
489.912 .0471930
490.767 .0471506
491.622 .0470939
492.476 .0470555
493.329 .0470181
494.180 .0469813
495.032 .0469450
495.882 .0469099
496.731 .0468761
497.580 .0468442
498.427 .0468150
499.274 .0467892
500.120 .0467820
500.965 .0467618
501.809 .0467451
502.653 .0467318
503.495 .0467217
504.337 .0467142
505.178 .0467091
506.018 .0467063
506.858 .0467056
507.696 .0467073
508.534 .0467114
509.371 .0467188
510.208 .0467303
511.043 .0467463
511.878 .0467673
512.712 .0467935
513.545 .0468249
514.377 .0468611
515.209 .0469012
516.040 .0469444
516.870 .0469890
517.699 .0470338
518.528 .0470777
519.356 .0471197
520.183 .0471591
521.010 .0471957
521.836 .0472294
522.661 .0472600
523.485 .0472870
524.309 .0473098
525.132 .0473273
525.954 .0473386
526.776 .0473417
527.597 .0473346
528.417 .0473155
529.237 .0472838
530.056 .0472383
530.874 .0471788
531.692 .0471054
532.508 .0470186
533.325 .0469193
534.140 .0468091
534.955 .0466898
535.770 .0465630
536.583 .0464302
537.397 .0462931
538.209 .0461524
539.021 .0460089
539.832 .0458633
540.643 .0457163
541.453 .0455687
542.262 .0454217
543.071 .0452760
543.879 .0451337
544.687 .0449964
545.494 .0448659
546.300 .0447427
547.106 .0446278
547.911 .0445213
548.716 .0444232
549.520 .0443331
550.323 .0442507
551.126 .0441753
551.929 .0441066
552.731 .0440439
553.532 .0439864
554.332 .0439333
555.133 .0438842
555.932 .0438378
556.731 .0437942
557.530 .0437526
558.328 .0437128
559.125 .0436745
559.922 .0436377
560.719 .0436020
561.515 .0435666
562.310 .0435310
563.105 .0434943
563.899 .0434556
564.693 .0434142
565.487 .0433697
566.280 .0433223
567.072 .0432721
567.864 .0432193
568.655 .0431640
569.446 .0431065
570.236 .0430468
571.026 .0429851
571.816 .0429214
572.605 .0428559
573.393 .0427888
574.181 .0427202
574.969 .0426506
575.756 .0425802
576.543 .0425094
577.329 .0424387
578.115 .0423683
578.900 .0422988
579.685 .0422306
580.469 .0421643
581.253 .0421004
582.036 .0420394
582.820 .0419815
583.602 .0419266
584.384 .0418750
585.166 .0418267
585.947 .0417815
586.728 .0417396
587.509 .0417009
588.289 .0416654
589.069 .0416327
589.848 .0416026
590.627 .0415746
591.405 .0415485
592.183 .0415239
592.961 .0415004
593.738 .0414780
594.515 .0414565
595.291 .0414359
596.067 .0414166
596.843 .0413985
597.618 .0413815
598.393 .0413575
599.167 .0413417
599.941 .0413260
600.715 .0413102
601.488 .0412939
602.261 .0412771
603.034 .0412595
603.806 .0412413
604.578 .0412226
605.349 .0412036
606.121 .0411844
606.891 .0411742
607.662 .0411550
608.432 .0411357
609.201 .0411164
609.971 .0410972
610.740 .0410779
611.508 .0410586
612.277 .0410392
613.045 .0410199
613.812 .0410006
614.579 .0409814
615.346 .0409623
616.113 .0409434
616.879 .0409249
617.645 .0409066
618.411 .0408887
619.176 .0408710
619.941 .0408536
620.705 .0408363
621.470 .0408191
622.233 .0408018
622.997 .0407845
623.760 .0407672
624.523 .0407498
625.286 .0407324
626.048 .0407150
626.810 .0406977
627.572 .0406804
628.333 .0406630
629.095 .0406456
629.855 .0406281
630.616 .0406104
631.376 .0405926
632.136 .0405746
632.895 .0405564
633.655 .0405379
634.414 .0405193
635.172 .0405004
635.931 .0404812
636.689 .0404615
637.447 .0404414
638.204 .0404208
638.962 .0403998
639.718 .0403784
640.475 .0403567
641.231 .0403347
641.988 .0403123
642.743 .0402895
643.499 .0402663
644.254 .0402426
645.009 .0402182
645.764 .0401931
646.518 .0401674
647.272 .0401411
648.026 .0401141
648.780 .0400867
649.533 .0400589
650.286 .0400307
651.039 .0400022
651.792 .0399735
652.544 .0399444
653.296 .0399150
654.048 .0398855
654.799 .0398558
655.550 .0398259
656.301 .0397961
657.052 .0397662
657.802 .0397363
658.552 .0397064
659.302 .0396765
660.052 .0396466
660.801 .0396167
661.550 .0395870
662.299 .0395573
663.048 .0395277
663.796 .0394984
664.544 .0394693
665.292 .0394405
666.040 .0394120
666.787 .0393838
667.534 .0393560
668.281 .0393286
669.028 .0393019
669.774 .0392758
670.521 .0392505
671.266 .0392262
672.012 .0392028
672.758 .0391804
673.503 .0391589
674.248 .0391382
674.992 .0391184
675.737 .0390992
676.481 .0390806
677.225 .0390626
677.969 .0390452
678.712 .0390284
679.455 .0390121
680.199 .0389963
680.941 .0389810
681.684 .0389660
682.426 .0389514
683.168 .0389368
683.910 .0389224
684.652 .0389077
685.393 .0388929
686.134 .0388776
686.875 .0388620
687.616 .0388459
688.356 .0388293
689.097 .0388122
689.837 .0387948
690.576 .0387770
691.316 .0387588
692.055 .0387403
692.794 .0387216
693.533 .0387026
694.272 .0386833
695.010 .0386638
695.748 .0386441
696.486 .0386241
697.224 .0386040
697.962 .0385837
698.699 .0385633
699.436 .0385429
700.173 .0385224
700.909 .0385020
701.646 .0384816
702.382 .0384613
703.118 .0384410
703.853 .0384209
704.589 .0384007
705.324 .0383805
706.059 .0383601
706.794 .0383394
707.529 .0383185
708.263 .0382973
708.997 .0382757
709.731 .0382539
710.465 .0382320
711.198 .0382100
711.931 .0381880
712.664 .0381662
713.397 .0381444
714.130 .0381227
714.862 .0381011
715.594 .0380794
716.326 .0380578
717.058 .0380362
717.789 .0380147
718.520 .0379934
719.251 .0379724
719.982 .0379518
720.713 .0379316
721.443 .0379119
722.173 .0378927
722.903 .0378740
723.633 .0378557
724.362 .0378379
725.091 .0378205
725.820 .0378036
726.549 .0377871
727.278 .0377711
728.006 .0377555
728.734 .0377404
729.462 .0377258
730.190 .0377117
730.917 .0376980
731.644 .0376849
732.371 .0376724
733.098 .0376605
733.825 .0376492
734.551 .0376384
735.277 .0376282
736.003 .0376185
736.728 .0376093
737.454 .0376005
738.179 .0375922
738.904 .0375843
739.629 .0375770
740.353 .0375701
741.077 .0375637
741.801 .0375577
742.525 .0375521
743.249 .0375467
743.972 .0375414
744.695 .0375361
745.418 .0375305
746.141 .0375247
746.863 .0375185
747.585 .0375118
748.307 .0375046
749.029 .0374967
749.750 .0374882
750.472 .0374790
751.193 .0374690
751.913 .0374580
752.634 .0374462
753.354 .0374335
754.074 .0374197
754.794 .0374050
755.514 .0373894
756.233 .0373729
756.952 .0373555
757.671 .0373374
758.390 .0373186
759.108 .0372994
759.826 .0372797
760.544 .0372597
761.262 .0372396
761.979 .0372195
762.697 .0371993
763.414 .0371792
764.130 .0371592
764.847 .0371394
765.563 .0371198
766.279 .0371006
766.995 .0370816
767.710 .0370630
768.426 .0370449
769.141 .0370273
769.855 .0370101
770.570 .0369933
771.284 .0369771
771.998 .0369612
772.712 .0369458
773.426 .0369309
774.139 .0369164
774.852 .0369024
775.565 .0368887
776.277 .0368753
776.990 .0368622
777.702 .0368493
778.414 .0368366
779.125 .0368241
779.836 .0368117
780.547 .0367995
781.258 .0367874
781.969 .0367755
782.679 .0367638
783.389 .0367466
784.099 .0367351
784.808 .0367235
785.517 .0367119
786.226 .0367002
786.935 .0366884
787.643 .0366766
788.352 .0366649
789.060 .0366531
789.767 .0366414
790.475 .0366298
791.182 .0366183
791.889 .0366125
792.595 .0366013
793.301 .0365901
794.008 .0365790
794.713 .0365681
795.419 .0365572
796.124 .0365464
796.829 .0365357
797.534 .0365251
798.238 .0365145
798.942 .0365040
799.646 .0364934
800.350 .0364829
801.053 .0364724
801.756 .0364619
802.459 .0364515
803.162 .0364412
803.864 .0364309
804.566 .0364207
805.267 .0364105
805.969 .0364003
806.670 .0363901
807.371 .0363799
808.071 .0363697
808.772 .0363595
809.472 .0363493
810.171 .0363390
810.871 .0363288
811.570 .0363186
812.269 .0363083
812.967 .0362979
813.666 .0362874
814.364 .0362766
815.061 .0362655
815.759 .0362541
816.456 .0362424
817.153 .0362302
817.849 .0362176
818.545 .0362045
819.241 .0361910
819.937 .0361770
820.632 .0361626
821.327 .0361477
822.022 .0361324
822.717 .0361165
823.411 .0361001
824.105 .0360832
824.798 .0360658
825.491 .0360479
826.184 .0360295
826.877 .0360106
827.569 .0359912
828.261 .0359715
828.953 .0359514
829.645 .0359309
830.336 .0359101
831.027 .0358890
831.717 .0358677
832.407 .0358464
833.097 .0358250
833.787 .0358036
834.476 .0357824
835.165 .0357614
835.854 .0357405
836.542 .0357198
837.230 .0356992
837.918 .0356788
838.605 .0356585
839.292 .0356385
839.979 .0356187
840.665 .0355993
841.352 .0355801
842.037 .0355613
842.723 .0355427
843.408 .0355243
844.093 .0355061
844.777 .0354880
845.462 .0354698
846.145 .0354516
846.829 .0354333
847.512 .0354150
848.195 .0353966
848.878 .0353782
849.560 .0353597
850.242 .0353410
850.923 .0353222
851.605 .0353031
852.286 .0352838
852.966 .0352642
853.646 .0352444
854.326 .0352243
855.006 .0352041
855.685 .0351837
856.364 .0351632
857.043 .0351426
857.721 .0351220
858.399 .0351015
859.077 .0350810
859.754 .0350607
860.431 .0350407
861.107 .0350209
861.784 .0350016
862.459 .0349827
863.135 .0349643
863.810 .0349465
864.485 .0349294
865.160 .0349129
865.834 .0348971
866.508 .0348819
867.181 .0348673
867.854 .0348533
868.527 .0348398
869.199 .0348268
869.872 .0348143
870.543 .0348023
871.215 .0347906
871.886 .0347794
872.557 .0347686
873.227 .0347581
873.897 .0347480
874.567 .0347381
875.236 .0347283
875.905 .0347185
876.573 .0347088
877.242 .0346989
877.909 .0346890
878.577 .0346789
879.244 .0346687
879.911 .0346584
880.577 .0346481
881.243 .0346378
881.909 .0346276
882.575 .0346174
883.240 .0346073
883.904 .0345974
884.569 .0345876
885.232 .0345779
885.896 .0345685
886.559 .0345595
887.222 .0345507
887.885 .0345424
888.547 .0345343
889.208 .0345267
889.870 .0345193
890.531 .0345123
891.192 .0345054
891.852 .0344987
892.512 .0344922
893.171 .0344857
893.830 .0344793
894.489 .0344730
895.148 .0344666
895.806 .0344601
896.464 .0344535
897.121 .0344465
897.778 .0344392
898.434 .0344315
899.091 .0344181
899.747 .0344092
900.402 .0343998
901.057 .0343900
901.712 .0343798
902.366 .0343692
903.020 .0343581
903.674 .0343464
904.327 .0343341
904.980 .0343211
905.633 .0343074
906.285 .0342930
906.936 .0342779
907.588 .0342686
908.239 .0342525
908.889 .0342359
909.540 .0342189
910.190 .0342013
910.839 .0341833
911.488 .0341648
912.137 .0341457
912.785 .0341260
913.433 .0341058
914.081 .0340849
914.728 .0340636
915.375 .0340417
916.021 .0340194
916.668 .0339967
917.313 .0339736
917.959 .0339500
918.604 .0339260
919.248 .0339015
919.892 .0338765
920.536 .0338510
921.180 .0338251
921.823 .0337988
922.465 .0337722
923.108 .0337454
923.750 .0337183
924.391 .0336910
925.032 .0336635
925.673 .0336356
926.313 .0336074
926.953 .0335788
927.593 .0335499
928.232 .0335207
928.871 .0334912
929.510 .0334616
930.148 .0334319
930.786 .0334021
931.423 .0333723
932.060 .0333424
932.697 .0333125
933.333 .0332826
933.969 .0332527
934.604 .0332230
935.239 .0331935
935.874 .0331643
936.508 .0331354
937.142 .0331070
937.776 .0330791
938.409 .0330516
939.042 .0330246
939.674 .0329981
940.306 .0329719
940.938 .0329462
941.569 .0329209
942.200 .0328959
942.830 .0328714
943.460 .0328473
944.090 .0328236
944.720 .0328005
945.349 .0327778
945.977 .0327557
946.606 .0327341
947.233 .0327131
947.861 .0326925
948.488 .0326724
949.115 .0326529
949.741 .0326338
950.367 .0326152
950.993 .0325971
951.618 .0325794
952.243 .0325621
952.868 .0325453
953.492 .0325289
954.115 .0325128
954.739 .0324971
955.362 .0324818
955.984 .0324669
956.607 .0324524
957.229 .0324383
957.850 .0324247
958.471 .0324116
959.092 .0323991
959.713 .0323872
960.333 .0323760
960.952 .0323655
961.572 .0323557
962.191 .0323465
962.809 .0323380
963.428 .0323301
964.045 .0323229
964.663 .0323163
965.280 .0323104
965.897 .0323051
966.513 .0323006
967.129 .0322966
967.745 .0322933
968.361 .0322906
968.976 .0322882
969.590 .0322863
970.205 .0322848
970.818 .0322835
971.432 .0322824
972.045 .0322816
972.658 .0322811
973.271 .0322807
973.883 .0322805
974.495 .0322805
975.106 .0322805
975.717 .0322804
976.328 .0322802
976.938 .0322797
977.548 .0322790
978.158 .0322780
978.768 .0322752
979.377 .0322738
979.985 .0322723
980.594 .0322707
981.202 .0322690
981.809 .0322673
982.417 .0322656
983.024 .0322638
983.631 .0322620
984.237 .0322602
984.843 .0322585
985.449 .0322569
986.054 .0322555
986.659 .0322543
987.264 .0322546
987.868 .0322536
988.472 .0322526
989.076 .0322515
989.679 .0322505
990.282 .0322495
990.885 .0322486
991.487 .0322478
992.090 .0322471
992.691 .0322466
993.293 .0322464
993.894 .0322463
994.495 .0322462
995.095 .0322461
995.696 .0322458
996.296 .0322454
996.895 .0322446
997.494 .0322434
998.093 .0322419
998.692 .0322400
999.291 .0322376
999.889 .0322347
1000.487 .0322313
1001.084 .0322273
1001.681 .0322227
1002.278 .0322173
1002.875 .0322113
1003.471 .0322046
1004.067 .0321973
1004.663 .0321894
1005.258 .0321810
1005.854 .0321721
1006.449 .0321628
1007.043 .0321531
1007.638 .0321431
1008.232 .0321329
1008.826 .0321224
1009.419 .0321118
1010.012 .0321011
1010.605 .0320902
1011.198 .0320793
1011.791 .0320683
1012.383 .0320573
1012.975 .0320463
1013.566 .0320353
1014.158 .0320245
1014.749 .0320138
1015.340 .0320034
1015.931 .0319932
1016.521 .0319833
1017.111 .0319737
1017.701 .0319643
1018.291 .0319551
1018.880 .0319460
1019.470 .0319370
1020.059 .0319281
1020.647 .0319193
1021.236 .0319105
1021.824 .0319019
1022.412 .0318934
1023.000 .0318852
1023.588 .0318772
1024.175 .0318692
1024.762 .0318613
1025.349 .0318533
1025.936 .0318453
1026.523 .0318371
1027.109 .0318288
1027.695 .0318204
1028.281 .0318118
1028.867 .0318032
1029.452 .0317945
1030.038 .0317857
1030.623 .0317767
1031.208 .0317675
1031.792 .0317579
1032.377 .0317480
1032.961 .0317376
1033.546 .0317269
1034.130 .0317157
1034.714 .0317042
1035.297 .0316922
1035.881 .0316800
1036.464 .0316675
1037.047 .0316547
1037.630 .0316417
1038.213 .0316284
1038.796 .0316149
1039.378 .0316012
1039.961 .0315873
1040.543 .0315730
1041.125 .0315585
1041.707 .0315437
1042.289 .0315286
1042.871 .0315133
1043.452 .0314979
1044.034 .0314824
1044.615 .0314670
1045.196 .0314517
1045.777 .0314366
1046.358 .0314218
1046.939 .0314074
1047.520 .0313935
1048.101 .0313801
1048.681 .0313672
1049.262 .0313549
1049.842 .0313431
1050.422 .0313319
1051.002 .0313212
1051.582 .0313111
1052.162 .0313018
1052.742 .0312930
1053.322 .0312848
1053.902 .0312772
1054.482 .0312701
1055.061 .0312634
1055.641 .0312571
1056.220 .0312510
1056.800 .0312451
1057.379 .0312393
1057.958 .0312336
1058.538 .0312281
1059.117 .0312228
1059.696 .0312177
1060.275 .0312128
1060.854 .0312079
1061.433 .0312029
1062.012 .0311978
1062.592 .0311925
1063.171 .0311867
1063.750 .0311805
1064.329 .0311739
1064.908 .0311667
1065.487 .0311592
1066.066 .0311514
1066.645 .0311435
1067.224 .0311355
1067.803 .0311277
1068.382 .0311200
1068.961 .0311126
1069.540 .0311056
1070.119 .0310992
1070.698 .0310934
1071.278 .0310882
1071.857 .0310838
1072.436 .0310803
1073.016 .0310776
1073.595 .0310758
1074.175 .0310750
1074.754 .0310752
1075.334 .0310763
1075.913 .0310781
1076.493 .0310806
1077.073 .0310836
1077.653 .0310871
1078.233 .0310910
1078.813 .0310953
1079.393 .0311001
1079.974 .0311053
1080.554 .0311111
1081.135 .0311175
1081.716 .0311245
1082.296 .0311321
1082.877 .0311402
1083.458 .0311487
1084.040 .0311575
1084.621 .0311666
1085.202 .0311758
1085.784 .0311851
1086.366 .0311943
1086.948 .0312033
1087.530 .0312119
1088.112 .0312200
1088.695 .0312274
1089.277 .0312341
1089.860 .0312400
1090.443 .0312451
1091.026 .0312492
1091.610 .0312525
1092.193 .0312552
1092.777 .0312572
1093.361 .0312588
1093.946 .0312601
1094.530 .0312613
1095.115 .0312627
1095.700 .0312643
1096.285 .0312665
1096.871 .0312693
1097.456 .0312728
1098.042 .0312769
1098.628 .0312818
1099.215 .0312873
1099.802 .0312935
1100.389 .0313003
1100.976 .0313075
1101.564 .0313151
1102.152 .0313231
1102.740 .0313316
1103.329 .0313406
1103.917 .0313502
1104.507 .0313604
1105.096 .0313713
1105.686 .0313831
1106.276 .0313959
1106.867 .0314097
1107.457 .0314247
1108.049 .0314408
1108.640 .0314582
1109.232 .0314770
1109.825 .0314969
1110.417 .0315183
1111.010 .0315408
1111.604 .0315644
1112.198 .0315890
1112.792 .0316141
1113.387 .0316397
1113.982 .0316653
1114.577 .0316909
1115.173 .0317162
1115.769 .0317411
1116.366 .0317655
1116.963 .0317890
1117.561 .0318118
1118.159 .0318337
1118.758 .0318547
1119.357 .0318747
1119.957 .0318940
1120.557 .0319125
1121.157 .0319308
1121.758 .0319489
1122.360 .0319670
1122.962 .0319851
1123.564 .0320032
1124.167 .0320142
1124.771 .0320318
1125.375 .0320490
1125.980 .0320654
1126.585 .0320811
1127.191 .0320961
1127.797 .0321108
1128.404 .0321255
1129.012 .0321406
1129.620 .0321566
1130.229 .0321735
1130.838 .0321913
1131.448 .0322102
1132.058 .0322300
1132.669 .0322567
1133.281 .0322791
1133.894 .0323023
1134.507 .0323272
1135.120 .0323576
1135.735 .0323881
1136.350 .0324231
1136.965 .0323582
1137.582 .0324149
1138.199 .0324707
1138.816 .0325235
1139.435 .0325748
1140.054 .0326230
1140.674 .0326657
1141.294 .0327072
1141.916 .0327326
1142.538 .0327773
1143.160 .0329220
1143.784 .0329184
1144.408 .0330368
1145.033 .0325539
