Measurement Sequence started on: 14-45-04-498
Integration time: 36
Scans to Average: 2 
>>>>>Begin Spectral Data<<<<<
433.946 .0803614
434.870 .0661290
435.793 .0559614
436.715 .0553641
437.635 .0537872
438.555 .0542914
439.473 .0523416
440.389 .0511614
441.305 .0504246
442.219 .0498012
443.132 .0513319
444.044 .0503974
444.954 .0500007
445.863 .0496391
446.771 .0493643
447.678 .0490665
448.584 .0488736
449.488 .0487438
450.391 .0486514
451.293 .0485893
452.194 .0485481
453.094 .0485201
453.992 .0484992
454.890 .0484815
455.786 .0484632
456.681 .0484435
457.575 .0484207
458.468 .0483946
459.360 .0483643
460.250 .0483286
461.140 .0482856
462.028 .0482344
462.915 .0481742
463.801 .0481051
464.687 .0480270
465.571 .0479416
466.454 .0478497
467.335 .0477533
468.216 .0476541
469.096 .0475534
469.975 .0474525
470.853 .0473524
471.729 .0472535
472.605 .0471563
473.479 .0470608
474.353 .0469669
475.226 .0468744
476.097 .0467836
476.968 .0466941
477.838 .0466061
478.706 .0465196
479.574 .0464353
480.441 .0463535
481.306 .0462748
482.171 .0461998
483.035 .0461290
483.898 .0460625
484.760 .0460000
485.621 .0459408
486.481 .0458846
487.340 .0458308
488.198 .0457792
489.055 .0457299
489.912 .0456834
490.767 .0456403
491.622 .0455904
492.476 .0455581
493.329 .0455297
494.180 .0455045
495.032 .0454815
495.882 .0454597
496.731 .0454376
497.580 .0454145
498.427 .0453898
499.274 .0453635
500.120 .0453469
500.965 .0453174
501.809 .0452861
502.653 .0452531
503.495 .0452180
504.337 .0451801
505.178 .0451390
506.018 .0450942
506.858 .0450452
507.696 .0449921
508.534 .0449353
509.371 .0448757
510.208 .0448140
511.043 .0447517
511.878 .0446893
512.712 .0446275
513.545 .0445667
514.377 .0445073
515.209 .0444493
516.040 .0443924
516.870 .0443364
517.699 .0442809
518.528 .0442256
519.356 .0441707
520.183 .0441157
521.010 .0440612
521.836 .0440076
522.661 .0439554
523.485 .0439042
524.309 .0438543
525.132 .0438054
525.954 .0437569
526.776 .0437081
527.597 .0436580
528.417 .0436055
529.237 .0435509
530.056 .0434942
530.874 .0434357
531.692 .0433754
532.508 .0433141
533.325 .0432521
534.140 .0431898
534.955 .0431274
535.770 .0430651
536.583 .0430032
537.397 .0429425
538.209 .0428824
539.021 .0428234
539.832 .0427654
540.643 .0427090
541.453 .0426539
542.262 .0425999
543.071 .0425467
543.879 .0424942
544.687 .0424425
545.494 .0423917
546.300 .0423412
547.106 .0422912
547.911 .0422416
548.716 .0421927
549.520 .0421443
550.323 .0420969
551.126 .0420507
551.929 .0420063
552.731 .0419638
553.532 .0419233
554.332 .0418849
555.133 .0418488
555.932 .0418149
556.731 .0417828
557.530 .0417524
558.328 .0417234
559.125 .0416959
559.922 .0416699
560.719 .0416452
561.515 .0416217
562.310 .0415993
563.105 .0415776
563.899 .0415562
564.693 .0415345
565.487 .0415119
566.280 .0414879
567.072 .0414620
567.864 .0414338
568.655 .0414030
569.446 .0413700
570.236 .0413350
571.026 .0412983
571.816 .0412602
572.605 .0412211
573.393 .0411814
574.181 .0411413
574.969 .0411007
575.756 .0410599
576.543 .0410187
577.329 .0409775
578.115 .0409364
578.900 .0408959
579.685 .0408563
580.469 .0408181
581.253 .0407820
582.036 .0407482
582.820 .0407170
583.602 .0406884
584.384 .0406623
585.166 .0406384
585.947 .0406161
586.728 .0405949
587.509 .0405742
588.289 .0405539
589.069 .0405334
589.848 .0405124
590.627 .0404906
591.405 .0404680
592.183 .0404444
592.961 .0404196
593.738 .0403934
594.515 .0403657
595.291 .0403364
596.067 .0403055
596.843 .0402730
597.618 .0402390
598.393 .0401823
599.167 .0401450
599.941 .0401064
600.715 .0400669
601.488 .0400266
602.261 .0399857
603.034 .0399445
603.806 .0399031
604.578 .0398618
605.349 .0398207
606.121 .0397801
606.891 .0397615
607.662 .0397222
608.432 .0396836
609.201 .0396459
609.971 .0396092
610.740 .0395737
611.508 .0395396
612.277 .0395069
613.045 .0394756
613.812 .0394457
614.579 .0394171
615.346 .0393900
616.113 .0393641
616.879 .0393395
617.645 .0393161
618.411 .0392939
619.176 .0392726
619.941 .0392522
620.705 .0392326
621.470 .0392134
622.233 .0391946
622.997 .0391758
623.760 .0391570
624.523 .0391379
625.286 .0391186
626.048 .0390990
626.810 .0390790
627.572 .0390586
628.333 .0390378
629.095 .0390164
629.855 .0389946
630.616 .0389722
631.376 .0389492
632.136 .0389258
632.895 .0389019
633.655 .0388775
634.414 .0388527
635.172 .0388274
635.931 .0388017
636.689 .0387755
637.447 .0387489
638.204 .0387217
638.962 .0386941
639.718 .0386662
640.475 .0386381
641.231 .0386098
641.988 .0385814
642.743 .0385529
643.499 .0385243
644.254 .0384955
645.009 .0384667
645.764 .0384377
646.518 .0384085
647.272 .0383793
648.026 .0383501
648.780 .0383210
649.533 .0382920
650.286 .0382632
651.039 .0382347
651.792 .0382066
652.544 .0381787
653.296 .0381512
654.048 .0381242
654.799 .0380978
655.550 .0380721
656.301 .0380471
657.052 .0380230
657.802 .0379998
658.552 .0379775
659.302 .0379560
660.052 .0379355
660.801 .0379156
661.550 .0378965
662.299 .0378781
663.048 .0378602
663.796 .0378429
664.544 .0378261
665.292 .0378098
666.040 .0377938
666.787 .0377782
667.534 .0377627
668.281 .0377474
669.028 .0377322
669.774 .0377169
670.521 .0377016
671.266 .0376860
672.012 .0376704
672.758 .0376545
673.503 .0376384
674.248 .0376221
674.992 .0376057
675.737 .0375892
676.481 .0375725
677.225 .0375557
677.969 .0375389
678.712 .0375220
679.455 .0375052
680.199 .0374883
680.941 .0374715
681.684 .0374547
682.426 .0374379
683.168 .0374210
683.910 .0374042
684.652 .0373872
685.393 .0373702
686.134 .0373532
686.875 .0373360
687.616 .0373188
688.356 .0373015
689.097 .0372841
689.837 .0372667
690.576 .0372490
691.316 .0372310
692.055 .0372127
692.794 .0371940
693.533 .0371747
694.272 .0371550
695.010 .0371348
695.748 .0371141
696.486 .0370931
697.224 .0370718
697.962 .0370503
698.699 .0370287
699.436 .0370069
700.173 .0369852
700.909 .0369635
701.646 .0369419
702.382 .0369204
703.118 .0368990
703.853 .0368779
704.589 .0368571
705.324 .0368365
706.059 .0368163
706.794 .0367963
707.529 .0367766
708.263 .0367573
708.997 .0367383
709.731 .0367197
710.465 .0367015
711.198 .0366837
711.931 .0366662
712.664 .0366491
713.397 .0366322
714.130 .0366155
714.862 .0365989
715.594 .0365824
716.326 .0365658
717.058 .0365492
717.789 .0365326
718.520 .0365160
719.251 .0364994
719.982 .0364829
720.713 .0364662
721.443 .0364495
722.173 .0364326
722.903 .0364156
723.633 .0363984
724.362 .0363810
725.091 .0363635
725.820 .0363459
726.549 .0363283
727.278 .0363108
728.006 .0362933
728.734 .0362760
729.462 .0362587
730.190 .0362415
730.917 .0362242
731.644 .0362069
732.371 .0361896
733.098 .0361723
733.825 .0361550
734.551 .0361377
735.277 .0361205
736.003 .0361033
736.728 .0360862
737.454 .0360691
738.179 .0360521
738.904 .0360352
739.629 .0360183
740.353 .0360015
741.077 .0359848
741.801 .0359681
742.525 .0359513
743.249 .0359344
743.972 .0359173
744.695 .0359000
745.418 .0358824
746.141 .0358646
746.863 .0358465
747.585 .0358283
748.307 .0358097
749.029 .0357908
749.750 .0357715
750.472 .0357517
751.193 .0357313
751.913 .0357103
752.634 .0356886
753.354 .0356664
754.074 .0356437
754.794 .0356207
755.514 .0355974
756.233 .0355739
756.952 .0355503
757.671 .0355267
758.390 .0355031
759.108 .0354795
759.826 .0354562
760.544 .0354330
761.262 .0354103
761.979 .0353879
762.697 .0353661
763.414 .0353449
764.130 .0353242
764.847 .0353040
765.563 .0352845
766.279 .0352656
766.995 .0352473
767.710 .0352296
768.426 .0352127
769.141 .0351964
769.855 .0351808
770.570 .0351656
771.284 .0351508
771.998 .0351364
772.712 .0351222
773.426 .0351081
774.139 .0350941
774.852 .0350802
775.565 .0350663
776.277 .0350525
776.990 .0350387
777.702 .0350249
778.414 .0350111
779.125 .0349973
779.836 .0349836
780.547 .0349701
781.258 .0349568
781.969 .0349438
782.679 .0349313
783.389 .0349141
784.099 .0349026
784.808 .0348914
785.517 .0348805
786.226 .0348698
786.935 .0348594
787.643 .0348492
788.352 .0348393
789.060 .0348295
789.767 .0348200
790.475 .0348107
791.182 .0348015
791.889 .0347967
792.595 .0347871
793.301 .0347772
794.008 .0347669
794.713 .0347563
795.419 .0347450
796.124 .0347332
796.829 .0347206
797.534 .0347073
798.238 .0346933
798.942 .0346784
799.646 .0346628
800.350 .0346465
801.053 .0346295
801.756 .0346118
802.459 .0345935
803.162 .0345746
803.864 .0345551
804.566 .0345351
805.267 .0345145
805.969 .0344934
806.670 .0344719
807.371 .0344502
808.071 .0344283
808.772 .0344064
809.472 .0343845
810.171 .0343628
810.871 .0343412
811.570 .0343199
812.269 .0342987
812.967 .0342776
813.666 .0342566
814.364 .0342356
815.061 .0342146
815.759 .0341936
816.456 .0341725
817.153 .0341513
817.849 .0341301
818.545 .0341088
819.241 .0340875
819.937 .0340661
820.632 .0340446
821.327 .0340228
822.022 .0340009
822.717 .0339787
823.411 .0339563
824.105 .0339337
824.798 .0339108
825.491 .0338878
826.184 .0338647
826.877 .0338415
827.569 .0338182
828.261 .0337950
828.953 .0337718
829.645 .0337487
830.336 .0337259
831.027 .0337033
831.717 .0336812
832.407 .0336596
833.097 .0336388
833.787 .0336186
834.476 .0335991
835.165 .0335803
835.854 .0335622
836.542 .0335447
837.230 .0335279
837.918 .0335118
838.605 .0334964
839.292 .0334819
839.979 .0334683
840.665 .0334556
841.352 .0334437
842.037 .0334325
842.723 .0334220
843.408 .0334119
844.093 .0334022
844.777 .0333928
845.462 .0333835
846.145 .0333745
846.829 .0333655
847.512 .0333566
848.195 .0333477
848.878 .0333386
849.560 .0333292
850.242 .0333195
850.923 .0333093
851.605 .0332986
852.286 .0332874
852.966 .0332757
853.646 .0332636
854.326 .0332510
855.006 .0332379
855.685 .0332244
856.364 .0332103
857.043 .0331959
857.721 .0331810
858.399 .0331659
859.077 .0331506
859.754 .0331353
860.431 .0331201
861.107 .0331050
861.784 .0330901
862.459 .0330755
863.135 .0330610
863.810 .0330467
864.485 .0330326
865.160 .0330186
865.834 .0330047
866.508 .0329910
867.181 .0329773
867.854 .0329638
868.527 .0329504
869.199 .0329371
869.872 .0329239
870.543 .0329107
871.215 .0328974
871.886 .0328842
872.557 .0328709
873.227 .0328575
873.897 .0328440
874.567 .0328304
875.236 .0328165
875.905 .0328024
876.573 .0327879
877.242 .0327730
877.909 .0327577
878.577 .0327420
879.244 .0327259
879.911 .0327094
880.577 .0326926
881.243 .0326755
881.909 .0326582
882.575 .0326408
883.240 .0326231
883.904 .0326053
884.569 .0325874
885.232 .0325693
885.896 .0325511
886.559 .0325328
887.222 .0325145
887.885 .0324961
888.547 .0324779
889.208 .0324597
889.870 .0324417
890.531 .0324238
891.192 .0324060
891.852 .0323882
892.512 .0323703
893.171 .0323524
893.830 .0323343
894.489 .0323160
895.148 .0322976
895.806 .0322790
896.464 .0322602
897.121 .0322414
897.778 .0322224
898.434 .0322035
899.091 .0321749
899.747 .0321558
900.402 .0321366
901.057 .0321173
901.712 .0320979
902.366 .0320785
903.020 .0320590
903.674 .0320395
904.327 .0320200
904.980 .0320003
905.633 .0319806
906.285 .0319607
906.936 .0319406
907.588 .0319301
908.239 .0319098
908.889 .0318893
909.540 .0318686
910.190 .0318478
910.839 .0318269
911.488 .0318059
912.137 .0317850
912.785 .0317641
913.433 .0317433
914.081 .0317227
914.728 .0317022
915.375 .0316820
916.021 .0316620
916.668 .0316423
917.313 .0316230
917.959 .0316040
918.604 .0315853
919.248 .0315669
919.892 .0315488
920.536 .0315309
921.180 .0315131
921.823 .0314953
922.465 .0314776
923.108 .0314598
923.750 .0314419
924.391 .0314240
925.032 .0314060
925.673 .0313881
926.313 .0313702
926.953 .0313523
927.593 .0313344
928.232 .0313167
928.871 .0312989
929.510 .0312812
930.148 .0312635
930.786 .0312459
931.423 .0312283
932.060 .0312107
932.697 .0311931
933.333 .0311755
933.969 .0311578
934.604 .0311400
935.239 .0311221
935.874 .0311041
936.508 .0310860
937.142 .0310678
937.776 .0310495
938.409 .0310311
939.042 .0310127
939.674 .0309944
940.306 .0309761
940.938 .0309581
941.569 .0309402
942.200 .0309226
942.830 .0309053
943.460 .0308883
944.090 .0308717
944.720 .0308555
945.349 .0308399
945.977 .0308247
946.606 .0308100
947.233 .0307958
947.861 .0307820
948.488 .0307687
949.115 .0307558
949.741 .0307433
950.367 .0307310
950.993 .0307191
951.618 .0307075
952.243 .0306961
952.868 .0306849
953.492 .0306739
954.115 .0306632
954.739 .0306528
955.362 .0306427
955.984 .0306329
956.607 .0306235
957.229 .0306144
957.850 .0306056
958.471 .0305970
959.092 .0305887
959.713 .0305805
960.333 .0305724
960.952 .0305642
961.572 .0305559
962.191 .0305475
962.809 .0305390
963.428 .0305303
964.045 .0305214
964.663 .0305123
965.280 .0305031
965.897 .0304937
966.513 .0304839
967.129 .0304738
967.745 .0304632
968.361 .0304521
968.976 .0304404
969.590 .0304282
970.205 .0304155
970.818 .0304023
971.432 .0303889
972.045 .0303751
972.658 .0303612
973.271 .0303470
973.883 .0303326
974.495 .0303179
975.106 .0303028
975.717 .0302875
976.328 .0302718
976.938 .0302558
977.548 .0302397
978.158 .0302234
978.768 .0301988
979.377 .0301829
979.985 .0301671
980.594 .0301514
981.202 .0301358
981.809 .0301203
982.417 .0301048
983.024 .0300895
983.631 .0300742
984.237 .0300592
984.843 .0300446
985.449 .0300304
986.054 .0300166
986.659 .0300033
987.264 .0299976
987.868 .0299846
988.472 .0299718
989.076 .0299593
989.679 .0299468
990.282 .0299343
990.885 .0299219
991.487 .0299096
992.090 .0298974
992.691 .0298854
993.293 .0298735
993.894 .0298618
994.495 .0298502
995.095 .0298385
995.696 .0298267
996.296 .0298147
996.895 .0298024
997.494 .0297899
998.093 .0297771
998.692 .0297641
999.291 .0297508
999.889 .0297375
1000.487 .0297240
1001.084 .0297104
1001.681 .0296967
1002.278 .0296829
1002.875 .0296690
1003.471 .0296550
1004.067 .0296410
1004.663 .0296270
1005.258 .0296133
1005.854 .0295999
1006.449 .0295868
1007.043 .0295740
1007.638 .0295617
1008.232 .0295498
1008.826 .0295382
1009.419 .0295269
1010.012 .0295159
1010.605 .0295053
1011.198 .0294950
1011.791 .0294852
1012.383 .0294759
1012.975 .0294672
1013.566 .0294591
1014.158 .0294516
1014.749 .0294447
1015.340 .0294382
1015.931 .0294322
1016.521 .0294265
1017.111 .0294211
1017.701 .0294161
1018.291 .0294114
1018.880 .0294071
1019.470 .0294032
1020.059 .0293999
1020.647 .0293969
1021.236 .0293944
1021.824 .0293921
1022.412 .0293899
1023.000 .0293877
1023.588 .0293855
1024.175 .0293832
1024.762 .0293809
1025.349 .0293787
1025.936 .0293765
1026.523 .0293745
1027.109 .0293727
1027.695 .0293711
1028.281 .0293695
1028.867 .0293680
1029.452 .0293664
1030.038 .0293646
1030.623 .0293626
1031.208 .0293604
1031.792 .0293581
1032.377 .0293558
1032.961 .0293534
1033.546 .0293511
1034.130 .0293488
1034.714 .0293466
1035.297 .0293445
1035.881 .0293423
1036.464 .0293402
1037.047 .0293379
1037.630 .0293357
1038.213 .0293334
1038.796 .0293312
1039.378 .0293290
1039.961 .0293269
1040.543 .0293249
1041.125 .0293230
1041.707 .0293213
1042.289 .0293196
1042.871 .0293181
1043.452 .0293165
1044.034 .0293148
1044.615 .0293130
1045.196 .0293112
1045.777 .0293093
1046.358 .0293075
1046.939 .0293058
1047.520 .0293042
1048.101 .0293030
1048.681 .0293021
1049.262 .0293018
1049.842 .0293019
1050.422 .0293026
1051.002 .0293037
1051.582 .0293054
1052.162 .0293074
1052.742 .0293099
1053.322 .0293126
1053.902 .0293157
1054.482 .0293190
1055.061 .0293225
1055.641 .0293262
1056.220 .0293300
1056.800 .0293338
1057.379 .0293376
1057.958 .0293411
1058.538 .0293443
1059.117 .0293469
1059.696 .0293491
1060.275 .0293506
1060.854 .0293515
1061.433 .0293518
1062.012 .0293515
1062.592 .0293507
1063.171 .0293495
1063.750 .0293478
1064.329 .0293457
1064.908 .0293431
1065.487 .0293401
1066.066 .0293366
1066.645 .0293328
1067.224 .0293287
1067.803 .0293243
1068.382 .0293197
1068.961 .0293148
1069.540 .0293097
1070.119 .0293044
1070.698 .0292989
1071.278 .0292932
1071.857 .0292873
1072.436 .0292813
1073.016 .0292752
1073.595 .0292690
1074.175 .0292628
1074.754 .0292568
1075.334 .0292510
1075.913 .0292454
1076.493 .0292399
1077.073 .0292347
1077.653 .0292297
1078.233 .0292249
1078.813 .0292203
1079.393 .0292161
1079.974 .0292124
1080.554 .0292092
1081.135 .0292066
1081.716 .0292047
1082.296 .0292033
1082.877 .0292024
1083.458 .0292018
1084.040 .0292011
1084.621 .0292003
1085.202 .0291990
1085.784 .0291973
1086.366 .0291952
1086.948 .0291927
1087.530 .0291899
1088.112 .0291868
1088.695 .0291836
1089.277 .0291800
1089.860 .0291760
1090.443 .0291716
1091.026 .0291665
1091.610 .0291607
1092.193 .0291540
1092.777 .0291468
1093.361 .0291391
1093.946 .0291313
1094.530 .0291235
1095.115 .0291159
1095.700 .0291087
1096.285 .0291017
1096.871 .0290950
1097.456 .0290883
1098.042 .0290817
1098.628 .0290749
1099.215 .0290678
1099.802 .0290605
1100.389 .0290529
1100.976 .0290455
1101.564 .0290384
1102.152 .0290319
1102.740 .0290261
1103.329 .0290213
1103.917 .0290175
1104.507 .0290149
1105.096 .0290136
1105.686 .0290135
1106.276 .0290148
1106.867 .0290178
1107.457 .0290225
1108.049 .0290292
1108.640 .0290381
1109.232 .0290495
1109.825 .0290633
1110.417 .0290793
1111.010 .0290976
1111.604 .0291177
1112.198 .0291394
1112.792 .0291622
1113.387 .0291859
1113.982 .0292099
1114.577 .0292340
1115.173 .0292582
1115.769 .0292824
1116.366 .0293067
1116.963 .0293311
1117.561 .0293558
1118.159 .0293809
1118.758 .0294065
1119.357 .0294327
1119.957 .0294596
1120.557 .0294871
1121.157 .0295154
1121.758 .0295441
1122.360 .0295732
1122.962 .0296026
1123.564 .0296321
1124.167 .0296475
1124.771 .0296767
1125.375 .0297057
1125.980 .0297346
1126.585 .0297638
1127.191 .0297933
1127.797 .0298238
1128.404 .0298553
1129.012 .0298879
1129.620 .0299219
1130.229 .0299572
1130.838 .0299936
1131.448 .0300317
1132.058 .0300718
1132.669 .0301305
1133.281 .0301757
1133.894 .0302228
1134.507 .0302782
1135.120 .0303434
1135.735 .0304014
1136.350 .0304366
1136.965 .0304440
1137.582 .0305180
1138.199 .0305858
1138.816 .0306449
1139.435 .0307055
1140.054 .0307740
1140.674 .0308438
1141.294 .0309002
1141.916 .0309583
1142.538 .0311978
1143.160 .0314794
1143.784 .0313068
1144.408 .0307206
1145.033 .0309571
