Measurement Sequence started on: 14-45-04-498
Integration time: 36
Scans to Average: 2 
>>>>>Begin Spectral Data<<<<<
433.946 .0589731
434.870 .0597277
435.793 .0529493
436.715 .0532960
437.635 .0497159
438.555 .0507454
439.473 .0497555
440.389 .0489443
441.305 .0484420
442.219 .0479978
443.132 .0491452
444.044 .0484884
444.954 .0481870
445.863 .0478638
446.771 .0477244
447.678 .0475260
448.584 .0473747
449.488 .0472610
450.391 .0471684
451.293 .0470937
452.194 .0470295
453.094 .0469720
453.992 .0469176
454.890 .0468629
455.786 .0468029
456.681 .0467339
457.575 .0466534
458.468 .0465604
459.360 .0464564
460.250 .0463431
461.140 .0462229
462.028 .0460989
462.915 .0459741
463.801 .0458505
464.687 .0457291
465.571 .0456101
466.454 .0454937
467.335 .0453794
468.216 .0452670
469.096 .0451561
469.975 .0450470
470.853 .0449404
471.729 .0448369
472.605 .0447373
473.479 .0446428
474.353 .0445538
475.226 .0444705
476.097 .0443926
476.968 .0443195
477.838 .0442499
478.706 .0441827
479.574 .0441169
480.441 .0440521
481.306 .0439882
482.171 .0439255
483.035 .0438649
483.898 .0438078
484.760 .0437548
485.621 .0437068
486.481 .0436642
487.340 .0436274
488.198 .0435956
489.055 .0435683
489.912 .0435448
490.767 .0435243
491.622 .0435024
492.476 .0434846
493.329 .0434671
494.180 .0434498
495.032 .0434321
495.882 .0434138
496.731 .0433945
497.580 .0433740
498.427 .0433518
499.274 .0433275
500.120 .0433067
500.965 .0432792
501.809 .0432495
502.653 .0432175
503.495 .0431837
504.337 .0431483
505.178 .0431120
506.018 .0430755
506.858 .0430392
507.696 .0430034
508.534 .0429680
509.371 .0429338
510.208 .0429009
511.043 .0428697
511.878 .0428406
512.712 .0428139
513.545 .0427899
514.377 .0427689
515.209 .0427503
516.040 .0427336
516.870 .0427184
517.699 .0427036
518.528 .0426881
519.356 .0426716
520.183 .0426536
521.010 .0426335
521.836 .0426114
522.661 .0425872
523.485 .0425600
524.309 .0425305
525.132 .0424985
525.954 .0424643
526.776 .0424280
527.597 .0423897
528.417 .0423489
529.237 .0423052
530.056 .0422578
530.874 .0422058
531.692 .0421485
532.508 .0420865
533.325 .0420198
534.140 .0419495
534.955 .0418771
535.770 .0418041
536.583 .0417314
537.397 .0416606
538.209 .0415915
539.021 .0415243
539.832 .0414585
540.643 .0413940
541.453 .0413303
542.262 .0412675
543.071 .0412056
543.879 .0411444
544.687 .0410843
545.494 .0410260
546.300 .0409692
547.106 .0409145
547.911 .0408622
548.716 .0408119
549.520 .0407629
550.323 .0407147
551.126 .0406663
551.929 .0406171
552.731 .0405664
553.532 .0405137
554.332 .0404586
555.133 .0404011
555.932 .0403409
556.731 .0402784
557.530 .0402137
558.328 .0401469
559.125 .0400777
559.922 .0400063
560.719 .0399326
561.515 .0398566
562.310 .0397790
563.105 .0397000
563.899 .0396202
564.693 .0395402
565.487 .0394604
566.280 .0393814
567.072 .0393038
567.864 .0392281
568.655 .0391543
569.446 .0390829
570.236 .0390139
571.026 .0389473
571.816 .0388836
572.605 .0388227
573.393 .0387649
574.181 .0387103
574.969 .0386589
575.756 .0386107
576.543 .0385660
577.329 .0385247
578.115 .0384867
578.900 .0384521
579.685 .0384204
580.469 .0383917
581.253 .0383657
582.036 .0383425
582.820 .0383217
583.602 .0383032
584.384 .0382865
585.166 .0382713
585.947 .0382569
586.728 .0382429
587.509 .0382287
588.289 .0382138
589.069 .0381981
589.848 .0381813
590.627 .0381631
591.405 .0381437
592.183 .0381230
592.961 .0381006
593.738 .0380763
594.515 .0380501
595.291 .0380217
596.067 .0379913
596.843 .0379592
597.618 .0379256
598.393 .0378724
599.167 .0378377
599.941 .0378028
600.715 .0377681
601.488 .0377338
602.261 .0377001
603.034 .0376671
603.806 .0376351
604.578 .0376040
605.349 .0375740
606.121 .0375453
606.891 .0375347
607.662 .0375080
608.432 .0374827
609.201 .0374587
609.971 .0374359
610.740 .0374146
611.508 .0373946
612.277 .0373760
613.045 .0373586
613.812 .0373424
614.579 .0373271
615.346 .0373126
616.113 .0372985
616.879 .0372846
617.645 .0372705
618.411 .0372560
619.176 .0372412
619.941 .0372258
620.705 .0372100
621.470 .0371936
622.233 .0371766
622.997 .0371591
623.760 .0371410
624.523 .0371223
625.286 .0371030
626.048 .0370830
626.810 .0370625
627.572 .0370415
628.333 .0370199
629.095 .0369978
629.855 .0369754
630.616 .0369527
631.376 .0369296
632.136 .0369062
632.895 .0368827
633.655 .0368592
634.414 .0368357
635.172 .0368123
635.931 .0367890
636.689 .0367658
637.447 .0367426
638.204 .0367194
638.962 .0366960
639.718 .0366724
640.475 .0366485
641.231 .0366243
641.988 .0365998
642.743 .0365750
643.499 .0365500
644.254 .0365249
645.009 .0364995
645.764 .0364741
646.518 .0364486
647.272 .0364231
648.026 .0363975
648.780 .0363721
649.533 .0363468
650.286 .0363217
651.039 .0362969
651.792 .0362723
652.544 .0362481
653.296 .0362243
654.048 .0362009
654.799 .0361781
655.550 .0361559
656.301 .0361343
657.052 .0361134
657.802 .0360933
658.552 .0360738
659.302 .0360550
660.052 .0360366
660.801 .0360186
661.550 .0360008
662.299 .0359830
663.048 .0359653
663.796 .0359474
664.544 .0359296
665.292 .0359116
666.040 .0358936
666.787 .0358755
667.534 .0358573
668.281 .0358389
669.028 .0358203
669.774 .0358014
670.521 .0357823
671.266 .0357629
672.012 .0357432
672.758 .0357233
673.503 .0357032
674.248 .0356829
674.992 .0356624
675.737 .0356417
676.481 .0356209
677.225 .0355999
677.969 .0355789
678.712 .0355581
679.455 .0355375
680.199 .0355173
680.941 .0354976
681.684 .0354783
682.426 .0354595
683.168 .0354410
683.910 .0354228
684.652 .0354047
685.393 .0353869
686.134 .0353692
686.875 .0353518
687.616 .0353347
688.356 .0353181
689.097 .0353020
689.837 .0352863
690.576 .0352711
691.316 .0352562
692.055 .0352416
692.794 .0352271
693.533 .0352127
694.272 .0351983
695.010 .0351839
695.748 .0351695
696.486 .0351549
697.224 .0351402
697.962 .0351252
698.699 .0351099
699.436 .0350943
700.173 .0350783
700.909 .0350620
701.646 .0350455
702.382 .0350288
703.118 .0350117
703.853 .0349945
704.589 .0349769
705.324 .0349590
706.059 .0349408
706.794 .0349223
707.529 .0349036
708.263 .0348848
708.997 .0348660
709.731 .0348473
710.465 .0348290
711.198 .0348111
711.931 .0347935
712.664 .0347762
713.397 .0347591
714.130 .0347421
714.862 .0347253
715.594 .0347086
716.326 .0346920
717.058 .0346754
717.789 .0346588
718.520 .0346424
719.251 .0346260
719.982 .0346098
720.713 .0345937
721.443 .0345777
722.173 .0345619
722.903 .0345461
723.633 .0345303
724.362 .0345146
725.091 .0344989
725.820 .0344832
726.549 .0344673
727.278 .0344513
728.006 .0344352
728.734 .0344191
729.462 .0344030
730.190 .0343869
730.917 .0343709
731.644 .0343551
732.371 .0343393
733.098 .0343237
733.825 .0343083
734.551 .0342930
735.277 .0342779
736.003 .0342629
736.728 .0342481
737.454 .0342335
738.179 .0342190
738.904 .0342046
739.629 .0341902
740.353 .0341759
741.077 .0341616
741.801 .0341473
742.525 .0341329
743.249 .0341184
743.972 .0341039
744.695 .0340894
745.418 .0340746
746.141 .0340598
746.863 .0340449
747.585 .0340297
748.307 .0340145
749.029 .0339992
749.750 .0339837
750.472 .0339682
751.193 .0339528
751.913 .0339373
752.634 .0339219
753.354 .0339066
754.074 .0338913
754.794 .0338760
755.514 .0338607
756.233 .0338453
756.952 .0338299
757.671 .0338145
758.390 .0337992
759.108 .0337841
759.826 .0337692
760.544 .0337546
761.262 .0337404
761.979 .0337266
762.697 .0337131
763.414 .0336999
764.130 .0336870
764.847 .0336743
765.563 .0336620
766.279 .0336499
766.995 .0336382
767.710 .0336267
768.426 .0336154
769.141 .0336043
769.855 .0335932
770.570 .0335821
771.284 .0335709
771.998 .0335597
772.712 .0335483
773.426 .0335369
774.139 .0335254
774.852 .0335140
775.565 .0335025
776.277 .0334911
776.990 .0334796
777.702 .0334680
778.414 .0334564
779.125 .0334447
779.836 .0334330
780.547 .0334214
781.258 .0334098
781.969 .0333983
782.679 .0333869
783.389 .0333705
784.099 .0333595
784.808 .0333484
785.517 .0333374
786.226 .0333264
786.935 .0333155
787.643 .0333048
788.352 .0332943
789.060 .0332841
789.767 .0332740
790.475 .0332641
791.182 .0332543
791.889 .0332492
792.595 .0332392
793.301 .0332291
794.008 .0332190
794.713 .0332089
795.419 .0331987
796.124 .0331886
796.829 .0331785
797.534 .0331683
798.238 .0331578
798.942 .0331471
799.646 .0331359
800.350 .0331244
801.053 .0331124
801.756 .0331001
802.459 .0330876
803.162 .0330748
803.864 .0330620
804.566 .0330490
805.267 .0330359
805.969 .0330226
806.670 .0330093
807.371 .0329958
808.071 .0329822
808.772 .0329685
809.472 .0329547
810.171 .0329409
810.871 .0329270
811.570 .0329129
812.269 .0328986
812.967 .0328840
813.666 .0328691
814.364 .0328539
815.061 .0328385
815.759 .0328229
816.456 .0328073
817.153 .0327915
817.849 .0327757
818.545 .0327597
819.241 .0327436
819.937 .0327271
820.632 .0327104
821.327 .0326934
822.022 .0326762
822.717 .0326588
823.411 .0326413
824.105 .0326237
824.798 .0326061
825.491 .0325886
826.184 .0325710
826.877 .0325534
827.569 .0325357
828.261 .0325180
828.953 .0325004
829.645 .0324830
830.336 .0324659
831.027 .0324491
831.717 .0324326
832.407 .0324165
833.097 .0324009
833.787 .0323855
834.476 .0323705
835.165 .0323559
835.854 .0323417
836.542 .0323280
837.230 .0323148
837.918 .0323021
838.605 .0322900
839.292 .0322783
839.979 .0322670
840.665 .0322560
841.352 .0322453
842.037 .0322348
842.723 .0322245
843.408 .0322144
844.093 .0322045
844.777 .0321948
845.462 .0321853
846.145 .0321757
846.829 .0321661
847.512 .0321563
848.195 .0321462
848.878 .0321358
849.560 .0321251
850.242 .0321141
850.923 .0321028
851.605 .0320912
852.286 .0320794
852.966 .0320674
853.646 .0320549
854.326 .0320421
855.006 .0320289
855.685 .0320153
856.364 .0320012
857.043 .0319867
857.721 .0319720
858.399 .0319570
859.077 .0319419
859.754 .0319267
860.431 .0319114
861.107 .0318961
861.784 .0318806
862.459 .0318652
863.135 .0318498
863.810 .0318345
864.485 .0318192
865.160 .0318041
865.834 .0317892
866.508 .0317745
867.181 .0317600
867.854 .0317457
868.527 .0317317
869.199 .0317179
869.872 .0317043
870.543 .0316910
871.215 .0316779
871.886 .0316650
872.557 .0316523
873.227 .0316398
873.897 .0316275
874.567 .0316153
875.236 .0316031
875.905 .0315909
876.573 .0315786
877.242 .0315661
877.909 .0315534
878.577 .0315405
879.244 .0315275
879.911 .0315144
880.577 .0315012
881.243 .0314880
881.909 .0314749
882.575 .0314617
883.240 .0314485
883.904 .0314352
884.569 .0314219
885.232 .0314085
885.896 .0313950
886.559 .0313815
887.222 .0313680
887.885 .0313546
888.547 .0313414
889.208 .0313284
889.870 .0313157
890.531 .0313033
891.192 .0312910
891.852 .0312790
892.512 .0312673
893.171 .0312557
893.830 .0312444
894.489 .0312333
895.148 .0312224
895.806 .0312116
896.464 .0312008
897.121 .0311901
897.778 .0311792
898.434 .0311683
899.091 .0311511
899.747 .0311397
900.402 .0311283
901.057 .0311168
901.712 .0311053
902.366 .0310937
903.020 .0310820
903.674 .0310703
904.327 .0310585
904.980 .0310465
905.633 .0310345
906.285 .0310225
906.936 .0310105
907.588 .0310047
908.239 .0309928
908.889 .0309808
909.540 .0309687
910.190 .0309564
910.839 .0309439
911.488 .0309310
912.137 .0309179
912.785 .0309044
913.433 .0308907
914.081 .0308766
914.728 .0308622
915.375 .0308476
916.021 .0308325
916.668 .0308170
917.313 .0308010
917.959 .0307845
918.604 .0307674
919.248 .0307498
919.892 .0307316
920.536 .0307129
921.180 .0306937
921.823 .0306738
922.465 .0306534
923.108 .0306324
923.750 .0306106
924.391 .0305882
925.032 .0305650
925.673 .0305412
926.313 .0305168
926.953 .0304919
927.593 .0304666
928.232 .0304409
928.871 .0304151
929.510 .0303891
930.148 .0303630
930.786 .0303369
931.423 .0303108
932.060 .0302848
932.697 .0302588
933.333 .0302330
933.969 .0302073
934.604 .0301818
935.239 .0301566
935.874 .0301316
936.508 .0301069
937.142 .0300824
937.776 .0300583
938.409 .0300345
939.042 .0300111
939.674 .0299879
940.306 .0299651
940.938 .0299426
941.569 .0299204
942.200 .0298985
942.830 .0298770
943.460 .0298557
944.090 .0298348
944.720 .0298143
945.349 .0297941
945.977 .0297742
946.606 .0297547
947.233 .0297355
947.861 .0297165
948.488 .0296977
949.115 .0296792
949.741 .0296609
950.367 .0296430
950.993 .0296254
951.618 .0296082
952.243 .0295913
952.868 .0295746
953.492 .0295583
954.115 .0295422
954.739 .0295263
955.362 .0295106
955.984 .0294953
956.607 .0294801
957.229 .0294653
957.850 .0294509
958.471 .0294367
959.092 .0294229
959.713 .0294095
960.333 .0293964
960.952 .0293836
961.572 .0293712
962.191 .0293592
962.809 .0293477
963.428 .0293369
964.045 .0293267
964.663 .0293171
965.280 .0293084
965.897 .0293003
966.513 .0292928
967.129 .0292859
967.745 .0292796
968.361 .0292737
968.976 .0292683
969.590 .0292633
970.205 .0292589
970.818 .0292549
971.432 .0292513
972.045 .0292481
972.658 .0292451
973.271 .0292423
973.883 .0292396
974.495 .0292369
975.106 .0292342
975.717 .0292317
976.328 .0292293
976.938 .0292271
977.548 .0292251
978.158 .0292234
978.768 .0292205
979.377 .0292190
979.985 .0292174
980.594 .0292158
981.202 .0292140
981.809 .0292122
982.417 .0292103
983.024 .0292085
983.631 .0292068
984.237 .0292053
984.843 .0292038
985.449 .0292024
986.054 .0292010
986.659 .0291995
987.264 .0291991
987.868 .0291973
988.472 .0291955
989.076 .0291936
989.679 .0291917
990.282 .0291900
990.885 .0291883
991.487 .0291869
992.090 .0291855
992.691 .0291841
993.293 .0291827
993.894 .0291810
994.495 .0291791
995.095 .0291767
995.696 .0291740
996.296 .0291710
996.895 .0291677
997.494 .0291641
998.093 .0291602
998.692 .0291560
999.291 .0291513
999.889 .0291462
1000.487 .0291405
1001.084 .0291342
1001.681 .0291274
1002.278 .0291201
1002.875 .0291123
1003.471 .0291042
1004.067 .0290959
1004.663 .0290874
1005.258 .0290789
1005.854 .0290703
1006.449 .0290616
1007.043 .0290528
1007.638 .0290438
1008.232 .0290348
1008.826 .0290256
1009.419 .0290162
1010.012 .0290069
1010.605 .0289975
1011.198 .0289880
1011.791 .0289787
1012.383 .0289693
1012.975 .0289600
1013.566 .0289507
1014.158 .0289415
1014.749 .0289323
1015.340 .0289232
1015.931 .0289142
1016.521 .0289051
1017.111 .0288962
1017.701 .0288872
1018.291 .0288784
1018.880 .0288698
1019.470 .0288613
1020.059 .0288530
1020.647 .0288449
1021.236 .0288371
1021.824 .0288293
1022.412 .0288217
1023.000 .0288140
1023.588 .0288064
1024.175 .0287986
1024.762 .0287908
1025.349 .0287829
1025.936 .0287750
1026.523 .0287672
1027.109 .0287596
1027.695 .0287520
1028.281 .0287446
1028.867 .0287374
1029.452 .0287303
1030.038 .0287233
1030.623 .0287165
1031.208 .0287098
1031.792 .0287032
1032.377 .0286968
1032.961 .0286907
1033.546 .0286849
1034.130 .0286793
1034.714 .0286738
1035.297 .0286686
1035.881 .0286633
1036.464 .0286582
1037.047 .0286530
1037.630 .0286479
1038.213 .0286430
1038.796 .0286381
1039.378 .0286334
1039.961 .0286288
1040.543 .0286243
1041.125 .0286199
1041.707 .0286156
1042.289 .0286111
1042.871 .0286064
1043.452 .0286016
1044.034 .0285965
1044.615 .0285911
1045.196 .0285855
1045.777 .0285797
1046.358 .0285736
1046.939 .0285672
1047.520 .0285605
1048.101 .0285533
1048.681 .0285458
1049.262 .0285378
1049.842 .0285295
1050.422 .0285209
1051.002 .0285120
1051.582 .0285030
1052.162 .0284941
1052.742 .0284851
1053.322 .0284761
1053.902 .0284670
1054.482 .0284578
1055.061 .0284484
1055.641 .0284388
1056.220 .0284291
1056.800 .0284192
1057.379 .0284092
1057.958 .0283991
1058.538 .0283888
1059.117 .0283782
1059.696 .0283674
1060.275 .0283565
1060.854 .0283454
1061.433 .0283343
1062.012 .0283232
1062.592 .0283125
1063.171 .0283023
1063.750 .0282926
1064.329 .0282836
1064.908 .0282751
1065.487 .0282670
1066.066 .0282592
1066.645 .0282516
1067.224 .0282442
1067.803 .0282368
1068.382 .0282295
1068.961 .0282224
1069.540 .0282154
1070.119 .0282086
1070.698 .0282020
1071.278 .0281956
1071.857 .0281891
1072.436 .0281826
1073.016 .0281761
1073.595 .0281694
1074.175 .0281630
1074.754 .0281570
1075.334 .0281518
1075.913 .0281475
1076.493 .0281444
1077.073 .0281426
1077.653 .0281420
1078.233 .0281426
1078.813 .0281442
1079.393 .0281466
1079.974 .0281498
1080.554 .0281535
1081.135 .0281579
1081.716 .0281632
1082.296 .0281693
1082.877 .0281764
1083.458 .0281846
1084.040 .0281938
1084.621 .0282038
1085.202 .0282146
1085.784 .0282261
1086.366 .0282383
1086.948 .0282510
1087.530 .0282642
1088.112 .0282780
1088.695 .0282924
1089.277 .0283073
1089.860 .0283226
1090.443 .0283382
1091.026 .0283538
1091.610 .0283690
1092.193 .0283835
1092.777 .0283972
1093.361 .0284099
1093.946 .0284214
1094.530 .0284318
1095.115 .0284408
1095.700 .0284485
1096.285 .0284549
1096.871 .0284601
1097.456 .0284642
1098.042 .0284671
1098.628 .0284691
1099.215 .0284703
1099.802 .0284707
1100.389 .0284706
1100.976 .0284701
1101.564 .0284694
1102.152 .0284685
1102.740 .0284674
1103.329 .0284660
1103.917 .0284645
1104.507 .0284629
1105.096 .0284613
1105.686 .0284600
1106.276 .0284591
1106.867 .0284589
1107.457 .0284596
1108.049 .0284615
1108.640 .0284647
1109.232 .0284693
1109.825 .0284753
1110.417 .0284829
1111.010 .0284920
1111.604 .0285029
1112.198 .0285157
1112.792 .0285308
1113.387 .0285481
1113.982 .0285678
1114.577 .0285897
1115.173 .0286136
1115.769 .0286392
1116.366 .0286658
1116.963 .0286931
1117.561 .0287206
1118.159 .0287481
1118.758 .0287753
1119.357 .0288022
1119.957 .0288291
1120.557 .0288559
1121.157 .0288829
1121.758 .0289100
1122.360 .0289373
1122.962 .0289648
1123.564 .0289926
1124.167 .0290085
1124.771 .0290365
1125.375 .0290648
1125.980 .0290933
1126.585 .0291224
1127.191 .0291523
1127.797 .0291829
1128.404 .0292143
1129.012 .0292464
1129.620 .0292790
1130.229 .0293122
1130.838 .0293456
1131.448 .0293791
1132.058 .0294123
1132.669 .0294570
1133.281 .0294895
1133.894 .0295231
1134.507 .0295527
1135.120 .0295790
1135.735 .0296122
1136.350 .0296542
1136.965 .0296888
1137.582 .0297446
1138.199 .0298065
1138.816 .0298642
1139.435 .0299177
1140.054 .0299613
1140.674 .0299973
1141.294 .0300316
1141.916 .0300838
1142.538 .0299870
1143.160 .0299081
1143.784 .0300956
1144.408 .0303430
1145.033 .0309305
