Measurement Sequence started on: 14-45-04-498
Integration time: 36
Scans to Average: 2 
>>>>>Begin Spectral Data<<<<<
433.946 .0387039
434.870 .0421405
435.793 .0432114
436.715 .0407364
437.635 .0395008
438.555 .0399856
439.473 .0397619
440.389 .0394698
441.305 .0392062
442.219 .0390411
443.132 .0392773
444.044 .0390415
444.954 .0387430
445.863 .0385681
446.771 .0384519
447.678 .0383049
448.584 .0381647
449.488 .0380354
450.391 .0379162
451.293 .0378022
452.194 .0376923
453.094 .0375864
453.992 .0374851
454.890 .0373875
455.786 .0372929
456.681 .0372003
457.575 .0371087
458.468 .0370185
459.360 .0369296
460.250 .0368422
461.140 .0367568
462.028 .0366736
462.915 .0365931
463.801 .0365151
464.687 .0364394
465.571 .0363655
466.454 .0362933
467.335 .0362224
468.216 .0361522
469.096 .0360826
469.975 .0360136
470.853 .0359450
471.729 .0358773
472.605 .0358109
473.479 .0357464
474.353 .0356847
475.226 .0356256
476.097 .0355692
476.968 .0355156
477.838 .0354638
478.706 .0354130
479.574 .0353624
480.441 .0353112
481.306 .0352585
482.171 .0352042
483.035 .0351480
483.898 .0350899
484.760 .0350302
485.621 .0349687
486.481 .0349054
487.340 .0348403
488.198 .0347731
489.055 .0347033
489.912 .0346314
490.767 .0345575
491.622 .0344436
492.476 .0343693
493.329 .0342954
494.180 .0342227
495.032 .0341519
495.882 .0340836
496.731 .0340180
497.580 .0339558
498.427 .0338971
499.274 .0338424
500.120 .0338253
500.965 .0337777
501.809 .0337348
502.653 .0336967
503.495 .0336632
504.337 .0336342
505.178 .0336093
506.018 .0335882
506.858 .0335702
507.696 .0335547
508.534 .0335412
509.371 .0335292
510.208 .0335181
511.043 .0335076
511.878 .0334972
512.712 .0334867
513.545 .0334754
514.377 .0334635
515.209 .0334506
516.040 .0334373
516.870 .0334229
517.699 .0334073
518.528 .0333906
519.356 .0333731
520.183 .0333550
521.010 .0333367
521.836 .0333187
522.661 .0333011
523.485 .0332839
524.309 .0332671
525.132 .0332502
525.954 .0332329
526.776 .0332149
527.597 .0331960
528.417 .0331762
529.237 .0331564
530.056 .0331367
530.874 .0331180
531.692 .0331005
532.508 .0330839
533.325 .0330675
534.140 .0330506
534.955 .0330328
535.770 .0330137
536.583 .0329931
537.397 .0329708
538.209 .0329467
539.021 .0329218
539.832 .0328961
540.643 .0328705
541.453 .0328445
542.262 .0328183
543.071 .0327917
543.879 .0327644
544.687 .0327363
545.494 .0327075
546.300 .0326777
547.106 .0326472
547.911 .0326157
548.716 .0325835
549.520 .0325507
550.323 .0325179
551.126 .0324858
551.929 .0324546
552.731 .0324243
553.532 .0323947
554.332 .0323661
555.133 .0323388
555.932 .0323123
556.731 .0322864
557.530 .0322611
558.328 .0322368
559.125 .0322136
559.922 .0321915
560.719 .0321707
561.515 .0321514
562.310 .0321333
563.105 .0321159
563.899 .0320984
564.693 .0320811
565.487 .0320637
566.280 .0320460
567.072 .0320278
567.864 .0320090
568.655 .0319889
569.446 .0319677
570.236 .0319447
571.026 .0319197
571.816 .0318921
572.605 .0318623
573.393 .0318302
574.181 .0317961
574.969 .0317605
575.756 .0317238
576.543 .0316868
577.329 .0316501
578.115 .0316136
578.900 .0315778
579.685 .0315429
580.469 .0315091
581.253 .0314764
582.036 .0314449
582.820 .0314148
583.602 .0313863
584.384 .0313596
585.166 .0313350
585.947 .0313126
586.728 .0312925
587.509 .0312748
588.289 .0312594
589.069 .0312460
589.848 .0312343
590.627 .0312241
591.405 .0312152
592.183 .0312075
592.961 .0312006
593.738 .0311945
594.515 .0311892
595.291 .0311846
596.067 .0311807
596.843 .0311772
597.618 .0311741
598.393 .0311697
599.167 .0311666
599.941 .0311634
600.715 .0311598
601.488 .0311559
602.261 .0311517
603.034 .0311471
603.806 .0311423
604.578 .0311371
605.349 .0311315
606.121 .0311255
606.891 .0311211
607.662 .0311146
608.432 .0311078
609.201 .0311006
609.971 .0310932
610.740 .0310858
611.508 .0310784
612.277 .0310714
613.045 .0310647
613.812 .0310584
614.579 .0310526
615.346 .0310472
616.113 .0310422
616.879 .0310375
617.645 .0310331
618.411 .0310288
619.176 .0310247
619.941 .0310206
620.705 .0310165
621.470 .0310122
622.233 .0310077
622.997 .0310029
623.760 .0309976
624.523 .0309917
625.286 .0309852
626.048 .0309779
626.810 .0309698
627.572 .0309607
628.333 .0309508
629.095 .0309400
629.855 .0309284
630.616 .0309159
631.376 .0309026
632.136 .0308886
632.895 .0308740
633.655 .0308587
634.414 .0308430
635.172 .0308269
635.931 .0308106
636.689 .0307942
637.447 .0307779
638.204 .0307617
638.962 .0307458
639.718 .0307302
640.475 .0307151
641.231 .0307004
641.988 .0306862
642.743 .0306725
643.499 .0306594
644.254 .0306467
645.009 .0306346
645.764 .0306230
646.518 .0306119
647.272 .0306012
648.026 .0305907
648.780 .0305806
649.533 .0305706
650.286 .0305608
651.039 .0305512
651.792 .0305416
652.544 .0305322
653.296 .0305228
654.048 .0305134
654.799 .0305041
655.550 .0304949
656.301 .0304856
657.052 .0304764
657.802 .0304670
658.552 .0304577
659.302 .0304485
660.052 .0304394
660.801 .0304304
661.550 .0304217
662.299 .0304133
663.048 .0304050
663.796 .0303970
664.544 .0303890
665.292 .0303811
666.040 .0303731
666.787 .0303650
667.534 .0303567
668.281 .0303482
669.028 .0303396
669.774 .0303310
670.521 .0303225
671.266 .0303142
672.012 .0303060
672.758 .0302981
673.503 .0302904
674.248 .0302829
674.992 .0302756
675.737 .0302683
676.481 .0302609
677.225 .0302535
677.969 .0302459
678.712 .0302381
679.455 .0302302
680.199 .0302222
680.941 .0302142
681.684 .0302062
682.426 .0301982
683.168 .0301901
683.910 .0301820
684.652 .0301738
685.393 .0301653
686.134 .0301565
686.875 .0301473
687.616 .0301376
688.356 .0301275
689.097 .0301170
689.837 .0301061
690.576 .0300951
691.316 .0300840
692.055 .0300728
692.794 .0300619
693.533 .0300511
694.272 .0300405
695.010 .0300302
695.748 .0300201
696.486 .0300102
697.224 .0300005
697.962 .0299909
698.699 .0299816
699.436 .0299724
700.173 .0299635
700.909 .0299548
701.646 .0299465
702.382 .0299387
703.118 .0299312
703.853 .0299242
704.589 .0299175
705.324 .0299110
706.059 .0299046
706.794 .0298981
707.529 .0298914
708.263 .0298845
708.997 .0298773
709.731 .0298698
710.465 .0298619
711.198 .0298537
711.931 .0298451
712.664 .0298362
713.397 .0298269
714.130 .0298171
714.862 .0298068
715.594 .0297960
716.326 .0297847
717.058 .0297730
717.789 .0297608
718.520 .0297484
719.251 .0297358
719.982 .0297230
720.713 .0297100
721.443 .0296969
722.173 .0296837
722.903 .0296704
723.633 .0296570
724.362 .0296434
725.091 .0296297
725.820 .0296160
726.549 .0296021
727.278 .0295883
728.006 .0295744
728.734 .0295606
729.462 .0295468
730.190 .0295332
730.917 .0295196
731.644 .0295062
732.371 .0294929
733.098 .0294798
733.825 .0294669
734.551 .0294543
735.277 .0294419
736.003 .0294297
736.728 .0294179
737.454 .0294065
738.179 .0293955
738.904 .0293849
739.629 .0293750
740.353 .0293656
741.077 .0293568
741.801 .0293486
742.525 .0293408
743.249 .0293334
743.972 .0293263
744.695 .0293193
745.418 .0293124
746.141 .0293056
746.863 .0292988
747.585 .0292920
748.307 .0292853
749.029 .0292787
749.750 .0292721
750.472 .0292655
751.193 .0292589
751.913 .0292520
752.634 .0292448
753.354 .0292371
754.074 .0292290
754.794 .0292203
755.514 .0292110
756.233 .0292013
756.952 .0291910
757.671 .0291804
758.390 .0291696
759.108 .0291587
759.826 .0291477
760.544 .0291368
761.262 .0291259
761.979 .0291151
762.697 .0291044
763.414 .0290937
764.130 .0290830
764.847 .0290724
765.563 .0290618
766.279 .0290513
766.995 .0290409
767.710 .0290305
768.426 .0290202
769.141 .0290101
769.855 .0290000
770.570 .0289900
771.284 .0289800
771.998 .0289700
772.712 .0289599
773.426 .0289496
774.139 .0289392
774.852 .0289285
775.565 .0289175
776.277 .0289062
776.990 .0288945
777.702 .0288824
778.414 .0288701
779.125 .0288576
779.836 .0288450
780.547 .0288323
781.258 .0288195
781.969 .0288068
782.679 .0287940
783.389 .0287752
784.099 .0287626
784.808 .0287499
785.517 .0287372
786.226 .0287246
786.935 .0287121
787.643 .0286999
788.352 .0286880
789.060 .0286764
789.767 .0286651
790.475 .0286541
791.182 .0286432
791.889 .0286383
792.595 .0286276
793.301 .0286169
794.008 .0286063
794.713 .0285958
795.419 .0285854
796.124 .0285750
796.829 .0285646
797.534 .0285542
798.238 .0285437
798.942 .0285330
799.646 .0285221
800.350 .0285110
801.053 .0284998
801.756 .0284885
802.459 .0284772
803.162 .0284659
803.864 .0284546
804.566 .0284432
805.267 .0284316
805.969 .0284199
806.670 .0284080
807.371 .0283959
808.071 .0283836
808.772 .0283712
809.472 .0283587
810.171 .0283461
810.871 .0283336
811.570 .0283211
812.269 .0283087
812.967 .0282963
813.666 .0282838
814.364 .0282713
815.061 .0282588
815.759 .0282462
816.456 .0282335
817.153 .0282209
817.849 .0282082
818.545 .0281954
819.241 .0281827
819.937 .0281698
820.632 .0281569
821.327 .0281439
822.022 .0281307
822.717 .0281175
823.411 .0281041
824.105 .0280907
824.798 .0280772
825.491 .0280636
826.184 .0280501
826.877 .0280365
827.569 .0280230
828.261 .0280094
828.953 .0279959
829.645 .0279823
830.336 .0279688
831.027 .0279554
831.717 .0279422
832.407 .0279291
833.097 .0279162
833.787 .0279036
834.476 .0278910
835.165 .0278785
835.854 .0278659
836.542 .0278530
837.230 .0278400
837.918 .0278265
838.605 .0278128
839.292 .0277988
839.979 .0277847
840.665 .0277704
841.352 .0277561
842.037 .0277418
842.723 .0277275
843.408 .0277133
844.093 .0276990
844.777 .0276848
845.462 .0276705
846.145 .0276562
846.829 .0276420
847.512 .0276278
848.195 .0276136
848.878 .0275996
849.560 .0275855
850.242 .0275715
850.923 .0275574
851.605 .0275432
852.286 .0275290
852.966 .0275146
853.646 .0275002
854.326 .0274857
855.006 .0274711
855.685 .0274564
856.364 .0274416
857.043 .0274267
857.721 .0274117
858.399 .0273964
859.077 .0273811
859.754 .0273656
860.431 .0273501
861.107 .0273346
861.784 .0273192
862.459 .0273040
863.135 .0272889
863.810 .0272740
864.485 .0272591
865.160 .0272443
865.834 .0272294
866.508 .0272144
867.181 .0271994
867.854 .0271843
868.527 .0271694
869.199 .0271546
869.872 .0271400
870.543 .0271259
871.215 .0271121
871.886 .0270988
872.557 .0270860
873.227 .0270736
873.897 .0270617
874.567 .0270502
875.236 .0270389
875.905 .0270281
876.573 .0270175
877.242 .0270072
877.909 .0269971
878.577 .0269873
879.244 .0269777
879.911 .0269683
880.577 .0269592
881.243 .0269502
881.909 .0269416
882.575 .0269332
883.240 .0269253
883.904 .0269177
884.569 .0269106
885.232 .0269039
885.896 .0268978
886.559 .0268920
887.222 .0268867
887.885 .0268818
888.547 .0268773
889.208 .0268731
889.870 .0268693
890.531 .0268659
891.192 .0268629
891.852 .0268602
892.512 .0268576
893.171 .0268552
893.830 .0268527
894.489 .0268501
895.148 .0268473
895.806 .0268441
896.464 .0268406
897.121 .0268367
897.778 .0268324
898.434 .0268278
899.091 .0268191
899.747 .0268137
900.402 .0268081
901.057 .0268022
901.712 .0267960
902.366 .0267895
903.020 .0267827
903.674 .0267755
904.327 .0267678
904.980 .0267597
905.633 .0267510
906.285 .0267418
906.936 .0267320
907.588 .0267261
908.239 .0267154
908.889 .0267041
909.540 .0266922
910.190 .0266797
910.839 .0266667
911.488 .0266530
912.137 .0266388
912.785 .0266240
913.433 .0266087
914.081 .0265929
914.728 .0265768
915.375 .0265603
916.021 .0265436
916.668 .0265267
917.313 .0265097
917.959 .0264924
918.604 .0264750
919.248 .0264572
919.892 .0264392
920.536 .0264210
921.180 .0264026
921.823 .0263840
922.465 .0263655
923.108 .0263469
923.750 .0263284
924.391 .0263100
925.032 .0262917
925.673 .0262734
926.313 .0262552
926.953 .0262371
927.593 .0262189
928.232 .0262008
928.871 .0261828
929.510 .0261648
930.148 .0261470
930.786 .0261293
931.423 .0261116
932.060 .0260940
932.697 .0260763
933.333 .0260585
933.969 .0260406
934.604 .0260225
935.239 .0260042
935.874 .0259856
936.508 .0259669
937.142 .0259480
937.776 .0259289
938.409 .0259097
939.042 .0258905
939.674 .0258712
940.306 .0258520
940.938 .0258327
941.569 .0258136
942.200 .0257945
942.830 .0257755
943.460 .0257567
944.090 .0257380
944.720 .0257196
945.349 .0257013
945.977 .0256833
946.606 .0256655
947.233 .0256479
947.861 .0256306
948.488 .0256135
949.115 .0255966
949.741 .0255799
950.367 .0255634
950.993 .0255471
951.618 .0255310
952.243 .0255152
952.868 .0254996
953.492 .0254842
954.115 .0254692
954.739 .0254545
955.362 .0254401
955.984 .0254261
956.607 .0254125
957.229 .0253994
957.850 .0253867
958.471 .0253745
959.092 .0253628
959.713 .0253517
960.333 .0253411
960.952 .0253311
961.572 .0253218
962.191 .0253132
962.809 .0253054
963.428 .0252984
964.045 .0252923
964.663 .0252872
965.280 .0252829
965.897 .0252795
966.513 .0252769
967.129 .0252751
967.745 .0252739
968.361 .0252733
968.976 .0252734
969.590 .0252739
970.205 .0252750
970.818 .0252765
971.432 .0252785
972.045 .0252808
972.658 .0252833
973.271 .0252858
973.883 .0252882
974.495 .0252905
975.106 .0252925
975.717 .0252943
976.328 .0252958
976.938 .0252970
977.548 .0252979
978.158 .0252985
978.768 .0252972
979.377 .0252969
979.985 .0252964
980.594 .0252954
981.202 .0252941
981.809 .0252925
982.417 .0252907
983.024 .0252886
983.631 .0252864
984.237 .0252841
984.843 .0252817
985.449 .0252793
986.054 .0252768
986.659 .0252743
987.264 .0252735
987.868 .0252710
988.472 .0252685
989.076 .0252660
989.679 .0252636
990.282 .0252613
990.885 .0252592
991.487 .0252573
992.090 .0252555
992.691 .0252540
993.293 .0252525
993.894 .0252512
994.495 .0252498
995.095 .0252486
995.696 .0252474
996.296 .0252462
996.895 .0252451
997.494 .0252440
998.093 .0252429
998.692 .0252418
999.291 .0252405
999.889 .0252389
1000.487 .0252372
1001.084 .0252351
1001.681 .0252328
1002.278 .0252302
1002.875 .0252275
1003.471 .0252246
1004.067 .0252217
1004.663 .0252187
1005.258 .0252157
1005.854 .0252126
1006.449 .0252095
1007.043 .0252063
1007.638 .0252030
1008.232 .0251997
1008.826 .0251962
1009.419 .0251928
1010.012 .0251895
1010.605 .0251861
1011.198 .0251827
1011.791 .0251792
1012.383 .0251756
1012.975 .0251718
1013.566 .0251677
1014.158 .0251632
1014.749 .0251584
1015.340 .0251533
1015.931 .0251478
1016.521 .0251420
1017.111 .0251359
1017.701 .0251295
1018.291 .0251229
1018.880 .0251160
1019.470 .0251088
1020.059 .0251014
1020.647 .0250938
1021.236 .0250860
1021.824 .0250781
1022.412 .0250701
1023.000 .0250620
1023.588 .0250539
1024.175 .0250458
1024.762 .0250377
1025.349 .0250297
1025.936 .0250219
1026.523 .0250141
1027.109 .0250067
1027.695 .0249995
1028.281 .0249929
1028.867 .0249866
1029.452 .0249809
1030.038 .0249756
1030.623 .0249709
1031.208 .0249666
1031.792 .0249628
1032.377 .0249595
1032.961 .0249568
1033.546 .0249545
1034.130 .0249528
1034.714 .0249517
1035.297 .0249512
1035.881 .0249511
1036.464 .0249513
1037.047 .0249518
1037.630 .0249523
1038.213 .0249527
1038.796 .0249530
1039.378 .0249531
1039.961 .0249530
1040.543 .0249525
1041.125 .0249519
1041.707 .0249509
1042.289 .0249497
1042.871 .0249482
1043.452 .0249462
1044.034 .0249437
1044.615 .0249407
1045.196 .0249371
1045.777 .0249330
1046.358 .0249285
1046.939 .0249238
1047.520 .0249190
1048.101 .0249142
1048.681 .0249095
1049.262 .0249051
1049.842 .0249008
1050.422 .0248968
1051.002 .0248931
1051.582 .0248896
1052.162 .0248862
1052.742 .0248829
1053.322 .0248797
1053.902 .0248768
1054.482 .0248740
1055.061 .0248716
1055.641 .0248694
1056.220 .0248675
1056.800 .0248661
1057.379 .0248650
1057.958 .0248644
1058.538 .0248642
1059.117 .0248644
1059.696 .0248650
1060.275 .0248659
1060.854 .0248673
1061.433 .0248690
1062.012 .0248712
1062.592 .0248738
1063.171 .0248768
1063.750 .0248802
1064.329 .0248839
1064.908 .0248878
1065.487 .0248917
1066.066 .0248954
1066.645 .0248987
1067.224 .0249014
1067.803 .0249032
1068.382 .0249040
1068.961 .0249037
1069.540 .0249025
1070.119 .0249003
1070.698 .0248973
1071.278 .0248936
1071.857 .0248894
1072.436 .0248850
1073.016 .0248803
1073.595 .0248755
1074.175 .0248706
1074.754 .0248657
1075.334 .0248609
1075.913 .0248561
1076.493 .0248515
1077.073 .0248471
1077.653 .0248432
1078.233 .0248399
1078.813 .0248371
1079.393 .0248350
1079.974 .0248336
1080.554 .0248328
1081.135 .0248324
1081.716 .0248326
1082.296 .0248331
1082.877 .0248341
1083.458 .0248355
1084.040 .0248372
1084.621 .0248392
1085.202 .0248417
1085.784 .0248445
1086.366 .0248475
1086.948 .0248508
1087.530 .0248541
1088.112 .0248572
1088.695 .0248603
1089.277 .0248629
1089.860 .0248653
1090.443 .0248673
1091.026 .0248690
1091.610 .0248703
1092.193 .0248713
1092.777 .0248720
1093.361 .0248722
1093.946 .0248720
1094.530 .0248713
1095.115 .0248699
1095.700 .0248680
1096.285 .0248655
1096.871 .0248625
1097.456 .0248591
1098.042 .0248555
1098.628 .0248518
1099.215 .0248479
1099.802 .0248438
1100.389 .0248396
1100.976 .0248352
1101.564 .0248307
1102.152 .0248263
1102.740 .0248220
1103.329 .0248181
1103.917 .0248148
1104.507 .0248121
1105.096 .0248104
1105.686 .0248096
1106.276 .0248097
1106.867 .0248105
1107.457 .0248120
1108.049 .0248138
1108.640 .0248160
1109.232 .0248185
1109.825 .0248215
1110.417 .0248253
1111.010 .0248298
1111.604 .0248353
1112.198 .0248418
1112.792 .0248493
1113.387 .0248576
1113.982 .0248664
1114.577 .0248756
1115.173 .0248849
1115.769 .0248939
1116.366 .0249027
1116.963 .0249114
1117.561 .0249204
1118.159 .0249300
1118.758 .0249404
1119.357 .0249518
1119.957 .0249644
1120.557 .0249780
1121.157 .0249924
1121.758 .0250072
1122.360 .0250221
1122.962 .0250365
1123.564 .0250501
1124.167 .0250576
1124.771 .0250706
1125.375 .0250829
1125.980 .0250949
1126.585 .0251067
1127.191 .0251186
1127.797 .0251309
1128.404 .0251434
1129.012 .0251560
1129.620 .0251684
1130.229 .0251802
1130.838 .0251909
1131.448 .0252008
1132.058 .0252103
1132.669 .0252247
1133.281 .0252351
1133.894 .0252467
1134.507 .0252614
1135.120 .0252855
1135.735 .0253091
1136.350 .0253185
1136.965 .0252785
1137.582 .0253035
1138.199 .0253177
1138.816 .0253201
1139.435 .0253217
1140.054 .0253347
1140.674 .0253585
1141.294 .0253836
1141.916 .0254205
1142.538 .0255161
1143.160 .0257820
1143.784 .0257872
1144.408 .0254205
1145.033 .0254793
