Measurement Sequence started on: 14-45-04-498
Integration time: 36
Scans to Average: 2 
>>>>>Begin Spectral Data<<<<<
433.946 .0523146
434.870 .0503403
435.793 .0504814
436.715 .0499521
437.635 .0481335
438.555 .0484111
439.473 .0478977
440.389 .0474701
441.305 .0470638
442.219 .0466855
443.132 .0468873
444.044 .0466014
444.954 .0463040
445.863 .0460299
446.771 .0458460
447.678 .0456417
448.584 .0454583
449.488 .0452920
450.391 .0451410
451.293 .0450046
452.194 .0448799
453.094 .0447664
453.992 .0446626
454.890 .0445664
455.786 .0444738
456.681 .0443825
457.575 .0442894
458.468 .0441924
459.360 .0440911
460.250 .0439855
461.140 .0438762
462.028 .0437657
462.915 .0436552
463.801 .0435466
464.687 .0434409
465.571 .0433397
466.454 .0432423
467.335 .0431497
468.216 .0430615
469.096 .0429775
469.975 .0428980
470.853 .0428231
471.729 .0427529
472.605 .0426884
473.479 .0426305
474.353 .0425798
475.226 .0425367
476.097 .0425016
476.968 .0424739
477.838 .0424537
478.706 .0424396
479.574 .0424308
480.441 .0424259
481.306 .0424241
482.171 .0424242
483.035 .0424253
483.898 .0424268
484.760 .0424281
485.621 .0424288
486.481 .0424287
487.340 .0424271
488.198 .0424238
489.055 .0424187
489.912 .0424116
490.767 .0424020
491.622 .0423770
492.476 .0423606
493.329 .0423411
494.180 .0423181
495.032 .0422915
495.882 .0422613
496.731 .0422275
497.580 .0421903
498.427 .0421498
499.274 .0421062
500.120 .0420791
500.965 .0420317
501.809 .0419815
502.653 .0419286
503.495 .0418731
504.337 .0418152
505.178 .0417549
506.018 .0416921
506.858 .0416270
507.696 .0415598
508.534 .0414905
509.371 .0414194
510.208 .0413472
511.043 .0412747
511.878 .0412025
512.712 .0411312
513.545 .0410618
514.377 .0409949
515.209 .0409307
516.040 .0408692
516.870 .0408101
517.699 .0407532
518.528 .0406977
519.356 .0406431
520.183 .0405891
521.010 .0405353
521.836 .0404816
522.661 .0404274
523.485 .0403723
524.309 .0403155
525.132 .0402571
525.954 .0401964
526.776 .0401332
527.597 .0400676
528.417 .0399997
529.237 .0399301
530.056 .0398593
530.874 .0397871
531.692 .0397139
532.508 .0396398
533.325 .0395652
534.140 .0394906
534.955 .0394167
535.770 .0393445
536.583 .0392748
537.397 .0392088
538.209 .0391470
539.021 .0390896
539.832 .0390373
540.643 .0389900
541.453 .0389476
542.262 .0389098
543.071 .0388762
543.879 .0388466
544.687 .0388207
545.494 .0387978
546.300 .0387771
547.106 .0387582
547.911 .0387402
548.716 .0387225
549.520 .0387046
550.323 .0386866
551.126 .0386682
551.929 .0386489
552.731 .0386286
553.532 .0386072
554.332 .0385844
555.133 .0385601
555.932 .0385348
556.731 .0385090
557.530 .0384831
558.328 .0384575
559.125 .0384330
559.922 .0384099
560.719 .0383882
561.515 .0383673
562.310 .0383467
563.105 .0383260
563.899 .0383044
564.693 .0382817
565.487 .0382581
566.280 .0382337
567.072 .0382085
567.864 .0381823
568.655 .0381549
569.446 .0381259
570.236 .0380948
571.026 .0380611
571.816 .0380246
572.605 .0379848
573.393 .0379415
574.181 .0378946
574.969 .0378447
575.756 .0377922
576.543 .0377373
577.329 .0376809
578.115 .0376233
578.900 .0375652
579.685 .0375067
580.469 .0374482
581.253 .0373900
582.036 .0373322
582.820 .0372746
583.602 .0372175
584.384 .0371610
585.166 .0371056
585.947 .0370515
586.728 .0369992
587.509 .0369490
588.289 .0369008
589.069 .0368547
589.848 .0368106
590.627 .0367682
591.405 .0367271
592.183 .0366870
592.961 .0366475
593.738 .0366085
594.515 .0365697
595.291 .0365310
596.067 .0364926
596.843 .0364543
597.618 .0364161
598.393 .0363581
599.167 .0363199
599.941 .0362818
600.715 .0362436
601.488 .0362055
602.261 .0361676
603.034 .0361298
603.806 .0360924
604.578 .0360553
605.349 .0360188
606.121 .0359828
606.891 .0359662
607.662 .0359312
608.432 .0358969
609.201 .0358634
609.971 .0358306
610.740 .0357986
611.508 .0357674
612.277 .0357371
613.045 .0357077
613.812 .0356792
614.579 .0356517
615.346 .0356251
616.113 .0355993
616.879 .0355743
617.645 .0355500
618.411 .0355264
619.176 .0355034
619.941 .0354809
620.705 .0354590
621.470 .0354375
622.233 .0354164
622.997 .0353957
623.760 .0353751
624.523 .0353547
625.286 .0353344
626.048 .0353141
626.810 .0352938
627.572 .0352735
628.333 .0352530
629.095 .0352325
629.855 .0352117
630.616 .0351908
631.376 .0351695
632.136 .0351479
632.895 .0351258
633.655 .0351033
634.414 .0350802
635.172 .0350564
635.931 .0350319
636.689 .0350065
637.447 .0349804
638.204 .0349535
638.962 .0349259
639.718 .0348977
640.475 .0348689
641.231 .0348395
641.988 .0348095
642.743 .0347789
643.499 .0347476
644.254 .0347156
645.009 .0346828
645.764 .0346494
646.518 .0346154
647.272 .0345810
648.026 .0345464
648.780 .0345118
649.533 .0344773
650.286 .0344431
651.039 .0344091
651.792 .0343756
652.544 .0343424
653.296 .0343096
654.048 .0342772
654.799 .0342454
655.550 .0342142
656.301 .0341835
657.052 .0341536
657.802 .0341245
658.552 .0340962
659.302 .0340686
660.052 .0340420
660.801 .0340162
661.550 .0339912
662.299 .0339669
663.048 .0339434
663.796 .0339205
664.544 .0338982
665.292 .0338762
666.040 .0338547
666.787 .0338334
667.534 .0338123
668.281 .0337914
669.028 .0337707
669.774 .0337503
670.521 .0337302
671.266 .0337103
672.012 .0336906
672.758 .0336711
673.503 .0336517
674.248 .0336324
674.992 .0336133
675.737 .0335944
676.481 .0335758
677.225 .0335575
677.969 .0335395
678.712 .0335221
679.455 .0335051
680.199 .0334887
680.941 .0334728
681.684 .0334572
682.426 .0334421
683.168 .0334272
683.910 .0334126
684.652 .0333982
685.393 .0333842
686.134 .0333705
686.875 .0333572
687.616 .0333442
688.356 .0333315
689.097 .0333191
689.837 .0333068
690.576 .0332946
691.316 .0332822
692.055 .0332696
692.794 .0332567
693.533 .0332433
694.272 .0332296
695.010 .0332155
695.748 .0332010
696.486 .0331863
697.224 .0331714
697.962 .0331563
698.699 .0331409
699.436 .0331254
700.173 .0331096
700.909 .0330933
701.646 .0330767
702.382 .0330596
703.118 .0330419
703.853 .0330238
704.589 .0330052
705.324 .0329863
706.059 .0329672
706.794 .0329478
707.529 .0329283
708.263 .0329087
708.997 .0328890
709.731 .0328691
710.465 .0328492
711.198 .0328290
711.931 .0328086
712.664 .0327881
713.397 .0327673
714.130 .0327465
714.862 .0327256
715.594 .0327048
716.326 .0326842
717.058 .0326637
717.789 .0326436
718.520 .0326238
719.251 .0326045
719.982 .0325856
720.713 .0325671
721.443 .0325489
722.173 .0325312
722.903 .0325139
723.633 .0324970
724.362 .0324805
725.091 .0324646
725.820 .0324492
726.549 .0324344
727.278 .0324202
728.006 .0324065
728.734 .0323932
729.462 .0323804
730.190 .0323679
730.917 .0323556
731.644 .0323436
732.371 .0323317
733.098 .0323200
733.825 .0323085
734.551 .0322973
735.277 .0322863
736.003 .0322757
736.728 .0322653
737.454 .0322551
738.179 .0322452
738.904 .0322355
739.629 .0322261
740.353 .0322168
741.077 .0322078
741.801 .0321988
742.525 .0321901
743.249 .0321816
743.972 .0321733
744.695 .0321651
745.418 .0321572
746.141 .0321494
746.863 .0321417
747.585 .0321341
748.307 .0321265
749.029 .0321191
749.750 .0321116
750.472 .0321042
751.193 .0320967
751.913 .0320893
752.634 .0320819
753.354 .0320744
754.074 .0320670
754.794 .0320595
755.514 .0320519
756.233 .0320442
756.952 .0320364
757.671 .0320283
758.390 .0320201
759.108 .0320116
759.826 .0320029
760.544 .0319939
761.262 .0319847
761.979 .0319753
762.697 .0319656
763.414 .0319559
764.130 .0319460
764.847 .0319362
765.563 .0319263
766.279 .0319166
766.995 .0319069
767.710 .0318974
768.426 .0318880
769.141 .0318787
769.855 .0318695
770.570 .0318604
771.284 .0318514
771.998 .0318426
772.712 .0318339
773.426 .0318253
774.139 .0318169
774.852 .0318087
775.565 .0318007
776.277 .0317928
776.990 .0317851
777.702 .0317774
778.414 .0317699
779.125 .0317624
779.836 .0317550
780.547 .0317476
781.258 .0317402
781.969 .0317327
782.679 .0317251
783.389 .0317122
784.099 .0317037
784.808 .0316946
785.517 .0316850
786.226 .0316748
786.935 .0316640
787.643 .0316525
788.352 .0316404
789.060 .0316277
789.767 .0316143
790.475 .0316004
791.182 .0315860
791.889 .0315775
792.595 .0315625
793.301 .0315472
794.008 .0315318
794.713 .0315163
795.419 .0315008
796.124 .0314854
796.829 .0314700
797.534 .0314546
798.238 .0314392
798.942 .0314237
799.646 .0314084
800.350 .0313930
801.053 .0313779
801.756 .0313630
802.459 .0313483
803.162 .0313340
803.864 .0313200
804.566 .0313064
805.267 .0312930
805.969 .0312798
806.670 .0312667
807.371 .0312539
808.071 .0312412
808.772 .0312288
809.472 .0312165
810.171 .0312044
810.871 .0311924
811.570 .0311806
812.269 .0311688
812.967 .0311569
813.666 .0311451
814.364 .0311331
815.061 .0311210
815.759 .0311089
816.456 .0310966
817.153 .0310843
817.849 .0310720
818.545 .0310597
819.241 .0310473
819.937 .0310350
820.632 .0310228
821.327 .0310107
822.022 .0309987
822.717 .0309870
823.411 .0309756
824.105 .0309646
824.798 .0309541
825.491 .0309441
826.184 .0309346
826.877 .0309257
827.569 .0309175
828.261 .0309098
828.953 .0309027
829.645 .0308962
830.336 .0308902
831.027 .0308847
831.717 .0308797
832.407 .0308753
833.097 .0308713
833.787 .0308679
834.476 .0308648
835.165 .0308621
835.854 .0308597
836.542 .0308574
837.230 .0308552
837.918 .0308530
838.605 .0308507
839.292 .0308484
839.979 .0308459
840.665 .0308432
841.352 .0308402
842.037 .0308370
842.723 .0308333
843.408 .0308292
844.093 .0308245
844.777 .0308192
845.462 .0308133
846.145 .0308069
846.829 .0308000
847.512 .0307925
848.195 .0307846
848.878 .0307763
849.560 .0307674
850.242 .0307580
850.923 .0307481
851.605 .0307377
852.286 .0307268
852.966 .0307157
853.646 .0307042
854.326 .0306926
855.006 .0306809
855.685 .0306692
856.364 .0306575
857.043 .0306458
857.721 .0306341
858.399 .0306223
859.077 .0306106
859.754 .0305990
860.431 .0305874
861.107 .0305760
861.784 .0305648
862.459 .0305538
863.135 .0305428
863.810 .0305319
864.485 .0305209
865.160 .0305097
865.834 .0304983
866.508 .0304867
867.181 .0304748
867.854 .0304627
868.527 .0304503
869.199 .0304376
869.872 .0304247
870.543 .0304113
871.215 .0303975
871.886 .0303831
872.557 .0303681
873.227 .0303525
873.897 .0303362
874.567 .0303193
875.236 .0303020
875.905 .0302842
876.573 .0302661
877.242 .0302476
877.909 .0302289
878.577 .0302098
879.244 .0301904
879.911 .0301707
880.577 .0301507
881.243 .0301305
881.909 .0301102
882.575 .0300898
883.240 .0300694
883.904 .0300491
884.569 .0300289
885.232 .0300088
885.896 .0299889
886.559 .0299691
887.222 .0299494
887.885 .0299298
888.547 .0299105
889.208 .0298915
889.870 .0298729
890.531 .0298547
891.192 .0298370
891.852 .0298197
892.512 .0298029
893.171 .0297864
893.830 .0297701
894.489 .0297541
895.148 .0297383
895.806 .0297228
896.464 .0297075
897.121 .0296925
897.778 .0296779
898.434 .0296638
899.091 .0296447
899.747 .0296318
900.402 .0296192
901.057 .0296070
901.712 .0295951
902.366 .0295836
903.020 .0295723
903.674 .0295614
904.327 .0295508
904.980 .0295406
905.633 .0295306
906.285 .0295207
906.936 .0295108
907.588 .0295056
908.239 .0294953
908.889 .0294848
909.540 .0294739
910.190 .0294628
910.839 .0294513
911.488 .0294396
912.137 .0294277
912.785 .0294155
913.433 .0294031
914.081 .0293903
914.728 .0293772
915.375 .0293636
916.021 .0293496
916.668 .0293351
917.313 .0293203
917.959 .0293052
918.604 .0292899
919.248 .0292744
919.892 .0292588
920.536 .0292430
921.180 .0292270
921.823 .0292108
922.465 .0291943
923.108 .0291775
923.750 .0291605
924.391 .0291434
925.032 .0291263
925.673 .0291093
926.313 .0290927
926.953 .0290763
927.593 .0290604
928.232 .0290449
928.871 .0290297
929.510 .0290148
930.148 .0290002
930.786 .0289860
931.423 .0289721
932.060 .0289586
932.697 .0289457
933.333 .0289332
933.969 .0289213
934.604 .0289097
935.239 .0288985
935.874 .0288874
936.508 .0288763
937.142 .0288653
937.776 .0288542
938.409 .0288431
939.042 .0288322
939.674 .0288214
940.306 .0288109
940.938 .0288005
941.569 .0287903
942.200 .0287802
942.830 .0287699
943.460 .0287593
944.090 .0287485
944.720 .0287374
945.349 .0287260
945.977 .0287144
946.606 .0287028
947.233 .0286911
947.861 .0286794
948.488 .0286677
949.115 .0286559
949.741 .0286441
950.367 .0286323
950.993 .0286203
951.618 .0286084
952.243 .0285964
952.868 .0285846
953.492 .0285731
954.115 .0285620
954.739 .0285512
955.362 .0285409
955.984 .0285309
956.607 .0285212
957.229 .0285118
957.850 .0285027
958.471 .0284937
959.092 .0284848
959.713 .0284760
960.333 .0284672
960.952 .0284586
961.572 .0284500
962.191 .0284413
962.809 .0284327
963.428 .0284240
964.045 .0284152
964.663 .0284064
965.280 .0283975
965.897 .0283886
966.513 .0283796
967.129 .0283705
967.745 .0283613
968.361 .0283521
968.976 .0283428
969.590 .0283334
970.205 .0283239
970.818 .0283144
971.432 .0283048
972.045 .0282952
972.658 .0282856
973.271 .0282760
973.883 .0282663
974.495 .0282565
975.106 .0282468
975.717 .0282371
976.328 .0282274
976.938 .0282179
977.548 .0282084
978.158 .0281991
978.768 .0281849
979.377 .0281755
979.985 .0281661
980.594 .0281567
981.202 .0281471
981.809 .0281373
982.417 .0281273
983.024 .0281170
983.631 .0281064
984.237 .0280956
984.843 .0280845
985.449 .0280732
986.054 .0280617
986.659 .0280500
987.264 .0280433
987.868 .0280314
988.472 .0280194
989.076 .0280072
989.679 .0279947
990.282 .0279821
990.885 .0279693
991.487 .0279564
992.090 .0279435
992.691 .0279305
993.293 .0279175
993.894 .0279045
994.495 .0278916
995.095 .0278787
995.696 .0278659
996.296 .0278531
996.895 .0278405
997.494 .0278279
998.093 .0278155
998.692 .0278031
999.291 .0277908
999.889 .0277785
1000.487 .0277664
1001.084 .0277545
1001.681 .0277427
1002.278 .0277311
1002.875 .0277196
1003.471 .0277083
1004.067 .0276972
1004.663 .0276860
1005.258 .0276749
1005.854 .0276637
1006.449 .0276523
1007.043 .0276408
1007.638 .0276290
1008.232 .0276171
1008.826 .0276051
1009.419 .0275929
1010.012 .0275806
1010.605 .0275682
1011.198 .0275556
1011.791 .0275429
1012.383 .0275301
1012.975 .0275172
1013.566 .0275042
1014.158 .0274913
1014.749 .0274783
1015.340 .0274654
1015.931 .0274526
1016.521 .0274400
1017.111 .0274275
1017.701 .0274153
1018.291 .0274033
1018.880 .0273916
1019.470 .0273803
1020.059 .0273692
1020.647 .0273586
1021.236 .0273483
1021.824 .0273383
1022.412 .0273286
1023.000 .0273193
1023.588 .0273103
1024.175 .0273017
1024.762 .0272934
1025.349 .0272855
1025.936 .0272780
1026.523 .0272708
1027.109 .0272640
1027.695 .0272576
1028.281 .0272515
1028.867 .0272458
1029.452 .0272404
1030.038 .0272353
1030.623 .0272306
1031.208 .0272262
1031.792 .0272222
1032.377 .0272186
1032.961 .0272155
1033.546 .0272128
1034.130 .0272106
1034.714 .0272087
1035.297 .0272071
1035.881 .0272058
1036.464 .0272046
1037.047 .0272036
1037.630 .0272027
1038.213 .0272019
1038.796 .0272014
1039.378 .0272010
1039.961 .0272009
1040.543 .0272009
1041.125 .0272013
1041.707 .0272017
1042.289 .0272023
1042.871 .0272029
1043.452 .0272035
1044.034 .0272040
1044.615 .0272045
1045.196 .0272050
1045.777 .0272056
1046.358 .0272064
1046.939 .0272073
1047.520 .0272084
1048.101 .0272095
1048.681 .0272105
1049.262 .0272114
1049.842 .0272120
1050.422 .0272121
1051.002 .0272118
1051.582 .0272110
1052.162 .0272098
1052.742 .0272082
1053.322 .0272064
1053.902 .0272044
1054.482 .0272022
1055.061 .0272000
1055.641 .0271978
1056.220 .0271954
1056.800 .0271930
1057.379 .0271905
1057.958 .0271879
1058.538 .0271852
1059.117 .0271825
1059.696 .0271799
1060.275 .0271776
1060.854 .0271759
1061.433 .0271749
1062.012 .0271747
1062.592 .0271753
1063.171 .0271769
1063.750 .0271794
1064.329 .0271825
1064.908 .0271863
1065.487 .0271905
1066.066 .0271953
1066.645 .0272004
1067.224 .0272061
1067.803 .0272124
1068.382 .0272194
1068.961 .0272271
1069.540 .0272356
1070.119 .0272447
1070.698 .0272542
1071.278 .0272640
1071.857 .0272738
1072.436 .0272834
1073.016 .0272927
1073.595 .0273015
1074.175 .0273099
1074.754 .0273178
1075.334 .0273255
1075.913 .0273329
1076.493 .0273399
1077.073 .0273466
1077.653 .0273528
1078.233 .0273583
1078.813 .0273631
1079.393 .0273671
1079.974 .0273703
1080.554 .0273726
1081.135 .0273741
1081.716 .0273749
1082.296 .0273751
1082.877 .0273750
1083.458 .0273745
1084.040 .0273739
1084.621 .0273730
1085.202 .0273719
1085.784 .0273706
1086.366 .0273689
1086.948 .0273668
1087.530 .0273641
1088.112 .0273610
1088.695 .0273575
1089.277 .0273535
1089.860 .0273491
1090.443 .0273445
1091.026 .0273398
1091.610 .0273350
1092.193 .0273300
1092.777 .0273248
1093.361 .0273194
1093.946 .0273136
1094.530 .0273072
1095.115 .0273001
1095.700 .0272925
1096.285 .0272842
1096.871 .0272755
1097.456 .0272666
1098.042 .0272578
1098.628 .0272492
1099.215 .0272411
1099.802 .0272337
1100.389 .0272268
1100.976 .0272204
1101.564 .0272146
1102.152 .0272094
1102.740 .0272049
1103.329 .0272014
1103.917 .0271991
1104.507 .0271985
1105.096 .0271998
1105.686 .0272031
1106.276 .0272088
1106.867 .0272170
1107.457 .0272277
1108.049 .0272406
1108.640 .0272556
1109.232 .0272727
1109.825 .0272917
1110.417 .0273127
1111.010 .0273356
1111.604 .0273605
1112.198 .0273873
1112.792 .0274156
1113.387 .0274453
1113.982 .0274761
1114.577 .0275077
1115.173 .0275398
1115.769 .0275721
1116.366 .0276043
1116.963 .0276361
1117.561 .0276674
1118.159 .0276980
1118.758 .0277277
1119.357 .0277563
1119.957 .0277835
1120.557 .0278093
1121.157 .0278336
1121.758 .0278562
1122.360 .0278773
1122.962 .0278971
1123.564 .0279154
1124.167 .0279286
1124.771 .0279441
1125.375 .0279582
1125.980 .0279709
1126.585 .0279823
1127.191 .0279927
1127.797 .0280022
1128.404 .0280113
1129.012 .0280210
1129.620 .0280318
1130.229 .0280448
1130.838 .0280604
1131.448 .0280791
1132.058 .0281016
1132.669 .0281325
1133.281 .0281661
1133.894 .0282068
1134.507 .0282429
1135.120 .0282938
1135.735 .0283638
1136.350 .0284564
1136.965 .0281518
1137.582 .0282151
1138.199 .0282995
1138.816 .0283956
1139.435 .0285028
1140.054 .0286236
1140.674 .0287649
1141.294 .0289378
1141.916 .0291361
1142.538 .0290149
1143.160 .0294108
1143.784 .0299202
1144.408 .0305227
1145.033 .0306050
