Measurement Sequence started on: 14-45-04-498
Integration time: 36
Scans to Average: 2 
>>>>>Begin Spectral Data<<<<<
433.946 .0569927
434.870 .0534430
435.793 .0491567
436.715 .0486044
437.635 .0483345
438.555 .0480012
439.473 .0471447
440.389 .0465034
441.305 .0460366
442.219 .0456046
443.132 .0461803
444.044 .0456928
444.954 .0454292
445.863 .0451918
446.771 .0449652
447.678 .0447528
448.584 .0445820
449.488 .0444416
450.391 .0443231
451.293 .0442249
452.194 .0441445
453.094 .0440775
453.992 .0440207
454.890 .0439697
455.786 .0439203
456.681 .0438690
457.575 .0438129
458.468 .0437507
459.360 .0436822
460.250 .0436081
461.140 .0435297
462.028 .0434490
462.915 .0433678
463.801 .0432874
464.687 .0432085
465.571 .0431315
466.454 .0430562
467.335 .0429821
468.216 .0429090
469.096 .0428370
469.975 .0427666
470.853 .0426984
471.729 .0426331
472.605 .0425720
473.479 .0425160
474.353 .0424651
475.226 .0424193
476.097 .0423780
476.968 .0423404
477.838 .0423053
478.706 .0422717
479.574 .0422386
480.441 .0422053
481.306 .0421711
482.171 .0421355
483.035 .0420985
483.898 .0420601
484.760 .0420201
485.621 .0419789
486.481 .0419365
487.340 .0418931
488.198 .0418489
489.055 .0418041
489.912 .0417590
490.767 .0417141
491.622 .0416493
492.476 .0416053
493.329 .0415614
494.180 .0415176
495.032 .0414739
495.882 .0414303
496.731 .0413865
497.580 .0413426
498.427 .0412984
499.274 .0412541
500.120 .0412304
500.965 .0411852
501.809 .0411400
502.653 .0410948
503.495 .0410496
504.337 .0410040
505.178 .0409584
506.018 .0409125
506.858 .0408662
507.696 .0408196
508.534 .0407733
509.371 .0407277
510.208 .0406835
511.043 .0406413
511.878 .0406014
512.712 .0405636
513.545 .0405279
514.377 .0404939
515.209 .0404612
516.040 .0404293
516.870 .0403972
517.699 .0403643
518.528 .0403307
519.356 .0402958
520.183 .0402594
521.010 .0402213
521.836 .0401815
522.661 .0401395
523.485 .0400951
524.309 .0400484
525.132 .0399994
525.954 .0399482
526.776 .0398945
527.597 .0398383
528.417 .0397795
529.237 .0397189
530.056 .0396571
530.874 .0395951
531.692 .0395336
532.508 .0394733
533.325 .0394151
534.140 .0393598
534.955 .0393078
535.770 .0392588
536.583 .0392131
537.397 .0391706
538.209 .0391315
539.021 .0390957
539.832 .0390638
540.643 .0390363
541.453 .0390130
542.262 .0389938
543.071 .0389776
543.879 .0389642
544.687 .0389525
545.494 .0389417
546.300 .0389305
547.106 .0389182
547.911 .0389043
548.716 .0388884
549.520 .0388707
550.323 .0388514
551.126 .0388304
551.929 .0388080
552.731 .0387843
553.532 .0387590
554.332 .0387319
555.133 .0387029
555.932 .0386715
556.731 .0386375
557.530 .0386004
558.328 .0385605
559.125 .0385179
559.922 .0384731
560.719 .0384262
561.515 .0383776
562.310 .0383277
563.105 .0382769
563.899 .0382251
564.693 .0381725
565.487 .0381192
566.280 .0380652
567.072 .0380105
567.864 .0379552
568.655 .0378995
569.446 .0378437
570.236 .0377881
571.026 .0377329
571.816 .0376783
572.605 .0376246
573.393 .0375720
574.181 .0375208
574.969 .0374708
575.756 .0374222
576.543 .0373751
577.329 .0373295
578.115 .0372856
578.900 .0372436
579.685 .0372033
580.469 .0371651
581.253 .0371287
582.036 .0370941
582.820 .0370608
583.602 .0370288
584.384 .0369979
585.166 .0369678
585.947 .0369385
586.728 .0369100
587.509 .0368822
588.289 .0368554
589.069 .0368291
589.848 .0368032
590.627 .0367774
591.405 .0367513
592.183 .0367247
592.961 .0366975
593.738 .0366695
594.515 .0366409
595.291 .0366119
596.067 .0365826
596.843 .0365532
597.618 .0365237
598.393 .0364795
599.167 .0364504
599.941 .0364215
600.715 .0363925
601.488 .0363635
602.261 .0363346
603.034 .0363058
603.806 .0362772
604.578 .0362488
605.349 .0362207
606.121 .0361930
606.891 .0361805
607.662 .0361535
608.432 .0361269
609.201 .0361009
609.971 .0360755
610.740 .0360507
611.508 .0360265
612.277 .0360028
613.045 .0359798
613.812 .0359571
614.579 .0359348
615.346 .0359126
616.113 .0358907
616.879 .0358688
617.645 .0358471
618.411 .0358257
619.176 .0358044
619.941 .0357833
620.705 .0357623
621.470 .0357412
622.233 .0357201
622.997 .0356987
623.760 .0356769
624.523 .0356548
625.286 .0356323
626.048 .0356095
626.810 .0355863
627.572 .0355627
628.333 .0355387
629.095 .0355143
629.855 .0354894
630.616 .0354639
631.376 .0354379
632.136 .0354114
632.895 .0353844
633.655 .0353571
634.414 .0353296
635.172 .0353017
635.931 .0352736
636.689 .0352453
637.447 .0352168
638.204 .0351882
638.962 .0351595
639.718 .0351310
640.475 .0351026
641.231 .0350747
641.988 .0350472
642.743 .0350202
643.499 .0349938
644.254 .0349680
645.009 .0349427
645.764 .0349180
646.518 .0348938
647.272 .0348703
648.026 .0348475
648.780 .0348253
649.533 .0348039
650.286 .0347831
651.039 .0347631
651.792 .0347436
652.544 .0347247
653.296 .0347063
654.048 .0346884
654.799 .0346709
655.550 .0346540
656.301 .0346374
657.052 .0346213
657.802 .0346054
658.552 .0345898
659.302 .0345743
660.052 .0345589
660.801 .0345436
661.550 .0345282
662.299 .0345130
663.048 .0344977
663.796 .0344825
664.544 .0344674
665.292 .0344523
666.040 .0344371
666.787 .0344219
667.534 .0344065
668.281 .0343911
669.028 .0343754
669.774 .0343597
670.521 .0343439
671.266 .0343281
672.012 .0343123
672.758 .0342965
673.503 .0342807
674.248 .0342648
674.992 .0342490
675.737 .0342330
676.481 .0342169
677.225 .0342006
677.969 .0341840
678.712 .0341673
679.455 .0341502
680.199 .0341330
680.941 .0341155
681.684 .0340977
682.426 .0340798
683.168 .0340617
683.910 .0340434
684.652 .0340249
685.393 .0340063
686.134 .0339875
686.875 .0339685
687.616 .0339493
688.356 .0339301
689.097 .0339107
689.837 .0338913
690.576 .0338719
691.316 .0338526
692.055 .0338333
692.794 .0338142
693.533 .0337954
694.272 .0337768
695.010 .0337587
695.748 .0337409
696.486 .0337234
697.224 .0337062
697.962 .0336893
698.699 .0336726
699.436 .0336561
700.173 .0336397
700.909 .0336234
701.646 .0336073
702.382 .0335914
703.118 .0335755
703.853 .0335598
704.589 .0335441
705.324 .0335284
706.059 .0335125
706.794 .0334965
707.529 .0334802
708.263 .0334636
708.997 .0334469
709.731 .0334299
710.465 .0334127
711.198 .0333953
711.931 .0333777
712.664 .0333599
713.397 .0333420
714.130 .0333239
714.862 .0333058
715.594 .0332876
716.326 .0332694
717.058 .0332513
717.789 .0332333
718.520 .0332154
719.251 .0331977
719.982 .0331800
720.713 .0331625
721.443 .0331451
722.173 .0331278
722.903 .0331107
723.633 .0330940
724.362 .0330775
725.091 .0330613
725.820 .0330455
726.549 .0330299
727.278 .0330147
728.006 .0329996
728.734 .0329846
729.462 .0329698
730.190 .0329551
730.917 .0329406
731.644 .0329262
732.371 .0329122
733.098 .0328985
733.825 .0328852
734.551 .0328723
735.277 .0328599
736.003 .0328478
736.728 .0328360
737.454 .0328245
738.179 .0328133
738.904 .0328023
739.629 .0327917
740.353 .0327812
741.077 .0327710
741.801 .0327611
742.525 .0327513
743.249 .0327417
743.972 .0327322
744.695 .0327229
745.418 .0327136
746.141 .0327044
746.863 .0326951
747.585 .0326858
748.307 .0326763
749.029 .0326666
749.750 .0326568
750.472 .0326466
751.193 .0326362
751.913 .0326256
752.634 .0326148
753.354 .0326039
754.074 .0325930
754.794 .0325821
755.514 .0325712
756.233 .0325601
756.952 .0325489
757.671 .0325374
758.390 .0325256
759.108 .0325135
759.826 .0325010
760.544 .0324883
761.262 .0324755
761.979 .0324625
762.697 .0324494
763.414 .0324363
764.130 .0324232
764.847 .0324100
765.563 .0323968
766.279 .0323834
766.995 .0323699
767.710 .0323563
768.426 .0323427
769.141 .0323290
769.855 .0323152
770.570 .0323015
771.284 .0322878
771.998 .0322743
772.712 .0322608
773.426 .0322476
774.139 .0322345
774.852 .0322217
775.565 .0322090
776.277 .0321966
776.990 .0321843
777.702 .0321722
778.414 .0321603
779.125 .0321485
779.836 .0321369
780.547 .0321255
781.258 .0321143
781.969 .0321032
782.679 .0320924
783.389 .0320760
784.099 .0320651
784.808 .0320541
785.517 .0320430
786.226 .0320316
786.935 .0320200
787.643 .0320081
788.352 .0319959
789.060 .0319834
789.767 .0319706
790.475 .0319576
791.182 .0319445
791.889 .0319373
792.595 .0319239
793.301 .0319104
794.008 .0318968
794.713 .0318832
795.419 .0318694
796.124 .0318557
796.829 .0318420
797.534 .0318283
798.238 .0318147
798.942 .0318013
799.646 .0317880
800.350 .0317750
801.053 .0317623
801.756 .0317498
802.459 .0317376
803.162 .0317257
803.864 .0317140
804.566 .0317026
805.267 .0316914
805.969 .0316804
806.670 .0316696
807.371 .0316590
808.071 .0316486
808.772 .0316383
809.472 .0316282
810.171 .0316183
810.871 .0316084
811.570 .0315985
812.269 .0315886
812.967 .0315787
813.666 .0315685
814.364 .0315582
815.061 .0315476
815.759 .0315367
816.456 .0315253
817.153 .0315135
817.849 .0315012
818.545 .0314884
819.241 .0314751
819.937 .0314615
820.632 .0314476
821.327 .0314335
822.022 .0314192
822.717 .0314049
823.411 .0313905
824.105 .0313761
824.798 .0313617
825.491 .0313474
826.184 .0313331
826.877 .0313188
827.569 .0313048
828.261 .0312909
828.953 .0312774
829.645 .0312642
830.336 .0312514
831.027 .0312391
831.717 .0312273
832.407 .0312159
833.097 .0312049
833.787 .0311945
834.476 .0311845
835.165 .0311749
835.854 .0311657
836.542 .0311568
837.230 .0311481
837.918 .0311397
838.605 .0311313
839.292 .0311230
839.979 .0311148
840.665 .0311065
841.352 .0310982
842.037 .0310899
842.723 .0310815
843.408 .0310729
844.093 .0310640
844.777 .0310547
845.462 .0310450
846.145 .0310349
846.829 .0310242
847.512 .0310130
848.195 .0310013
848.878 .0309891
849.560 .0309766
850.242 .0309637
850.923 .0309503
851.605 .0309366
852.286 .0309225
852.966 .0309080
853.646 .0308930
854.326 .0308777
855.006 .0308621
855.685 .0308462
856.364 .0308301
857.043 .0308138
857.721 .0307972
858.399 .0307806
859.077 .0307638
859.754 .0307470
860.431 .0307301
861.107 .0307134
861.784 .0306968
862.459 .0306805
863.135 .0306643
863.810 .0306483
864.485 .0306325
865.160 .0306168
865.834 .0306013
866.508 .0305857
867.181 .0305703
867.854 .0305549
868.527 .0305397
869.199 .0305247
869.872 .0305098
870.543 .0304951
871.215 .0304805
871.886 .0304661
872.557 .0304516
873.227 .0304371
873.897 .0304225
874.567 .0304079
875.236 .0303933
875.905 .0303786
876.573 .0303638
877.242 .0303490
877.909 .0303341
878.577 .0303191
879.244 .0303039
879.911 .0302885
880.577 .0302729
881.243 .0302572
881.909 .0302415
882.575 .0302257
883.240 .0302101
883.904 .0301946
884.569 .0301793
885.232 .0301642
885.896 .0301492
886.559 .0301343
887.222 .0301196
887.885 .0301051
888.547 .0300909
889.208 .0300771
889.870 .0300636
890.531 .0300507
891.192 .0300381
891.852 .0300260
892.512 .0300143
893.171 .0300028
893.830 .0299914
894.489 .0299802
895.148 .0299690
895.806 .0299580
896.464 .0299471
897.121 .0299365
897.778 .0299260
898.434 .0299158
899.091 .0299006
899.747 .0298906
900.402 .0298805
901.057 .0298704
901.712 .0298603
902.366 .0298501
903.020 .0298399
903.674 .0298297
904.327 .0298196
904.980 .0298096
905.633 .0297996
906.285 .0297895
906.936 .0297793
907.588 .0297742
908.239 .0297639
908.889 .0297534
909.540 .0297428
910.190 .0297321
910.839 .0297213
911.488 .0297104
912.137 .0296995
912.785 .0296884
913.433 .0296773
914.081 .0296660
914.728 .0296545
915.375 .0296427
916.021 .0296306
916.668 .0296182
917.313 .0296055
917.959 .0295925
918.604 .0295792
919.248 .0295656
919.892 .0295517
920.536 .0295376
921.180 .0295231
921.823 .0295084
922.465 .0294933
923.108 .0294778
923.750 .0294621
924.391 .0294461
925.032 .0294298
925.673 .0294133
926.313 .0293967
926.953 .0293799
927.593 .0293630
928.232 .0293460
928.871 .0293288
929.510 .0293116
930.148 .0292943
930.786 .0292769
931.423 .0292594
932.060 .0292418
932.697 .0292241
933.333 .0292063
933.969 .0291884
934.604 .0291705
935.239 .0291525
935.874 .0291344
936.508 .0291162
937.142 .0290979
937.776 .0290795
938.409 .0290611
939.042 .0290426
939.674 .0290241
940.306 .0290056
940.938 .0289871
941.569 .0289686
942.200 .0289501
942.830 .0289316
943.460 .0289130
944.090 .0288943
944.720 .0288756
945.349 .0288568
945.977 .0288380
946.606 .0288192
947.233 .0288005
947.861 .0287819
948.488 .0287633
949.115 .0287447
949.741 .0287262
950.367 .0287077
950.993 .0286892
951.618 .0286707
952.243 .0286522
952.868 .0286338
953.492 .0286155
954.115 .0285974
954.739 .0285794
955.362 .0285616
955.984 .0285440
956.607 .0285265
957.229 .0285091
957.850 .0284918
958.471 .0284745
959.092 .0284575
959.713 .0284405
960.333 .0284238
960.952 .0284073
961.572 .0283910
962.191 .0283751
962.809 .0283594
963.428 .0283440
964.045 .0283289
964.663 .0283142
965.280 .0282999
965.897 .0282859
966.513 .0282724
967.129 .0282593
967.745 .0282467
968.361 .0282346
968.976 .0282230
969.590 .0282118
970.205 .0282011
970.818 .0281907
971.432 .0281808
972.045 .0281712
972.658 .0281619
973.271 .0281529
973.883 .0281441
974.495 .0281356
975.106 .0281271
975.717 .0281188
976.328 .0281105
976.938 .0281023
977.548 .0280941
978.158 .0280859
978.768 .0280732
979.377 .0280649
979.985 .0280566
980.594 .0280482
981.202 .0280398
981.809 .0280312
982.417 .0280227
983.024 .0280141
983.631 .0280056
984.237 .0279971
984.843 .0279887
985.449 .0279804
986.054 .0279722
986.659 .0279641
987.264 .0279604
987.868 .0279525
988.472 .0279446
989.076 .0279367
989.679 .0279288
990.282 .0279210
990.885 .0279132
991.487 .0279055
992.090 .0278979
992.691 .0278905
993.293 .0278831
993.894 .0278759
994.495 .0278687
995.095 .0278616
995.696 .0278544
996.296 .0278473
996.895 .0278402
997.494 .0278331
998.093 .0278260
998.692 .0278191
999.291 .0278122
999.889 .0278054
1000.487 .0277986
1001.084 .0277920
1001.681 .0277854
1002.278 .0277790
1002.875 .0277726
1003.471 .0277663
1004.067 .0277602
1004.663 .0277541
1005.258 .0277480
1005.854 .0277421
1006.449 .0277361
1007.043 .0277300
1007.638 .0277239
1008.232 .0277178
1008.826 .0277115
1009.419 .0277052
1010.012 .0276989
1010.605 .0276926
1011.198 .0276863
1011.791 .0276800
1012.383 .0276737
1012.975 .0276674
1013.566 .0276610
1014.158 .0276546
1014.749 .0276481
1015.340 .0276416
1015.931 .0276351
1016.521 .0276287
1017.111 .0276224
1017.701 .0276162
1018.291 .0276102
1018.880 .0276043
1019.470 .0275984
1020.059 .0275926
1020.647 .0275869
1021.236 .0275812
1021.824 .0275755
1022.412 .0275700
1023.000 .0275647
1023.588 .0275596
1024.175 .0275549
1024.762 .0275505
1025.349 .0275464
1025.936 .0275427
1026.523 .0275393
1027.109 .0275362
1027.695 .0275334
1028.281 .0275309
1028.867 .0275286
1029.452 .0275267
1030.038 .0275252
1030.623 .0275239
1031.208 .0275230
1031.792 .0275224
1032.377 .0275221
1032.961 .0275220
1033.546 .0275221
1034.130 .0275222
1034.714 .0275223
1035.297 .0275225
1035.881 .0275225
1036.464 .0275226
1037.047 .0275226
1037.630 .0275227
1038.213 .0275227
1038.796 .0275229
1039.378 .0275231
1039.961 .0275233
1040.543 .0275235
1041.125 .0275236
1041.707 .0275236
1042.289 .0275235
1042.871 .0275231
1043.452 .0275226
1044.034 .0275219
1044.615 .0275211
1045.196 .0275201
1045.777 .0275192
1046.358 .0275181
1046.939 .0275171
1047.520 .0275160
1048.101 .0275147
1048.681 .0275133
1049.262 .0275116
1049.842 .0275096
1050.422 .0275072
1051.002 .0275045
1051.582 .0275016
1052.162 .0274983
1052.742 .0274949
1053.322 .0274911
1053.902 .0274871
1054.482 .0274828
1055.061 .0274783
1055.641 .0274735
1056.220 .0274685
1056.800 .0274633
1057.379 .0274580
1057.958 .0274526
1058.538 .0274472
1059.117 .0274419
1059.696 .0274368
1060.275 .0274317
1060.854 .0274266
1061.433 .0274215
1062.012 .0274162
1062.592 .0274107
1063.171 .0274049
1063.750 .0273989
1064.329 .0273927
1064.908 .0273863
1065.487 .0273798
1066.066 .0273733
1066.645 .0273669
1067.224 .0273607
1067.803 .0273545
1068.382 .0273485
1068.961 .0273424
1069.540 .0273363
1070.119 .0273302
1070.698 .0273240
1071.278 .0273179
1071.857 .0273118
1072.436 .0273059
1073.016 .0273001
1073.595 .0272945
1074.175 .0272891
1074.754 .0272839
1075.334 .0272788
1075.913 .0272735
1076.493 .0272682
1077.073 .0272627
1077.653 .0272570
1078.233 .0272514
1078.813 .0272458
1079.393 .0272405
1079.974 .0272356
1080.554 .0272312
1081.135 .0272273
1081.716 .0272240
1082.296 .0272209
1082.877 .0272180
1083.458 .0272152
1084.040 .0272123
1084.621 .0272095
1085.202 .0272068
1085.784 .0272044
1086.366 .0272024
1086.948 .0272010
1087.530 .0272001
1088.112 .0271998
1088.695 .0271999
1089.277 .0272001
1089.860 .0272005
1090.443 .0272007
1091.026 .0272008
1091.610 .0272008
1092.193 .0272010
1092.777 .0272014
1093.361 .0272022
1093.946 .0272036
1094.530 .0272054
1095.115 .0272076
1095.700 .0272100
1096.285 .0272122
1096.871 .0272141
1097.456 .0272157
1098.042 .0272167
1098.628 .0272173
1099.215 .0272176
1099.802 .0272178
1100.389 .0272180
1100.976 .0272183
1101.564 .0272187
1102.152 .0272192
1102.740 .0272196
1103.329 .0272199
1103.917 .0272199
1104.507 .0272196
1105.096 .0272191
1105.686 .0272186
1106.276 .0272182
1106.867 .0272182
1107.457 .0272190
1108.049 .0272206
1108.640 .0272232
1109.232 .0272266
1109.825 .0272309
1110.417 .0272359
1111.010 .0272414
1111.604 .0272475
1112.198 .0272541
1112.792 .0272615
1113.387 .0272698
1113.982 .0272793
1114.577 .0272902
1115.173 .0273027
1115.769 .0273168
1116.366 .0273324
1116.963 .0273493
1117.561 .0273673
1118.159 .0273860
1118.758 .0274053
1119.357 .0274251
1119.957 .0274454
1120.557 .0274663
1121.157 .0274881
1121.758 .0275108
1122.360 .0275349
1122.962 .0275601
1123.564 .0275865
1124.167 .0275996
1124.771 .0276273
1125.375 .0276555
1125.980 .0276841
1126.585 .0277131
1127.191 .0277425
1127.797 .0277724
1128.404 .0278031
1129.012 .0278348
1129.620 .0278676
1130.229 .0279019
1130.838 .0279374
1131.448 .0279742
1132.058 .0280120
1132.669 .0280661
1133.281 .0281057
1133.894 .0281463
1134.507 .0281896
1135.120 .0282324
1135.735 .0282738
1136.350 .0283227
1136.965 .0283108
1137.582 .0283656
1138.199 .0284276
1138.816 .0284879
1139.435 .0285514
1140.054 .0286151
1140.674 .0286759
1141.294 .0287385
1141.916 .0287945
1142.538 .0288940
1143.160 .0288999
1143.784 .0288761
1144.408 .0290882
1145.033 .0290310
