Measurement Sequence started on: 14-45-04-498
Integration time: 36
Scans to Average: 2 
>>>>>Begin Spectral Data<<<<<
433.946 .0549360
434.870 .0464221
435.793 .0456775
436.715 .0420764
437.635 .0425223
438.555 .0440665
439.473 .0436889
440.389 .0437235
441.305 .0438464
442.219 .0440582
443.132 .0443385
444.044 .0442563
444.954 .0442102
445.863 .0443489
446.771 .0444587
447.678 .0444819
448.584 .0445194
449.488 .0445500
450.391 .0445693
451.293 .0445724
452.194 .0445614
453.094 .0445382
453.992 .0445040
454.890 .0444578
455.786 .0444011
456.681 .0443333
457.575 .0442558
458.468 .0441693
459.360 .0440756
460.250 .0439765
461.140 .0438741
462.028 .0437699
462.915 .0436654
463.801 .0435609
464.687 .0434566
465.571 .0433528
466.454 .0432499
467.335 .0431479
468.216 .0430475
469.096 .0429495
469.975 .0428545
470.853 .0427628
471.729 .0426751
472.605 .0425916
473.479 .0425129
474.353 .0424390
475.226 .0423697
476.097 .0423050
476.968 .0422454
477.838 .0421908
478.706 .0421415
479.574 .0420976
480.441 .0420592
481.306 .0420263
482.171 .0419981
483.035 .0419744
483.898 .0419544
484.760 .0419380
485.621 .0419248
486.481 .0419146
487.340 .0419073
488.198 .0419022
489.055 .0418992
489.912 .0418977
490.767 .0418971
491.622 .0418939
492.476 .0418906
493.329 .0418857
494.180 .0418787
495.032 .0418691
495.882 .0418570
496.731 .0418421
497.580 .0418239
498.427 .0418017
499.274 .0417751
500.120 .0417507
500.965 .0417152
501.809 .0416739
502.653 .0416267
503.495 .0415737
504.337 .0415154
505.178 .0414522
506.018 .0413848
506.858 .0413134
507.696 .0412389
508.534 .0411619
509.371 .0410831
510.208 .0410027
511.043 .0409215
511.878 .0408405
512.712 .0407608
513.545 .0406831
514.377 .0406086
515.209 .0405382
516.040 .0404732
516.870 .0404138
517.699 .0403602
518.528 .0403126
519.356 .0402711
520.183 .0402350
521.010 .0402036
521.836 .0401762
522.661 .0401521
523.485 .0401305
524.309 .0401103
525.132 .0400906
525.954 .0400701
526.776 .0400476
527.597 .0400220
528.417 .0399920
529.237 .0399563
530.056 .0399136
530.874 .0398633
531.692 .0398047
532.508 .0397371
533.325 .0396610
534.140 .0395771
534.955 .0394868
535.770 .0393912
536.583 .0392913
537.397 .0391884
538.209 .0390837
539.021 .0389785
539.832 .0388734
540.643 .0387693
541.453 .0386671
542.262 .0385675
543.071 .0384715
543.879 .0383802
544.687 .0382947
545.494 .0382157
546.300 .0381436
547.106 .0380787
547.911 .0380207
548.716 .0379694
549.520 .0379241
550.323 .0378840
551.126 .0378481
551.929 .0378155
552.731 .0377854
553.532 .0377574
554.332 .0377318
555.133 .0377085
555.932 .0376873
556.731 .0376683
557.530 .0376511
558.328 .0376351
559.125 .0376200
559.922 .0376050
560.719 .0375891
561.515 .0375718
562.310 .0375527
563.105 .0375316
563.899 .0375089
564.693 .0374849
565.487 .0374601
566.280 .0374352
567.072 .0374107
567.864 .0373865
568.655 .0373626
569.446 .0373389
570.236 .0373144
571.026 .0372882
571.816 .0372595
572.605 .0372275
573.393 .0371921
574.181 .0371534
574.969 .0371120
575.756 .0370685
576.543 .0370238
577.329 .0369788
578.115 .0369343
578.900 .0368906
579.685 .0368477
580.469 .0368057
581.253 .0367642
582.036 .0367232
582.820 .0366823
583.602 .0366418
584.384 .0366018
585.166 .0365625
585.947 .0365242
586.728 .0364873
587.509 .0364520
588.289 .0364186
589.069 .0363869
589.848 .0363568
590.627 .0363279
591.405 .0363000
592.183 .0362728
592.961 .0362461
593.738 .0362198
594.515 .0361937
595.291 .0361677
596.067 .0361418
596.843 .0361158
597.618 .0360898
598.393 .0360499
599.167 .0360234
599.941 .0359968
600.715 .0359701
601.488 .0359432
602.261 .0359162
603.034 .0358890
603.806 .0358615
604.578 .0358339
605.349 .0358061
606.121 .0357780
606.891 .0357641
607.662 .0357359
608.432 .0357077
609.201 .0356794
609.971 .0356512
610.740 .0356231
611.508 .0355951
612.277 .0355674
613.045 .0355400
613.812 .0355130
614.579 .0354864
615.346 .0354601
616.113 .0354341
616.879 .0354084
617.645 .0353827
618.411 .0353572
619.176 .0353315
619.941 .0353059
620.705 .0352803
621.470 .0352546
622.233 .0352290
622.997 .0352035
623.760 .0351781
624.523 .0351527
625.286 .0351275
626.048 .0351022
626.810 .0350771
627.572 .0350520
628.333 .0350270
629.095 .0350021
629.855 .0349773
630.616 .0349527
631.376 .0349284
632.136 .0349043
632.895 .0348804
633.655 .0348568
634.414 .0348333
635.172 .0348099
635.931 .0347866
636.689 .0347633
637.447 .0347399
638.204 .0347163
638.962 .0346925
639.718 .0346685
640.475 .0346443
641.231 .0346199
641.988 .0345953
642.743 .0345706
643.499 .0345458
644.254 .0345209
645.009 .0344957
645.764 .0344702
646.518 .0344444
647.272 .0344184
648.026 .0343919
648.780 .0343653
649.533 .0343383
650.286 .0343113
651.039 .0342844
651.792 .0342576
652.544 .0342310
653.296 .0342049
654.048 .0341792
654.799 .0341539
655.550 .0341292
656.301 .0341051
657.052 .0340816
657.802 .0340588
658.552 .0340367
659.302 .0340153
660.052 .0339947
660.801 .0339750
661.550 .0339561
662.299 .0339382
663.048 .0339212
663.796 .0339051
664.544 .0338897
665.292 .0338752
666.040 .0338614
666.787 .0338482
667.534 .0338356
668.281 .0338235
669.028 .0338117
669.774 .0338004
670.521 .0337893
671.266 .0337784
672.012 .0337676
672.758 .0337570
673.503 .0337464
674.248 .0337357
674.992 .0337250
675.737 .0337142
676.481 .0337031
677.225 .0336918
677.969 .0336800
678.712 .0336677
679.455 .0336547
680.199 .0336411
680.941 .0336267
681.684 .0336115
682.426 .0335955
683.168 .0335788
683.910 .0335614
684.652 .0335434
685.393 .0335248
686.134 .0335056
686.875 .0334860
687.616 .0334661
688.356 .0334458
689.097 .0334252
689.837 .0334045
690.576 .0333836
691.316 .0333627
692.055 .0333416
692.794 .0333206
693.533 .0332996
694.272 .0332788
695.010 .0332581
695.748 .0332376
696.486 .0332175
697.224 .0331976
697.962 .0331781
698.699 .0331589
699.436 .0331400
700.173 .0331213
700.909 .0331028
701.646 .0330844
702.382 .0330661
703.118 .0330478
703.853 .0330295
704.589 .0330111
705.324 .0329928
706.059 .0329744
706.794 .0329560
707.529 .0329375
708.263 .0329190
708.997 .0329006
709.731 .0328822
710.465 .0328639
711.198 .0328458
711.931 .0328279
712.664 .0328103
713.397 .0327930
714.130 .0327761
714.862 .0327595
715.594 .0327433
716.326 .0327277
717.058 .0327125
717.789 .0326978
718.520 .0326835
719.251 .0326697
719.982 .0326562
720.713 .0326430
721.443 .0326301
722.173 .0326173
722.903 .0326046
723.633 .0325919
724.362 .0325793
725.091 .0325667
725.820 .0325540
726.549 .0325412
727.278 .0325281
728.006 .0325147
728.734 .0325010
729.462 .0324869
730.190 .0324725
730.917 .0324577
731.644 .0324426
732.371 .0324272
733.098 .0324115
733.825 .0323956
734.551 .0323795
735.277 .0323633
736.003 .0323471
736.728 .0323309
737.454 .0323147
738.179 .0322986
738.904 .0322827
739.629 .0322669
740.353 .0322513
741.077 .0322357
741.801 .0322202
742.525 .0322047
743.249 .0321892
743.972 .0321736
744.695 .0321580
745.418 .0321422
746.141 .0321264
746.863 .0321103
747.585 .0320940
748.307 .0320773
749.029 .0320603
749.750 .0320429
750.472 .0320249
751.193 .0320064
751.913 .0319875
752.634 .0319681
753.354 .0319484
754.074 .0319284
754.794 .0319082
755.514 .0318880
756.233 .0318676
756.952 .0318473
757.671 .0318270
758.390 .0318068
759.108 .0317866
759.826 .0317666
760.544 .0317466
761.262 .0317268
761.979 .0317070
762.697 .0316874
763.414 .0316679
764.130 .0316487
764.847 .0316296
765.563 .0316108
766.279 .0315923
766.995 .0315741
767.710 .0315562
768.426 .0315386
769.141 .0315212
769.855 .0315041
770.570 .0314872
771.284 .0314706
771.998 .0314541
772.712 .0314377
773.426 .0314215
774.139 .0314055
774.852 .0313897
775.565 .0313741
776.277 .0313587
776.990 .0313436
777.702 .0313289
778.414 .0313147
779.125 .0313008
779.836 .0312875
780.547 .0312746
781.258 .0312622
781.969 .0312504
782.679 .0312389
783.389 .0312236
784.099 .0312133
784.808 .0312035
785.517 .0311942
786.226 .0311853
786.935 .0311767
787.643 .0311684
788.352 .0311604
789.060 .0311526
789.767 .0311448
790.475 .0311371
791.182 .0311293
791.889 .0311252
792.595 .0311171
793.301 .0311088
794.008 .0311001
794.713 .0310911
795.419 .0310817
796.124 .0310717
796.829 .0310612
797.534 .0310502
798.238 .0310387
798.942 .0310266
799.646 .0310141
800.350 .0310011
801.053 .0309876
801.756 .0309736
802.459 .0309590
803.162 .0309437
803.864 .0309277
804.566 .0309111
805.267 .0308937
805.969 .0308757
806.670 .0308571
807.371 .0308379
808.071 .0308183
808.772 .0307983
809.472 .0307780
810.171 .0307574
810.871 .0307366
811.570 .0307156
812.269 .0306945
812.967 .0306734
813.666 .0306521
814.364 .0306308
815.061 .0306095
815.759 .0305881
816.456 .0305667
817.153 .0305452
817.849 .0305236
818.545 .0305021
819.241 .0304805
819.937 .0304588
820.632 .0304371
821.327 .0304154
822.022 .0303937
822.717 .0303719
823.411 .0303500
824.105 .0303280
824.798 .0303058
825.491 .0302836
826.184 .0302612
826.877 .0302388
827.569 .0302164
828.261 .0301942
828.953 .0301722
829.645 .0301505
830.336 .0301291
831.027 .0301081
831.717 .0300875
832.407 .0300673
833.097 .0300475
833.787 .0300282
834.476 .0300092
835.165 .0299907
835.854 .0299727
836.542 .0299553
837.230 .0299384
837.918 .0299220
838.605 .0299062
839.292 .0298909
839.979 .0298761
840.665 .0298619
841.352 .0298481
842.037 .0298348
842.723 .0298219
843.408 .0298096
844.093 .0297977
844.777 .0297862
845.462 .0297750
846.145 .0297641
846.829 .0297535
847.512 .0297429
848.195 .0297325
848.878 .0297221
849.560 .0297117
850.242 .0297013
850.923 .0296909
851.605 .0296804
852.286 .0296699
852.966 .0296592
853.646 .0296485
854.326 .0296376
855.006 .0296266
855.685 .0296155
856.364 .0296044
857.043 .0295934
857.721 .0295825
858.399 .0295718
859.077 .0295613
859.754 .0295511
860.431 .0295412
861.107 .0295316
861.784 .0295222
862.459 .0295129
863.135 .0295038
863.810 .0294947
864.485 .0294856
865.160 .0294766
865.834 .0294675
866.508 .0294585
867.181 .0294494
867.854 .0294401
868.527 .0294307
869.199 .0294209
869.872 .0294108
870.543 .0294002
871.215 .0293890
871.886 .0293773
872.557 .0293651
873.227 .0293524
873.897 .0293392
874.567 .0293256
875.236 .0293115
875.905 .0292970
876.573 .0292820
877.242 .0292665
877.909 .0292504
878.577 .0292337
879.244 .0292165
879.911 .0291989
880.577 .0291809
881.243 .0291625
881.909 .0291440
882.575 .0291254
883.240 .0291067
883.904 .0290880
884.569 .0290694
885.232 .0290509
885.896 .0290326
886.559 .0290146
887.222 .0289968
887.885 .0289793
888.547 .0289621
889.208 .0289452
889.870 .0289287
890.531 .0289123
891.192 .0288962
891.852 .0288802
892.512 .0288642
893.171 .0288482
893.830 .0288320
894.489 .0288156
895.148 .0287990
895.806 .0287821
896.464 .0287649
897.121 .0287473
897.778 .0287293
898.434 .0287109
899.091 .0286814
899.747 .0286620
900.402 .0286423
901.057 .0286221
901.712 .0286016
902.366 .0285806
903.020 .0285593
903.674 .0285377
904.327 .0285159
904.980 .0284941
905.633 .0284721
906.285 .0284502
906.936 .0284282
907.588 .0284176
908.239 .0283958
908.889 .0283741
909.540 .0283524
910.190 .0283308
910.839 .0283094
911.488 .0282883
912.137 .0282675
912.785 .0282471
913.433 .0282272
914.081 .0282077
914.728 .0281886
915.375 .0281699
916.021 .0281516
916.668 .0281336
917.313 .0281160
917.959 .0280988
918.604 .0280821
919.248 .0280658
919.892 .0280500
920.536 .0280347
921.180 .0280199
921.823 .0280054
922.465 .0279913
923.108 .0279774
923.750 .0279637
924.391 .0279502
925.032 .0279369
925.673 .0279238
926.313 .0279109
926.953 .0278982
927.593 .0278857
928.232 .0278733
928.871 .0278611
929.510 .0278491
930.148 .0278371
930.786 .0278252
931.423 .0278135
932.060 .0278019
932.697 .0277906
933.333 .0277794
933.969 .0277685
934.604 .0277578
935.239 .0277473
935.874 .0277370
936.508 .0277269
937.142 .0277168
937.776 .0277068
938.409 .0276967
939.042 .0276867
939.674 .0276766
940.306 .0276663
940.938 .0276559
941.569 .0276453
942.200 .0276344
942.830 .0276234
943.460 .0276120
944.090 .0276005
944.720 .0275889
945.349 .0275771
945.977 .0275653
946.606 .0275536
947.233 .0275418
947.861 .0275299
948.488 .0275181
949.115 .0275061
949.741 .0274941
950.367 .0274820
950.993 .0274699
951.618 .0274578
952.243 .0274459
952.868 .0274340
953.492 .0274222
954.115 .0274105
954.739 .0273988
955.362 .0273871
955.984 .0273753
956.607 .0273634
957.229 .0273516
957.850 .0273397
958.471 .0273279
959.092 .0273163
959.713 .0273049
960.333 .0272935
960.952 .0272823
961.572 .0272712
962.191 .0272600
962.809 .0272487
963.428 .0272373
964.045 .0272258
964.663 .0272141
965.280 .0272024
965.897 .0271906
966.513 .0271786
967.129 .0271665
967.745 .0271542
968.361 .0271416
968.976 .0271287
969.590 .0271154
970.205 .0271020
970.818 .0270883
971.432 .0270746
972.045 .0270609
972.658 .0270472
973.271 .0270337
973.883 .0270204
974.495 .0270072
975.106 .0269943
975.717 .0269815
976.328 .0269689
976.938 .0269566
977.548 .0269444
978.158 .0269324
978.768 .0269154
979.377 .0269038
979.985 .0268924
980.594 .0268810
981.202 .0268696
981.809 .0268581
982.417 .0268466
983.024 .0268349
983.631 .0268232
984.237 .0268114
984.843 .0267994
985.449 .0267874
986.054 .0267752
986.659 .0267629
987.264 .0267558
987.868 .0267430
988.472 .0267300
989.076 .0267166
989.679 .0267031
990.282 .0266892
990.885 .0266752
991.487 .0266610
992.090 .0266468
992.691 .0266326
993.293 .0266183
993.894 .0266041
994.495 .0265897
995.095 .0265754
995.696 .0265609
996.296 .0265465
996.895 .0265320
997.494 .0265175
998.093 .0265032
998.692 .0264890
999.291 .0264750
999.889 .0264613
1000.487 .0264479
1001.084 .0264347
1001.681 .0264217
1002.278 .0264089
1002.875 .0263963
1003.471 .0263837
1004.067 .0263711
1004.663 .0263587
1005.258 .0263463
1005.854 .0263339
1006.449 .0263217
1007.043 .0263097
1007.638 .0262978
1008.232 .0262861
1008.826 .0262745
1009.419 .0262632
1010.012 .0262520
1010.605 .0262411
1011.198 .0262304
1011.791 .0262199
1012.383 .0262098
1012.975 .0262001
1013.566 .0261907
1014.158 .0261819
1014.749 .0261737
1015.340 .0261659
1015.931 .0261588
1016.521 .0261522
1017.111 .0261460
1017.701 .0261404
1018.291 .0261351
1018.880 .0261302
1019.470 .0261256
1020.059 .0261212
1020.647 .0261172
1021.236 .0261137
1021.824 .0261107
1022.412 .0261081
1023.000 .0261060
1023.588 .0261044
1024.175 .0261030
1024.762 .0261018
1025.349 .0261008
1025.936 .0260997
1026.523 .0260986
1027.109 .0260975
1027.695 .0260964
1028.281 .0260955
1028.867 .0260949
1029.452 .0260946
1030.038 .0260948
1030.623 .0260953
1031.208 .0260960
1031.792 .0260970
1032.377 .0260981
1032.961 .0260994
1033.546 .0261009
1034.130 .0261027
1034.714 .0261049
1035.297 .0261076
1035.881 .0261109
1036.464 .0261148
1037.047 .0261193
1037.630 .0261244
1038.213 .0261300
1038.796 .0261360
1039.378 .0261424
1039.961 .0261492
1040.543 .0261566
1041.125 .0261645
1041.707 .0261730
1042.289 .0261820
1042.871 .0261915
1043.452 .0262014
1044.034 .0262115
1044.615 .0262217
1045.196 .0262318
1045.777 .0262418
1046.358 .0262515
1046.939 .0262610
1047.520 .0262702
1048.101 .0262792
1048.681 .0262879
1049.262 .0262962
1049.842 .0263040
1050.422 .0263111
1051.002 .0263176
1051.582 .0263234
1052.162 .0263286
1052.742 .0263331
1053.322 .0263373
1053.902 .0263412
1054.482 .0263449
1055.061 .0263486
1055.641 .0263522
1056.220 .0263558
1056.800 .0263592
1057.379 .0263622
1057.958 .0263648
1058.538 .0263669
1059.117 .0263686
1059.696 .0263700
1060.275 .0263712
1060.854 .0263721
1061.433 .0263728
1062.012 .0263735
1062.592 .0263741
1063.171 .0263747
1063.750 .0263752
1064.329 .0263758
1064.908 .0263766
1065.487 .0263776
1066.066 .0263791
1066.645 .0263811
1067.224 .0263840
1067.803 .0263875
1068.382 .0263917
1068.961 .0263964
1069.540 .0264014
1070.119 .0264067
1070.698 .0264122
1071.278 .0264175
1071.857 .0264227
1072.436 .0264276
1073.016 .0264320
1073.595 .0264357
1074.175 .0264387
1074.754 .0264407
1075.334 .0264417
1075.913 .0264416
1076.493 .0264405
1077.073 .0264384
1077.653 .0264358
1078.233 .0264328
1078.813 .0264296
1079.393 .0264262
1079.974 .0264228
1080.554 .0264191
1081.135 .0264152
1081.716 .0264108
1082.296 .0264059
1082.877 .0264004
1083.458 .0263945
1084.040 .0263882
1084.621 .0263817
1085.202 .0263755
1085.784 .0263695
1086.366 .0263638
1086.948 .0263582
1087.530 .0263525
1088.112 .0263465
1088.695 .0263404
1089.277 .0263340
1089.860 .0263277
1090.443 .0263217
1091.026 .0263163
1091.610 .0263118
1092.193 .0263086
1092.777 .0263066
1093.361 .0263058
1093.946 .0263059
1094.530 .0263066
1095.115 .0263074
1095.700 .0263083
1096.285 .0263088
1096.871 .0263088
1097.456 .0263082
1098.042 .0263069
1098.628 .0263047
1099.215 .0263014
1099.802 .0262968
1100.389 .0262909
1100.976 .0262835
1101.564 .0262745
1102.152 .0262637
1102.740 .0262515
1103.329 .0262378
1103.917 .0262231
1104.507 .0262074
1105.096 .0261912
1105.686 .0261743
1106.276 .0261572
1106.867 .0261401
1107.457 .0261232
1108.049 .0261072
1108.640 .0260925
1109.232 .0260794
1109.825 .0260684
1110.417 .0260597
1111.010 .0260533
1111.604 .0260492
1112.198 .0260471
1112.792 .0260469
1113.387 .0260483
1113.982 .0260515
1114.577 .0260567
1115.173 .0260643
1115.769 .0260748
1116.366 .0260887
1116.963 .0261065
1117.561 .0261282
1118.159 .0261537
1118.758 .0261826
1119.357 .0262146
1119.957 .0262489
1120.557 .0262850
1121.157 .0263231
1121.758 .0263630
1122.360 .0264048
1122.962 .0264488
1123.564 .0264951
1124.167 .0265184
1124.771 .0265686
1125.375 .0266203
1125.980 .0266727
1126.585 .0267249
1127.191 .0267757
1127.797 .0268245
1128.404 .0268708
1129.012 .0269144
1129.620 .0269554
1130.229 .0269944
1130.838 .0270314
1131.448 .0270666
1132.058 .0271001
1132.669 .0271551
1133.281 .0271834
1133.894 .0272086
1134.507 .0272294
1135.120 .0272450
1135.735 .0272594
1136.350 .0272747
1136.965 .0274243
1137.582 .0274060
1138.199 .0273878
1138.816 .0273704
1139.435 .0273553
1140.054 .0273447
1140.674 .0273357
1141.294 .0273283
1141.916 .0273195
1142.538 .0272734
1143.160 .0272090
1143.784 .0272384
1144.408 .0273176
1145.033 .0272643
