Measurement Sequence started on: 14-45-04-498
Integration time: 36
Scans to Average: 2 
>>>>>Begin Spectral Data<<<<<
433.946 .0520508
434.870 .0433733
435.793 .0394980
436.715 .0381185
437.635 .0373745
438.555 .0385800
439.473 .0378619
440.389 .0375876
441.305 .0374940
442.219 .0374533
443.132 .0380374
444.044 .0377436
444.954 .0376528
445.863 .0376321
446.771 .0376469
447.678 .0375943
448.584 .0375756
449.488 .0375678
450.391 .0375617
451.293 .0375550
452.194 .0375473
453.094 .0375378
453.992 .0375256
454.890 .0375096
455.786 .0374876
456.681 .0374576
457.575 .0374186
458.468 .0373709
459.360 .0373155
460.250 .0372541
461.140 .0371887
462.028 .0371208
462.915 .0370522
463.801 .0369839
464.687 .0369160
465.571 .0368485
466.454 .0367810
467.335 .0367130
468.216 .0366442
469.096 .0365744
469.975 .0365043
470.853 .0364342
471.729 .0363647
472.605 .0362966
473.479 .0362303
474.353 .0361662
475.226 .0361045
476.097 .0360453
476.968 .0359886
477.838 .0359341
478.706 .0358817
479.574 .0358315
480.441 .0357836
481.306 .0357382
482.171 .0356953
483.035 .0356553
483.898 .0356181
484.760 .0355835
485.621 .0355512
486.481 .0355208
487.340 .0354920
488.198 .0354640
489.055 .0354366
489.912 .0354091
490.767 .0353815
491.622 .0353370
492.476 .0353079
493.329 .0352782
494.180 .0352478
495.032 .0352164
495.882 .0351838
496.731 .0351497
497.580 .0351139
498.427 .0350763
499.274 .0350371
500.120 .0350147
500.965 .0349746
501.809 .0349340
502.653 .0348938
503.495 .0348545
504.337 .0348166
505.178 .0347808
506.018 .0347476
506.858 .0347169
507.696 .0346889
508.534 .0346634
509.371 .0346402
510.208 .0346188
511.043 .0345994
511.878 .0345817
512.712 .0345660
513.545 .0345526
514.377 .0345417
515.209 .0345331
516.040 .0345268
516.870 .0345219
517.699 .0345173
518.528 .0345116
519.356 .0345037
520.183 .0344922
521.010 .0344765
521.836 .0344558
522.661 .0344298
523.485 .0343986
524.309 .0343630
525.132 .0343225
525.954 .0342776
526.776 .0342283
527.597 .0341750
528.417 .0341175
529.237 .0340563
530.056 .0339915
530.874 .0339232
531.692 .0338514
532.508 .0337765
533.325 .0336988
534.140 .0336190
534.955 .0335383
535.770 .0334576
536.583 .0333779
537.397 .0333004
538.209 .0332259
539.021 .0331553
539.832 .0330892
540.643 .0330275
541.453 .0329699
542.262 .0329164
543.071 .0328666
543.879 .0328202
544.687 .0327772
545.494 .0327376
546.300 .0327011
547.106 .0326676
547.911 .0326367
548.716 .0326083
549.520 .0325823
550.323 .0325584
551.126 .0325362
551.929 .0325152
552.731 .0324951
553.532 .0324757
554.332 .0324566
555.133 .0324379
555.932 .0324192
556.731 .0324003
557.530 .0323811
558.328 .0323618
559.125 .0323423
559.922 .0323229
560.719 .0323038
561.515 .0322848
562.310 .0322660
563.105 .0322472
563.899 .0322283
564.693 .0322091
565.487 .0321897
566.280 .0321699
567.072 .0321496
567.864 .0321289
568.655 .0321078
569.446 .0320863
570.236 .0320641
571.026 .0320412
571.816 .0320171
572.605 .0319918
573.393 .0319649
574.181 .0319364
574.969 .0319064
575.756 .0318747
576.543 .0318417
577.329 .0318075
578.115 .0317722
578.900 .0317360
579.685 .0316991
580.469 .0316618
581.253 .0316243
582.036 .0315868
582.820 .0315497
583.602 .0315134
584.384 .0314781
585.166 .0314443
585.947 .0314120
586.728 .0313813
587.509 .0313524
588.289 .0313253
589.069 .0312998
589.848 .0312756
590.627 .0312526
591.405 .0312308
592.183 .0312099
592.961 .0311897
593.738 .0311701
594.515 .0311511
595.291 .0311325
596.067 .0311141
596.843 .0310960
597.618 .0310778
598.393 .0310487
599.167 .0310298
599.941 .0310104
600.715 .0309905
601.488 .0309703
602.261 .0309497
603.034 .0309290
603.806 .0309082
604.578 .0308875
605.349 .0308669
606.121 .0308467
606.891 .0308376
607.662 .0308183
608.432 .0307993
609.201 .0307808
609.971 .0307627
610.740 .0307452
611.508 .0307283
612.277 .0307120
613.045 .0306964
613.812 .0306816
614.579 .0306674
615.346 .0306538
616.113 .0306407
616.879 .0306279
617.645 .0306154
618.411 .0306030
619.176 .0305905
619.941 .0305779
620.705 .0305650
621.470 .0305518
622.233 .0305382
622.997 .0305241
623.760 .0305096
624.523 .0304945
625.286 .0304790
626.048 .0304630
626.810 .0304465
627.572 .0304295
628.333 .0304121
629.095 .0303942
629.855 .0303758
630.616 .0303569
631.376 .0303376
632.136 .0303180
632.895 .0302980
633.655 .0302779
634.414 .0302578
635.172 .0302376
635.931 .0302175
636.689 .0301975
637.447 .0301776
638.204 .0301579
638.962 .0301383
639.718 .0301188
640.475 .0300996
641.231 .0300807
641.988 .0300622
642.743 .0300442
643.499 .0300267
644.254 .0300097
645.009 .0299931
645.764 .0299770
646.518 .0299612
647.272 .0299457
648.026 .0299305
648.780 .0299156
649.533 .0299009
650.286 .0298864
651.039 .0298722
651.792 .0298581
652.544 .0298443
653.296 .0298307
654.048 .0298173
654.799 .0298041
655.550 .0297911
656.301 .0297784
657.052 .0297660
657.802 .0297537
658.552 .0297416
659.302 .0297296
660.052 .0297177
660.801 .0297058
661.550 .0296940
662.299 .0296821
663.048 .0296704
663.796 .0296588
664.544 .0296475
665.292 .0296363
666.040 .0296255
666.787 .0296148
667.534 .0296044
668.281 .0295942
669.028 .0295840
669.774 .0295740
670.521 .0295640
671.266 .0295540
672.012 .0295440
672.758 .0295340
673.503 .0295239
674.248 .0295138
674.992 .0295036
675.737 .0294932
676.481 .0294826
677.225 .0294717
677.969 .0294606
678.712 .0294492
679.455 .0294375
680.199 .0294256
680.941 .0294135
681.684 .0294012
682.426 .0293888
683.168 .0293762
683.910 .0293635
684.652 .0293508
685.393 .0293381
686.134 .0293253
686.875 .0293127
687.616 .0293002
688.356 .0292879
689.097 .0292758
689.837 .0292639
690.576 .0292521
691.316 .0292405
692.055 .0292290
692.794 .0292175
693.533 .0292061
694.272 .0291947
695.010 .0291835
695.748 .0291724
696.486 .0291614
697.224 .0291504
697.962 .0291395
698.699 .0291286
699.436 .0291176
700.173 .0291065
700.909 .0290952
701.646 .0290837
702.382 .0290720
703.118 .0290602
703.853 .0290481
704.589 .0290359
705.324 .0290235
706.059 .0290110
706.794 .0289982
707.529 .0289853
708.263 .0289722
708.997 .0289590
709.731 .0289457
710.465 .0289322
711.198 .0289186
711.931 .0289050
712.664 .0288912
713.397 .0288773
714.130 .0288634
714.862 .0288495
715.594 .0288355
716.326 .0288215
717.058 .0288077
717.789 .0287939
718.520 .0287803
719.251 .0287668
719.982 .0287535
720.713 .0287403
721.443 .0287273
722.173 .0287144
722.903 .0287017
723.633 .0286893
724.362 .0286772
725.091 .0286654
725.820 .0286539
726.549 .0286428
727.278 .0286320
728.006 .0286214
728.734 .0286110
729.462 .0286007
730.190 .0285906
730.917 .0285806
731.644 .0285708
732.371 .0285610
733.098 .0285514
733.825 .0285419
734.551 .0285326
735.277 .0285235
736.003 .0285146
736.728 .0285059
737.454 .0284973
738.179 .0284888
738.904 .0284805
739.629 .0284724
740.353 .0284643
741.077 .0284562
741.801 .0284481
742.525 .0284400
743.249 .0284318
743.972 .0284234
744.695 .0284150
745.418 .0284064
746.141 .0283976
746.863 .0283886
747.585 .0283794
748.307 .0283698
749.029 .0283599
749.750 .0283496
750.472 .0283389
751.193 .0283277
751.913 .0283160
752.634 .0283038
753.354 .0282913
754.074 .0282785
754.794 .0282654
755.514 .0282522
756.233 .0282387
756.952 .0282252
757.671 .0282115
758.390 .0281976
759.108 .0281837
759.826 .0281697
760.544 .0281556
761.262 .0281416
761.979 .0281277
762.697 .0281140
763.414 .0281006
764.130 .0280874
764.847 .0280745
765.563 .0280620
766.279 .0280499
766.995 .0280381
767.710 .0280267
768.426 .0280157
769.141 .0280050
769.855 .0279947
770.570 .0279848
771.284 .0279751
771.998 .0279658
772.712 .0279568
773.426 .0279481
774.139 .0279397
774.852 .0279317
775.565 .0279242
776.277 .0279171
776.990 .0279105
777.702 .0279044
778.414 .0278986
779.125 .0278932
779.836 .0278882
780.547 .0278835
781.258 .0278790
781.969 .0278748
782.679 .0278709
783.389 .0278660
784.099 .0278627
784.808 .0278596
785.517 .0278567
786.226 .0278539
786.935 .0278512
787.643 .0278484
788.352 .0278456
789.060 .0278427
789.767 .0278398
790.475 .0278367
791.182 .0278336
791.889 .0278316
792.595 .0278283
793.301 .0278248
794.008 .0278210
794.713 .0278170
795.419 .0278127
796.124 .0278081
796.829 .0278032
797.534 .0277980
798.238 .0277925
798.942 .0277866
799.646 .0277804
800.350 .0277739
801.053 .0277669
801.756 .0277595
802.459 .0277516
803.162 .0277433
803.864 .0277346
804.566 .0277256
805.267 .0277161
805.969 .0277063
806.670 .0276961
807.371 .0276856
808.071 .0276747
808.772 .0276635
809.472 .0276518
810.171 .0276397
810.871 .0276272
811.570 .0276144
812.269 .0276012
812.967 .0275877
813.666 .0275738
814.364 .0275596
815.061 .0275451
815.759 .0275302
816.456 .0275150
817.153 .0274995
817.849 .0274837
818.545 .0274676
819.241 .0274513
819.937 .0274347
820.632 .0274178
821.327 .0274007
822.022 .0273833
822.717 .0273656
823.411 .0273478
824.105 .0273299
824.798 .0273119
825.491 .0272940
826.184 .0272762
826.877 .0272587
827.569 .0272414
828.261 .0272244
828.953 .0272078
829.645 .0271917
830.336 .0271761
831.027 .0271610
831.717 .0271466
832.407 .0271328
833.097 .0271199
833.787 .0271076
834.476 .0270961
835.165 .0270853
835.854 .0270751
836.542 .0270655
837.230 .0270565
837.918 .0270481
838.605 .0270401
839.292 .0270327
839.979 .0270257
840.665 .0270191
841.352 .0270130
842.037 .0270071
842.723 .0270015
843.408 .0269961
844.093 .0269910
844.777 .0269859
845.462 .0269811
846.145 .0269763
846.829 .0269717
847.512 .0269670
848.195 .0269624
848.878 .0269577
849.560 .0269529
850.242 .0269480
850.923 .0269430
851.605 .0269379
852.286 .0269327
852.966 .0269275
853.646 .0269222
854.326 .0269169
855.006 .0269116
855.685 .0269062
856.364 .0269008
857.043 .0268954
857.721 .0268899
858.399 .0268845
859.077 .0268792
859.754 .0268740
860.431 .0268689
861.107 .0268640
861.784 .0268591
862.459 .0268543
863.135 .0268495
863.810 .0268446
864.485 .0268397
865.160 .0268347
865.834 .0268295
866.508 .0268241
867.181 .0268185
867.854 .0268126
868.527 .0268064
869.199 .0267999
869.872 .0267930
870.543 .0267858
871.215 .0267783
871.886 .0267706
872.557 .0267625
873.227 .0267541
873.897 .0267454
874.567 .0267362
875.236 .0267266
875.905 .0267166
876.573 .0267060
877.242 .0266950
877.909 .0266836
878.577 .0266718
879.244 .0266597
879.911 .0266473
880.577 .0266346
881.243 .0266217
881.909 .0266086
882.575 .0265952
883.240 .0265817
883.904 .0265679
884.569 .0265541
885.232 .0265401
885.896 .0265262
886.559 .0265122
887.222 .0264983
887.885 .0264845
888.547 .0264707
889.208 .0264570
889.870 .0264434
890.531 .0264300
891.192 .0264166
891.852 .0264035
892.512 .0263904
893.171 .0263775
893.830 .0263647
894.489 .0263519
895.148 .0263390
895.806 .0263261
896.464 .0263131
897.121 .0263000
897.778 .0262869
898.434 .0262737
899.091 .0262540
899.747 .0262408
900.402 .0262276
901.057 .0262143
901.712 .0262010
902.366 .0261875
903.020 .0261740
903.674 .0261605
904.327 .0261468
904.980 .0261331
905.633 .0261194
906.285 .0261056
906.936 .0260918
907.588 .0260845
908.239 .0260706
908.889 .0260567
909.540 .0260428
910.190 .0260289
910.839 .0260150
911.488 .0260011
912.137 .0259874
912.785 .0259737
913.433 .0259601
914.081 .0259466
914.728 .0259331
915.375 .0259198
916.021 .0259066
916.668 .0258936
917.313 .0258807
917.959 .0258680
918.604 .0258555
919.248 .0258432
919.892 .0258310
920.536 .0258189
921.180 .0258069
921.823 .0257950
922.465 .0257833
923.108 .0257716
923.750 .0257601
924.391 .0257488
925.032 .0257377
925.673 .0257268
926.313 .0257160
926.953 .0257054
927.593 .0256949
928.232 .0256846
928.871 .0256744
929.510 .0256644
930.148 .0256546
930.786 .0256450
931.423 .0256357
932.060 .0256267
932.697 .0256179
933.333 .0256093
933.969 .0256010
934.604 .0255928
935.239 .0255848
935.874 .0255768
936.508 .0255690
937.142 .0255613
937.776 .0255536
938.409 .0255461
939.042 .0255386
939.674 .0255312
940.306 .0255238
940.938 .0255165
941.569 .0255091
942.200 .0255016
942.830 .0254941
943.460 .0254864
944.090 .0254787
944.720 .0254708
945.349 .0254628
945.977 .0254546
946.606 .0254463
947.233 .0254379
947.861 .0254292
948.488 .0254203
949.115 .0254111
949.741 .0254017
950.367 .0253921
950.993 .0253822
951.618 .0253722
952.243 .0253620
952.868 .0253518
953.492 .0253417
954.115 .0253316
954.739 .0253216
955.362 .0253119
955.984 .0253023
956.607 .0252928
957.229 .0252836
957.850 .0252745
958.471 .0252657
959.092 .0252571
959.713 .0252489
960.333 .0252410
960.952 .0252336
961.572 .0252264
962.191 .0252196
962.809 .0252131
963.428 .0252067
964.045 .0252004
964.663 .0251942
965.280 .0251880
965.897 .0251818
966.513 .0251756
967.129 .0251693
967.745 .0251629
968.361 .0251564
968.976 .0251497
969.590 .0251427
970.205 .0251355
970.818 .0251279
971.432 .0251200
972.045 .0251117
972.658 .0251031
973.271 .0250942
973.883 .0250850
974.495 .0250754
975.106 .0250656
975.717 .0250555
976.328 .0250451
976.938 .0250344
977.548 .0250233
978.158 .0250118
978.768 .0249935
979.377 .0249813
979.985 .0249687
980.594 .0249559
981.202 .0249428
981.809 .0249296
982.417 .0249161
983.024 .0249026
983.631 .0248890
984.237 .0248752
984.843 .0248614
985.449 .0248474
986.054 .0248333
986.659 .0248191
987.264 .0248119
987.868 .0247977
988.472 .0247836
989.076 .0247696
989.679 .0247559
990.282 .0247423
990.885 .0247290
991.487 .0247158
992.090 .0247029
992.691 .0246901
993.293 .0246774
993.894 .0246648
994.495 .0246523
995.095 .0246399
995.696 .0246278
996.296 .0246158
996.895 .0246040
997.494 .0245925
998.093 .0245813
998.692 .0245703
999.291 .0245595
999.889 .0245488
1000.487 .0245383
1001.084 .0245280
1001.681 .0245178
1002.278 .0245078
1002.875 .0244982
1003.471 .0244890
1004.067 .0244802
1004.663 .0244717
1005.258 .0244637
1005.854 .0244560
1006.449 .0244485
1007.043 .0244414
1007.638 .0244345
1008.232 .0244279
1008.826 .0244217
1009.419 .0244159
1010.012 .0244106
1010.605 .0244059
1011.198 .0244016
1011.791 .0243978
1012.383 .0243943
1012.975 .0243912
1013.566 .0243883
1014.158 .0243856
1014.749 .0243832
1015.340 .0243812
1015.931 .0243795
1016.521 .0243783
1017.111 .0243775
1017.701 .0243772
1018.291 .0243774
1018.880 .0243779
1019.470 .0243787
1020.059 .0243797
1020.647 .0243809
1021.236 .0243823
1021.824 .0243839
1022.412 .0243858
1023.000 .0243880
1023.588 .0243905
1024.175 .0243934
1024.762 .0243966
1025.349 .0244001
1025.936 .0244037
1026.523 .0244074
1027.109 .0244111
1027.695 .0244148
1028.281 .0244185
1028.867 .0244222
1029.452 .0244260
1030.038 .0244299
1030.623 .0244341
1031.208 .0244385
1031.792 .0244432
1032.377 .0244480
1032.961 .0244528
1033.546 .0244578
1034.130 .0244627
1034.714 .0244675
1035.297 .0244724
1035.881 .0244774
1036.464 .0244825
1037.047 .0244878
1037.630 .0244933
1038.213 .0244991
1038.796 .0245050
1039.378 .0245110
1039.961 .0245171
1040.543 .0245230
1041.125 .0245288
1041.707 .0245344
1042.289 .0245398
1042.871 .0245448
1043.452 .0245496
1044.034 .0245542
1044.615 .0245586
1045.196 .0245627
1045.777 .0245666
1046.358 .0245703
1046.939 .0245737
1047.520 .0245769
1048.101 .0245798
1048.681 .0245824
1049.262 .0245849
1049.842 .0245871
1050.422 .0245893
1051.002 .0245914
1051.582 .0245937
1052.162 .0245960
1052.742 .0245985
1053.322 .0246012
1053.902 .0246040
1054.482 .0246068
1055.061 .0246095
1055.641 .0246122
1056.220 .0246148
1056.800 .0246173
1057.379 .0246196
1057.958 .0246219
1058.538 .0246240
1059.117 .0246260
1059.696 .0246279
1060.275 .0246299
1060.854 .0246317
1061.433 .0246335
1062.012 .0246352
1062.592 .0246368
1063.171 .0246383
1063.750 .0246396
1064.329 .0246408
1064.908 .0246419
1065.487 .0246428
1066.066 .0246436
1066.645 .0246443
1067.224 .0246449
1067.803 .0246453
1068.382 .0246456
1068.961 .0246457
1069.540 .0246456
1070.119 .0246453
1070.698 .0246447
1071.278 .0246440
1071.857 .0246430
1072.436 .0246418
1073.016 .0246404
1073.595 .0246387
1074.175 .0246368
1074.754 .0246346
1075.334 .0246321
1075.913 .0246292
1076.493 .0246258
1077.073 .0246219
1077.653 .0246175
1078.233 .0246125
1078.813 .0246070
1079.393 .0246010
1079.974 .0245946
1080.554 .0245878
1081.135 .0245807
1081.716 .0245735
1082.296 .0245662
1082.877 .0245588
1083.458 .0245514
1084.040 .0245440
1084.621 .0245365
1085.202 .0245290
1085.784 .0245214
1086.366 .0245138
1086.948 .0245060
1087.530 .0244982
1088.112 .0244902
1088.695 .0244823
1089.277 .0244743
1089.860 .0244663
1090.443 .0244582
1091.026 .0244499
1091.610 .0244416
1092.193 .0244332
1092.777 .0244246
1093.361 .0244159
1093.946 .0244072
1094.530 .0243984
1095.115 .0243899
1095.700 .0243818
1096.285 .0243741
1096.871 .0243668
1097.456 .0243600
1098.042 .0243537
1098.628 .0243477
1099.215 .0243420
1099.802 .0243365
1100.389 .0243314
1100.976 .0243266
1101.564 .0243225
1102.152 .0243191
1102.740 .0243169
1103.329 .0243158
1103.917 .0243161
1104.507 .0243176
1105.096 .0243203
1105.686 .0243240
1106.276 .0243286
1106.867 .0243342
1107.457 .0243405
1108.049 .0243478
1108.640 .0243558
1109.232 .0243647
1109.825 .0243743
1110.417 .0243845
1111.010 .0243950
1111.604 .0244056
1112.198 .0244158
1112.792 .0244254
1113.387 .0244342
1113.982 .0244421
1114.577 .0244492
1115.173 .0244554
1115.769 .0244610
1116.366 .0244661
1116.963 .0244709
1117.561 .0244755
1118.159 .0244801
1118.758 .0244848
1119.357 .0244894
1119.957 .0244941
1120.557 .0244987
1121.157 .0245035
1121.758 .0245085
1122.360 .0245139
1122.962 .0245199
1123.564 .0245267
1124.167 .0245258
1124.771 .0245328
1125.375 .0245409
1125.980 .0245500
1126.585 .0245605
1127.191 .0245723
1127.797 .0245858
1128.404 .0246011
1129.012 .0246182
1129.620 .0246375
1130.229 .0246588
1130.838 .0246823
1131.448 .0247080
1132.058 .0247360
1132.669 .0247797
1133.281 .0248136
1133.894 .0248498
1134.507 .0248901
1135.120 .0249322
1135.735 .0249801
1136.350 .0250054
1136.965 .0250656
1137.582 .0251015
1138.199 .0251337
1138.816 .0251627
1139.435 .0251958
1140.054 .0252333
1140.674 .0252800
1141.294 .0253137
1141.916 .0253659
1142.538 .0254821
1143.160 .0255388
1143.784 .0257120
1144.408 .0251244
1145.033 .0258023
