Measurement Sequence started on: 14-45-04-498
Integration time: 36
Scans to Average: 2 
>>>>>Begin Spectral Data<<<<<
433.946 .0528649
434.870 .0546202
435.793 .0518780
436.715 .0515631
437.635 .0504379
438.555 .0498482
439.473 .0492129
440.389 .0486141
441.305 .0481867
442.219 .0478325
443.132 .0485738
444.044 .0481581
444.954 .0478843
445.863 .0476241
446.771 .0474197
447.678 .0472433
448.584 .0470965
449.488 .0469774
450.391 .0468769
451.293 .0467910
452.194 .0467150
453.094 .0466445
453.992 .0465780
454.890 .0465133
455.786 .0464488
456.681 .0463841
457.575 .0463174
458.468 .0462488
459.360 .0461773
460.250 .0461029
461.140 .0460253
462.028 .0459445
462.915 .0458610
463.801 .0457752
464.687 .0456868
465.571 .0455966
466.454 .0455044
467.335 .0454102
468.216 .0453142
469.096 .0452166
469.975 .0451173
470.853 .0450161
471.729 .0449136
472.605 .0448101
473.479 .0447062
474.353 .0446030
475.226 .0445012
476.097 .0444020
476.968 .0443065
477.838 .0442151
478.706 .0441284
479.574 .0440466
480.441 .0439699
481.306 .0438986
482.171 .0438325
483.035 .0437716
483.898 .0437159
484.760 .0436656
485.621 .0436209
486.481 .0435817
487.340 .0435484
488.198 .0435208
489.055 .0434982
489.912 .0434801
490.767 .0434652
491.622 .0434477
492.476 .0434342
493.329 .0434202
494.180 .0434051
495.032 .0433890
495.882 .0433714
496.731 .0433528
497.580 .0433337
498.427 .0433137
499.274 .0432929
500.120 .0432789
500.965 .0432565
501.809 .0432325
502.653 .0432065
503.495 .0431786
504.337 .0431489
505.178 .0431184
506.018 .0430875
506.858 .0430570
507.696 .0430276
508.534 .0429999
509.371 .0429736
510.208 .0429488
511.043 .0429251
511.878 .0429017
512.712 .0428783
513.545 .0428547
514.377 .0428305
515.209 .0428058
516.040 .0427807
516.870 .0427554
517.699 .0427293
518.528 .0427023
519.356 .0426732
520.183 .0426417
521.010 .0426075
521.836 .0425699
522.661 .0425286
523.485 .0424842
524.309 .0424365
525.132 .0423859
525.954 .0423327
526.776 .0422777
527.597 .0422207
528.417 .0421624
529.237 .0421028
530.056 .0420418
530.874 .0419799
531.692 .0419170
532.508 .0418529
533.325 .0417879
534.140 .0417218
534.955 .0416543
535.770 .0415857
536.583 .0415167
537.397 .0414474
538.209 .0413777
539.021 .0413077
539.832 .0412373
540.643 .0411659
541.453 .0410935
542.262 .0410201
543.071 .0409459
543.879 .0408719
544.687 .0407984
545.494 .0407260
546.300 .0406555
547.106 .0405873
547.911 .0405211
548.716 .0404564
549.520 .0403931
550.323 .0403307
551.126 .0402692
551.929 .0402094
552.731 .0401518
553.532 .0400970
554.332 .0400453
555.133 .0399970
555.932 .0399518
556.731 .0399091
557.530 .0398679
558.328 .0398272
559.125 .0397861
559.922 .0397438
560.719 .0396995
561.515 .0396533
562.310 .0396054
563.105 .0395559
563.899 .0395051
564.693 .0394533
565.487 .0394011
566.280 .0393489
567.072 .0392969
567.864 .0392453
568.655 .0391940
569.446 .0391429
570.236 .0390919
571.026 .0390410
571.816 .0389898
572.605 .0389384
573.393 .0388872
574.181 .0388364
574.969 .0387865
575.756 .0387377
576.543 .0386901
577.329 .0386439
578.115 .0385987
578.900 .0385541
579.685 .0385094
580.469 .0384645
581.253 .0384186
582.036 .0383716
582.820 .0383231
583.602 .0382732
584.384 .0382219
585.166 .0381697
585.947 .0381168
586.728 .0380636
587.509 .0380103
588.289 .0379573
589.069 .0379048
589.848 .0378527
590.627 .0378013
591.405 .0377504
592.183 .0377003
592.961 .0376510
593.738 .0376027
594.515 .0375560
595.291 .0375109
596.067 .0374677
596.843 .0374268
597.618 .0373880
598.393 .0373375
599.167 .0373037
599.941 .0372718
600.715 .0372414
601.488 .0372122
602.261 .0371840
603.034 .0371567
603.806 .0371301
604.578 .0371043
605.349 .0370791
606.121 .0370546
606.891 .0370437
607.662 .0370197
608.432 .0369963
609.201 .0369733
609.971 .0369506
610.740 .0369279
611.508 .0369050
612.277 .0368818
613.045 .0368582
613.812 .0368340
614.579 .0368094
615.346 .0367845
616.113 .0367592
616.879 .0367337
617.645 .0367078
618.411 .0366817
619.176 .0366552
619.941 .0366282
620.705 .0366006
621.470 .0365725
622.233 .0365439
622.997 .0365148
623.760 .0364853
624.523 .0364556
625.286 .0364256
626.048 .0363955
626.810 .0363652
627.572 .0363348
628.333 .0363042
629.095 .0362736
629.855 .0362428
630.616 .0362116
631.376 .0361801
632.136 .0361482
632.895 .0361157
633.655 .0360826
634.414 .0360491
635.172 .0360151
635.931 .0359810
636.689 .0359467
637.447 .0359124
638.204 .0358783
638.962 .0358444
639.718 .0358107
640.475 .0357772
641.231 .0357438
641.988 .0357106
642.743 .0356776
643.499 .0356448
644.254 .0356124
645.009 .0355805
645.764 .0355491
646.518 .0355184
647.272 .0354885
648.026 .0354593
648.780 .0354309
649.533 .0354033
650.286 .0353765
651.039 .0353505
651.792 .0353252
652.544 .0353006
653.296 .0352767
654.048 .0352534
654.799 .0352309
655.550 .0352090
656.301 .0351877
657.052 .0351671
657.802 .0351470
658.552 .0351275
659.302 .0351084
660.052 .0350895
660.801 .0350708
661.550 .0350520
662.299 .0350331
663.048 .0350141
663.796 .0349949
664.544 .0349756
665.292 .0349561
666.040 .0349366
666.787 .0349169
667.534 .0348970
668.281 .0348770
669.028 .0348568
669.774 .0348365
670.521 .0348160
671.266 .0347954
672.012 .0347747
672.758 .0347539
673.503 .0347330
674.248 .0347121
674.992 .0346911
675.737 .0346701
676.481 .0346491
677.225 .0346283
677.969 .0346076
678.712 .0345872
679.455 .0345672
680.199 .0345476
680.941 .0345284
681.684 .0345096
682.426 .0344911
683.168 .0344728
683.910 .0344547
684.652 .0344368
685.393 .0344191
686.134 .0344016
686.875 .0343843
687.616 .0343671
688.356 .0343500
689.097 .0343328
689.837 .0343155
690.576 .0342980
691.316 .0342803
692.055 .0342622
692.794 .0342439
693.533 .0342254
694.272 .0342068
695.010 .0341880
695.748 .0341693
696.486 .0341506
697.224 .0341317
697.962 .0341129
698.699 .0340940
699.436 .0340752
700.173 .0340565
700.909 .0340379
701.646 .0340195
702.382 .0340014
703.118 .0339836
703.853 .0339661
704.589 .0339489
705.324 .0339319
706.059 .0339152
706.794 .0338988
707.529 .0338825
708.263 .0338666
708.997 .0338510
709.731 .0338358
710.465 .0338210
711.198 .0338065
711.931 .0337924
712.664 .0337785
713.397 .0337650
714.130 .0337516
714.862 .0337384
715.594 .0337253
716.326 .0337122
717.058 .0336991
717.789 .0336860
718.520 .0336728
719.251 .0336597
719.982 .0336467
720.713 .0336337
721.443 .0336210
722.173 .0336083
722.903 .0335959
723.633 .0335835
724.362 .0335712
725.091 .0335588
725.820 .0335463
726.549 .0335337
727.278 .0335210
728.006 .0335081
728.734 .0334951
729.462 .0334820
730.190 .0334690
730.917 .0334561
731.644 .0334433
732.371 .0334306
733.098 .0334179
733.825 .0334054
734.551 .0333929
735.277 .0333805
736.003 .0333681
736.728 .0333558
737.454 .0333435
738.179 .0333311
738.904 .0333188
739.629 .0333066
740.353 .0332944
741.077 .0332823
741.801 .0332703
742.525 .0332585
743.249 .0332468
743.972 .0332352
744.695 .0332237
745.418 .0332122
746.141 .0332006
746.863 .0331888
747.585 .0331769
748.307 .0331647
749.029 .0331525
749.750 .0331402
750.472 .0331280
751.193 .0331159
751.913 .0331039
752.634 .0330922
753.354 .0330805
754.074 .0330691
754.794 .0330578
755.514 .0330467
756.233 .0330358
756.952 .0330250
757.671 .0330145
758.390 .0330042
759.108 .0329942
759.826 .0329845
760.544 .0329751
761.262 .0329660
761.979 .0329572
762.697 .0329488
763.414 .0329406
764.130 .0329329
764.847 .0329255
765.563 .0329185
766.279 .0329117
766.995 .0329052
767.710 .0328988
768.426 .0328924
769.141 .0328860
769.855 .0328795
770.570 .0328730
771.284 .0328663
771.998 .0328595
772.712 .0328527
773.426 .0328457
774.139 .0328387
774.852 .0328317
775.565 .0328245
776.277 .0328172
776.990 .0328096
777.702 .0328018
778.414 .0327937
779.125 .0327854
779.836 .0327768
780.547 .0327679
781.258 .0327588
781.969 .0327496
782.679 .0327402
783.389 .0327257
784.099 .0327162
784.808 .0327068
785.517 .0326972
786.226 .0326875
786.935 .0326777
787.643 .0326676
788.352 .0326573
789.060 .0326467
789.767 .0326358
790.475 .0326246
791.182 .0326131
791.889 .0326070
792.595 .0325951
793.301 .0325830
794.008 .0325708
794.713 .0325584
795.419 .0325459
796.124 .0325332
796.829 .0325204
797.534 .0325075
798.238 .0324944
798.942 .0324812
799.646 .0324680
800.350 .0324549
801.053 .0324420
801.756 .0324293
802.459 .0324169
803.162 .0324048
803.864 .0323931
804.566 .0323818
805.267 .0323709
805.969 .0323605
806.670 .0323505
807.371 .0323411
808.071 .0323323
808.772 .0323241
809.472 .0323164
810.171 .0323094
810.871 .0323028
811.570 .0322967
812.269 .0322911
812.967 .0322857
813.666 .0322807
814.364 .0322760
815.061 .0322715
815.759 .0322672
816.456 .0322631
817.153 .0322590
817.849 .0322550
818.545 .0322509
819.241 .0322467
819.937 .0322423
820.632 .0322378
821.327 .0322331
822.022 .0322283
822.717 .0322234
823.411 .0322184
824.105 .0322132
824.798 .0322078
825.491 .0322020
826.184 .0321959
826.877 .0321893
827.569 .0321821
828.261 .0321745
828.953 .0321663
829.645 .0321576
830.336 .0321484
831.027 .0321386
831.717 .0321282
832.407 .0321171
833.097 .0321055
833.787 .0320932
834.476 .0320803
835.165 .0320668
835.854 .0320526
836.542 .0320380
837.230 .0320228
837.918 .0320072
838.605 .0319911
839.292 .0319747
839.979 .0319581
840.665 .0319412
841.352 .0319243
842.037 .0319074
842.723 .0318906
843.408 .0318738
844.093 .0318572
844.777 .0318407
845.462 .0318244
846.145 .0318082
846.829 .0317923
847.512 .0317766
848.195 .0317613
848.878 .0317465
849.560 .0317321
850.242 .0317182
850.923 .0317048
851.605 .0316918
852.286 .0316790
852.966 .0316664
853.646 .0316539
854.326 .0316416
855.006 .0316295
855.685 .0316176
856.364 .0316058
857.043 .0315943
857.721 .0315830
858.399 .0315720
859.077 .0315613
859.754 .0315508
860.431 .0315407
861.107 .0315309
861.784 .0315215
862.459 .0315125
863.135 .0315040
863.810 .0314959
864.485 .0314883
865.160 .0314810
865.834 .0314740
866.508 .0314674
867.181 .0314611
867.854 .0314553
868.527 .0314498
869.199 .0314447
869.872 .0314401
870.543 .0314358
871.215 .0314318
871.886 .0314280
872.557 .0314243
873.227 .0314207
873.897 .0314171
874.567 .0314134
875.236 .0314096
875.905 .0314057
876.573 .0314015
877.242 .0313971
877.909 .0313925
878.577 .0313876
879.244 .0313825
879.911 .0313771
880.577 .0313715
881.243 .0313656
881.909 .0313595
882.575 .0313532
883.240 .0313466
883.904 .0313397
884.569 .0313325
885.232 .0313249
885.896 .0313170
886.559 .0313087
887.222 .0313000
887.885 .0312909
888.547 .0312814
889.208 .0312714
889.870 .0312609
890.531 .0312499
891.192 .0312382
891.852 .0312259
892.512 .0312129
893.171 .0311992
893.830 .0311847
894.489 .0311695
895.148 .0311535
895.806 .0311367
896.464 .0311190
897.121 .0311004
897.778 .0310809
898.434 .0310607
899.091 .0310273
899.747 .0310058
900.402 .0309840
901.057 .0309620
901.712 .0309398
902.366 .0309174
903.020 .0308950
903.674 .0308724
904.327 .0308499
904.980 .0308274
905.633 .0308051
906.285 .0307830
906.936 .0307614
907.588 .0307523
908.239 .0307316
908.889 .0307115
909.540 .0306921
910.190 .0306734
910.839 .0306553
911.488 .0306379
912.137 .0306212
912.785 .0306052
913.433 .0305900
914.081 .0305756
914.728 .0305619
915.375 .0305489
916.021 .0305366
916.668 .0305249
917.313 .0305136
917.959 .0305026
918.604 .0304920
919.248 .0304817
919.892 .0304716
920.536 .0304619
921.180 .0304524
921.823 .0304433
922.465 .0304345
923.108 .0304261
923.750 .0304179
924.391 .0304099
925.032 .0304022
925.673 .0303947
926.313 .0303874
926.953 .0303802
927.593 .0303733
928.232 .0303665
928.871 .0303600
929.510 .0303537
930.148 .0303475
930.786 .0303415
931.423 .0303356
932.060 .0303296
932.697 .0303236
933.333 .0303174
933.969 .0303111
934.604 .0303046
935.239 .0302977
935.874 .0302905
936.508 .0302828
937.142 .0302747
937.776 .0302661
938.409 .0302571
939.042 .0302477
939.674 .0302379
940.306 .0302277
940.938 .0302170
941.569 .0302057
942.200 .0301938
942.830 .0301813
943.460 .0301680
944.090 .0301539
944.720 .0301392
945.349 .0301237
945.977 .0301075
946.606 .0300906
947.233 .0300731
947.861 .0300549
948.488 .0300359
949.115 .0300163
949.741 .0299960
950.367 .0299750
950.993 .0299533
951.618 .0299309
952.243 .0299081
952.868 .0298848
953.492 .0298611
954.115 .0298370
954.739 .0298126
955.362 .0297878
955.984 .0297627
956.607 .0297372
957.229 .0297115
957.850 .0296855
958.471 .0296593
959.092 .0296330
959.713 .0296068
960.333 .0295806
960.952 .0295545
961.572 .0295284
962.191 .0295025
962.809 .0294766
963.428 .0294508
964.045 .0294251
964.663 .0293995
965.280 .0293743
965.897 .0293494
966.513 .0293249
967.129 .0293011
967.745 .0292779
968.361 .0292554
968.976 .0292338
969.590 .0292130
970.205 .0291931
970.818 .0291741
971.432 .0291560
972.045 .0291388
972.658 .0291224
973.271 .0291069
973.883 .0290921
974.495 .0290781
975.106 .0290647
975.717 .0290520
976.328 .0290398
976.938 .0290282
977.548 .0290171
978.158 .0290063
978.768 .0289925
979.377 .0289827
979.985 .0289733
980.594 .0289644
981.202 .0289560
981.809 .0289484
982.417 .0289415
983.024 .0289354
983.631 .0289300
984.237 .0289253
984.843 .0289213
985.449 .0289178
986.054 .0289148
986.659 .0289123
987.264 .0289123
987.868 .0289105
988.472 .0289093
989.076 .0289085
989.679 .0289082
990.282 .0289084
990.885 .0289091
991.487 .0289101
992.090 .0289116
992.691 .0289134
993.293 .0289157
993.894 .0289184
994.495 .0289216
995.095 .0289253
995.696 .0289297
996.296 .0289348
996.895 .0289406
997.494 .0289472
998.093 .0289545
998.692 .0289624
999.291 .0289709
999.889 .0289800
1000.487 .0289896
1001.084 .0289995
1001.681 .0290098
1002.278 .0290203
1002.875 .0290311
1003.471 .0290419
1004.067 .0290527
1004.663 .0290634
1005.258 .0290741
1005.854 .0290845
1006.449 .0290948
1007.043 .0291047
1007.638 .0291145
1008.232 .0291239
1008.826 .0291331
1009.419 .0291419
1010.012 .0291503
1010.605 .0291582
1011.198 .0291656
1011.791 .0291725
1012.383 .0291788
1012.975 .0291844
1013.566 .0291895
1014.158 .0291940
1014.749 .0291978
1015.340 .0292010
1015.931 .0292036
1016.521 .0292055
1017.111 .0292067
1017.701 .0292072
1018.291 .0292069
1018.880 .0292058
1019.470 .0292040
1020.059 .0292015
1020.647 .0291983
1021.236 .0291945
1021.824 .0291902
1022.412 .0291854
1023.000 .0291802
1023.588 .0291746
1024.175 .0291685
1024.762 .0291619
1025.349 .0291548
1025.936 .0291472
1026.523 .0291389
1027.109 .0291301
1027.695 .0291207
1028.281 .0291107
1028.867 .0291001
1029.452 .0290890
1030.038 .0290774
1030.623 .0290654
1031.208 .0290529
1031.792 .0290400
1032.377 .0290268
1032.961 .0290130
1033.546 .0289989
1034.130 .0289843
1034.714 .0289693
1035.297 .0289539
1035.881 .0289384
1036.464 .0289226
1037.047 .0289068
1037.630 .0288909
1038.213 .0288749
1038.796 .0288590
1039.378 .0288429
1039.961 .0288268
1040.543 .0288105
1041.125 .0287940
1041.707 .0287774
1042.289 .0287606
1042.871 .0287438
1043.452 .0287269
1044.034 .0287101
1044.615 .0286934
1045.196 .0286770
1045.777 .0286607
1046.358 .0286447
1046.939 .0286290
1047.520 .0286134
1048.101 .0285981
1048.681 .0285830
1049.262 .0285680
1049.842 .0285530
1050.422 .0285382
1051.002 .0285235
1051.582 .0285090
1052.162 .0284949
1052.742 .0284813
1053.322 .0284682
1053.902 .0284559
1054.482 .0284443
1055.061 .0284337
1055.641 .0284239
1056.220 .0284150
1056.800 .0284068
1057.379 .0283994
1057.958 .0283926
1058.538 .0283866
1059.117 .0283813
1059.696 .0283768
1060.275 .0283732
1060.854 .0283704
1061.433 .0283686
1062.012 .0283675
1062.592 .0283670
1063.171 .0283670
1063.750 .0283673
1064.329 .0283677
1064.908 .0283680
1065.487 .0283683
1066.066 .0283687
1066.645 .0283692
1067.224 .0283700
1067.803 .0283712
1068.382 .0283728
1068.961 .0283747
1069.540 .0283769
1070.119 .0283792
1070.698 .0283814
1071.278 .0283835
1071.857 .0283852
1072.436 .0283865
1073.016 .0283877
1073.595 .0283888
1074.175 .0283900
1074.754 .0283914
1075.334 .0283931
1075.913 .0283951
1076.493 .0283974
1077.073 .0284000
1077.653 .0284027
1078.233 .0284055
1078.813 .0284081
1079.393 .0284107
1079.974 .0284133
1080.554 .0284160
1081.135 .0284190
1081.716 .0284225
1082.296 .0284265
1082.877 .0284312
1083.458 .0284364
1084.040 .0284422
1084.621 .0284486
1085.202 .0284556
1085.784 .0284631
1086.366 .0284713
1086.948 .0284801
1087.530 .0284897
1088.112 .0285002
1088.695 .0285118
1089.277 .0285243
1089.860 .0285379
1090.443 .0285524
1091.026 .0285679
1091.610 .0285840
1092.193 .0286007
1092.777 .0286179
1093.361 .0286356
1093.946 .0286535
1094.530 .0286715
1095.115 .0286894
1095.700 .0287074
1096.285 .0287251
1096.871 .0287424
1097.456 .0287594
1098.042 .0287759
1098.628 .0287919
1099.215 .0288073
1099.802 .0288222
1100.389 .0288362
1100.976 .0288493
1101.564 .0288613
1102.152 .0288720
1102.740 .0288816
1103.329 .0288899
1103.917 .0288969
1104.507 .0289029
1105.096 .0289078
1105.686 .0289115
1106.276 .0289144
1106.867 .0289163
1107.457 .0289173
1108.049 .0289173
1108.640 .0289165
1109.232 .0289151
1109.825 .0289131
1110.417 .0289106
1111.010 .0289079
1111.604 .0289052
1112.198 .0289025
1112.792 .0289000
1113.387 .0288980
1113.982 .0288965
1114.577 .0288955
1115.173 .0288950
1115.769 .0288947
1116.366 .0288946
1116.963 .0288946
1117.561 .0288947
1118.159 .0288950
1118.758 .0288952
1119.357 .0288956
1119.957 .0288960
1120.557 .0288966
1121.157 .0288973
1121.758 .0288983
1122.360 .0288995
1122.962 .0289008
1123.564 .0289023
1124.167 .0289042
1124.771 .0289056
1125.375 .0289071
1125.980 .0289089
1126.585 .0289111
1127.191 .0289139
1127.797 .0289175
1128.404 .0289224
1129.012 .0289290
1129.620 .0289377
1130.229 .0289489
1130.838 .0289628
1131.448 .0289799
1132.058 .0290005
1132.669 .0290283
1133.281 .0290597
1133.894 .0290982
1134.507 .0291358
1135.120 .0291869
1135.735 .0292490
1136.350 .0293199
1136.965 .0291130
1137.582 .0291797
1138.199 .0292568
1138.816 .0293393
1139.435 .0294299
1140.054 .0295330
1140.674 .0296528
1141.294 .0297895
1141.916 .0299721
1142.538 .0299377
1143.160 .0302894
1143.784 .0305729
1144.408 .0307958
1145.033 .0316569
