Measurement Sequence started on: 14-45-04-498
Integration time: 36
Scans to Average: 2 
>>>>>Begin Spectral Data<<<<<
433.946 .0373965
434.870 .0478199
435.793 .0450771
436.715 .0438289
437.635 .0432372
438.555 .0424858
439.473 .0421513
440.389 .0415568
441.305 .0411392
442.219 .0408261
443.132 .0415213
444.044 .0410833
444.954 .0407830
445.863 .0405416
446.771 .0403240
447.678 .0401379
448.584 .0399610
449.488 .0398072
450.391 .0396671
451.293 .0395357
452.194 .0394095
453.094 .0392862
453.992 .0391633
454.890 .0390403
455.786 .0389180
456.681 .0387968
457.575 .0386770
458.468 .0385593
459.360 .0384440
460.250 .0383317
461.140 .0382228
462.028 .0381178
462.915 .0380168
463.801 .0379199
464.687 .0378277
465.571 .0377401
466.454 .0376571
467.335 .0375782
468.216 .0375032
469.096 .0374313
469.975 .0373621
470.853 .0372944
471.729 .0372276
472.605 .0371613
473.479 .0370947
474.353 .0370270
475.226 .0369582
476.097 .0368882
476.968 .0368173
477.838 .0367461
478.706 .0366753
479.574 .0366056
480.441 .0365377
481.306 .0364719
482.171 .0364087
483.035 .0363478
483.898 .0362893
484.760 .0362330
485.621 .0361793
486.481 .0361283
487.340 .0360809
488.198 .0360376
489.055 .0359996
489.912 .0359674
490.767 .0359415
491.622 .0359221
492.476 .0359089
493.329 .0358992
494.180 .0358918
495.032 .0358859
495.882 .0358807
496.731 .0358761
497.580 .0358718
498.427 .0358677
499.274 .0358640
500.120 .0358610
500.965 .0358562
501.809 .0358510
502.653 .0358447
503.495 .0358368
504.337 .0358266
505.178 .0358137
506.018 .0357974
506.858 .0357774
507.696 .0357539
508.534 .0357270
509.371 .0356966
510.208 .0356633
511.043 .0356271
511.878 .0355884
512.712 .0355470
513.545 .0355033
514.377 .0354569
515.209 .0354079
516.040 .0353563
516.870 .0353025
517.699 .0352468
518.528 .0351897
519.356 .0351316
520.183 .0350731
521.010 .0350148
521.836 .0349573
522.661 .0349008
523.485 .0348460
524.309 .0347929
525.132 .0347413
525.954 .0346914
526.776 .0346436
527.597 .0345973
528.417 .0345529
529.237 .0345101
530.056 .0344688
530.874 .0344288
531.692 .0343898
532.508 .0343515
533.325 .0343138
534.140 .0342763
534.955 .0342390
535.770 .0342016
536.583 .0341644
537.397 .0341274
538.209 .0340902
539.021 .0340526
539.832 .0340144
540.643 .0339753
541.453 .0339350
542.262 .0338934
543.071 .0338505
543.879 .0338065
544.687 .0337621
545.494 .0337174
546.300 .0336727
547.106 .0336284
547.911 .0335850
548.716 .0335427
549.520 .0335020
550.323 .0334633
551.126 .0334266
551.929 .0333926
552.731 .0333614
553.532 .0333329
554.332 .0333070
555.133 .0332839
555.932 .0332632
556.731 .0332450
557.530 .0332287
558.328 .0332138
559.125 .0332001
559.922 .0331872
560.719 .0331741
561.515 .0331603
562.310 .0331457
563.105 .0331300
563.899 .0331128
564.693 .0330943
565.487 .0330743
566.280 .0330529
567.072 .0330304
567.864 .0330064
568.655 .0329807
569.446 .0329534
570.236 .0329240
571.026 .0328925
571.816 .0328587
572.605 .0328224
573.393 .0327836
574.181 .0327429
574.969 .0327003
575.756 .0326565
576.543 .0326120
577.329 .0325675
578.115 .0325237
578.900 .0324810
579.685 .0324397
580.469 .0323999
581.253 .0323618
582.036 .0323253
582.820 .0322902
583.602 .0322563
584.384 .0322234
585.166 .0321914
585.947 .0321601
586.728 .0321297
587.509 .0321000
588.289 .0320712
589.069 .0320432
589.848 .0320162
590.627 .0319899
591.405 .0319645
592.183 .0319398
592.961 .0319157
593.738 .0318922
594.515 .0318692
595.291 .0318466
596.067 .0318243
596.843 .0318024
597.618 .0317809
598.393 .0317505
599.167 .0317305
599.941 .0317111
600.715 .0316925
601.488 .0316745
602.261 .0316574
603.034 .0316409
603.806 .0316251
604.578 .0316099
605.349 .0315951
606.121 .0315807
606.891 .0315742
607.662 .0315599
608.432 .0315456
609.201 .0315313
609.971 .0315168
610.740 .0315020
611.508 .0314868
612.277 .0314713
613.045 .0314553
613.812 .0314390
614.579 .0314223
615.346 .0314052
616.113 .0313876
616.879 .0313696
617.645 .0313509
618.411 .0313315
619.176 .0313113
619.941 .0312904
620.705 .0312688
621.470 .0312467
622.233 .0312241
622.997 .0312013
623.760 .0311783
624.523 .0311553
625.286 .0311325
626.048 .0311099
626.810 .0310877
627.572 .0310659
628.333 .0310446
629.095 .0310239
629.855 .0310038
630.616 .0309843
631.376 .0309655
632.136 .0309474
632.895 .0309298
633.655 .0309128
634.414 .0308964
635.172 .0308805
635.931 .0308651
636.689 .0308503
637.447 .0308360
638.204 .0308224
638.962 .0308094
639.718 .0307968
640.475 .0307847
641.231 .0307729
641.988 .0307611
642.743 .0307493
643.499 .0307373
644.254 .0307251
645.009 .0307127
645.764 .0307000
646.518 .0306871
647.272 .0306741
648.026 .0306611
648.780 .0306480
649.533 .0306348
650.286 .0306215
651.039 .0306081
651.792 .0305944
652.544 .0305804
653.296 .0305660
654.048 .0305512
654.799 .0305360
655.550 .0305205
656.301 .0305047
657.052 .0304887
657.802 .0304726
658.552 .0304565
659.302 .0304404
660.052 .0304245
660.801 .0304087
661.550 .0303931
662.299 .0303777
663.048 .0303625
663.796 .0303475
664.544 .0303326
665.292 .0303179
666.040 .0303034
666.787 .0302891
667.534 .0302752
668.281 .0302616
669.028 .0302486
669.774 .0302361
670.521 .0302241
671.266 .0302129
672.012 .0302021
672.758 .0301919
673.503 .0301821
674.248 .0301726
674.992 .0301633
675.737 .0301542
676.481 .0301452
677.225 .0301361
677.969 .0301271
678.712 .0301179
679.455 .0301087
680.199 .0300995
680.941 .0300902
681.684 .0300809
682.426 .0300714
683.168 .0300618
683.910 .0300519
684.652 .0300417
685.393 .0300311
686.134 .0300200
686.875 .0300084
687.616 .0299965
688.356 .0299842
689.097 .0299717
689.837 .0299591
690.576 .0299464
691.316 .0299336
692.055 .0299209
692.794 .0299081
693.533 .0298954
694.272 .0298828
695.010 .0298702
695.748 .0298576
696.486 .0298452
697.224 .0298330
697.962 .0298210
698.699 .0298091
699.436 .0297976
700.173 .0297862
700.909 .0297751
701.646 .0297643
702.382 .0297536
703.118 .0297432
703.853 .0297329
704.589 .0297227
705.324 .0297125
706.059 .0297022
706.794 .0296918
707.529 .0296812
708.263 .0296705
708.997 .0296597
709.731 .0296488
710.465 .0296378
711.198 .0296268
711.931 .0296158
712.664 .0296046
713.397 .0295933
714.130 .0295817
714.862 .0295698
715.594 .0295577
716.326 .0295452
717.058 .0295324
717.789 .0295193
718.520 .0295060
719.251 .0294925
719.982 .0294789
720.713 .0294651
721.443 .0294512
722.173 .0294371
722.903 .0294229
723.633 .0294086
724.362 .0293942
725.091 .0293798
725.820 .0293655
726.549 .0293513
727.278 .0293373
728.006 .0293235
728.734 .0293102
729.462 .0292973
730.190 .0292849
730.917 .0292730
731.644 .0292615
732.371 .0292505
733.098 .0292399
733.825 .0292296
734.551 .0292197
735.277 .0292101
736.003 .0292007
736.728 .0291916
737.454 .0291828
738.179 .0291743
738.904 .0291660
739.629 .0291579
740.353 .0291499
741.077 .0291417
741.801 .0291334
742.525 .0291248
743.249 .0291158
743.972 .0291065
744.695 .0290966
745.418 .0290862
746.141 .0290754
746.863 .0290640
747.585 .0290522
748.307 .0290400
749.029 .0290274
749.750 .0290143
750.472 .0290008
751.193 .0289869
751.913 .0289727
752.634 .0289582
753.354 .0289436
754.074 .0289289
754.794 .0289142
755.514 .0288997
756.233 .0288855
756.952 .0288717
757.671 .0288583
758.390 .0288455
759.108 .0288332
759.826 .0288216
760.544 .0288104
761.262 .0287998
761.979 .0287897
762.697 .0287801
763.414 .0287708
764.130 .0287620
764.847 .0287535
765.563 .0287453
766.279 .0287374
766.995 .0287298
767.710 .0287224
768.426 .0287153
769.141 .0287084
769.855 .0287015
770.570 .0286947
771.284 .0286880
771.998 .0286813
772.712 .0286745
773.426 .0286677
774.139 .0286608
774.852 .0286539
775.565 .0286469
776.277 .0286399
776.990 .0286329
777.702 .0286259
778.414 .0286191
779.125 .0286124
779.836 .0286058
780.547 .0285993
781.258 .0285930
781.969 .0285868
782.679 .0285808
783.389 .0285726
784.099 .0285669
784.808 .0285615
785.517 .0285562
786.226 .0285511
786.935 .0285463
787.643 .0285418
788.352 .0285375
789.060 .0285334
789.767 .0285295
790.475 .0285258
791.182 .0285221
791.889 .0285203
792.595 .0285163
793.301 .0285122
794.008 .0285079
794.713 .0285032
795.419 .0284981
796.124 .0284925
796.829 .0284864
797.534 .0284796
798.238 .0284722
798.942 .0284640
799.646 .0284553
800.350 .0284460
801.053 .0284361
801.756 .0284259
802.459 .0284153
803.162 .0284044
803.864 .0283931
804.566 .0283816
805.267 .0283699
805.969 .0283580
806.670 .0283460
807.371 .0283339
808.071 .0283219
808.772 .0283099
809.472 .0282981
810.171 .0282864
810.871 .0282749
811.570 .0282636
812.269 .0282524
812.967 .0282413
813.666 .0282302
814.364 .0282192
815.061 .0282082
815.759 .0281970
816.456 .0281857
817.153 .0281742
817.849 .0281623
818.545 .0281502
819.241 .0281377
819.937 .0281250
820.632 .0281120
821.327 .0280986
822.022 .0280848
822.717 .0280706
823.411 .0280560
824.105 .0280408
824.798 .0280251
825.491 .0280089
826.184 .0279922
826.877 .0279752
827.569 .0279579
828.261 .0279405
828.953 .0279231
829.645 .0279058
830.336 .0278886
831.027 .0278717
831.717 .0278553
832.407 .0278393
833.097 .0278240
833.787 .0278094
834.476 .0277955
835.165 .0277824
835.854 .0277701
836.542 .0277585
837.230 .0277476
837.918 .0277374
838.605 .0277277
839.292 .0277185
839.979 .0277100
840.665 .0277019
841.352 .0276944
842.037 .0276874
842.723 .0276808
843.408 .0276747
844.093 .0276688
844.777 .0276630
845.462 .0276574
846.145 .0276519
846.829 .0276462
847.512 .0276405
848.195 .0276347
848.878 .0276288
849.560 .0276228
850.242 .0276168
850.923 .0276107
851.605 .0276045
852.286 .0275983
852.966 .0275919
853.646 .0275853
854.326 .0275784
855.006 .0275713
855.685 .0275641
856.364 .0275567
857.043 .0275492
857.721 .0275419
858.399 .0275346
859.077 .0275276
859.754 .0275208
860.431 .0275142
861.107 .0275077
861.784 .0275014
862.459 .0274951
863.135 .0274890
863.810 .0274830
864.485 .0274772
865.160 .0274715
865.834 .0274661
866.508 .0274608
867.181 .0274556
867.854 .0274505
868.527 .0274452
869.199 .0274398
869.872 .0274342
870.543 .0274284
871.215 .0274223
871.886 .0274161
872.557 .0274096
873.227 .0274029
873.897 .0273959
874.567 .0273885
875.236 .0273807
875.905 .0273723
876.573 .0273634
877.242 .0273538
877.909 .0273437
878.577 .0273331
879.244 .0273222
879.911 .0273108
880.577 .0272992
881.243 .0272873
881.909 .0272751
882.575 .0272628
883.240 .0272503
883.904 .0272377
884.569 .0272252
885.232 .0272127
885.896 .0272004
886.559 .0271883
887.222 .0271765
887.885 .0271649
888.547 .0271535
889.208 .0271424
889.870 .0271314
890.531 .0271205
891.192 .0271097
891.852 .0270990
892.512 .0270884
893.171 .0270777
893.830 .0270670
894.489 .0270561
895.148 .0270451
895.806 .0270340
896.464 .0270226
897.121 .0270109
897.778 .0269990
898.434 .0269868
899.091 .0269665
899.747 .0269534
900.402 .0269398
901.057 .0269259
901.712 .0269115
902.366 .0268968
903.020 .0268817
903.674 .0268663
904.327 .0268506
904.980 .0268347
905.633 .0268187
906.285 .0268026
906.936 .0267864
907.588 .0267786
908.239 .0267625
908.889 .0267463
909.540 .0267301
910.190 .0267140
910.839 .0266978
911.488 .0266818
912.137 .0266660
912.785 .0266503
913.433 .0266348
914.081 .0266196
914.728 .0266045
915.375 .0265895
916.021 .0265745
916.668 .0265597
917.313 .0265448
917.959 .0265300
918.604 .0265153
919.248 .0265006
919.892 .0264861
920.536 .0264716
921.180 .0264572
921.823 .0264428
922.465 .0264284
923.108 .0264140
923.750 .0263995
924.391 .0263849
925.032 .0263703
925.673 .0263558
926.313 .0263412
926.953 .0263267
927.593 .0263122
928.232 .0262978
928.871 .0262834
929.510 .0262691
930.148 .0262548
930.786 .0262405
931.423 .0262264
932.060 .0262123
932.697 .0261984
933.333 .0261847
933.969 .0261712
934.604 .0261580
935.239 .0261451
935.874 .0261325
936.508 .0261201
937.142 .0261079
937.776 .0260958
938.409 .0260840
939.042 .0260723
939.674 .0260609
940.306 .0260497
940.938 .0260388
941.569 .0260282
942.200 .0260179
942.830 .0260079
943.460 .0259982
944.090 .0259889
944.720 .0259799
945.349 .0259712
945.977 .0259629
946.606 .0259550
947.233 .0259474
947.861 .0259400
948.488 .0259329
949.115 .0259260
949.741 .0259193
950.367 .0259127
950.993 .0259063
951.618 .0258999
952.243 .0258936
952.868 .0258873
953.492 .0258811
954.115 .0258751
954.739 .0258691
955.362 .0258633
955.984 .0258576
956.607 .0258520
957.229 .0258465
957.850 .0258411
958.471 .0258359
959.092 .0258308
959.713 .0258259
960.333 .0258212
960.952 .0258168
961.572 .0258126
962.191 .0258087
962.809 .0258050
963.428 .0258015
964.045 .0257982
964.663 .0257951
965.280 .0257920
965.897 .0257891
966.513 .0257864
967.129 .0257837
967.745 .0257811
968.361 .0257787
968.976 .0257764
969.590 .0257742
970.205 .0257720
970.818 .0257699
971.432 .0257677
972.045 .0257654
972.658 .0257629
973.271 .0257603
973.883 .0257573
974.495 .0257541
975.106 .0257506
975.717 .0257467
976.328 .0257424
976.938 .0257379
977.548 .0257330
978.158 .0257278
978.768 .0257187
979.377 .0257127
979.985 .0257063
980.594 .0256995
981.202 .0256923
981.809 .0256848
982.417 .0256770
983.024 .0256690
983.631 .0256611
984.237 .0256530
984.843 .0256449
985.449 .0256367
986.054 .0256284
986.659 .0256198
987.264 .0256153
987.868 .0256061
988.472 .0255965
989.076 .0255865
989.679 .0255761
990.282 .0255656
990.885 .0255548
991.487 .0255439
992.090 .0255329
992.691 .0255218
993.293 .0255104
993.894 .0254987
994.495 .0254867
995.095 .0254744
995.696 .0254618
996.296 .0254490
996.895 .0254361
997.494 .0254232
998.093 .0254105
998.692 .0253978
999.291 .0253853
999.889 .0253728
1000.487 .0253603
1001.084 .0253477
1001.681 .0253350
1002.278 .0253221
1002.875 .0253091
1003.471 .0252961
1004.067 .0252831
1004.663 .0252704
1005.258 .0252580
1005.854 .0252459
1006.449 .0252343
1007.043 .0252230
1007.638 .0252121
1008.232 .0252015
1008.826 .0251912
1009.419 .0251812
1010.012 .0251715
1010.605 .0251622
1011.198 .0251533
1011.791 .0251449
1012.383 .0251370
1012.975 .0251296
1013.566 .0251226
1014.158 .0251161
1014.749 .0251099
1015.340 .0251039
1015.931 .0250982
1016.521 .0250927
1017.111 .0250874
1017.701 .0250823
1018.291 .0250776
1018.880 .0250731
1019.470 .0250689
1020.059 .0250650
1020.647 .0250613
1021.236 .0250577
1021.824 .0250541
1022.412 .0250506
1023.000 .0250469
1023.588 .0250431
1024.175 .0250391
1024.762 .0250351
1025.349 .0250310
1025.936 .0250268
1026.523 .0250226
1027.109 .0250184
1027.695 .0250142
1028.281 .0250101
1028.867 .0250061
1029.452 .0250022
1030.038 .0249985
1030.623 .0249951
1031.208 .0249918
1031.792 .0249889
1032.377 .0249863
1032.961 .0249840
1033.546 .0249820
1034.130 .0249802
1034.714 .0249787
1035.297 .0249773
1035.881 .0249762
1036.464 .0249751
1037.047 .0249742
1037.630 .0249733
1038.213 .0249726
1038.796 .0249721
1039.378 .0249717
1039.961 .0249716
1040.543 .0249717
1041.125 .0249720
1041.707 .0249725
1042.289 .0249733
1042.871 .0249743
1043.452 .0249756
1044.034 .0249771
1044.615 .0249787
1045.196 .0249804
1045.777 .0249821
1046.358 .0249837
1046.939 .0249851
1047.520 .0249863
1048.101 .0249873
1048.681 .0249881
1049.262 .0249887
1049.842 .0249891
1050.422 .0249894
1051.002 .0249896
1051.582 .0249897
1052.162 .0249898
1052.742 .0249898
1053.322 .0249898
1053.902 .0249900
1054.482 .0249905
1055.061 .0249914
1055.641 .0249930
1056.220 .0249952
1056.800 .0249981
1057.379 .0250016
1057.958 .0250058
1058.538 .0250104
1059.117 .0250154
1059.696 .0250208
1060.275 .0250265
1060.854 .0250325
1061.433 .0250387
1062.012 .0250453
1062.592 .0250522
1063.171 .0250593
1063.750 .0250666
1064.329 .0250739
1064.908 .0250813
1065.487 .0250885
1066.066 .0250956
1066.645 .0251026
1067.224 .0251095
1067.803 .0251163
1068.382 .0251231
1068.961 .0251298
1069.540 .0251365
1070.119 .0251429
1070.698 .0251492
1071.278 .0251551
1071.857 .0251606
1072.436 .0251657
1073.016 .0251703
1073.595 .0251744
1074.175 .0251780
1074.754 .0251811
1075.334 .0251838
1075.913 .0251859
1076.493 .0251876
1077.073 .0251887
1077.653 .0251894
1078.233 .0251897
1078.813 .0251896
1079.393 .0251891
1079.974 .0251884
1080.554 .0251876
1081.135 .0251869
1081.716 .0251862
1082.296 .0251857
1082.877 .0251852
1083.458 .0251848
1084.040 .0251844
1084.621 .0251839
1085.202 .0251833
1085.784 .0251826
1086.366 .0251818
1086.948 .0251809
1087.530 .0251799
1088.112 .0251788
1088.695 .0251778
1089.277 .0251769
1089.860 .0251761
1090.443 .0251756
1091.026 .0251754
1091.610 .0251756
1092.193 .0251764
1092.777 .0251777
1093.361 .0251795
1093.946 .0251819
1094.530 .0251847
1095.115 .0251878
1095.700 .0251911
1096.285 .0251947
1096.871 .0251987
1097.456 .0252029
1098.042 .0252074
1098.628 .0252122
1099.215 .0252173
1099.802 .0252228
1100.389 .0252286
1100.976 .0252346
1101.564 .0252407
1102.152 .0252468
1102.740 .0252527
1103.329 .0252582
1103.917 .0252635
1104.507 .0252685
1105.096 .0252734
1105.686 .0252782
1106.276 .0252831
1106.867 .0252881
1107.457 .0252934
1108.049 .0252989
1108.640 .0253044
1109.232 .0253100
1109.825 .0253153
1110.417 .0253204
1111.010 .0253253
1111.604 .0253301
1112.198 .0253349
1112.792 .0253399
1113.387 .0253453
1113.982 .0253510
1114.577 .0253570
1115.173 .0253631
1115.769 .0253691
1116.366 .0253746
1116.963 .0253796
1117.561 .0253838
1118.159 .0253874
1118.758 .0253905
1119.357 .0253933
1119.957 .0253962
1120.557 .0253992
1121.157 .0254029
1121.758 .0254072
1122.360 .0254121
1122.962 .0254179
1123.564 .0254243
1124.167 .0254282
1124.771 .0254349
1125.375 .0254422
1125.980 .0254505
1126.585 .0254598
1127.191 .0254706
1127.797 .0254830
1128.404 .0254972
1129.012 .0255134
1129.620 .0255315
1130.229 .0255515
1130.838 .0255728
1131.448 .0255952
1132.058 .0256187
1132.669 .0256489
1133.281 .0256757
1133.894 .0257041
1134.507 .0257286
1135.120 .0257626
1135.735 .0257994
1136.350 .0258360
1136.965 .0258415
1137.582 .0259036
1138.199 .0259676
1138.816 .0260257
1139.435 .0260770
1140.054 .0261253
1140.674 .0261703
1141.294 .0262117
1141.916 .0262505
1142.538 .0261378
1143.160 .0263811
1143.784 .0264436
1144.408 .0264255
1145.033 .0264540
