Measurement Sequence started on: 14-45-04-498
Integration time: 36
Scans to Average: 2 
>>>>>Begin Spectral Data<<<<<
433.946 .0540246
434.870 .0495529
435.793 .0452224
436.715 .0442289
437.635 .0433154
438.555 .0445133
439.473 .0439080
440.389 .0435785
441.305 .0434109
442.219 .0432524
443.132 .0434376
444.044 .0430207
444.954 .0428240
445.863 .0426724
446.771 .0425635
447.678 .0423876
448.584 .0422413
449.488 .0421117
450.391 .0419909
451.293 .0418789
452.194 .0417752
453.094 .0416802
453.992 .0415941
454.890 .0415156
455.786 .0414433
456.681 .0413763
457.575 .0413149
458.468 .0412591
459.360 .0412098
460.250 .0411674
461.140 .0411315
462.028 .0411014
462.915 .0410760
463.801 .0410533
464.687 .0410313
465.571 .0410084
466.454 .0409825
467.335 .0409532
468.216 .0409201
469.096 .0408831
469.975 .0408426
470.853 .0407990
471.729 .0407528
472.605 .0407043
473.479 .0406538
474.353 .0406019
475.226 .0405484
476.097 .0404939
476.968 .0404386
477.838 .0403825
478.706 .0403261
479.574 .0402698
480.441 .0402138
481.306 .0401584
482.171 .0401036
483.035 .0400496
483.898 .0399965
484.760 .0399444
485.621 .0398932
486.481 .0398431
487.340 .0397945
488.198 .0397475
489.055 .0397019
489.912 .0396581
490.767 .0396160
491.622 .0395579
492.476 .0395186
493.329 .0394798
494.180 .0394411
495.032 .0394022
495.882 .0393632
496.731 .0393238
497.580 .0392841
498.427 .0392440
499.274 .0392034
500.120 .0391807
500.965 .0391380
501.809 .0390937
502.653 .0390476
503.495 .0389991
504.337 .0389479
505.178 .0388938
506.018 .0388374
506.858 .0387788
507.696 .0387190
508.534 .0386589
509.371 .0385993
510.208 .0385413
511.043 .0384856
511.878 .0384326
512.712 .0383829
513.545 .0383368
514.377 .0382947
515.209 .0382570
516.040 .0382238
516.870 .0381949
517.699 .0381703
518.528 .0381496
519.356 .0381324
520.183 .0381176
521.010 .0381047
521.836 .0380925
522.661 .0380804
523.485 .0380678
524.309 .0380539
525.132 .0380379
525.954 .0380197
526.776 .0379985
527.597 .0379734
528.417 .0379436
529.237 .0379091
530.056 .0378690
530.874 .0378232
531.692 .0377714
532.508 .0377133
533.325 .0376496
534.140 .0375808
534.955 .0375077
535.770 .0374313
536.583 .0373528
537.397 .0372734
538.209 .0371946
539.021 .0371177
539.832 .0370437
540.643 .0369729
541.453 .0369062
542.262 .0368435
543.071 .0367845
543.879 .0367298
544.687 .0366797
545.494 .0366344
546.300 .0365942
547.106 .0365593
547.911 .0365295
548.716 .0365050
549.520 .0364855
550.323 .0364701
551.126 .0364582
551.929 .0364493
552.731 .0364428
553.532 .0364382
554.332 .0364352
555.133 .0364333
555.932 .0364317
556.731 .0364300
557.530 .0364270
558.328 .0364219
559.125 .0364138
559.922 .0364022
560.719 .0363863
561.515 .0363657
562.310 .0363404
563.105 .0363104
563.899 .0362760
564.693 .0362375
565.487 .0361954
566.280 .0361503
567.072 .0361025
567.864 .0360526
568.655 .0360008
569.446 .0359476
570.236 .0358934
571.026 .0358385
571.816 .0357835
572.605 .0357287
573.393 .0356749
574.181 .0356228
574.969 .0355730
575.756 .0355262
576.543 .0354831
577.329 .0354442
578.115 .0354095
578.900 .0353790
579.685 .0353524
580.469 .0353295
581.253 .0353097
582.036 .0352925
582.820 .0352775
583.602 .0352642
584.384 .0352524
585.166 .0352418
585.947 .0352322
586.728 .0352233
587.509 .0352149
588.289 .0352066
589.069 .0351981
589.848 .0351889
590.627 .0351787
591.405 .0351673
592.183 .0351543
592.961 .0351395
593.738 .0351229
594.515 .0351045
595.291 .0350844
596.067 .0350629
596.843 .0350399
597.618 .0350159
598.393 .0349768
599.167 .0349511
599.941 .0349250
600.715 .0348987
601.488 .0348724
602.261 .0348460
603.034 .0348199
603.806 .0347940
604.578 .0347684
605.349 .0347432
606.121 .0347187
606.891 .0347087
607.662 .0346853
608.432 .0346627
609.201 .0346411
609.971 .0346205
610.740 .0346008
611.508 .0345821
612.277 .0345641
613.045 .0345467
613.812 .0345299
614.579 .0345135
615.346 .0344974
616.113 .0344816
616.879 .0344660
617.645 .0344507
618.411 .0344356
619.176 .0344205
619.941 .0344056
620.705 .0343907
621.470 .0343757
622.233 .0343609
622.997 .0343460
623.760 .0343312
624.523 .0343165
625.286 .0343018
626.048 .0342870
626.810 .0342722
627.572 .0342572
628.333 .0342420
629.095 .0342266
629.855 .0342109
630.616 .0341949
631.376 .0341786
632.136 .0341619
632.895 .0341450
633.655 .0341276
634.414 .0341097
635.172 .0340912
635.931 .0340719
636.689 .0340518
637.447 .0340309
638.204 .0340092
638.962 .0339868
639.718 .0339636
640.475 .0339399
641.231 .0339156
641.988 .0338908
642.743 .0338657
643.499 .0338402
644.254 .0338143
645.009 .0337882
645.764 .0337619
646.518 .0337355
647.272 .0337092
648.026 .0336832
648.780 .0336575
649.533 .0336324
650.286 .0336079
651.039 .0335842
651.792 .0335612
652.544 .0335391
653.296 .0335180
654.048 .0334978
654.799 .0334787
655.550 .0334605
656.301 .0334433
657.052 .0334272
657.802 .0334119
658.552 .0333975
659.302 .0333838
660.052 .0333708
660.801 .0333584
661.550 .0333465
662.299 .0333352
663.048 .0333244
663.796 .0333142
664.544 .0333045
665.292 .0332952
666.040 .0332862
666.787 .0332776
667.534 .0332691
668.281 .0332608
669.028 .0332525
669.774 .0332441
670.521 .0332357
671.266 .0332272
672.012 .0332186
672.758 .0332097
673.503 .0332006
674.248 .0331910
674.992 .0331810
675.737 .0331705
676.481 .0331594
677.225 .0331476
677.969 .0331353
678.712 .0331223
679.455 .0331086
680.199 .0330944
680.941 .0330796
681.684 .0330642
682.426 .0330482
683.168 .0330316
683.910 .0330145
684.652 .0329968
685.393 .0329786
686.134 .0329601
686.875 .0329412
687.616 .0329220
688.356 .0329027
689.097 .0328831
689.837 .0328635
690.576 .0328437
691.316 .0328237
692.055 .0328036
692.794 .0327833
693.533 .0327628
694.272 .0327422
695.010 .0327214
695.748 .0327006
696.486 .0326797
697.224 .0326588
697.962 .0326380
698.699 .0326172
699.436 .0325966
700.173 .0325761
700.909 .0325559
701.646 .0325360
702.382 .0325165
703.118 .0324972
703.853 .0324784
704.589 .0324600
705.324 .0324420
706.059 .0324244
706.794 .0324073
707.529 .0323906
708.263 .0323746
708.997 .0323591
709.731 .0323444
710.465 .0323303
711.198 .0323170
711.931 .0323044
712.664 .0322923
713.397 .0322807
714.130 .0322694
714.862 .0322583
715.594 .0322473
716.326 .0322363
717.058 .0322253
717.789 .0322142
718.520 .0322031
719.251 .0321920
719.982 .0321808
720.713 .0321695
721.443 .0321578
722.173 .0321458
722.903 .0321333
723.633 .0321203
724.362 .0321067
725.091 .0320925
725.820 .0320777
726.549 .0320624
727.278 .0320466
728.006 .0320303
728.734 .0320136
729.462 .0319964
730.190 .0319789
730.917 .0319609
731.644 .0319426
732.371 .0319240
733.098 .0319050
733.825 .0318858
734.551 .0318662
735.277 .0318464
736.003 .0318263
736.728 .0318060
737.454 .0317854
738.179 .0317646
738.904 .0317437
739.629 .0317225
740.353 .0317012
741.077 .0316798
741.801 .0316580
742.525 .0316361
743.249 .0316139
743.972 .0315915
744.695 .0315688
745.418 .0315459
746.141 .0315228
746.863 .0314997
747.585 .0314764
748.307 .0314531
749.029 .0314297
749.750 .0314062
750.472 .0313826
751.193 .0313588
751.913 .0313350
752.634 .0313111
753.354 .0312871
754.074 .0312632
754.794 .0312395
755.514 .0312160
756.233 .0311928
756.952 .0311700
757.671 .0311476
758.390 .0311256
759.108 .0311042
759.826 .0310831
760.544 .0310625
761.262 .0310422
761.979 .0310224
762.697 .0310029
763.414 .0309839
764.130 .0309654
764.847 .0309473
765.563 .0309298
766.279 .0309129
766.995 .0308965
767.710 .0308807
768.426 .0308653
769.141 .0308504
769.855 .0308359
770.570 .0308217
771.284 .0308077
771.998 .0307940
772.712 .0307804
773.426 .0307671
774.139 .0307541
774.852 .0307412
775.565 .0307287
776.277 .0307163
776.990 .0307043
777.702 .0306925
778.414 .0306809
779.125 .0306695
779.836 .0306581
780.547 .0306468
781.258 .0306354
781.969 .0306241
782.679 .0306127
783.389 .0305954
784.099 .0305838
784.808 .0305720
785.517 .0305600
786.226 .0305478
786.935 .0305353
787.643 .0305225
788.352 .0305094
789.060 .0304959
789.767 .0304820
790.475 .0304678
791.182 .0304531
791.889 .0304446
792.595 .0304293
793.301 .0304134
794.008 .0303970
794.713 .0303800
795.419 .0303624
796.124 .0303442
796.829 .0303255
797.534 .0303062
798.238 .0302865
798.942 .0302661
799.646 .0302454
800.350 .0302241
801.053 .0302025
801.756 .0301804
802.459 .0301580
803.162 .0301353
803.864 .0301123
804.566 .0300890
805.267 .0300655
805.969 .0300418
806.670 .0300178
807.371 .0299935
808.071 .0299689
808.772 .0299441
809.472 .0299191
810.171 .0298940
810.871 .0298688
811.570 .0298436
812.269 .0298185
812.967 .0297934
813.666 .0297684
814.364 .0297435
815.061 .0297185
815.759 .0296935
816.456 .0296685
817.153 .0296434
817.849 .0296183
818.545 .0295932
819.241 .0295681
819.937 .0295431
820.632 .0295182
821.327 .0294934
822.022 .0294688
822.717 .0294443
823.411 .0294200
824.105 .0293960
824.798 .0293722
825.491 .0293488
826.184 .0293257
826.877 .0293029
827.569 .0292806
828.261 .0292588
828.953 .0292374
829.645 .0292165
830.336 .0291962
831.027 .0291765
831.717 .0291574
832.407 .0291390
833.097 .0291213
833.787 .0291043
834.476 .0290880
835.165 .0290722
835.854 .0290570
836.542 .0290423
837.230 .0290279
837.918 .0290140
838.605 .0290004
839.292 .0289870
839.979 .0289740
840.665 .0289612
841.352 .0289488
842.037 .0289365
842.723 .0289246
843.408 .0289128
844.093 .0289012
844.777 .0288897
845.462 .0288783
846.145 .0288670
846.829 .0288557
847.512 .0288444
848.195 .0288332
848.878 .0288218
849.560 .0288104
850.242 .0287990
850.923 .0287873
851.605 .0287756
852.286 .0287638
852.966 .0287520
853.646 .0287401
854.326 .0287282
855.006 .0287164
855.685 .0287047
856.364 .0286930
857.043 .0286815
857.721 .0286700
858.399 .0286586
859.077 .0286473
859.754 .0286360
860.431 .0286247
861.107 .0286135
861.784 .0286024
862.459 .0285913
863.135 .0285802
863.810 .0285691
864.485 .0285578
865.160 .0285465
865.834 .0285349
866.508 .0285230
867.181 .0285108
867.854 .0284982
868.527 .0284852
869.199 .0284718
869.872 .0284578
870.543 .0284434
871.215 .0284284
871.886 .0284128
872.557 .0283966
873.227 .0283798
873.897 .0283624
874.567 .0283445
875.236 .0283260
875.905 .0283070
876.573 .0282876
877.242 .0282677
877.909 .0282473
878.577 .0282266
879.244 .0282053
879.911 .0281837
880.577 .0281618
881.243 .0281395
881.909 .0281169
882.575 .0280941
883.240 .0280711
883.904 .0280480
884.569 .0280249
885.232 .0280017
885.896 .0279787
886.559 .0279557
887.222 .0279328
887.885 .0279101
888.547 .0278877
889.208 .0278654
889.870 .0278433
890.531 .0278214
891.192 .0277997
891.852 .0277781
892.512 .0277567
893.171 .0277354
893.830 .0277142
894.489 .0276930
895.148 .0276720
895.806 .0276510
896.464 .0276301
897.121 .0276093
897.778 .0275886
898.434 .0275681
899.091 .0275382
899.747 .0275181
900.402 .0274982
901.057 .0274785
901.712 .0274591
902.366 .0274398
903.020 .0274208
903.674 .0274020
904.327 .0273835
904.980 .0273651
905.633 .0273470
906.285 .0273291
906.936 .0273114
907.588 .0273032
908.239 .0272859
908.889 .0272688
909.540 .0272520
910.190 .0272354
910.839 .0272190
911.488 .0272029
912.137 .0271870
912.785 .0271714
913.433 .0271561
914.081 .0271411
914.728 .0271264
915.375 .0271119
916.021 .0270976
916.668 .0270837
917.313 .0270700
917.959 .0270567
918.604 .0270438
919.248 .0270311
919.892 .0270188
920.536 .0270068
921.180 .0269951
921.823 .0269837
922.465 .0269724
923.108 .0269614
923.750 .0269507
924.391 .0269402
925.032 .0269300
925.673 .0269201
926.313 .0269106
926.953 .0269015
927.593 .0268927
928.232 .0268841
928.871 .0268758
929.510 .0268677
930.148 .0268596
930.786 .0268515
931.423 .0268434
932.060 .0268353
932.697 .0268271
933.333 .0268188
933.969 .0268105
934.604 .0268020
935.239 .0267932
935.874 .0267842
936.508 .0267748
937.142 .0267650
937.776 .0267548
938.409 .0267441
939.042 .0267330
939.674 .0267214
940.306 .0267092
940.938 .0266966
941.569 .0266834
942.200 .0266697
942.830 .0266553
943.460 .0266403
944.090 .0266248
944.720 .0266087
945.349 .0265922
945.977 .0265753
946.606 .0265580
947.233 .0265405
947.861 .0265227
948.488 .0265048
949.115 .0264867
949.741 .0264685
950.367 .0264502
950.993 .0264319
951.618 .0264135
952.243 .0263952
952.868 .0263770
953.492 .0263589
954.115 .0263410
954.739 .0263232
955.362 .0263056
955.984 .0262880
956.607 .0262705
957.229 .0262532
957.850 .0262359
958.471 .0262187
959.092 .0262017
959.713 .0261847
960.333 .0261679
960.952 .0261510
961.572 .0261341
962.191 .0261171
962.809 .0261000
963.428 .0260826
964.045 .0260652
964.663 .0260475
965.280 .0260298
965.897 .0260120
966.513 .0259940
967.129 .0259760
967.745 .0259579
968.361 .0259396
968.976 .0259212
969.590 .0259026
970.205 .0258840
970.818 .0258653
971.432 .0258467
972.045 .0258283
972.658 .0258101
973.271 .0257922
973.883 .0257746
974.495 .0257574
975.106 .0257404
975.717 .0257236
976.328 .0257069
976.938 .0256906
977.548 .0256744
978.158 .0256586
978.768 .0256360
979.377 .0256207
979.985 .0256057
980.594 .0255909
981.202 .0255762
981.809 .0255617
982.417 .0255473
983.024 .0255331
983.631 .0255191
984.237 .0255054
984.843 .0254920
985.449 .0254791
986.054 .0254666
986.659 .0254545
987.264 .0254491
987.868 .0254378
988.472 .0254268
989.076 .0254161
989.679 .0254058
990.282 .0253958
990.885 .0253861
991.487 .0253768
992.090 .0253678
992.691 .0253591
993.293 .0253507
993.894 .0253427
994.495 .0253348
995.095 .0253273
995.696 .0253200
996.296 .0253130
996.895 .0253064
997.494 .0253002
998.093 .0252945
998.692 .0252893
999.291 .0252845
999.889 .0252801
1000.487 .0252761
1001.084 .0252724
1001.681 .0252689
1002.278 .0252656
1002.875 .0252624
1003.471 .0252593
1004.067 .0252564
1004.663 .0252535
1005.258 .0252508
1005.854 .0252481
1006.449 .0252453
1007.043 .0252425
1007.638 .0252396
1008.232 .0252367
1008.826 .0252336
1009.419 .0252306
1010.012 .0252276
1010.605 .0252247
1011.198 .0252219
1011.791 .0252193
1012.383 .0252169
1012.975 .0252146
1013.566 .0252125
1014.158 .0252105
1014.749 .0252085
1015.340 .0252067
1015.931 .0252050
1016.521 .0252034
1017.111 .0252020
1017.701 .0252006
1018.291 .0251994
1018.880 .0251982
1019.470 .0251970
1020.059 .0251959
1020.647 .0251948
1021.236 .0251937
1021.824 .0251927
1022.412 .0251917
1023.000 .0251909
1023.588 .0251903
1024.175 .0251898
1024.762 .0251895
1025.349 .0251893
1025.936 .0251893
1026.523 .0251894
1027.109 .0251897
1027.695 .0251903
1028.281 .0251911
1028.867 .0251924
1029.452 .0251940
1030.038 .0251962
1030.623 .0251989
1031.208 .0252021
1031.792 .0252058
1032.377 .0252099
1032.961 .0252146
1033.546 .0252198
1034.130 .0252255
1034.714 .0252317
1035.297 .0252384
1035.881 .0252456
1036.464 .0252532
1037.047 .0252612
1037.630 .0252695
1038.213 .0252780
1038.796 .0252866
1039.378 .0252954
1039.961 .0253042
1040.543 .0253132
1041.125 .0253222
1041.707 .0253314
1042.289 .0253407
1042.871 .0253502
1043.452 .0253598
1044.034 .0253695
1044.615 .0253791
1045.196 .0253887
1045.777 .0253983
1046.358 .0254076
1046.939 .0254168
1047.520 .0254257
1048.101 .0254344
1048.681 .0254429
1049.262 .0254512
1049.842 .0254593
1050.422 .0254672
1051.002 .0254748
1051.582 .0254821
1052.162 .0254891
1052.742 .0254957
1053.322 .0255019
1053.902 .0255077
1054.482 .0255132
1055.061 .0255182
1055.641 .0255229
1056.220 .0255274
1056.800 .0255315
1057.379 .0255353
1057.958 .0255386
1058.538 .0255414
1059.117 .0255435
1059.696 .0255449
1060.275 .0255454
1060.854 .0255451
1061.433 .0255438
1062.012 .0255417
1062.592 .0255388
1063.171 .0255350
1063.750 .0255305
1064.329 .0255251
1064.908 .0255188
1065.487 .0255115
1066.066 .0255031
1066.645 .0254937
1067.224 .0254832
1067.803 .0254717
1068.382 .0254595
1068.961 .0254467
1069.540 .0254336
1070.119 .0254201
1070.698 .0254066
1071.278 .0253931
1071.857 .0253795
1072.436 .0253660
1073.016 .0253523
1073.595 .0253386
1074.175 .0253250
1074.754 .0253116
1075.334 .0252985
1075.913 .0252859
1076.493 .0252739
1077.073 .0252626
1077.653 .0252521
1078.233 .0252423
1078.813 .0252330
1079.393 .0252242
1079.974 .0252157
1080.554 .0252074
1081.135 .0251994
1081.716 .0251917
1082.296 .0251843
1082.877 .0251773
1083.458 .0251706
1084.040 .0251644
1084.621 .0251585
1085.202 .0251528
1085.784 .0251473
1086.366 .0251420
1086.948 .0251366
1087.530 .0251313
1088.112 .0251261
1088.695 .0251210
1089.277 .0251159
1089.860 .0251110
1090.443 .0251064
1091.026 .0251018
1091.610 .0250974
1092.193 .0250930
1092.777 .0250886
1093.361 .0250841
1093.946 .0250794
1094.530 .0250746
1095.115 .0250698
1095.700 .0250650
1096.285 .0250601
1096.871 .0250552
1097.456 .0250502
1098.042 .0250450
1098.628 .0250394
1099.215 .0250335
1099.802 .0250270
1100.389 .0250199
1100.976 .0250123
1101.564 .0250040
1102.152 .0249954
1102.740 .0249865
1103.329 .0249775
1103.917 .0249683
1104.507 .0249592
1105.096 .0249499
1105.686 .0249404
1106.276 .0249309
1106.867 .0249213
1107.457 .0249115
1108.049 .0249018
1108.640 .0248925
1109.232 .0248837
1109.825 .0248757
1110.417 .0248688
1111.010 .0248632
1111.604 .0248591
1112.198 .0248564
1112.792 .0248551
1113.387 .0248552
1113.982 .0248567
1114.577 .0248596
1115.173 .0248641
1115.769 .0248703
1116.366 .0248783
1116.963 .0248881
1117.561 .0249000
1118.159 .0249139
1118.758 .0249299
1119.357 .0249479
1119.957 .0249677
1120.557 .0249892
1121.157 .0250123
1121.758 .0250370
1122.360 .0250634
1122.962 .0250916
1123.564 .0251216
1124.167 .0251347
1124.771 .0251680
1125.375 .0252032
1125.980 .0252401
1126.585 .0252786
1127.191 .0253186
1127.797 .0253597
1128.404 .0254018
1129.012 .0254448
1129.620 .0254886
1130.229 .0255332
1130.838 .0255787
1131.448 .0256249
1132.058 .0256718
1132.669 .0257409
1133.281 .0257902
1133.894 .0258402
1134.507 .0258878
1135.120 .0259374
1135.735 .0259908
1136.350 .0260503
1136.965 .0261104
1137.582 .0261704
1138.199 .0262330
1138.816 .0262919
1139.435 .0263454
1140.054 .0263967
1140.674 .0264472
1141.294 .0265008
1141.916 .0265456
1142.538 .0265169
1143.160 .0266040
1143.784 .0267419
1144.408 .0269449
1145.033 .0266416
