Measurement Sequence started on: 14-45-04-498
Integration time: 36
Scans to Average: 2 
>>>>>Begin Spectral Data<<<<<
433.946 .0694676
434.870 .0605527
435.793 .0580756
436.715 .0583359
437.635 .0577370
438.555 .0572559
439.473 .0562599
440.389 .0556152
441.305 .0550805
442.219 .0545817
443.132 .0549809
444.044 .0545433
444.954 .0542324
445.863 .0539055
446.771 .0536087
447.678 .0533366
448.584 .0531163
449.488 .0529291
450.391 .0527686
451.293 .0526317
452.194 .0525128
453.094 .0524064
453.992 .0523086
454.890 .0522154
455.786 .0521254
456.681 .0520381
457.575 .0519526
458.468 .0518696
459.360 .0517884
460.250 .0517075
461.140 .0516251
462.028 .0515394
462.915 .0514486
463.801 .0513511
464.687 .0512463
465.571 .0511343
466.454 .0510156
467.335 .0508920
468.216 .0507654
469.096 .0506380
469.975 .0505118
470.853 .0503879
471.729 .0502669
472.605 .0501490
473.479 .0500338
474.353 .0499207
475.226 .0498094
476.097 .0496998
476.968 .0495924
477.838 .0494882
478.706 .0493879
479.574 .0492926
480.441 .0492033
481.306 .0491201
482.171 .0490430
483.035 .0489714
483.898 .0489041
484.760 .0488402
485.621 .0487788
486.481 .0487191
487.340 .0486606
488.198 .0486034
489.055 .0485474
489.912 .0484927
490.767 .0484392
491.622 .0483593
492.476 .0483050
493.329 .0482500
494.180 .0481932
495.032 .0481340
495.882 .0480722
496.731 .0480073
497.580 .0479393
498.427 .0478685
499.274 .0477950
500.120 .0477521
500.965 .0476764
501.809 .0475992
502.653 .0475209
503.495 .0474417
504.337 .0473619
505.178 .0472816
506.018 .0472007
506.858 .0471192
507.696 .0470370
508.534 .0469542
509.371 .0468710
510.208 .0467881
511.043 .0467057
511.878 .0466242
512.712 .0465439
513.545 .0464648
514.377 .0463866
515.209 .0463091
516.040 .0462323
516.870 .0461560
517.699 .0460800
518.528 .0460046
519.356 .0459302
520.183 .0458574
521.010 .0457867
521.836 .0457180
522.661 .0456511
523.485 .0455860
524.309 .0455219
525.132 .0454581
525.954 .0453945
526.776 .0453309
527.597 .0452664
528.417 .0452011
529.237 .0451353
530.056 .0450688
530.874 .0450018
531.692 .0449352
532.508 .0448686
533.325 .0448025
534.140 .0447369
534.955 .0446722
535.770 .0446087
536.583 .0445466
537.397 .0444856
538.209 .0444260
539.021 .0443679
539.832 .0443120
540.643 .0442577
541.453 .0442062
542.262 .0441579
543.071 .0441128
543.879 .0440711
544.687 .0440328
545.494 .0439973
546.300 .0439641
547.106 .0439321
547.911 .0439008
548.716 .0438690
549.520 .0438362
550.323 .0438018
551.126 .0437649
551.929 .0437250
552.731 .0436810
553.532 .0436319
554.332 .0435775
555.133 .0435172
555.932 .0434513
556.731 .0433804
557.530 .0433054
558.328 .0432274
559.125 .0431473
559.922 .0430662
560.719 .0429844
561.515 .0429023
562.310 .0428203
563.105 .0427386
563.899 .0426576
564.693 .0425779
565.487 .0425002
566.280 .0424253
567.072 .0423536
567.864 .0422855
568.655 .0422213
569.446 .0421614
570.236 .0421053
571.026 .0420528
571.816 .0420033
572.605 .0419564
573.393 .0419114
574.181 .0418678
574.969 .0418251
575.756 .0417828
576.543 .0417405
577.329 .0416985
578.115 .0416566
578.900 .0416150
579.685 .0415740
580.469 .0415337
581.253 .0414942
582.036 .0414553
582.820 .0414171
583.602 .0413793
584.384 .0413419
585.166 .0413049
585.947 .0412683
586.728 .0412321
587.509 .0411965
588.289 .0411613
589.069 .0411265
589.848 .0410920
590.627 .0410574
591.405 .0410228
592.183 .0409878
592.961 .0409526
593.738 .0409168
594.515 .0408805
595.291 .0408438
596.067 .0408067
596.843 .0407692
597.618 .0407313
598.393 .0406731
599.167 .0406348
599.941 .0405963
600.715 .0405579
601.488 .0405196
602.261 .0404817
603.034 .0404441
603.806 .0404071
604.578 .0403707
605.349 .0403350
606.121 .0403000
606.891 .0402845
607.662 .0402504
608.432 .0402169
609.201 .0401839
609.971 .0401514
610.740 .0401193
611.508 .0400875
612.277 .0400559
613.045 .0400246
613.812 .0399934
614.579 .0399622
615.346 .0399311
616.113 .0398998
616.879 .0398683
617.645 .0398366
618.411 .0398045
619.176 .0397719
619.941 .0397389
620.705 .0397053
621.470 .0396714
622.233 .0396371
622.997 .0396024
623.760 .0395676
624.523 .0395327
625.286 .0394977
626.048 .0394626
626.810 .0394277
627.572 .0393929
628.333 .0393584
629.095 .0393242
629.855 .0392904
630.616 .0392571
631.376 .0392242
632.136 .0391917
632.895 .0391597
633.655 .0391279
634.414 .0390964
635.172 .0390651
635.931 .0390339
636.689 .0390028
637.447 .0389718
638.204 .0389409
638.962 .0389101
639.718 .0388795
640.475 .0388491
641.231 .0388187
641.988 .0387885
642.743 .0387583
643.499 .0387282
644.254 .0386980
645.009 .0386679
645.764 .0386377
646.518 .0386076
647.272 .0385776
648.026 .0385478
648.780 .0385182
649.533 .0384890
650.286 .0384601
651.039 .0384316
651.792 .0384037
652.544 .0383764
653.296 .0383496
654.048 .0383235
654.799 .0382980
655.550 .0382731
656.301 .0382487
657.052 .0382249
657.802 .0382015
658.552 .0381787
659.302 .0381562
660.052 .0381340
660.801 .0381122
661.550 .0380905
662.299 .0380690
663.048 .0380474
663.796 .0380257
664.544 .0380038
665.292 .0379817
666.040 .0379595
666.787 .0379370
667.534 .0379145
668.281 .0378919
669.028 .0378694
669.774 .0378469
670.521 .0378245
671.266 .0378022
672.012 .0377800
672.758 .0377578
673.503 .0377358
674.248 .0377138
674.992 .0376920
675.737 .0376704
676.481 .0376489
677.225 .0376276
677.969 .0376063
678.712 .0375852
679.455 .0375642
680.199 .0375433
680.941 .0375225
681.684 .0375016
682.426 .0374808
683.168 .0374598
683.910 .0374388
684.652 .0374176
685.393 .0373962
686.134 .0373746
686.875 .0373529
687.616 .0373311
688.356 .0373094
689.097 .0372878
689.837 .0372664
690.576 .0372452
691.316 .0372242
692.055 .0372033
692.794 .0371826
693.533 .0371619
694.272 .0371414
695.010 .0371211
695.748 .0371009
696.486 .0370810
697.224 .0370615
697.962 .0370423
698.699 .0370235
699.436 .0370050
700.173 .0369870
700.909 .0369694
701.646 .0369522
702.382 .0369353
703.118 .0369188
703.853 .0369025
704.589 .0368863
705.324 .0368703
706.059 .0368542
706.794 .0368380
707.529 .0368217
708.263 .0368053
708.997 .0367888
709.731 .0367723
710.465 .0367557
711.198 .0367391
711.931 .0367224
712.664 .0367057
713.397 .0366887
714.130 .0366717
714.862 .0366544
715.594 .0366370
716.326 .0366194
717.058 .0366016
717.789 .0365837
718.520 .0365657
719.251 .0365475
719.982 .0365290
720.713 .0365103
721.443 .0364913
722.173 .0364721
722.903 .0364526
723.633 .0364329
724.362 .0364130
725.091 .0363929
725.820 .0363725
726.549 .0363519
727.278 .0363311
728.006 .0363101
728.734 .0362889
729.462 .0362677
730.190 .0362465
730.917 .0362253
731.644 .0362041
732.371 .0361830
733.098 .0361620
733.825 .0361411
734.551 .0361203
735.277 .0360997
736.003 .0360793
736.728 .0360592
737.454 .0360395
738.179 .0360202
738.904 .0360015
739.629 .0359832
740.353 .0359652
741.077 .0359476
741.801 .0359301
742.525 .0359127
743.249 .0358954
743.972 .0358782
744.695 .0358610
745.418 .0358439
746.141 .0358267
746.863 .0358096
747.585 .0357924
748.307 .0357752
749.029 .0357578
749.750 .0357402
750.472 .0357223
751.193 .0357040
751.913 .0356855
752.634 .0356666
753.354 .0356475
754.074 .0356280
754.794 .0356083
755.514 .0355885
756.233 .0355687
756.952 .0355490
757.671 .0355295
758.390 .0355103
759.108 .0354915
759.826 .0354731
760.544 .0354551
761.262 .0354374
761.979 .0354201
762.697 .0354031
763.414 .0353865
764.130 .0353702
764.847 .0353543
765.563 .0353389
766.279 .0353241
766.995 .0353100
767.710 .0352964
768.426 .0352833
769.141 .0352707
769.855 .0352584
770.570 .0352465
771.284 .0352347
771.998 .0352231
772.712 .0352116
773.426 .0352002
774.139 .0351888
774.852 .0351775
775.565 .0351662
776.277 .0351551
776.990 .0351439
777.702 .0351328
778.414 .0351217
779.125 .0351107
779.836 .0350997
780.547 .0350888
781.258 .0350780
781.969 .0350674
782.679 .0350569
783.389 .0350416
784.099 .0350314
784.808 .0350214
785.517 .0350113
786.226 .0350013
786.935 .0349914
787.643 .0349814
788.352 .0349715
789.060 .0349616
789.767 .0349516
790.475 .0349416
791.182 .0349313
791.889 .0349258
792.595 .0349150
793.301 .0349038
794.008 .0348921
794.713 .0348799
795.419 .0348673
796.124 .0348544
796.829 .0348410
797.534 .0348272
798.238 .0348130
798.942 .0347982
799.646 .0347829
800.350 .0347670
801.053 .0347506
801.756 .0347337
802.459 .0347164
803.162 .0346988
803.864 .0346810
804.566 .0346631
805.267 .0346451
805.969 .0346271
806.670 .0346089
807.371 .0345908
808.071 .0345726
808.772 .0345545
809.472 .0345367
810.171 .0345191
810.871 .0345019
811.570 .0344852
812.269 .0344688
812.967 .0344529
813.666 .0344372
814.364 .0344217
815.061 .0344063
815.759 .0343908
816.456 .0343753
817.153 .0343597
817.849 .0343439
818.545 .0343280
819.241 .0343119
819.937 .0342955
820.632 .0342788
821.327 .0342616
822.022 .0342441
822.717 .0342260
823.411 .0342074
824.105 .0341883
824.798 .0341686
825.491 .0341484
826.184 .0341276
826.877 .0341065
827.569 .0340849
828.261 .0340630
828.953 .0340408
829.645 .0340185
830.336 .0339961
831.027 .0339738
831.717 .0339515
832.407 .0339295
833.097 .0339078
833.787 .0338866
834.476 .0338657
835.165 .0338455
835.854 .0338259
836.542 .0338070
837.230 .0337889
837.918 .0337714
838.605 .0337547
839.292 .0337386
839.979 .0337231
840.665 .0337082
841.352 .0336938
842.037 .0336798
842.723 .0336664
843.408 .0336534
844.093 .0336409
844.777 .0336287
845.462 .0336169
846.145 .0336054
846.829 .0335941
847.512 .0335830
848.195 .0335721
848.878 .0335613
849.560 .0335506
850.242 .0335400
850.923 .0335294
851.605 .0335189
852.286 .0335082
852.966 .0334975
853.646 .0334866
854.326 .0334755
855.006 .0334643
855.685 .0334529
856.364 .0334414
857.043 .0334296
857.721 .0334177
858.399 .0334057
859.077 .0333936
859.754 .0333813
860.431 .0333691
861.107 .0333568
861.784 .0333445
862.459 .0333323
863.135 .0333201
863.810 .0333081
864.485 .0332961
865.160 .0332842
865.834 .0332724
866.508 .0332606
867.181 .0332490
867.854 .0332376
868.527 .0332263
869.199 .0332153
869.872 .0332044
870.543 .0331937
871.215 .0331831
871.886 .0331725
872.557 .0331620
873.227 .0331515
873.897 .0331410
874.567 .0331304
875.236 .0331196
875.905 .0331086
876.573 .0330973
877.242 .0330856
877.909 .0330733
878.577 .0330603
879.244 .0330465
879.911 .0330319
880.577 .0330164
881.243 .0330000
881.909 .0329828
882.575 .0329647
883.240 .0329458
883.904 .0329261
884.569 .0329055
885.232 .0328841
885.896 .0328620
886.559 .0328393
887.222 .0328161
887.885 .0327925
888.547 .0327688
889.208 .0327450
889.870 .0327212
890.531 .0326977
891.192 .0326745
891.852 .0326515
892.512 .0326290
893.171 .0326068
893.830 .0325850
894.489 .0325638
895.148 .0325431
895.806 .0325231
896.464 .0325037
897.121 .0324849
897.778 .0324668
898.434 .0324493
899.091 .0324255
899.747 .0324090
900.402 .0323929
901.057 .0323770
901.712 .0323614
902.366 .0323458
903.020 .0323303
903.674 .0323147
904.327 .0322990
904.980 .0322832
905.633 .0322672
906.285 .0322511
906.936 .0322347
907.588 .0322257
908.239 .0322092
908.889 .0321927
909.540 .0321761
910.190 .0321594
910.839 .0321426
911.488 .0321258
912.137 .0321090
912.785 .0320923
913.433 .0320755
914.081 .0320589
914.728 .0320425
915.375 .0320262
916.021 .0320102
916.668 .0319944
917.313 .0319790
917.959 .0319639
918.604 .0319492
919.248 .0319349
919.892 .0319210
920.536 .0319076
921.180 .0318945
921.823 .0318818
922.465 .0318696
923.108 .0318576
923.750 .0318460
924.391 .0318345
925.032 .0318232
925.673 .0318121
926.313 .0318010
926.953 .0317900
927.593 .0317790
928.232 .0317680
928.871 .0317570
929.510 .0317459
930.148 .0317346
930.786 .0317232
931.423 .0317116
932.060 .0316996
932.697 .0316873
933.333 .0316747
933.969 .0316618
934.604 .0316486
935.239 .0316352
935.874 .0316216
936.508 .0316078
937.142 .0315938
937.776 .0315795
938.409 .0315650
939.042 .0315501
939.674 .0315348
940.306 .0315192
940.938 .0315033
941.569 .0314870
942.200 .0314705
942.830 .0314537
943.460 .0314367
944.090 .0314196
944.720 .0314023
945.349 .0313848
945.977 .0313672
946.606 .0313495
947.233 .0313317
947.861 .0313138
948.488 .0312959
949.115 .0312781
949.741 .0312603
950.367 .0312427
950.993 .0312254
951.618 .0312083
952.243 .0311915
952.868 .0311750
953.492 .0311587
954.115 .0311427
954.739 .0311269
955.362 .0311114
955.984 .0310960
956.607 .0310808
957.229 .0310657
957.850 .0310509
958.471 .0310362
959.092 .0310218
959.713 .0310075
960.333 .0309934
960.952 .0309795
961.572 .0309656
962.191 .0309517
962.809 .0309377
963.428 .0309237
964.045 .0309095
964.663 .0308953
965.280 .0308809
965.897 .0308666
966.513 .0308522
967.129 .0308378
967.745 .0308233
968.361 .0308087
968.976 .0307938
969.590 .0307787
970.205 .0307633
970.818 .0307476
971.432 .0307316
972.045 .0307154
972.658 .0306991
973.271 .0306827
973.883 .0306661
974.495 .0306493
975.106 .0306322
975.717 .0306148
976.328 .0305970
976.938 .0305786
977.548 .0305596
978.158 .0305402
978.768 .0305092
979.377 .0304886
979.985 .0304677
980.594 .0304466
981.202 .0304253
981.809 .0304040
982.417 .0303826
983.024 .0303614
983.631 .0303403
984.237 .0303195
984.843 .0302992
985.449 .0302795
986.054 .0302604
986.659 .0302420
987.264 .0302350
987.868 .0302181
988.472 .0302019
989.076 .0301866
989.679 .0301723
990.282 .0301588
990.885 .0301463
991.487 .0301347
992.090 .0301240
992.691 .0301140
993.293 .0301048
993.894 .0300963
994.495 .0300886
995.095 .0300815
995.696 .0300752
996.296 .0300697
996.895 .0300649
997.494 .0300608
998.093 .0300573
998.692 .0300543
999.291 .0300515
999.889 .0300488
1000.487 .0300459
1001.084 .0300428
1001.681 .0300394
1002.278 .0300356
1002.875 .0300315
1003.471 .0300271
1004.067 .0300224
1004.663 .0300172
1005.258 .0300117
1005.854 .0300057
1006.449 .0299991
1007.043 .0299918
1007.638 .0299839
1008.232 .0299755
1008.826 .0299668
1009.419 .0299578
1010.012 .0299490
1010.605 .0299403
1011.198 .0299321
1011.791 .0299242
1012.383 .0299169
1012.975 .0299100
1013.566 .0299037
1014.158 .0298979
1014.749 .0298928
1015.340 .0298883
1015.931 .0298847
1016.521 .0298819
1017.111 .0298801
1017.701 .0298792
1018.291 .0298793
1018.880 .0298801
1019.470 .0298817
1020.059 .0298839
1020.647 .0298867
1021.236 .0298900
1021.824 .0298939
1022.412 .0298984
1023.000 .0299035
1023.588 .0299091
1024.175 .0299154
1024.762 .0299222
1025.349 .0299295
1025.936 .0299374
1026.523 .0299457
1027.109 .0299544
1027.695 .0299634
1028.281 .0299727
1028.867 .0299823
1029.452 .0299920
1030.038 .0300019
1030.623 .0300120
1031.208 .0300221
1031.792 .0300321
1032.377 .0300421
1032.961 .0300518
1033.546 .0300613
1034.130 .0300702
1034.714 .0300787
1035.297 .0300867
1035.881 .0300941
1036.464 .0301008
1037.047 .0301072
1037.630 .0301132
1038.213 .0301190
1038.796 .0301246
1039.378 .0301301
1039.961 .0301355
1040.543 .0301408
1041.125 .0301458
1041.707 .0301504
1042.289 .0301545
1042.871 .0301579
1043.452 .0301607
1044.034 .0301627
1044.615 .0301641
1045.196 .0301651
1045.777 .0301657
1046.358 .0301659
1046.939 .0301657
1047.520 .0301651
1048.101 .0301640
1048.681 .0301624
1049.262 .0301603
1049.842 .0301578
1050.422 .0301550
1051.002 .0301523
1051.582 .0301498
1052.162 .0301480
1052.742 .0301469
1053.322 .0301465
1053.902 .0301469
1054.482 .0301478
1055.061 .0301489
1055.641 .0301502
1056.220 .0301514
1056.800 .0301525
1057.379 .0301535
1057.958 .0301544
1058.538 .0301554
1059.117 .0301565
1059.696 .0301577
1060.275 .0301591
1060.854 .0301605
1061.433 .0301619
1062.012 .0301629
1062.592 .0301636
1063.171 .0301638
1063.750 .0301636
1064.329 .0301630
1064.908 .0301620
1065.487 .0301608
1066.066 .0301595
1066.645 .0301581
1067.224 .0301568
1067.803 .0301553
1068.382 .0301535
1068.961 .0301514
1069.540 .0301486
1070.119 .0301450
1070.698 .0301406
1071.278 .0301352
1071.857 .0301289
1072.436 .0301218
1073.016 .0301140
1073.595 .0301055
1074.175 .0300965
1074.754 .0300871
1075.334 .0300774
1075.913 .0300674
1076.493 .0300572
1077.073 .0300469
1077.653 .0300366
1078.233 .0300266
1078.813 .0300168
1079.393 .0300074
1079.974 .0299984
1080.554 .0299900
1081.135 .0299822
1081.716 .0299750
1082.296 .0299682
1082.877 .0299619
1083.458 .0299559
1084.040 .0299501
1084.621 .0299444
1085.202 .0299388
1085.784 .0299332
1086.366 .0299275
1086.948 .0299218
1087.530 .0299161
1088.112 .0299105
1088.695 .0299052
1089.277 .0299002
1089.860 .0298955
1090.443 .0298913
1091.026 .0298874
1091.610 .0298840
1092.193 .0298808
1092.777 .0298779
1093.361 .0298751
1093.946 .0298722
1094.530 .0298691
1095.115 .0298657
1095.700 .0298620
1096.285 .0298580
1096.871 .0298536
1097.456 .0298488
1098.042 .0298435
1098.628 .0298378
1099.215 .0298315
1099.802 .0298248
1100.389 .0298173
1100.976 .0298092
1101.564 .0298004
1102.152 .0297911
1102.740 .0297816
1103.329 .0297720
1103.917 .0297628
1104.507 .0297540
1105.096 .0297459
1105.686 .0297384
1106.276 .0297316
1106.867 .0297254
1107.457 .0297198
1108.049 .0297146
1108.640 .0297099
1109.232 .0297057
1109.825 .0297023
1110.417 .0296998
1111.010 .0296984
1111.604 .0296981
1112.198 .0296992
1112.792 .0297015
1113.387 .0297053
1113.982 .0297105
1114.577 .0297174
1115.173 .0297262
1115.769 .0297369
1116.366 .0297496
1116.963 .0297645
1117.561 .0297816
1118.159 .0298012
1118.758 .0298231
1119.357 .0298475
1119.957 .0298742
1120.557 .0299035
1121.157 .0299354
1121.758 .0299699
1122.360 .0300070
1122.962 .0300466
1123.564 .0300885
1124.167 .0301037
1124.771 .0301488
1125.375 .0301955
1125.980 .0302438
1126.585 .0302935
1127.191 .0303444
1127.797 .0303966
1128.404 .0304500
1129.012 .0305049
1129.620 .0305614
1130.229 .0306193
1130.838 .0306785
1131.448 .0307387
1132.058 .0307998
1132.669 .0308924
1133.281 .0309557
1133.894 .0310205
1134.507 .0310807
1135.120 .0311486
1135.735 .0312223
1136.350 .0312883
1136.965 .0313285
1137.582 .0313972
1138.199 .0314668
1138.816 .0315351
1139.435 .0315977
1140.054 .0316625
1140.674 .0317318
1141.294 .0317974
1141.916 .0318848
1142.538 .0318080
1143.160 .0320712
1143.784 .0322779
1144.408 .0321240
1145.033 .0326753
