Measurement Sequence started on: 14-45-04-498
Integration time: 36
Scans to Average: 2 
>>>>>Begin Spectral Data<<<<<
433.946 .0486719
434.870 .0509115
435.793 .0472476
436.715 .0468679
437.635 .0464176
438.555 .0465720
439.473 .0460987
440.389 .0455928
441.305 .0452122
442.219 .0448526
443.132 .0451428
444.044 .0447314
444.954 .0445054
445.863 .0442918
446.771 .0440944
447.678 .0438815
448.584 .0436859
449.488 .0435090
450.391 .0433436
451.293 .0431882
452.194 .0430400
453.094 .0428966
453.992 .0427546
454.890 .0426106
455.786 .0424629
456.681 .0423117
457.575 .0421572
458.468 .0420007
459.360 .0418436
460.250 .0416871
461.140 .0415319
462.028 .0413792
462.915 .0412296
463.801 .0410841
464.687 .0409428
465.571 .0408067
466.454 .0406767
467.335 .0405536
468.216 .0404380
469.096 .0403302
469.975 .0402305
470.853 .0401387
471.729 .0400544
472.605 .0399775
473.479 .0399077
474.353 .0398449
475.226 .0397882
476.097 .0397374
476.968 .0396918
477.838 .0396508
478.706 .0396134
479.574 .0395790
480.441 .0395468
481.306 .0395158
482.171 .0394856
483.035 .0394556
483.898 .0394256
484.760 .0393961
485.621 .0393670
486.481 .0393386
487.340 .0393111
488.198 .0392843
489.055 .0392578
489.912 .0392314
490.767 .0392044
491.622 .0391589
492.476 .0391267
493.329 .0390918
494.180 .0390542
495.032 .0390140
495.882 .0389711
496.731 .0389257
497.580 .0388781
498.427 .0388282
499.274 .0387759
500.120 .0387424
500.965 .0386869
501.809 .0386290
502.653 .0385688
503.495 .0385065
504.337 .0384427
505.178 .0383781
506.018 .0383135
506.858 .0382494
507.696 .0381865
508.534 .0381253
509.371 .0380658
510.208 .0380082
511.043 .0379525
511.878 .0378987
512.712 .0378461
513.545 .0377948
514.377 .0377447
515.209 .0376954
516.040 .0376470
516.870 .0375988
517.699 .0375502
518.528 .0375010
519.356 .0374508
520.183 .0373994
521.010 .0373468
521.836 .0372933
522.661 .0372384
523.485 .0371825
524.309 .0371255
525.132 .0370675
525.954 .0370085
526.776 .0369484
527.597 .0368873
528.417 .0368254
529.237 .0367631
530.056 .0367018
530.874 .0366420
531.692 .0365848
532.508 .0365305
533.325 .0364795
534.140 .0364320
534.955 .0363881
535.770 .0363475
536.583 .0363097
537.397 .0362744
538.209 .0362410
539.021 .0362087
539.832 .0361779
540.643 .0361486
541.453 .0361208
542.262 .0360946
543.071 .0360700
543.879 .0360473
544.687 .0360263
545.494 .0360066
546.300 .0359877
547.106 .0359687
547.911 .0359490
548.716 .0359278
549.520 .0359051
550.323 .0358813
551.126 .0358568
551.929 .0358323
552.731 .0358082
553.532 .0357848
554.332 .0357620
555.133 .0357399
555.932 .0357184
556.731 .0356967
557.530 .0356744
558.328 .0356513
559.125 .0356274
559.922 .0356030
560.719 .0355782
561.515 .0355534
562.310 .0355289
563.105 .0355047
563.899 .0354802
564.693 .0354554
565.487 .0354299
566.280 .0354035
567.072 .0353760
567.864 .0353473
568.655 .0353174
569.446 .0352868
570.236 .0352560
571.026 .0352256
571.816 .0351958
572.605 .0351669
573.393 .0351390
574.181 .0351120
574.969 .0350857
575.756 .0350596
576.543 .0350331
577.329 .0350063
578.115 .0349789
578.900 .0349505
579.685 .0349216
580.469 .0348925
581.253 .0348634
582.036 .0348347
582.820 .0348062
583.602 .0347781
584.384 .0347500
585.166 .0347220
585.947 .0346937
586.728 .0346649
587.509 .0346357
588.289 .0346059
589.069 .0345758
589.848 .0345455
590.627 .0345152
591.405 .0344851
592.183 .0344555
592.961 .0344267
593.738 .0343988
594.515 .0343722
595.291 .0343469
596.067 .0343233
596.843 .0343014
597.618 .0342810
598.393 .0342563
599.167 .0342390
599.941 .0342229
600.715 .0342078
601.488 .0341935
602.261 .0341800
603.034 .0341672
603.806 .0341551
604.578 .0341434
605.349 .0341321
606.121 .0341209
606.891 .0341143
607.662 .0341028
608.432 .0340910
609.201 .0340790
609.971 .0340666
610.740 .0340536
611.508 .0340402
612.277 .0340263
613.045 .0340119
613.812 .0339970
614.579 .0339816
615.346 .0339658
616.113 .0339494
616.879 .0339327
617.645 .0339156
618.411 .0338981
619.176 .0338802
619.941 .0338619
620.705 .0338433
621.470 .0338243
622.233 .0338049
622.997 .0337852
623.760 .0337652
624.523 .0337449
625.286 .0337244
626.048 .0337037
626.810 .0336829
627.572 .0336619
628.333 .0336409
629.095 .0336198
629.855 .0335988
630.616 .0335777
631.376 .0335568
632.136 .0335360
632.895 .0335154
633.655 .0334949
634.414 .0334745
635.172 .0334542
635.931 .0334340
636.689 .0334139
637.447 .0333938
638.204 .0333739
638.962 .0333540
639.718 .0333343
640.475 .0333148
641.231 .0332954
641.988 .0332763
642.743 .0332573
643.499 .0332384
644.254 .0332195
645.009 .0332006
645.764 .0331817
646.518 .0331628
647.272 .0331441
648.026 .0331254
648.780 .0331069
649.533 .0330887
650.286 .0330706
651.039 .0330528
651.792 .0330353
652.544 .0330180
653.296 .0330009
654.048 .0329840
654.799 .0329674
655.550 .0329509
656.301 .0329347
657.052 .0329186
657.802 .0329027
658.552 .0328870
659.302 .0328715
660.052 .0328563
660.801 .0328414
661.550 .0328268
662.299 .0328126
663.048 .0327987
663.796 .0327851
664.544 .0327717
665.292 .0327585
666.040 .0327453
666.787 .0327321
667.534 .0327190
668.281 .0327060
669.028 .0326932
669.774 .0326806
670.521 .0326683
671.266 .0326562
672.012 .0326445
672.758 .0326329
673.503 .0326215
674.248 .0326102
674.992 .0325989
675.737 .0325876
676.481 .0325762
677.225 .0325646
677.969 .0325530
678.712 .0325412
679.455 .0325292
680.199 .0325171
680.941 .0325049
681.684 .0324926
682.426 .0324801
683.168 .0324676
683.910 .0324550
684.652 .0324422
685.393 .0324292
686.134 .0324161
686.875 .0324027
687.616 .0323893
688.356 .0323757
689.097 .0323622
689.837 .0323488
690.576 .0323356
691.316 .0323227
692.055 .0323100
692.794 .0322977
693.533 .0322856
694.272 .0322738
695.010 .0322621
695.748 .0322505
696.486 .0322389
697.224 .0322274
697.962 .0322158
698.699 .0322040
699.436 .0321921
700.173 .0321798
700.909 .0321673
701.646 .0321545
702.382 .0321414
703.118 .0321279
703.853 .0321141
704.589 .0320999
705.324 .0320853
706.059 .0320702
706.794 .0320547
707.529 .0320385
708.263 .0320219
708.997 .0320047
709.731 .0319871
710.465 .0319692
711.198 .0319510
711.931 .0319325
712.664 .0319138
713.397 .0318949
714.130 .0318758
714.862 .0318566
715.594 .0318373
716.326 .0318180
717.058 .0317986
717.789 .0317793
718.520 .0317602
719.251 .0317412
719.982 .0317223
720.713 .0317037
721.443 .0316853
722.173 .0316671
722.903 .0316490
723.633 .0316312
724.362 .0316137
725.091 .0315964
725.820 .0315794
726.549 .0315625
727.278 .0315459
728.006 .0315293
728.734 .0315129
729.462 .0314965
730.190 .0314803
730.917 .0314641
731.644 .0314481
732.371 .0314322
733.098 .0314166
733.825 .0314013
734.551 .0313862
735.277 .0313714
736.003 .0313567
736.728 .0313422
737.454 .0313279
738.179 .0313137
738.904 .0312997
739.629 .0312858
740.353 .0312720
741.077 .0312583
741.801 .0312447
742.525 .0312311
743.249 .0312176
743.972 .0312040
744.695 .0311904
745.418 .0311768
746.141 .0311631
746.863 .0311492
747.585 .0311353
748.307 .0311212
749.029 .0311069
749.750 .0310924
750.472 .0310777
751.193 .0310629
751.913 .0310479
752.634 .0310327
753.354 .0310175
754.074 .0310020
754.794 .0309864
755.514 .0309707
756.233 .0309546
756.952 .0309384
757.671 .0309219
758.390 .0309052
759.108 .0308882
759.826 .0308711
760.544 .0308538
761.262 .0308365
761.979 .0308191
762.697 .0308018
763.414 .0307845
764.130 .0307672
764.847 .0307500
765.563 .0307329
766.279 .0307158
766.995 .0306987
767.710 .0306817
768.426 .0306647
769.141 .0306477
769.855 .0306309
770.570 .0306141
771.284 .0305975
771.998 .0305811
772.712 .0305650
773.426 .0305491
774.139 .0305334
774.852 .0305180
775.565 .0305028
776.277 .0304878
776.990 .0304731
777.702 .0304586
778.414 .0304443
779.125 .0304303
779.836 .0304165
780.547 .0304031
781.258 .0303899
781.969 .0303770
782.679 .0303645
783.389 .0303466
784.099 .0303347
784.808 .0303231
785.517 .0303117
786.226 .0303005
786.935 .0302896
787.643 .0302787
788.352 .0302680
789.060 .0302574
789.767 .0302468
790.475 .0302363
791.182 .0302258
791.889 .0302206
792.595 .0302100
793.301 .0301993
794.008 .0301885
794.713 .0301775
795.419 .0301664
796.124 .0301549
796.829 .0301431
797.534 .0301309
798.238 .0301182
798.942 .0301050
799.646 .0300913
800.350 .0300772
801.053 .0300626
801.756 .0300477
802.459 .0300324
803.162 .0300167
803.864 .0300008
804.566 .0299845
805.267 .0299678
805.969 .0299509
806.670 .0299336
807.371 .0299160
808.071 .0298983
808.772 .0298804
809.472 .0298625
810.171 .0298445
810.871 .0298265
811.570 .0298084
812.269 .0297903
812.967 .0297722
813.666 .0297539
814.364 .0297356
815.061 .0297173
815.759 .0296989
816.456 .0296805
817.153 .0296622
817.849 .0296439
818.545 .0296255
819.241 .0296072
819.937 .0295887
820.632 .0295700
821.327 .0295512
822.022 .0295322
822.717 .0295131
823.411 .0294938
824.105 .0294745
824.798 .0294552
825.491 .0294359
826.184 .0294167
826.877 .0293975
827.569 .0293783
828.261 .0293592
828.953 .0293401
829.645 .0293212
830.336 .0293024
831.027 .0292838
831.717 .0292655
832.407 .0292476
833.097 .0292302
833.787 .0292132
834.476 .0291967
835.165 .0291806
835.854 .0291648
836.542 .0291494
837.230 .0291343
837.918 .0291195
838.605 .0291050
839.292 .0290909
839.979 .0290771
840.665 .0290636
841.352 .0290504
842.037 .0290374
842.723 .0290246
843.408 .0290120
844.093 .0289994
844.777 .0289868
845.462 .0289743
846.145 .0289619
846.829 .0289495
847.512 .0289373
848.195 .0289251
848.878 .0289131
849.560 .0289011
850.242 .0288891
850.923 .0288771
851.605 .0288650
852.286 .0288528
852.966 .0288406
853.646 .0288282
854.326 .0288158
855.006 .0288033
855.685 .0287908
856.364 .0287783
857.043 .0287658
857.721 .0287532
858.399 .0287406
859.077 .0287279
859.754 .0287152
860.431 .0287024
861.107 .0286897
861.784 .0286770
862.459 .0286643
863.135 .0286518
863.810 .0286394
864.485 .0286270
865.160 .0286147
865.834 .0286025
866.508 .0285903
867.181 .0285781
867.854 .0285660
868.527 .0285541
869.199 .0285422
869.872 .0285304
870.543 .0285188
871.215 .0285073
871.886 .0284959
872.557 .0284846
873.227 .0284734
873.897 .0284623
874.567 .0284512
875.236 .0284402
875.905 .0284293
876.573 .0284183
877.242 .0284074
877.909 .0283965
878.577 .0283855
879.244 .0283745
879.911 .0283634
880.577 .0283521
881.243 .0283407
881.909 .0283291
882.575 .0283172
883.240 .0283052
883.904 .0282929
884.569 .0282804
885.232 .0282676
885.896 .0282547
886.559 .0282417
887.222 .0282285
887.885 .0282153
888.547 .0282020
889.208 .0281887
889.870 .0281752
890.531 .0281618
891.192 .0281482
891.852 .0281345
892.512 .0281208
893.171 .0281069
893.830 .0280928
894.489 .0280786
895.148 .0280643
895.806 .0280498
896.464 .0280351
897.121 .0280202
897.778 .0280051
898.434 .0279899
899.091 .0279663
899.747 .0279508
900.402 .0279352
901.057 .0279196
901.712 .0279038
902.366 .0278879
903.020 .0278718
903.674 .0278555
904.327 .0278389
904.980 .0278221
905.633 .0278051
906.285 .0277880
906.936 .0277707
907.588 .0277620
908.239 .0277447
908.889 .0277273
909.540 .0277100
910.190 .0276926
910.839 .0276753
911.488 .0276579
912.137 .0276407
912.785 .0276236
913.433 .0276067
914.081 .0275901
914.728 .0275740
915.375 .0275582
916.021 .0275427
916.668 .0275276
917.313 .0275128
917.959 .0274982
918.604 .0274839
919.248 .0274697
919.892 .0274556
920.536 .0274417
921.180 .0274278
921.823 .0274141
922.465 .0274005
923.108 .0273870
923.750 .0273736
924.391 .0273603
925.032 .0273470
925.673 .0273337
926.313 .0273205
926.953 .0273074
927.593 .0272944
928.232 .0272815
928.871 .0272688
929.510 .0272562
930.148 .0272438
930.786 .0272316
931.423 .0272194
932.060 .0272074
932.697 .0271954
933.333 .0271835
933.969 .0271717
934.604 .0271600
935.239 .0271484
935.874 .0271370
936.508 .0271258
937.142 .0271149
937.776 .0271041
938.409 .0270935
939.042 .0270832
939.674 .0270731
940.306 .0270632
940.938 .0270536
941.569 .0270441
942.200 .0270347
942.830 .0270255
943.460 .0270164
944.090 .0270074
944.720 .0269984
945.349 .0269894
945.977 .0269805
946.606 .0269715
947.233 .0269625
947.861 .0269535
948.488 .0269444
949.115 .0269352
949.741 .0269260
950.367 .0269166
950.993 .0269072
951.618 .0268975
952.243 .0268877
952.868 .0268777
953.492 .0268675
954.115 .0268572
954.739 .0268467
955.362 .0268362
955.984 .0268256
956.607 .0268149
957.229 .0268041
957.850 .0267931
958.471 .0267819
959.092 .0267704
959.713 .0267587
960.333 .0267467
960.952 .0267345
961.572 .0267221
962.191 .0267095
962.809 .0266968
963.428 .0266840
964.045 .0266711
964.663 .0266580
965.280 .0266448
965.897 .0266314
966.513 .0266179
967.129 .0266043
967.745 .0265905
968.361 .0265768
968.976 .0265630
969.590 .0265493
970.205 .0265358
970.818 .0265223
971.432 .0265091
972.045 .0264959
972.658 .0264828
973.271 .0264698
973.883 .0264569
974.495 .0264441
975.106 .0264314
975.717 .0264188
976.328 .0264065
976.938 .0263945
977.548 .0263827
978.158 .0263711
978.768 .0263543
979.377 .0263430
979.985 .0263317
980.594 .0263204
981.202 .0263091
981.809 .0262978
982.417 .0262865
983.024 .0262752
983.631 .0262639
984.237 .0262527
984.843 .0262415
985.449 .0262302
986.054 .0262187
986.659 .0262070
987.264 .0262007
987.868 .0261886
988.472 .0261763
989.076 .0261638
989.679 .0261512
990.282 .0261385
990.885 .0261258
991.487 .0261131
992.090 .0261004
992.691 .0260879
993.293 .0260754
993.894 .0260630
994.495 .0260506
995.095 .0260384
995.696 .0260263
996.296 .0260144
996.895 .0260028
997.494 .0259915
998.093 .0259806
998.692 .0259700
999.291 .0259599
999.889 .0259501
1000.487 .0259408
1001.084 .0259319
1001.681 .0259234
1002.278 .0259154
1002.875 .0259078
1003.471 .0259007
1004.067 .0258941
1004.663 .0258881
1005.258 .0258826
1005.854 .0258775
1006.449 .0258729
1007.043 .0258687
1007.638 .0258649
1008.232 .0258614
1008.826 .0258582
1009.419 .0258553
1010.012 .0258527
1010.605 .0258503
1011.198 .0258482
1011.791 .0258463
1012.383 .0258447
1012.975 .0258433
1013.566 .0258420
1014.158 .0258410
1014.749 .0258403
1015.340 .0258399
1015.931 .0258397
1016.521 .0258398
1017.111 .0258402
1017.701 .0258408
1018.291 .0258415
1018.880 .0258424
1019.470 .0258433
1020.059 .0258444
1020.647 .0258455
1021.236 .0258466
1021.824 .0258478
1022.412 .0258491
1023.000 .0258504
1023.588 .0258518
1024.175 .0258534
1024.762 .0258551
1025.349 .0258569
1025.936 .0258588
1026.523 .0258609
1027.109 .0258632
1027.695 .0258658
1028.281 .0258686
1028.867 .0258718
1029.452 .0258754
1030.038 .0258793
1030.623 .0258835
1031.208 .0258880
1031.792 .0258928
1032.377 .0258978
1032.961 .0259029
1033.546 .0259081
1034.130 .0259133
1034.714 .0259185
1035.297 .0259236
1035.881 .0259286
1036.464 .0259334
1037.047 .0259381
1037.630 .0259427
1038.213 .0259470
1038.796 .0259511
1039.378 .0259551
1039.961 .0259587
1040.543 .0259622
1041.125 .0259653
1041.707 .0259682
1042.289 .0259707
1042.871 .0259729
1043.452 .0259748
1044.034 .0259764
1044.615 .0259777
1045.196 .0259787
1045.777 .0259793
1046.358 .0259795
1046.939 .0259794
1047.520 .0259789
1048.101 .0259779
1048.681 .0259765
1049.262 .0259748
1049.842 .0259726
1050.422 .0259703
1051.002 .0259677
1051.582 .0259651
1052.162 .0259625
1052.742 .0259598
1053.322 .0259572
1053.902 .0259544
1054.482 .0259516
1055.061 .0259486
1055.641 .0259457
1056.220 .0259426
1056.800 .0259396
1057.379 .0259367
1057.958 .0259338
1058.538 .0259310
1059.117 .0259283
1059.696 .0259255
1060.275 .0259226
1060.854 .0259195
1061.433 .0259161
1062.012 .0259123
1062.592 .0259084
1063.171 .0259042
1063.750 .0258999
1064.329 .0258956
1064.908 .0258913
1065.487 .0258871
1066.066 .0258829
1066.645 .0258788
1067.224 .0258747
1067.803 .0258704
1068.382 .0258659
1068.961 .0258612
1069.540 .0258562
1070.119 .0258510
1070.698 .0258456
1071.278 .0258402
1071.857 .0258347
1072.436 .0258292
1073.016 .0258238
1073.595 .0258183
1074.175 .0258127
1074.754 .0258069
1075.334 .0258009
1075.913 .0257945
1076.493 .0257877
1077.073 .0257807
1077.653 .0257733
1078.233 .0257657
1078.813 .0257580
1079.393 .0257500
1079.974 .0257419
1080.554 .0257335
1081.135 .0257247
1081.716 .0257155
1082.296 .0257058
1082.877 .0256956
1083.458 .0256849
1084.040 .0256738
1084.621 .0256625
1085.202 .0256511
1085.784 .0256397
1086.366 .0256285
1086.948 .0256175
1087.530 .0256067
1088.112 .0255961
1088.695 .0255856
1089.277 .0255752
1089.860 .0255647
1090.443 .0255542
1091.026 .0255436
1091.610 .0255329
1092.193 .0255223
1092.777 .0255118
1093.361 .0255015
1093.946 .0254914
1094.530 .0254816
1095.115 .0254720
1095.700 .0254627
1096.285 .0254535
1096.871 .0254445
1097.456 .0254357
1098.042 .0254271
1098.628 .0254188
1099.215 .0254109
1099.802 .0254035
1100.389 .0253966
1100.976 .0253903
1101.564 .0253846
1102.152 .0253794
1102.740 .0253748
1103.329 .0253707
1103.917 .0253672
1104.507 .0253640
1105.096 .0253614
1105.686 .0253592
1106.276 .0253576
1106.867 .0253566
1107.457 .0253562
1108.049 .0253565
1108.640 .0253576
1109.232 .0253594
1109.825 .0253621
1110.417 .0253657
1111.010 .0253703
1111.604 .0253759
1112.198 .0253824
1112.792 .0253898
1113.387 .0253981
1113.982 .0254073
1114.577 .0254174
1115.173 .0254286
1115.769 .0254410
1116.366 .0254547
1116.963 .0254697
1117.561 .0254860
1118.159 .0255038
1118.758 .0255230
1119.357 .0255433
1119.957 .0255648
1120.557 .0255873
1121.157 .0256107
1121.758 .0256350
1122.360 .0256602
1122.962 .0256863
1123.564 .0257133
1124.167 .0257238
1124.771 .0257525
1125.375 .0257822
1125.980 .0258130
1126.585 .0258446
1127.191 .0258772
1127.797 .0259106
1128.404 .0259449
1129.012 .0259801
1129.620 .0260167
1130.229 .0260548
1130.838 .0260948
1131.448 .0261369
1132.058 .0261814
1132.669 .0262496
1133.281 .0262998
1133.894 .0263527
1134.507 .0264059
1135.120 .0264636
1135.735 .0265243
1136.350 .0265880
1136.965 .0265075
1137.582 .0265590
1138.199 .0266185
1138.816 .0266878
1139.435 .0267646
1140.054 .0268514
1140.674 .0269470
1141.294 .0270495
1141.916 .0271606
1142.538 .0272113
1143.160 .0273825
1143.784 .0275102
1144.408 .0276372
1145.033 .0278826
