Measurement Sequence started on: 14-45-04-498
Integration time: 36
Scans to Average: 2 
>>>>>Begin Spectral Data<<<<<
433.946 .0540992
434.870 .0502754
435.793 .0439332
436.715 .0454468
437.635 .0440540
438.555 .0451212
439.473 .0445197
440.389 .0441574
441.305 .0440050
442.219 .0438171
443.132 .0441313
444.044 .0437378
444.954 .0436727
445.863 .0435229
446.771 .0434413
447.678 .0432989
448.584 .0431828
449.488 .0430805
450.391 .0429809
451.293 .0428859
452.194 .0427923
453.094 .0427002
453.992 .0426083
454.890 .0425149
455.786 .0424198
456.681 .0423238
457.575 .0422276
458.468 .0421326
459.360 .0420396
460.250 .0419494
461.140 .0418619
462.028 .0417775
462.915 .0416960
463.801 .0416178
464.687 .0415422
465.571 .0414698
466.454 .0414000
467.335 .0413329
468.216 .0412682
469.096 .0412063
469.975 .0411468
470.853 .0410894
471.729 .0410341
472.605 .0409811
473.479 .0409302
474.353 .0408812
475.226 .0408336
476.097 .0407869
476.968 .0407403
477.838 .0406934
478.706 .0406452
479.574 .0405961
480.441 .0405463
481.306 .0404964
482.171 .0404472
483.035 .0403990
483.898 .0403521
484.760 .0403066
485.621 .0402621
486.481 .0402183
487.340 .0401747
488.198 .0401313
489.055 .0400881
489.912 .0400453
490.767 .0400036
491.622 .0399477
492.476 .0399102
493.329 .0398745
494.180 .0398402
495.032 .0398068
495.882 .0397736
496.731 .0397397
497.580 .0397044
498.427 .0396671
499.274 .0396279
500.120 .0396041
500.965 .0395622
501.809 .0395191
502.653 .0394751
503.495 .0394306
504.337 .0393858
505.178 .0393408
506.018 .0392955
506.858 .0392499
507.696 .0392040
508.534 .0391580
509.371 .0391120
510.208 .0390662
511.043 .0390210
511.878 .0389766
512.712 .0389335
513.545 .0388912
514.377 .0388495
515.209 .0388075
516.040 .0387647
516.870 .0387195
517.699 .0386706
518.528 .0386173
519.356 .0385588
520.183 .0384944
521.010 .0384237
521.836 .0383466
522.661 .0382629
523.485 .0381723
524.309 .0380750
525.132 .0379710
525.954 .0378610
526.776 .0377457
527.597 .0376263
528.417 .0375043
529.237 .0373822
530.056 .0372613
530.874 .0371442
531.692 .0370333
532.508 .0369309
533.325 .0368386
534.140 .0367582
534.955 .0366908
535.770 .0366368
536.583 .0365957
537.397 .0365668
538.209 .0365489
539.021 .0365410
539.832 .0365417
540.643 .0365506
541.453 .0365671
542.262 .0365901
543.071 .0366185
543.879 .0366512
544.687 .0366866
545.494 .0367225
546.300 .0367565
547.106 .0367869
547.911 .0368119
548.716 .0368294
549.520 .0368379
550.323 .0368371
551.126 .0368268
551.929 .0368075
552.731 .0367801
553.532 .0367462
554.332 .0367073
555.133 .0366649
555.932 .0366207
556.731 .0365761
557.530 .0365315
558.328 .0364874
559.125 .0364437
559.922 .0364008
560.719 .0363583
561.515 .0363166
562.310 .0362758
563.105 .0362363
563.899 .0361982
564.693 .0361616
565.487 .0361267
566.280 .0360936
567.072 .0360621
567.864 .0360317
568.655 .0360015
569.446 .0359710
570.236 .0359392
571.026 .0359058
571.816 .0358700
572.605 .0358318
573.393 .0357912
574.181 .0357486
574.969 .0357041
575.756 .0356584
576.543 .0356119
577.329 .0355651
578.115 .0355183
578.900 .0354719
579.685 .0354257
580.469 .0353800
581.253 .0353345
582.036 .0352896
582.820 .0352450
583.602 .0352010
584.384 .0351577
585.166 .0351154
585.947 .0350746
586.728 .0350353
587.509 .0349976
588.289 .0349618
589.069 .0349274
589.848 .0348942
590.627 .0348616
591.405 .0348294
592.183 .0347974
592.961 .0347651
593.738 .0347326
594.515 .0346998
595.291 .0346668
596.067 .0346337
596.843 .0346005
597.618 .0345672
598.393 .0345162
599.167 .0344831
599.941 .0344501
600.715 .0344172
601.488 .0343844
602.261 .0343519
603.034 .0343196
603.806 .0342876
604.578 .0342559
605.349 .0342246
606.121 .0341938
606.891 .0341808
607.662 .0341509
608.432 .0341218
609.201 .0340936
609.971 .0340664
610.740 .0340403
611.508 .0340151
612.277 .0339909
613.045 .0339673
613.812 .0339443
614.579 .0339217
615.346 .0338994
616.113 .0338773
616.879 .0338555
617.645 .0338337
618.411 .0338120
619.176 .0337903
619.941 .0337685
620.705 .0337464
621.470 .0337241
622.233 .0337014
622.997 .0336784
623.760 .0336550
624.523 .0336312
625.286 .0336071
626.048 .0335825
626.810 .0335576
627.572 .0335322
628.333 .0335063
629.095 .0334800
629.855 .0334534
630.616 .0334266
631.376 .0333997
632.136 .0333729
632.895 .0333461
633.655 .0333195
634.414 .0332929
635.172 .0332663
635.931 .0332396
636.689 .0332127
637.447 .0331855
638.204 .0331582
638.962 .0331308
639.718 .0331033
640.475 .0330761
641.231 .0330492
641.988 .0330226
642.743 .0329963
643.499 .0329705
644.254 .0329450
645.009 .0329199
645.764 .0328952
646.518 .0328710
647.272 .0328472
648.026 .0328238
648.780 .0328011
649.533 .0327790
650.286 .0327575
651.039 .0327367
651.792 .0327165
652.544 .0326970
653.296 .0326783
654.048 .0326602
654.799 .0326429
655.550 .0326265
656.301 .0326108
657.052 .0325958
657.802 .0325814
658.552 .0325675
659.302 .0325541
660.052 .0325411
660.801 .0325282
661.550 .0325154
662.299 .0325026
663.048 .0324897
663.796 .0324766
664.544 .0324631
665.292 .0324492
666.040 .0324349
666.787 .0324200
667.534 .0324045
668.281 .0323885
669.028 .0323720
669.774 .0323550
670.521 .0323376
671.266 .0323196
672.012 .0323012
672.758 .0322823
673.503 .0322631
674.248 .0322435
674.992 .0322237
675.737 .0322037
676.481 .0321836
677.225 .0321636
677.969 .0321437
678.712 .0321239
679.455 .0321044
680.199 .0320850
680.941 .0320657
681.684 .0320466
682.426 .0320276
683.168 .0320087
683.910 .0319899
684.652 .0319713
685.393 .0319527
686.134 .0319342
686.875 .0319158
687.616 .0318974
688.356 .0318791
689.097 .0318609
689.837 .0318426
690.576 .0318243
691.316 .0318060
692.055 .0317877
692.794 .0317692
693.533 .0317508
694.272 .0317322
695.010 .0317136
695.748 .0316950
696.486 .0316764
697.224 .0316579
697.962 .0316395
698.699 .0316214
699.436 .0316034
700.173 .0315855
700.909 .0315679
701.646 .0315503
702.382 .0315330
703.118 .0315159
703.853 .0314991
704.589 .0314825
705.324 .0314663
706.059 .0314505
706.794 .0314350
707.529 .0314197
708.263 .0314048
708.997 .0313900
709.731 .0313755
710.465 .0313612
711.198 .0313472
711.931 .0313336
712.664 .0313202
713.397 .0313072
714.130 .0312944
714.862 .0312818
715.594 .0312693
716.326 .0312570
717.058 .0312446
717.789 .0312322
718.520 .0312198
719.251 .0312075
719.982 .0311951
720.713 .0311828
721.443 .0311704
722.173 .0311580
722.903 .0311454
723.633 .0311328
724.362 .0311200
725.091 .0311071
725.820 .0310941
726.549 .0310810
727.278 .0310679
728.006 .0310547
728.734 .0310416
729.462 .0310285
730.190 .0310155
730.917 .0310025
731.644 .0309897
732.371 .0309770
733.098 .0309646
733.825 .0309524
734.551 .0309404
735.277 .0309286
736.003 .0309171
736.728 .0309058
737.454 .0308946
738.179 .0308836
738.904 .0308729
739.629 .0308623
740.353 .0308520
741.077 .0308418
741.801 .0308318
742.525 .0308218
743.249 .0308119
743.972 .0308018
744.695 .0307917
745.418 .0307815
746.141 .0307710
746.863 .0307603
747.585 .0307493
748.307 .0307381
749.029 .0307266
749.750 .0307148
750.472 .0307026
751.193 .0306902
751.913 .0306773
752.634 .0306641
753.354 .0306504
754.074 .0306364
754.794 .0306220
755.514 .0306071
756.233 .0305919
756.952 .0305763
757.671 .0305604
758.390 .0305443
759.108 .0305279
759.826 .0305115
760.544 .0304950
761.262 .0304784
761.979 .0304618
762.697 .0304453
763.414 .0304287
764.130 .0304123
764.847 .0303959
765.563 .0303798
766.279 .0303638
766.995 .0303480
767.710 .0303325
768.426 .0303172
769.141 .0303023
769.855 .0302875
770.570 .0302730
771.284 .0302588
771.998 .0302447
772.712 .0302309
773.426 .0302174
774.139 .0302041
774.852 .0301911
775.565 .0301784
776.277 .0301658
776.990 .0301533
777.702 .0301410
778.414 .0301288
779.125 .0301168
779.836 .0301048
780.547 .0300931
781.258 .0300816
781.969 .0300704
782.679 .0300596
783.389 .0300450
784.099 .0300353
784.808 .0300259
785.517 .0300168
786.226 .0300080
786.935 .0299995
787.643 .0299913
788.352 .0299835
789.060 .0299760
789.767 .0299689
790.475 .0299622
791.182 .0299559
791.889 .0299538
792.595 .0299482
793.301 .0299430
794.008 .0299383
794.713 .0299341
795.419 .0299301
796.124 .0299264
796.829 .0299230
797.534 .0299198
798.238 .0299166
798.942 .0299135
799.646 .0299105
800.350 .0299074
801.053 .0299042
801.756 .0299011
802.459 .0298980
803.162 .0298948
803.864 .0298916
804.566 .0298884
805.267 .0298851
805.969 .0298817
806.670 .0298781
807.371 .0298743
808.071 .0298701
808.772 .0298656
809.472 .0298607
810.171 .0298553
810.871 .0298495
811.570 .0298432
812.269 .0298363
812.967 .0298288
813.666 .0298207
814.364 .0298117
815.061 .0298019
815.759 .0297913
816.456 .0297797
817.153 .0297674
817.849 .0297542
818.545 .0297404
819.241 .0297258
819.937 .0297106
820.632 .0296949
821.327 .0296786
822.022 .0296620
822.717 .0296450
823.411 .0296278
824.105 .0296105
824.798 .0295932
825.491 .0295761
826.184 .0295591
826.877 .0295424
827.569 .0295258
828.261 .0295093
828.953 .0294930
829.645 .0294766
830.336 .0294603
831.027 .0294441
831.717 .0294281
832.407 .0294121
833.097 .0293963
833.787 .0293807
834.476 .0293651
835.165 .0293494
835.854 .0293337
836.542 .0293178
837.230 .0293017
837.918 .0292852
838.605 .0292684
839.292 .0292513
839.979 .0292338
840.665 .0292160
841.352 .0291977
842.037 .0291791
842.723 .0291600
843.408 .0291405
844.093 .0291207
844.777 .0291005
845.462 .0290802
846.145 .0290597
846.829 .0290393
847.512 .0290188
848.195 .0289985
848.878 .0289783
849.560 .0289584
850.242 .0289388
850.923 .0289197
851.605 .0289010
852.286 .0288829
852.966 .0288655
853.646 .0288487
854.326 .0288326
855.006 .0288171
855.685 .0288021
856.364 .0287877
857.043 .0287737
857.721 .0287600
858.399 .0287466
859.077 .0287335
859.754 .0287207
860.431 .0287080
861.107 .0286955
861.784 .0286832
862.459 .0286710
863.135 .0286590
863.810 .0286471
864.485 .0286354
865.160 .0286238
865.834 .0286125
866.508 .0286015
867.181 .0285907
867.854 .0285803
868.527 .0285701
869.199 .0285603
869.872 .0285509
870.543 .0285419
871.215 .0285333
871.886 .0285251
872.557 .0285175
873.227 .0285104
873.897 .0285038
874.567 .0284977
875.236 .0284920
875.905 .0284866
876.573 .0284816
877.242 .0284769
877.909 .0284724
878.577 .0284682
879.244 .0284643
879.911 .0284606
880.577 .0284571
881.243 .0284539
881.909 .0284508
882.575 .0284477
883.240 .0284447
883.904 .0284416
884.569 .0284384
885.232 .0284350
885.896 .0284313
886.559 .0284274
887.222 .0284230
887.885 .0284182
888.547 .0284131
889.208 .0284075
889.870 .0284017
890.531 .0283956
891.192 .0283894
891.852 .0283831
892.512 .0283768
893.171 .0283706
893.830 .0283643
894.489 .0283582
895.148 .0283521
895.806 .0283461
896.464 .0283401
897.121 .0283341
897.778 .0283283
898.434 .0283225
899.091 .0283145
899.747 .0283089
900.402 .0283035
901.057 .0282980
901.712 .0282927
902.366 .0282873
903.020 .0282820
903.674 .0282767
904.327 .0282713
904.980 .0282659
905.633 .0282604
906.285 .0282547
906.936 .0282488
907.588 .0282449
908.239 .0282385
908.889 .0282318
909.540 .0282247
910.190 .0282171
910.839 .0282092
911.488 .0282007
912.137 .0281918
912.785 .0281822
913.433 .0281720
914.081 .0281611
914.728 .0281495
915.375 .0281372
916.021 .0281242
916.668 .0281105
917.313 .0280961
917.959 .0280812
918.604 .0280656
919.248 .0280495
919.892 .0280329
920.536 .0280157
921.180 .0279979
921.823 .0279795
922.465 .0279605
923.108 .0279410
923.750 .0279210
924.391 .0279004
925.032 .0278793
925.673 .0278576
926.313 .0278355
926.953 .0278128
927.593 .0277897
928.232 .0277660
928.871 .0277419
929.510 .0277173
930.148 .0276924
930.786 .0276673
931.423 .0276420
932.060 .0276164
932.697 .0275907
933.333 .0275648
933.969 .0275386
934.604 .0275121
935.239 .0274853
935.874 .0274580
936.508 .0274304
937.142 .0274024
937.776 .0273742
938.409 .0273458
939.042 .0273173
939.674 .0272888
940.306 .0272604
940.938 .0272321
941.569 .0272040
942.200 .0271761
942.830 .0271484
943.460 .0271211
944.090 .0270941
944.720 .0270676
945.349 .0270414
945.977 .0270157
946.606 .0269904
947.233 .0269655
947.861 .0269411
948.488 .0269169
949.115 .0268933
949.741 .0268700
950.367 .0268473
950.993 .0268252
951.618 .0268037
952.243 .0267828
952.868 .0267625
953.492 .0267429
954.115 .0267240
954.739 .0267058
955.362 .0266882
955.984 .0266713
956.607 .0266551
957.229 .0266397
957.850 .0266250
958.471 .0266110
959.092 .0265976
959.713 .0265848
960.333 .0265726
960.952 .0265607
961.572 .0265494
962.191 .0265385
962.809 .0265280
963.428 .0265181
964.045 .0265087
964.663 .0264999
965.280 .0264916
965.897 .0264838
966.513 .0264765
967.129 .0264695
967.745 .0264628
968.361 .0264565
968.976 .0264505
969.590 .0264449
970.205 .0264398
970.818 .0264350
971.432 .0264306
972.045 .0264265
972.658 .0264226
973.271 .0264187
973.883 .0264149
974.495 .0264110
975.106 .0264070
975.717 .0264030
976.328 .0263991
976.938 .0263953
977.548 .0263919
978.158 .0263887
978.768 .0263849
979.377 .0263823
979.985 .0263799
980.594 .0263776
981.202 .0263753
981.809 .0263732
982.417 .0263712
983.024 .0263693
983.631 .0263677
984.237 .0263664
984.843 .0263652
985.449 .0263641
986.054 .0263632
986.659 .0263623
987.264 .0263623
987.868 .0263617
988.472 .0263611
989.076 .0263608
989.679 .0263608
990.282 .0263610
990.885 .0263617
991.487 .0263627
992.090 .0263640
992.691 .0263657
993.293 .0263676
993.894 .0263697
994.495 .0263720
995.095 .0263745
995.696 .0263773
996.296 .0263802
996.895 .0263834
997.494 .0263868
998.093 .0263905
998.692 .0263942
999.291 .0263981
999.889 .0264020
1000.487 .0264059
1001.084 .0264098
1001.681 .0264136
1002.278 .0264174
1002.875 .0264212
1003.471 .0264250
1004.067 .0264287
1004.663 .0264324
1005.258 .0264359
1005.854 .0264394
1006.449 .0264428
1007.043 .0264461
1007.638 .0264493
1008.232 .0264526
1008.826 .0264558
1009.419 .0264591
1010.012 .0264625
1010.605 .0264658
1011.198 .0264690
1011.791 .0264721
1012.383 .0264750
1012.975 .0264777
1013.566 .0264802
1014.158 .0264825
1014.749 .0264845
1015.340 .0264864
1015.931 .0264879
1016.521 .0264891
1017.111 .0264899
1017.701 .0264903
1018.291 .0264903
1018.880 .0264898
1019.470 .0264889
1020.059 .0264877
1020.647 .0264862
1021.236 .0264844
1021.824 .0264823
1022.412 .0264800
1023.000 .0264774
1023.588 .0264744
1024.175 .0264711
1024.762 .0264673
1025.349 .0264631
1025.936 .0264584
1026.523 .0264534
1027.109 .0264479
1027.695 .0264420
1028.281 .0264358
1028.867 .0264290
1029.452 .0264219
1030.038 .0264142
1030.623 .0264060
1031.208 .0263975
1031.792 .0263885
1032.377 .0263793
1032.961 .0263699
1033.546 .0263606
1034.130 .0263513
1034.714 .0263422
1035.297 .0263333
1035.881 .0263246
1036.464 .0263160
1037.047 .0263075
1037.630 .0262990
1038.213 .0262906
1038.796 .0262823
1039.378 .0262741
1039.961 .0262661
1040.543 .0262582
1041.125 .0262505
1041.707 .0262429
1042.289 .0262354
1042.871 .0262277
1043.452 .0262199
1044.034 .0262117
1044.615 .0262034
1045.196 .0261947
1045.777 .0261858
1046.358 .0261768
1046.939 .0261677
1047.520 .0261585
1048.101 .0261492
1048.681 .0261399
1049.262 .0261305
1049.842 .0261210
1050.422 .0261113
1051.002 .0261013
1051.582 .0260912
1052.162 .0260809
1052.742 .0260705
1053.322 .0260600
1053.902 .0260495
1054.482 .0260389
1055.061 .0260283
1055.641 .0260177
1056.220 .0260070
1056.800 .0259963
1057.379 .0259855
1057.958 .0259745
1058.538 .0259633
1059.117 .0259519
1059.696 .0259402
1060.275 .0259284
1060.854 .0259163
1061.433 .0259040
1062.012 .0258917
1062.592 .0258795
1063.171 .0258675
1063.750 .0258559
1064.329 .0258446
1064.908 .0258338
1065.487 .0258234
1066.066 .0258134
1066.645 .0258037
1067.224 .0257945
1067.803 .0257856
1068.382 .0257770
1068.961 .0257688
1069.540 .0257610
1070.119 .0257537
1070.698 .0257468
1071.278 .0257401
1071.857 .0257336
1072.436 .0257270
1073.016 .0257200
1073.595 .0257126
1074.175 .0257046
1074.754 .0256961
1075.334 .0256870
1075.913 .0256773
1076.493 .0256672
1077.073 .0256569
1077.653 .0256464
1078.233 .0256358
1078.813 .0256253
1079.393 .0256147
1079.974 .0256042
1080.554 .0255937
1081.135 .0255832
1081.716 .0255727
1082.296 .0255624
1082.877 .0255521
1083.458 .0255420
1084.040 .0255320
1084.621 .0255222
1085.202 .0255127
1085.784 .0255037
1086.366 .0254951
1086.948 .0254869
1087.530 .0254791
1088.112 .0254716
1088.695 .0254644
1089.277 .0254575
1089.860 .0254508
1090.443 .0254445
1091.026 .0254386
1091.610 .0254331
1092.193 .0254284
1092.777 .0254246
1093.361 .0254218
1093.946 .0254199
1094.530 .0254188
1095.115 .0254184
1095.700 .0254184
1096.285 .0254186
1096.871 .0254189
1097.456 .0254193
1098.042 .0254197
1098.628 .0254203
1099.215 .0254212
1099.802 .0254226
1100.389 .0254244
1100.976 .0254269
1101.564 .0254298
1102.152 .0254330
1102.740 .0254365
1103.329 .0254402
1103.917 .0254442
1104.507 .0254487
1105.096 .0254542
1105.686 .0254607
1106.276 .0254689
1106.867 .0254789
1107.457 .0254911
1108.049 .0255053
1108.640 .0255215
1109.232 .0255394
1109.825 .0255586
1110.417 .0255787
1111.010 .0255994
1111.604 .0256203
1112.198 .0256415
1112.792 .0256628
1113.387 .0256841
1113.982 .0257055
1114.577 .0257268
1115.173 .0257479
1115.769 .0257687
1116.366 .0257889
1116.963 .0258082
1117.561 .0258266
1118.159 .0258438
1118.758 .0258599
1119.357 .0258752
1119.957 .0258899
1120.557 .0259043
1121.157 .0259189
1121.758 .0259339
1122.360 .0259493
1122.962 .0259653
1123.564 .0259815
1124.167 .0259898
1124.771 .0260047
1125.375 .0260193
1125.980 .0260333
1126.585 .0260467
1127.191 .0260597
1127.797 .0260727
1128.404 .0260865
1129.012 .0261016
1129.620 .0261188
1130.229 .0261385
1130.838 .0261611
1131.448 .0261869
1132.058 .0262161
1132.669 .0262584
1133.281 .0262982
1133.894 .0263444
1134.507 .0263886
1135.120 .0264440
1135.735 .0265139
1136.350 .0266011
1136.965 .0264478
1137.582 .0265084
1138.199 .0265768
1138.816 .0266550
1139.435 .0267396
1140.054 .0268324
1140.674 .0269414
1141.294 .0270742
1141.916 .0272386
1142.538 .0271688
1143.160 .0274578
1143.784 .0278362
1144.408 .0282988
1145.033 .0286360
