Measurement Sequence started on: 14-45-04-498
Integration time: 36
Scans to Average: 2 
>>>>>Begin Spectral Data<<<<<
433.946 .0377928
434.870 .0376387
435.793 .0379130
436.715 .0371298
437.635 .0384174
438.555 .0394454
439.473 .0399176
440.389 .0403471
441.305 .0406969
442.219 .0409719
443.132 .0402714
444.044 .0404615
444.954 .0406342
445.863 .0408444
446.771 .0409825
447.678 .0410626
448.584 .0411137
449.488 .0411384
450.391 .0411408
451.293 .0411248
452.194 .0410965
453.094 .0410598
453.992 .0410164
454.890 .0409675
455.786 .0409126
456.681 .0408520
457.575 .0407857
458.468 .0407145
459.360 .0406391
460.250 .0405608
461.140 .0404807
462.028 .0403998
462.915 .0403188
463.801 .0402379
464.687 .0401567
465.571 .0400753
466.454 .0399933
467.335 .0399107
468.216 .0398275
469.096 .0397441
469.975 .0396610
470.853 .0395788
471.729 .0394980
472.605 .0394192
473.479 .0393429
474.353 .0392694
475.226 .0391985
476.097 .0391303
476.968 .0390644
477.838 .0390008
478.706 .0389393
479.574 .0388805
480.441 .0388247
481.306 .0387725
482.171 .0387243
483.035 .0386804
483.898 .0386407
484.760 .0386053
485.621 .0385737
486.481 .0385452
487.340 .0385193
488.198 .0384951
489.055 .0384721
489.912 .0384500
490.767 .0384283
491.622 .0383962
492.476 .0383750
493.329 .0383541
494.180 .0383334
495.032 .0383128
495.882 .0382919
496.731 .0382702
497.580 .0382475
498.427 .0382228
499.274 .0381959
500.120 .0381787
500.965 .0381482
501.809 .0381149
502.653 .0380791
503.495 .0380410
504.337 .0380010
505.178 .0379595
506.018 .0379170
506.858 .0378737
507.696 .0378300
508.534 .0377860
509.371 .0377417
510.208 .0376972
511.043 .0376529
511.878 .0376088
512.712 .0375652
513.545 .0375224
514.377 .0374805
515.209 .0374395
516.040 .0373998
516.870 .0373615
517.699 .0373248
518.528 .0372894
519.356 .0372558
520.183 .0372242
521.010 .0371946
521.836 .0371670
522.661 .0371417
523.485 .0371187
524.309 .0370975
525.132 .0370782
525.954 .0370602
526.776 .0370431
527.597 .0370260
528.417 .0370083
529.237 .0369892
530.056 .0369682
530.874 .0369449
531.692 .0369190
532.508 .0368907
533.325 .0368602
534.140 .0368277
534.955 .0367932
535.770 .0367566
536.583 .0367176
537.397 .0366759
538.209 .0366314
539.021 .0365839
539.832 .0365333
540.643 .0364801
541.453 .0364244
542.262 .0363667
543.071 .0363074
543.879 .0362472
544.687 .0361865
545.494 .0361256
546.300 .0360651
547.106 .0360050
547.911 .0359455
548.716 .0358866
549.520 .0358286
550.323 .0357712
551.126 .0357146
551.929 .0356589
552.731 .0356044
553.532 .0355514
554.332 .0355002
555.133 .0354507
555.932 .0354031
556.731 .0353571
557.530 .0353123
558.328 .0352687
559.125 .0352262
559.922 .0351845
560.719 .0351438
561.515 .0351039
562.310 .0350651
563.105 .0350273
563.899 .0349903
564.693 .0349541
565.487 .0349186
566.280 .0348835
567.072 .0348488
567.864 .0348144
568.655 .0347806
569.446 .0347471
570.236 .0347142
571.026 .0346818
571.816 .0346498
572.605 .0346180
573.393 .0345864
574.181 .0345546
574.969 .0345224
575.756 .0344894
576.543 .0344555
577.329 .0344205
578.115 .0343845
578.900 .0343476
579.685 .0343099
580.469 .0342718
581.253 .0342333
582.036 .0341947
582.820 .0341560
583.602 .0341171
584.384 .0340782
585.166 .0340390
585.947 .0339996
586.728 .0339600
587.509 .0339201
588.289 .0338803
589.069 .0338405
589.848 .0338007
590.627 .0337610
591.405 .0337215
592.183 .0336823
592.961 .0336435
593.738 .0336050
594.515 .0335670
595.291 .0335297
596.067 .0334932
596.843 .0334575
597.618 .0334228
598.393 .0333749
599.167 .0333433
599.941 .0333130
600.715 .0332839
601.488 .0332560
602.261 .0332294
603.034 .0332040
603.806 .0331798
604.578 .0331567
605.349 .0331346
606.121 .0331137
606.891 .0331061
607.662 .0330865
608.432 .0330679
609.201 .0330503
609.971 .0330334
610.740 .0330172
611.508 .0330016
612.277 .0329863
613.045 .0329711
613.812 .0329560
614.579 .0329408
615.346 .0329252
616.113 .0329093
616.879 .0328928
617.645 .0328757
618.411 .0328579
619.176 .0328394
619.941 .0328200
620.705 .0327998
621.470 .0327787
622.233 .0327567
622.997 .0327337
623.760 .0327097
624.523 .0326848
625.286 .0326589
626.048 .0326322
626.810 .0326048
627.572 .0325767
628.333 .0325481
629.095 .0325191
629.855 .0324899
630.616 .0324605
631.376 .0324311
632.136 .0324016
632.895 .0323722
633.655 .0323429
634.414 .0323135
635.172 .0322842
635.931 .0322548
636.689 .0322254
637.447 .0321960
638.204 .0321666
638.962 .0321373
639.718 .0321082
640.475 .0320794
641.231 .0320510
641.988 .0320230
642.743 .0319954
643.499 .0319683
644.254 .0319416
645.009 .0319153
645.764 .0318895
646.518 .0318640
647.272 .0318388
648.026 .0318141
648.780 .0317898
649.533 .0317659
650.286 .0317427
651.039 .0317200
651.792 .0316981
652.544 .0316769
653.296 .0316566
654.048 .0316373
654.799 .0316189
655.550 .0316014
656.301 .0315849
657.052 .0315692
657.802 .0315544
658.552 .0315404
659.302 .0315271
660.052 .0315145
660.801 .0315027
661.550 .0314916
662.299 .0314811
663.048 .0314713
663.796 .0314621
664.544 .0314533
665.292 .0314449
666.040 .0314368
666.787 .0314287
667.534 .0314206
668.281 .0314124
669.028 .0314040
669.774 .0313953
670.521 .0313862
671.266 .0313768
672.012 .0313670
672.758 .0313567
673.503 .0313459
674.248 .0313345
674.992 .0313226
675.737 .0313102
676.481 .0312971
677.225 .0312835
677.969 .0312691
678.712 .0312541
679.455 .0312383
680.199 .0312218
680.941 .0312045
681.684 .0311865
682.426 .0311679
683.168 .0311486
683.910 .0311288
684.652 .0311086
685.393 .0310879
686.134 .0310668
686.875 .0310454
687.616 .0310237
688.356 .0310017
689.097 .0309795
689.837 .0309572
690.576 .0309348
691.316 .0309124
692.055 .0308900
692.794 .0308678
693.533 .0308457
694.272 .0308239
695.010 .0308024
695.748 .0307814
696.486 .0307607
697.224 .0307406
697.962 .0307210
698.699 .0307020
699.436 .0306837
700.173 .0306661
700.909 .0306492
701.646 .0306332
702.382 .0306179
703.118 .0306035
703.853 .0305899
704.589 .0305769
705.324 .0305647
706.059 .0305532
706.794 .0305422
707.529 .0305319
708.263 .0305221
708.997 .0305128
709.731 .0305040
710.465 .0304957
711.198 .0304876
711.931 .0304799
712.664 .0304722
713.397 .0304647
714.130 .0304572
714.862 .0304497
715.594 .0304421
716.326 .0304346
717.058 .0304270
717.789 .0304195
718.520 .0304119
719.251 .0304044
719.982 .0303969
720.713 .0303895
721.443 .0303821
722.173 .0303748
722.903 .0303677
723.633 .0303608
724.362 .0303541
725.091 .0303476
725.820 .0303414
726.549 .0303354
727.278 .0303295
728.006 .0303239
728.734 .0303183
729.462 .0303130
730.190 .0303077
730.917 .0303025
731.644 .0302973
732.371 .0302922
733.098 .0302870
733.825 .0302817
734.551 .0302764
735.277 .0302709
736.003 .0302653
736.728 .0302596
737.454 .0302537
738.179 .0302476
738.904 .0302413
739.629 .0302347
740.353 .0302277
741.077 .0302203
741.801 .0302124
742.525 .0302040
743.249 .0301949
743.972 .0301852
744.695 .0301748
745.418 .0301638
746.141 .0301521
746.863 .0301397
747.585 .0301267
748.307 .0301131
749.029 .0300987
749.750 .0300838
750.472 .0300682
751.193 .0300519
751.913 .0300351
752.634 .0300177
753.354 .0299999
754.074 .0299817
754.794 .0299634
755.514 .0299448
756.233 .0299263
756.952 .0299078
757.671 .0298894
758.390 .0298713
759.108 .0298534
759.826 .0298360
760.544 .0298189
761.262 .0298023
761.979 .0297862
762.697 .0297706
763.414 .0297555
764.130 .0297409
764.847 .0297269
765.563 .0297135
766.279 .0297007
766.995 .0296886
767.710 .0296772
768.426 .0296666
769.141 .0296566
769.855 .0296472
770.570 .0296384
771.284 .0296300
771.998 .0296220
772.712 .0296144
773.426 .0296071
774.139 .0296003
774.852 .0295939
775.565 .0295880
776.277 .0295826
776.990 .0295778
777.702 .0295737
778.414 .0295701
779.125 .0295672
779.836 .0295648
780.547 .0295630
781.258 .0295618
781.969 .0295611
782.679 .0295608
783.389 .0295619
784.099 .0295623
784.808 .0295631
785.517 .0295640
786.226 .0295651
786.935 .0295664
787.643 .0295679
788.352 .0295695
789.060 .0295713
789.767 .0295731
790.475 .0295750
791.182 .0295768
791.889 .0295772
792.595 .0295788
793.301 .0295803
794.008 .0295816
794.713 .0295828
795.419 .0295838
796.124 .0295846
796.829 .0295852
797.534 .0295858
798.238 .0295861
798.942 .0295862
799.646 .0295862
800.350 .0295858
801.053 .0295852
801.756 .0295843
802.459 .0295831
803.162 .0295815
803.864 .0295796
804.566 .0295774
805.267 .0295747
805.969 .0295717
806.670 .0295683
807.371 .0295645
808.071 .0295603
808.772 .0295556
809.472 .0295506
810.171 .0295451
810.871 .0295391
811.570 .0295327
812.269 .0295258
812.967 .0295184
813.666 .0295105
814.364 .0295020
815.061 .0294929
815.759 .0294833
816.456 .0294732
817.153 .0294625
817.849 .0294515
818.545 .0294400
819.241 .0294280
819.937 .0294157
820.632 .0294029
821.327 .0293898
822.022 .0293761
822.717 .0293620
823.411 .0293475
824.105 .0293326
824.798 .0293174
825.491 .0293017
826.184 .0292857
826.877 .0292694
827.569 .0292528
828.261 .0292358
828.953 .0292185
829.645 .0292010
830.336 .0291832
831.027 .0291653
831.717 .0291474
832.407 .0291294
833.097 .0291114
833.787 .0290935
834.476 .0290756
835.165 .0290578
835.854 .0290401
836.542 .0290225
837.230 .0290051
837.918 .0289878
838.605 .0289709
839.292 .0289542
839.979 .0289379
840.665 .0289220
841.352 .0289064
842.037 .0288911
842.723 .0288760
843.408 .0288613
844.093 .0288467
844.777 .0288323
845.462 .0288180
846.145 .0288038
846.829 .0287897
847.512 .0287758
848.195 .0287619
848.878 .0287481
849.560 .0287343
850.242 .0287207
850.923 .0287071
851.605 .0286937
852.286 .0286805
852.966 .0286675
853.646 .0286546
854.326 .0286420
855.006 .0286296
855.685 .0286175
856.364 .0286056
857.043 .0285940
857.721 .0285827
858.399 .0285718
859.077 .0285614
859.754 .0285515
860.431 .0285422
861.107 .0285335
861.784 .0285254
862.459 .0285179
863.135 .0285109
863.810 .0285045
864.485 .0284985
865.160 .0284930
865.834 .0284879
866.508 .0284833
867.181 .0284791
867.854 .0284754
868.527 .0284721
869.199 .0284691
869.872 .0284665
870.543 .0284642
871.215 .0284622
871.886 .0284604
872.557 .0284587
873.227 .0284572
873.897 .0284557
874.567 .0284543
875.236 .0284528
875.905 .0284512
876.573 .0284496
877.242 .0284477
877.909 .0284455
878.577 .0284432
879.244 .0284406
879.911 .0284378
880.577 .0284349
881.243 .0284319
881.909 .0284288
882.575 .0284256
883.240 .0284222
883.904 .0284188
884.569 .0284151
885.232 .0284113
885.896 .0284073
886.559 .0284032
887.222 .0283989
887.885 .0283946
888.547 .0283902
889.208 .0283857
889.870 .0283813
890.531 .0283768
891.192 .0283723
891.852 .0283677
892.512 .0283632
893.171 .0283586
893.830 .0283539
894.489 .0283493
895.148 .0283447
895.806 .0283401
896.464 .0283356
897.121 .0283312
897.778 .0283268
898.434 .0283225
899.091 .0283162
899.747 .0283120
900.402 .0283078
901.057 .0283035
901.712 .0282991
902.366 .0282946
903.020 .0282900
903.674 .0282851
904.327 .0282800
904.980 .0282746
905.633 .0282689
906.285 .0282626
906.936 .0282559
907.588 .0282513
908.239 .0282435
908.889 .0282352
909.540 .0282261
910.190 .0282165
910.839 .0282063
911.488 .0281955
912.137 .0281841
912.785 .0281722
913.433 .0281597
914.081 .0281465
914.728 .0281326
915.375 .0281180
916.021 .0281026
916.668 .0280865
917.313 .0280698
917.959 .0280524
918.604 .0280345
919.248 .0280162
919.892 .0279973
920.536 .0279778
921.180 .0279578
921.823 .0279371
922.465 .0279159
923.108 .0278941
923.750 .0278717
924.391 .0278490
925.032 .0278259
925.673 .0278027
926.313 .0277792
926.953 .0277557
927.593 .0277320
928.232 .0277081
928.871 .0276840
929.510 .0276596
930.148 .0276351
930.786 .0276105
931.423 .0275858
932.060 .0275612
932.697 .0275366
933.333 .0275121
933.969 .0274877
934.604 .0274633
935.239 .0274389
935.874 .0274144
936.508 .0273897
937.142 .0273650
937.776 .0273402
938.409 .0273153
939.042 .0272906
939.674 .0272659
940.306 .0272414
940.938 .0272171
941.569 .0271930
942.200 .0271690
942.830 .0271453
943.460 .0271219
944.090 .0270987
944.720 .0270758
945.349 .0270533
945.977 .0270312
946.606 .0270096
947.233 .0269884
947.861 .0269678
948.488 .0269476
949.115 .0269280
949.741 .0269089
950.367 .0268904
950.993 .0268724
951.618 .0268550
952.243 .0268383
952.868 .0268222
953.492 .0268068
954.115 .0267921
954.739 .0267781
955.362 .0267649
955.984 .0267523
956.607 .0267405
957.229 .0267293
957.850 .0267188
958.471 .0267090
959.092 .0266998
959.713 .0266913
960.333 .0266833
960.952 .0266758
961.572 .0266688
962.191 .0266622
962.809 .0266560
963.428 .0266502
964.045 .0266447
964.663 .0266396
965.280 .0266348
965.897 .0266303
966.513 .0266261
967.129 .0266222
967.745 .0266186
968.361 .0266152
968.976 .0266119
969.590 .0266089
970.205 .0266061
970.818 .0266035
971.432 .0266012
972.045 .0265992
972.658 .0265974
973.271 .0265960
973.883 .0265948
974.495 .0265937
975.106 .0265927
975.717 .0265917
976.328 .0265907
976.938 .0265897
977.548 .0265887
978.158 .0265876
978.768 .0265858
979.377 .0265845
979.985 .0265832
980.594 .0265819
981.202 .0265806
981.809 .0265791
982.417 .0265776
983.024 .0265760
983.631 .0265745
984.237 .0265729
984.843 .0265714
985.449 .0265701
986.054 .0265689
986.659 .0265679
987.264 .0265678
987.868 .0265672
988.472 .0265669
989.076 .0265667
989.679 .0265667
990.282 .0265668
990.885 .0265671
991.487 .0265675
992.090 .0265680
992.691 .0265687
993.293 .0265695
993.894 .0265704
994.495 .0265713
995.095 .0265724
995.696 .0265735
996.296 .0265747
996.895 .0265760
997.494 .0265773
998.093 .0265788
998.692 .0265804
999.291 .0265821
999.889 .0265839
1000.487 .0265858
1001.084 .0265877
1001.681 .0265896
1002.278 .0265914
1002.875 .0265931
1003.471 .0265947
1004.067 .0265961
1004.663 .0265973
1005.258 .0265983
1005.854 .0265991
1006.449 .0265999
1007.043 .0266006
1007.638 .0266012
1008.232 .0266019
1008.826 .0266025
1009.419 .0266031
1010.012 .0266037
1010.605 .0266043
1011.198 .0266048
1011.791 .0266053
1012.383 .0266058
1012.975 .0266064
1013.566 .0266071
1014.158 .0266079
1014.749 .0266090
1015.340 .0266101
1015.931 .0266112
1016.521 .0266122
1017.111 .0266130
1017.701 .0266136
1018.291 .0266138
1018.880 .0266137
1019.470 .0266133
1020.059 .0266126
1020.647 .0266118
1021.236 .0266107
1021.824 .0266096
1022.412 .0266084
1023.000 .0266070
1023.588 .0266053
1024.175 .0266034
1024.762 .0266010
1025.349 .0265983
1025.936 .0265953
1026.523 .0265919
1027.109 .0265884
1027.695 .0265846
1028.281 .0265808
1028.867 .0265768
1029.452 .0265728
1030.038 .0265686
1030.623 .0265642
1031.208 .0265596
1031.792 .0265547
1032.377 .0265496
1032.961 .0265443
1033.546 .0265388
1034.130 .0265332
1034.714 .0265275
1035.297 .0265219
1035.881 .0265161
1036.464 .0265103
1037.047 .0265043
1037.630 .0264980
1038.213 .0264914
1038.796 .0264844
1039.378 .0264771
1039.961 .0264693
1040.543 .0264612
1041.125 .0264529
1041.707 .0264445
1042.289 .0264359
1042.871 .0264272
1043.452 .0264183
1044.034 .0264093
1044.615 .0264001
1045.196 .0263907
1045.777 .0263811
1046.358 .0263712
1046.939 .0263610
1047.520 .0263506
1048.101 .0263399
1048.681 .0263289
1049.262 .0263175
1049.842 .0263058
1050.422 .0262937
1051.002 .0262811
1051.582 .0262681
1052.162 .0262548
1052.742 .0262411
1053.322 .0262273
1053.902 .0262134
1054.482 .0261996
1055.061 .0261860
1055.641 .0261727
1056.220 .0261598
1056.800 .0261475
1057.379 .0261356
1057.958 .0261244
1058.538 .0261137
1059.117 .0261037
1059.696 .0260943
1060.275 .0260857
1060.854 .0260776
1061.433 .0260701
1062.012 .0260632
1062.592 .0260565
1063.171 .0260501
1063.750 .0260437
1064.329 .0260373
1064.908 .0260307
1065.487 .0260240
1066.066 .0260173
1066.645 .0260105
1067.224 .0260040
1067.803 .0259977
1068.382 .0259918
1068.961 .0259863
1069.540 .0259809
1070.119 .0259758
1070.698 .0259706
1071.278 .0259654
1071.857 .0259600
1072.436 .0259545
1073.016 .0259490
1073.595 .0259434
1074.175 .0259378
1074.754 .0259323
1075.334 .0259267
1075.913 .0259209
1076.493 .0259149
1077.073 .0259084
1077.653 .0259015
1078.233 .0258942
1078.813 .0258867
1079.393 .0258792
1079.974 .0258719
1080.554 .0258651
1081.135 .0258590
1081.716 .0258538
1082.296 .0258494
1082.877 .0258459
1083.458 .0258430
1084.040 .0258405
1084.621 .0258384
1085.202 .0258365
1085.784 .0258347
1086.366 .0258329
1086.948 .0258313
1087.530 .0258297
1088.112 .0258282
1088.695 .0258266
1089.277 .0258251
1089.860 .0258234
1090.443 .0258215
1091.026 .0258193
1091.610 .0258166
1092.193 .0258135
1092.777 .0258102
1093.361 .0258067
1093.946 .0258031
1094.530 .0257995
1095.115 .0257961
1095.700 .0257928
1096.285 .0257897
1096.871 .0257868
1097.456 .0257839
1098.042 .0257810
1098.628 .0257779
1099.215 .0257748
1099.802 .0257717
1100.389 .0257686
1100.976 .0257658
1101.564 .0257635
1102.152 .0257616
1102.740 .0257605
1103.329 .0257604
1103.917 .0257614
1104.507 .0257639
1105.096 .0257678
1105.686 .0257734
1106.276 .0257806
1106.867 .0257894
1107.457 .0257997
1108.049 .0258113
1108.640 .0258242
1109.232 .0258378
1109.825 .0258520
1110.417 .0258666
1111.010 .0258815
1111.604 .0258968
1112.198 .0259123
1112.792 .0259281
1113.387 .0259442
1113.982 .0259607
1114.577 .0259776
1115.173 .0259950
1115.769 .0260131
1116.366 .0260318
1116.963 .0260512
1117.561 .0260714
1118.159 .0260926
1118.758 .0261145
1119.357 .0261374
1119.957 .0261609
1120.557 .0261851
1121.157 .0262096
1121.758 .0262344
1122.360 .0262593
1122.962 .0262841
1123.564 .0263087
1124.167 .0263188
1124.771 .0263423
1125.375 .0263652
1125.980 .0263873
1126.585 .0264086
1127.191 .0264293
1127.797 .0264493
1128.404 .0264689
1129.012 .0264882
1129.620 .0265077
1130.229 .0265275
1130.838 .0265478
1131.448 .0265686
1132.058 .0265899
1132.669 .0266245
1133.281 .0266470
1133.894 .0266700
1134.507 .0266875
1135.120 .0267109
1135.735 .0267366
1136.350 .0267660
1136.965 .0267069
1137.582 .0267163
1138.199 .0267347
1138.816 .0267616
1139.435 .0267905
1140.054 .0268241
1140.674 .0268601
1141.294 .0269005
1141.916 .0269408
1142.538 .0268238
1143.160 .0270154
1143.784 .0271138
1144.408 .0272490
1145.033 .0271974
