Measurement Sequence started on: 14-45-04-498
Integration time: 36
Scans to Average: 2 
>>>>>Begin Spectral Data<<<<<
433.946 .0462430
434.870 .0523036
435.793 .0479276
436.715 .0485509
437.635 .0485323
438.555 .0470697
439.473 .0465291
440.389 .0458401
441.305 .0453080
442.219 .0447836
443.132 .0451534
444.044 .0446308
444.954 .0443373
445.863 .0440092
446.771 .0436800
447.678 .0434249
448.584 .0431947
449.488 .0429972
450.391 .0428237
451.293 .0426741
452.194 .0425464
453.094 .0424358
453.992 .0423402
454.890 .0422573
455.786 .0421842
456.681 .0421187
457.575 .0420575
458.468 .0419979
459.360 .0419384
460.250 .0418774
461.140 .0418137
462.028 .0417474
462.915 .0416794
463.801 .0416109
464.687 .0415431
465.571 .0414773
466.454 .0414137
467.335 .0413529
468.216 .0412944
469.096 .0412376
469.975 .0411821
470.853 .0411276
471.729 .0410739
472.605 .0410214
473.479 .0409706
474.353 .0409220
475.226 .0408762
476.097 .0408340
476.968 .0407955
477.838 .0407607
478.706 .0407290
479.574 .0406998
480.441 .0406721
481.306 .0406452
482.171 .0406185
483.035 .0405917
483.898 .0405648
484.760 .0405377
485.621 .0405107
486.481 .0404841
487.340 .0404578
488.198 .0404318
489.055 .0404062
489.912 .0403807
490.767 .0403551
491.622 .0403144
492.476 .0402875
493.329 .0402600
494.180 .0402320
495.032 .0402035
495.882 .0401745
496.731 .0401448
497.580 .0401145
498.427 .0400836
499.274 .0400521
500.120 .0400353
500.965 .0400028
501.809 .0399702
502.653 .0399379
503.495 .0399060
504.337 .0398748
505.178 .0398445
506.018 .0398149
506.858 .0397857
507.696 .0397564
508.534 .0397270
509.371 .0396973
510.208 .0396675
511.043 .0396379
511.878 .0396084
512.712 .0395795
513.545 .0395515
514.377 .0395246
515.209 .0394986
516.040 .0394730
516.870 .0394470
517.699 .0394200
518.528 .0393913
519.356 .0393604
520.183 .0393269
521.010 .0392910
521.836 .0392528
522.661 .0392125
523.485 .0391703
524.309 .0391264
525.132 .0390808
525.954 .0390332
526.776 .0389834
527.597 .0389305
528.417 .0388742
529.237 .0388149
530.056 .0387527
530.874 .0386880
531.692 .0386214
532.508 .0385539
533.325 .0384861
534.140 .0384192
534.955 .0383534
535.770 .0382890
536.583 .0382257
537.397 .0381636
538.209 .0381019
539.021 .0380408
539.832 .0379806
540.643 .0379219
541.453 .0378652
542.262 .0378118
543.071 .0377623
543.879 .0377173
544.687 .0376772
545.494 .0376418
546.300 .0376101
547.106 .0375814
547.911 .0375546
548.716 .0375292
549.520 .0375045
550.323 .0374807
551.126 .0374577
551.929 .0374363
552.731 .0374163
553.532 .0373982
554.332 .0373819
555.133 .0373674
555.932 .0373536
556.731 .0373395
557.530 .0373244
558.328 .0373072
559.125 .0372874
559.922 .0372645
560.719 .0372383
561.515 .0372091
562.310 .0371773
563.105 .0371430
563.899 .0371063
564.693 .0370678
565.487 .0370274
566.280 .0369854
567.072 .0369418
567.864 .0368967
568.655 .0368501
569.446 .0368024
570.236 .0367539
571.026 .0367049
571.816 .0366558
572.605 .0366072
573.393 .0365594
574.181 .0365128
574.969 .0364674
575.756 .0364233
576.543 .0363805
577.329 .0363390
578.115 .0362983
578.900 .0362587
579.685 .0362203
580.469 .0361833
581.253 .0361479
582.036 .0361144
582.820 .0360827
583.602 .0360526
584.384 .0360239
585.166 .0359964
585.947 .0359697
586.728 .0359436
587.509 .0359180
588.289 .0358927
589.069 .0358676
589.848 .0358428
590.627 .0358184
591.405 .0357943
592.183 .0357708
592.961 .0357477
593.738 .0357252
594.515 .0357031
595.291 .0356815
596.067 .0356603
596.843 .0356392
597.618 .0356182
598.393 .0355856
599.167 .0355645
599.941 .0355432
600.715 .0355219
601.488 .0355005
602.261 .0354791
603.034 .0354577
603.806 .0354362
604.578 .0354148
605.349 .0353933
606.121 .0353717
606.891 .0353612
607.662 .0353393
608.432 .0353171
609.201 .0352946
609.971 .0352718
610.740 .0352487
611.508 .0352253
612.277 .0352017
613.045 .0351777
613.812 .0351535
614.579 .0351291
615.346 .0351043
616.113 .0350792
616.879 .0350537
617.645 .0350279
618.411 .0350018
619.176 .0349754
619.941 .0349487
620.705 .0349217
621.470 .0348945
622.233 .0348671
622.997 .0348396
623.760 .0348121
624.523 .0347846
625.286 .0347572
626.048 .0347300
626.810 .0347030
627.572 .0346764
628.333 .0346502
629.095 .0346247
629.855 .0345996
630.616 .0345752
631.376 .0345513
632.136 .0345279
632.895 .0345049
633.655 .0344822
634.414 .0344596
635.172 .0344371
635.931 .0344145
636.689 .0343919
637.447 .0343693
638.204 .0343466
638.962 .0343239
639.718 .0343013
640.475 .0342787
641.231 .0342563
641.988 .0342340
642.743 .0342119
643.499 .0341899
644.254 .0341681
645.009 .0341464
645.764 .0341248
646.518 .0341034
647.272 .0340823
648.026 .0340614
648.780 .0340409
649.533 .0340207
650.286 .0340009
651.039 .0339815
651.792 .0339625
652.544 .0339440
653.296 .0339259
654.048 .0339081
654.799 .0338907
655.550 .0338735
656.301 .0338566
657.052 .0338399
657.802 .0338233
658.552 .0338068
659.302 .0337904
660.052 .0337739
660.801 .0337575
661.550 .0337411
662.299 .0337247
663.048 .0337082
663.796 .0336916
664.544 .0336749
665.292 .0336580
666.040 .0336409
666.787 .0336234
667.534 .0336056
668.281 .0335874
669.028 .0335689
669.774 .0335501
670.521 .0335310
671.266 .0335117
672.012 .0334923
672.758 .0334728
673.503 .0334531
674.248 .0334335
674.992 .0334138
675.737 .0333941
676.481 .0333745
677.225 .0333548
677.969 .0333352
678.712 .0333157
679.455 .0332963
680.199 .0332771
680.941 .0332582
681.684 .0332396
682.426 .0332213
683.168 .0332034
683.910 .0331859
684.652 .0331687
685.393 .0331518
686.134 .0331352
686.875 .0331188
687.616 .0331027
688.356 .0330868
689.097 .0330711
689.837 .0330557
690.576 .0330405
691.316 .0330256
692.055 .0330108
692.794 .0329962
693.533 .0329817
694.272 .0329673
695.010 .0329528
695.748 .0329384
696.486 .0329239
697.224 .0329094
697.962 .0328949
698.699 .0328802
699.436 .0328655
700.173 .0328507
700.909 .0328359
701.646 .0328212
702.382 .0328064
703.118 .0327918
703.853 .0327774
704.589 .0327630
705.324 .0327488
706.059 .0327347
706.794 .0327206
707.529 .0327065
708.263 .0326925
708.997 .0326786
709.731 .0326648
710.465 .0326513
711.198 .0326380
711.931 .0326250
712.664 .0326123
713.397 .0325998
714.130 .0325874
714.862 .0325750
715.594 .0325625
716.326 .0325499
717.058 .0325371
717.789 .0325242
718.520 .0325113
719.251 .0324983
719.982 .0324853
720.713 .0324723
721.443 .0324594
722.173 .0324464
722.903 .0324334
723.633 .0324204
724.362 .0324072
725.091 .0323939
725.820 .0323803
726.549 .0323665
727.278 .0323524
728.006 .0323380
728.734 .0323233
729.462 .0323083
730.190 .0322932
730.917 .0322779
731.644 .0322625
732.371 .0322470
733.098 .0322313
733.825 .0322155
734.551 .0321995
735.277 .0321833
736.003 .0321668
736.728 .0321500
737.454 .0321330
738.179 .0321159
738.904 .0320987
739.629 .0320815
740.353 .0320643
741.077 .0320473
741.801 .0320306
742.525 .0320140
743.249 .0319977
743.972 .0319816
744.695 .0319656
745.418 .0319499
746.141 .0319344
746.863 .0319190
747.585 .0319038
748.307 .0318889
749.029 .0318743
749.750 .0318599
750.472 .0318458
751.193 .0318320
751.913 .0318185
752.634 .0318053
753.354 .0317922
754.074 .0317794
754.794 .0317666
755.514 .0317539
756.233 .0317413
756.952 .0317287
757.671 .0317162
758.390 .0317037
759.108 .0316913
759.826 .0316790
760.544 .0316669
761.262 .0316549
761.979 .0316431
762.697 .0316314
763.414 .0316200
764.130 .0316087
764.847 .0315976
765.563 .0315867
766.279 .0315759
766.995 .0315652
767.710 .0315547
768.426 .0315444
769.141 .0315343
769.855 .0315244
770.570 .0315146
771.284 .0315050
771.998 .0314956
772.712 .0314863
773.426 .0314772
774.139 .0314682
774.852 .0314592
775.565 .0314503
776.277 .0314415
776.990 .0314327
777.702 .0314240
778.414 .0314152
779.125 .0314064
779.836 .0313977
780.547 .0313890
781.258 .0313804
781.969 .0313719
782.679 .0313637
783.389 .0313527
784.099 .0313452
784.808 .0313381
785.517 .0313311
786.226 .0313242
786.935 .0313175
787.643 .0313108
788.352 .0313041
789.060 .0312974
789.767 .0312908
790.475 .0312841
791.182 .0312774
791.889 .0312739
792.595 .0312671
793.301 .0312602
794.008 .0312531
794.713 .0312459
795.419 .0312385
796.124 .0312310
796.829 .0312232
797.534 .0312152
798.238 .0312070
798.942 .0311987
799.646 .0311901
800.350 .0311814
801.053 .0311725
801.756 .0311634
802.459 .0311542
803.162 .0311448
803.864 .0311352
804.566 .0311254
805.267 .0311154
805.969 .0311052
806.670 .0310949
807.371 .0310843
808.071 .0310736
808.772 .0310626
809.472 .0310514
810.171 .0310401
810.871 .0310285
811.570 .0310167
812.269 .0310047
812.967 .0309925
813.666 .0309801
814.364 .0309674
815.061 .0309544
815.759 .0309410
816.456 .0309273
817.153 .0309132
817.849 .0308986
818.545 .0308836
819.241 .0308681
819.937 .0308524
820.632 .0308363
821.327 .0308199
822.022 .0308033
822.717 .0307865
823.411 .0307696
824.105 .0307525
824.798 .0307354
825.491 .0307182
826.184 .0307009
826.877 .0306836
827.569 .0306664
828.261 .0306492
828.953 .0306321
829.645 .0306151
830.336 .0305983
831.027 .0305817
831.717 .0305654
832.407 .0305492
833.097 .0305334
833.787 .0305179
834.476 .0305026
835.165 .0304876
835.854 .0304728
836.542 .0304582
837.230 .0304438
837.918 .0304295
838.605 .0304155
839.292 .0304016
839.979 .0303879
840.665 .0303744
841.352 .0303611
842.037 .0303479
842.723 .0303348
843.408 .0303217
844.093 .0303086
844.777 .0302955
845.462 .0302822
846.145 .0302688
846.829 .0302554
847.512 .0302418
848.195 .0302282
848.878 .0302146
849.560 .0302009
850.242 .0301871
850.923 .0301732
851.605 .0301591
852.286 .0301448
852.966 .0301304
853.646 .0301159
854.326 .0301012
855.006 .0300865
855.685 .0300719
856.364 .0300572
857.043 .0300426
857.721 .0300281
858.399 .0300136
859.077 .0299993
859.754 .0299852
860.431 .0299713
861.107 .0299577
861.784 .0299445
862.459 .0299317
863.135 .0299194
863.810 .0299074
864.485 .0298959
865.160 .0298847
865.834 .0298738
866.508 .0298632
867.181 .0298528
867.854 .0298426
868.527 .0298327
869.199 .0298230
869.872 .0298135
870.543 .0298041
871.215 .0297949
871.886 .0297858
872.557 .0297766
873.227 .0297675
873.897 .0297582
874.567 .0297489
875.236 .0297393
875.905 .0297297
876.573 .0297199
877.242 .0297099
877.909 .0296997
878.577 .0296893
879.244 .0296787
879.911 .0296678
880.577 .0296568
881.243 .0296456
881.909 .0296343
882.575 .0296229
883.240 .0296114
883.904 .0295999
884.569 .0295883
885.232 .0295768
885.896 .0295654
886.559 .0295542
887.222 .0295431
887.885 .0295322
888.547 .0295217
889.208 .0295115
889.870 .0295016
890.531 .0294920
891.192 .0294827
891.852 .0294737
892.512 .0294649
893.171 .0294563
893.830 .0294478
894.489 .0294394
895.148 .0294311
895.806 .0294226
896.464 .0294141
897.121 .0294055
897.778 .0293967
898.434 .0293878
899.091 .0293732
899.747 .0293637
900.402 .0293539
901.057 .0293440
901.712 .0293338
902.366 .0293235
903.020 .0293129
903.674 .0293021
904.327 .0292910
904.980 .0292797
905.633 .0292681
906.285 .0292563
906.936 .0292443
907.588 .0292380
908.239 .0292257
908.889 .0292131
909.540 .0292004
910.190 .0291875
910.839 .0291744
911.488 .0291612
912.137 .0291480
912.785 .0291347
913.433 .0291214
914.081 .0291081
914.728 .0290947
915.375 .0290813
916.021 .0290678
916.668 .0290542
917.313 .0290404
917.959 .0290265
918.604 .0290123
919.248 .0289979
919.892 .0289833
920.536 .0289684
921.180 .0289532
921.823 .0289376
922.465 .0289216
923.108 .0289052
923.750 .0288884
924.391 .0288712
925.032 .0288537
925.673 .0288358
926.313 .0288177
926.953 .0287993
927.593 .0287807
928.232 .0287620
928.871 .0287431
929.510 .0287240
930.148 .0287049
930.786 .0286856
931.423 .0286663
932.060 .0286467
932.697 .0286271
933.333 .0286072
933.969 .0285872
934.604 .0285670
935.239 .0285466
935.874 .0285260
936.508 .0285053
937.142 .0284845
937.776 .0284636
938.409 .0284426
939.042 .0284217
939.674 .0284008
940.306 .0283800
940.938 .0283591
941.569 .0283383
942.200 .0283174
942.830 .0282966
943.460 .0282758
944.090 .0282552
944.720 .0282346
945.349 .0282142
945.977 .0281939
946.606 .0281738
947.233 .0281539
947.861 .0281340
948.488 .0281141
949.115 .0280944
949.741 .0280747
950.367 .0280552
950.993 .0280358
951.618 .0280168
952.243 .0279981
952.868 .0279797
953.492 .0279617
954.115 .0279441
954.739 .0279268
955.362 .0279099
955.984 .0278934
956.607 .0278772
957.229 .0278615
957.850 .0278462
958.471 .0278313
959.092 .0278170
959.713 .0278032
960.333 .0277898
960.952 .0277768
961.572 .0277643
962.191 .0277521
962.809 .0277402
963.428 .0277286
964.045 .0277172
964.663 .0277061
965.280 .0276955
965.897 .0276851
966.513 .0276750
967.129 .0276653
967.745 .0276558
968.361 .0276465
968.976 .0276374
969.590 .0276284
970.205 .0276196
970.818 .0276109
971.432 .0276024
972.045 .0275941
972.658 .0275859
973.271 .0275778
973.883 .0275698
974.495 .0275619
975.106 .0275539
975.717 .0275459
976.328 .0275379
976.938 .0275299
977.548 .0275219
978.158 .0275138
978.768 .0275018
979.377 .0274938
979.985 .0274859
980.594 .0274779
981.202 .0274699
981.809 .0274618
982.417 .0274539
983.024 .0274460
983.631 .0274383
984.237 .0274307
984.843 .0274235
985.449 .0274164
986.054 .0274096
986.659 .0274029
987.264 .0274001
987.868 .0273937
988.472 .0273873
989.076 .0273812
989.679 .0273751
990.282 .0273693
990.885 .0273637
991.487 .0273584
992.090 .0273535
992.691 .0273490
993.293 .0273448
993.894 .0273410
994.495 .0273373
995.095 .0273339
995.696 .0273306
996.296 .0273274
996.895 .0273243
997.494 .0273213
998.093 .0273183
998.692 .0273154
999.291 .0273126
999.889 .0273098
1000.487 .0273069
1001.084 .0273040
1001.681 .0273010
1002.278 .0272978
1002.875 .0272945
1003.471 .0272911
1004.067 .0272876
1004.663 .0272839
1005.258 .0272800
1005.854 .0272761
1006.449 .0272720
1007.043 .0272678
1007.638 .0272633
1008.232 .0272587
1008.826 .0272537
1009.419 .0272486
1010.012 .0272431
1010.605 .0272374
1011.198 .0272315
1011.791 .0272253
1012.383 .0272189
1012.975 .0272123
1013.566 .0272056
1014.158 .0271987
1014.749 .0271918
1015.340 .0271848
1015.931 .0271780
1016.521 .0271713
1017.111 .0271649
1017.701 .0271589
1018.291 .0271532
1018.880 .0271480
1019.470 .0271432
1020.059 .0271389
1020.647 .0271350
1021.236 .0271314
1021.824 .0271282
1022.412 .0271254
1023.000 .0271229
1023.588 .0271208
1024.175 .0271191
1024.762 .0271178
1025.349 .0271168
1025.936 .0271162
1026.523 .0271158
1027.109 .0271156
1027.695 .0271155
1028.281 .0271155
1028.867 .0271155
1029.452 .0271155
1030.038 .0271156
1030.623 .0271158
1031.208 .0271160
1031.792 .0271164
1032.377 .0271168
1032.961 .0271172
1033.546 .0271176
1034.130 .0271179
1034.714 .0271181
1035.297 .0271181
1035.881 .0271180
1036.464 .0271176
1037.047 .0271170
1037.630 .0271163
1038.213 .0271154
1038.796 .0271144
1039.378 .0271132
1039.961 .0271119
1040.543 .0271106
1041.125 .0271091
1041.707 .0271075
1042.289 .0271057
1042.871 .0271038
1043.452 .0271016
1044.034 .0270992
1044.615 .0270964
1045.196 .0270933
1045.777 .0270899
1046.358 .0270861
1046.939 .0270820
1047.520 .0270776
1048.101 .0270730
1048.681 .0270682
1049.262 .0270631
1049.842 .0270579
1050.422 .0270525
1051.002 .0270469
1051.582 .0270413
1052.162 .0270357
1052.742 .0270300
1053.322 .0270246
1053.902 .0270193
1054.482 .0270142
1055.061 .0270094
1055.641 .0270048
1056.220 .0270004
1056.800 .0269962
1057.379 .0269920
1057.958 .0269879
1058.538 .0269836
1059.117 .0269792
1059.696 .0269746
1060.275 .0269699
1060.854 .0269649
1061.433 .0269597
1062.012 .0269543
1062.592 .0269486
1063.171 .0269426
1063.750 .0269364
1064.329 .0269298
1064.908 .0269231
1065.487 .0269161
1066.066 .0269091
1066.645 .0269021
1067.224 .0268952
1067.803 .0268882
1068.382 .0268812
1068.961 .0268741
1069.540 .0268667
1070.119 .0268590
1070.698 .0268510
1071.278 .0268426
1071.857 .0268338
1072.436 .0268248
1073.016 .0268156
1073.595 .0268063
1074.175 .0267969
1074.754 .0267875
1075.334 .0267781
1075.913 .0267688
1076.493 .0267596
1077.073 .0267505
1077.653 .0267417
1078.233 .0267335
1078.813 .0267260
1079.393 .0267195
1079.974 .0267141
1080.554 .0267098
1081.135 .0267066
1081.716 .0267045
1082.296 .0267032
1082.877 .0267025
1083.458 .0267021
1084.040 .0267021
1084.621 .0267022
1085.202 .0267024
1085.784 .0267030
1086.366 .0267041
1086.948 .0267057
1087.530 .0267079
1088.112 .0267107
1088.695 .0267140
1089.277 .0267177
1089.860 .0267216
1090.443 .0267257
1091.026 .0267299
1091.610 .0267342
1092.193 .0267386
1092.777 .0267432
1093.361 .0267480
1093.946 .0267531
1094.530 .0267584
1095.115 .0267637
1095.700 .0267688
1096.285 .0267736
1096.871 .0267778
1097.456 .0267814
1098.042 .0267843
1098.628 .0267867
1099.215 .0267885
1099.802 .0267899
1100.389 .0267911
1100.976 .0267922
1101.564 .0267932
1102.152 .0267943
1102.740 .0267955
1103.329 .0267970
1103.917 .0267986
1104.507 .0268007
1105.096 .0268034
1105.686 .0268067
1106.276 .0268109
1106.867 .0268160
1107.457 .0268221
1108.049 .0268291
1108.640 .0268367
1109.232 .0268449
1109.825 .0268535
1110.417 .0268623
1111.010 .0268714
1111.604 .0268808
1112.198 .0268907
1112.792 .0269011
1113.387 .0269122
1113.982 .0269241
1114.577 .0269367
1115.173 .0269500
1115.769 .0269637
1116.366 .0269777
1116.963 .0269920
1117.561 .0270066
1118.159 .0270215
1118.758 .0270368
1119.357 .0270527
1119.957 .0270691
1120.557 .0270861
1121.157 .0271036
1121.758 .0271215
1122.360 .0271399
1122.962 .0271586
1123.564 .0271776
1124.167 .0271854
1124.771 .0272042
1125.375 .0272236
1125.980 .0272438
1126.585 .0272650
1127.191 .0272873
1127.797 .0273108
1128.404 .0273355
1129.012 .0273613
1129.620 .0273883
1130.229 .0274163
1130.838 .0274452
1131.448 .0274748
1132.058 .0275052
1132.669 .0275498
1133.281 .0275831
1133.894 .0276181
1134.507 .0276531
1135.120 .0276898
1135.735 .0277296
1136.350 .0277649
1136.965 .0278203
1137.582 .0278624
1138.199 .0279038
1138.816 .0279415
1139.435 .0279781
1140.054 .0280152
1140.674 .0280532
1141.294 .0280847
1141.916 .0281318
1142.538 .0281371
1143.160 .0281889
1143.784 .0282894
1144.408 .0281848
1145.033 .0286634
