Measurement Sequence started on: 14-45-04-498
Integration time: 36
Scans to Average: 2 
>>>>>Begin Spectral Data<<<<<
433.946 .0619704
434.870 .0502762
435.793 .0471371
436.715 .0466143
437.635 .0447138
438.555 .0448070
439.473 .0434075
440.389 .0425298
441.305 .0418361
442.219 .0412441
443.132 .0421449
444.044 .0415660
444.954 .0411511
445.863 .0407624
446.771 .0404720
447.678 .0401746
448.584 .0399486
449.488 .0397661
450.391 .0396170
451.293 .0394958
452.194 .0393960
453.094 .0393124
453.992 .0392407
454.890 .0391773
455.786 .0391199
456.681 .0390669
457.575 .0390172
458.468 .0389696
459.360 .0389237
460.250 .0388788
461.140 .0388341
462.028 .0387889
462.915 .0387436
463.801 .0386981
464.687 .0386525
465.571 .0386067
466.454 .0385607
467.335 .0385145
468.216 .0384681
469.096 .0384209
469.975 .0383729
470.853 .0383236
471.729 .0382724
472.605 .0382186
473.479 .0381620
474.353 .0381019
475.226 .0380381
476.097 .0379708
476.968 .0379002
477.838 .0378268
478.706 .0377508
479.574 .0376729
480.441 .0375943
481.306 .0375153
482.171 .0374365
483.035 .0373585
483.898 .0372818
484.760 .0372067
485.621 .0371337
486.481 .0370631
487.340 .0369959
488.198 .0369326
489.055 .0368741
489.912 .0368209
490.767 .0367731
491.622 .0367185
492.476 .0366810
493.329 .0366460
494.180 .0366124
495.032 .0365793
495.882 .0365455
496.731 .0365103
497.580 .0364735
498.427 .0364352
499.274 .0363959
500.120 .0363708
500.965 .0363308
501.809 .0362908
502.653 .0362509
503.495 .0362110
504.337 .0361711
505.178 .0361309
506.018 .0360903
506.858 .0360492
507.696 .0360083
508.534 .0359684
509.371 .0359306
510.208 .0358964
511.043 .0358666
511.878 .0358421
512.712 .0358227
513.545 .0358077
514.377 .0357958
515.209 .0357855
516.040 .0357751
516.870 .0357625
517.699 .0357465
518.528 .0357263
519.356 .0357016
520.183 .0356728
521.010 .0356408
521.836 .0356059
522.661 .0355682
523.485 .0355279
524.309 .0354845
525.132 .0354373
525.954 .0353858
526.776 .0353293
527.597 .0352672
528.417 .0351995
529.237 .0351270
530.056 .0350508
530.874 .0349729
531.692 .0348954
532.508 .0348202
533.325 .0347489
534.140 .0346831
534.955 .0346233
535.770 .0345696
536.583 .0345217
537.397 .0344788
538.209 .0344397
539.021 .0344037
539.832 .0343703
540.643 .0343396
541.453 .0343122
542.262 .0342883
543.071 .0342678
543.879 .0342510
544.687 .0342375
545.494 .0342266
546.300 .0342173
547.106 .0342085
547.911 .0341989
548.716 .0341874
549.520 .0341734
550.323 .0341565
551.126 .0341367
551.929 .0341145
552.731 .0340903
553.532 .0340646
554.332 .0340381
555.133 .0340108
555.932 .0339834
556.731 .0339558
557.530 .0339278
558.328 .0338990
559.125 .0338691
559.922 .0338382
560.719 .0338061
561.515 .0337725
562.310 .0337380
563.105 .0337025
563.899 .0336665
564.693 .0336300
565.487 .0335934
566.280 .0335569
567.072 .0335206
567.864 .0334845
568.655 .0334485
569.446 .0334125
570.236 .0333763
571.026 .0333398
571.816 .0333031
572.605 .0332660
573.393 .0332284
574.181 .0331907
574.969 .0331529
575.756 .0331153
576.543 .0330779
577.329 .0330411
578.115 .0330051
578.900 .0329700
579.685 .0329359
580.469 .0329031
581.253 .0328718
582.036 .0328419
582.820 .0328135
583.602 .0327865
584.384 .0327609
585.166 .0327365
585.947 .0327133
586.728 .0326910
587.509 .0326698
588.289 .0326494
589.069 .0326299
589.848 .0326113
590.627 .0325934
591.405 .0325761
592.183 .0325593
592.961 .0325428
593.738 .0325265
594.515 .0325105
595.291 .0324945
596.067 .0324788
596.843 .0324633
597.618 .0324481
598.393 .0324265
599.167 .0324116
599.941 .0323970
600.715 .0323825
601.488 .0323680
602.261 .0323537
603.034 .0323395
603.806 .0323253
604.578 .0323112
605.349 .0322969
606.121 .0322826
606.891 .0322747
607.662 .0322600
608.432 .0322451
609.201 .0322300
609.971 .0322147
610.740 .0321992
611.508 .0321836
612.277 .0321677
613.045 .0321517
613.812 .0321354
614.579 .0321188
615.346 .0321020
616.113 .0320849
616.879 .0320675
617.645 .0320499
618.411 .0320320
619.176 .0320140
619.941 .0319958
620.705 .0319775
621.470 .0319590
622.233 .0319404
622.997 .0319216
623.760 .0319028
624.523 .0318837
625.286 .0318647
626.048 .0318457
626.810 .0318268
627.572 .0318080
628.333 .0317894
629.095 .0317711
629.855 .0317531
630.616 .0317355
631.376 .0317182
632.136 .0317012
632.895 .0316845
633.655 .0316680
634.414 .0316518
635.172 .0316357
635.931 .0316199
636.689 .0316042
637.447 .0315887
638.204 .0315734
638.962 .0315583
639.718 .0315436
640.475 .0315291
641.231 .0315150
641.988 .0315013
642.743 .0314878
643.499 .0314747
644.254 .0314618
645.009 .0314491
645.764 .0314367
646.518 .0314244
647.272 .0314122
648.026 .0314001
648.780 .0313881
649.533 .0313763
650.286 .0313646
651.039 .0313531
651.792 .0313418
652.544 .0313307
653.296 .0313196
654.048 .0313085
654.799 .0312974
655.550 .0312862
656.301 .0312749
657.052 .0312634
657.802 .0312518
658.552 .0312400
659.302 .0312281
660.052 .0312161
660.801 .0312040
661.550 .0311917
662.299 .0311793
663.048 .0311666
663.796 .0311537
664.544 .0311405
665.292 .0311272
666.040 .0311137
666.787 .0311001
667.534 .0310865
668.281 .0310729
669.028 .0310594
669.774 .0310460
670.521 .0310328
671.266 .0310197
672.012 .0310068
672.758 .0309941
673.503 .0309818
674.248 .0309698
674.992 .0309583
675.737 .0309471
676.481 .0309364
677.225 .0309260
677.969 .0309159
678.712 .0309060
679.455 .0308965
680.199 .0308872
680.941 .0308781
681.684 .0308694
682.426 .0308608
683.168 .0308525
683.910 .0308444
684.652 .0308365
685.393 .0308286
686.134 .0308207
686.875 .0308128
687.616 .0308049
688.356 .0307969
689.097 .0307890
689.837 .0307810
690.576 .0307730
691.316 .0307650
692.055 .0307568
692.794 .0307484
693.533 .0307398
694.272 .0307309
695.010 .0307216
695.748 .0307120
696.486 .0307021
697.224 .0306917
697.962 .0306811
698.699 .0306701
699.436 .0306589
700.173 .0306474
700.909 .0306357
701.646 .0306239
702.382 .0306120
703.118 .0306001
703.853 .0305882
704.589 .0305763
705.324 .0305646
706.059 .0305528
706.794 .0305410
707.529 .0305292
708.263 .0305172
708.997 .0305052
709.731 .0304933
710.465 .0304813
711.198 .0304693
711.931 .0304574
712.664 .0304456
713.397 .0304338
714.130 .0304219
714.862 .0304098
715.594 .0303976
716.326 .0303851
717.058 .0303722
717.789 .0303591
718.520 .0303457
719.251 .0303320
719.982 .0303181
720.713 .0303039
721.443 .0302895
722.173 .0302749
722.903 .0302600
723.633 .0302450
724.362 .0302298
725.091 .0302145
725.820 .0301992
726.549 .0301838
727.278 .0301683
728.006 .0301528
728.734 .0301373
729.462 .0301217
730.190 .0301061
730.917 .0300905
731.644 .0300749
732.371 .0300595
733.098 .0300444
733.825 .0300295
734.551 .0300150
735.277 .0300008
736.003 .0299869
736.728 .0299733
737.454 .0299602
738.179 .0299473
738.904 .0299347
739.629 .0299224
740.353 .0299102
741.077 .0298983
741.801 .0298865
742.525 .0298749
743.249 .0298633
743.972 .0298518
744.695 .0298405
745.418 .0298294
746.141 .0298185
746.863 .0298079
747.585 .0297976
748.307 .0297875
749.029 .0297775
749.750 .0297675
750.472 .0297575
751.193 .0297473
751.913 .0297368
752.634 .0297262
753.354 .0297155
754.074 .0297048
754.794 .0296941
755.514 .0296837
756.233 .0296735
756.952 .0296636
757.671 .0296539
758.390 .0296444
759.108 .0296352
759.826 .0296260
760.544 .0296171
761.262 .0296082
761.979 .0295994
762.697 .0295907
763.414 .0295820
764.130 .0295733
764.847 .0295647
765.563 .0295560
766.279 .0295474
766.995 .0295387
767.710 .0295299
768.426 .0295210
769.141 .0295119
769.855 .0295024
770.570 .0294926
771.284 .0294822
771.998 .0294712
772.712 .0294597
773.426 .0294475
774.139 .0294349
774.852 .0294219
775.565 .0294086
776.277 .0293951
776.990 .0293813
777.702 .0293674
778.414 .0293533
779.125 .0293390
779.836 .0293246
780.547 .0293101
781.258 .0292956
781.969 .0292811
782.679 .0292667
783.389 .0292463
784.099 .0292325
784.808 .0292189
785.517 .0292056
786.226 .0291928
786.935 .0291805
787.643 .0291687
788.352 .0291575
789.060 .0291468
789.767 .0291367
790.475 .0291269
791.182 .0291175
791.889 .0291135
792.595 .0291044
793.301 .0290954
794.008 .0290866
794.713 .0290778
795.419 .0290691
796.124 .0290605
796.829 .0290518
797.534 .0290431
798.238 .0290342
798.942 .0290253
799.646 .0290162
800.350 .0290071
801.053 .0289978
801.756 .0289884
802.459 .0289789
803.162 .0289694
803.864 .0289599
804.566 .0289503
805.267 .0289407
805.969 .0289310
806.670 .0289212
807.371 .0289114
808.071 .0289015
808.772 .0288916
809.472 .0288817
810.171 .0288718
810.871 .0288619
811.570 .0288519
812.269 .0288419
812.967 .0288319
813.666 .0288217
814.364 .0288115
815.061 .0288013
815.759 .0287910
816.456 .0287806
817.153 .0287704
817.849 .0287601
818.545 .0287499
819.241 .0287398
819.937 .0287297
820.632 .0287196
821.327 .0287095
822.022 .0286994
822.717 .0286892
823.411 .0286790
824.105 .0286687
824.798 .0286584
825.491 .0286481
826.184 .0286378
826.877 .0286276
827.569 .0286174
828.261 .0286073
828.953 .0285974
829.645 .0285876
830.336 .0285779
831.027 .0285684
831.717 .0285590
832.407 .0285497
833.097 .0285406
833.787 .0285315
834.476 .0285225
835.165 .0285134
835.854 .0285044
836.542 .0284952
837.230 .0284859
837.918 .0284764
838.605 .0284666
839.292 .0284564
839.979 .0284459
840.665 .0284349
841.352 .0284235
842.037 .0284117
842.723 .0283995
843.408 .0283868
844.093 .0283736
844.777 .0283599
845.462 .0283457
846.145 .0283310
846.829 .0283157
847.512 .0283000
848.195 .0282839
848.878 .0282675
849.560 .0282507
850.242 .0282337
850.923 .0282164
851.605 .0281990
852.286 .0281814
852.966 .0281636
853.646 .0281456
854.326 .0281275
855.006 .0281093
855.685 .0280912
856.364 .0280731
857.043 .0280552
857.721 .0280374
858.399 .0280198
859.077 .0280025
859.754 .0279854
860.431 .0279686
861.107 .0279522
861.784 .0279361
862.459 .0279206
863.135 .0279055
863.810 .0278910
864.485 .0278771
865.160 .0278637
865.834 .0278508
866.508 .0278384
867.181 .0278265
867.854 .0278150
868.527 .0278040
869.199 .0277933
869.872 .0277831
870.543 .0277733
871.215 .0277638
871.886 .0277548
872.557 .0277460
873.227 .0277375
873.897 .0277292
874.567 .0277211
875.236 .0277130
875.905 .0277050
876.573 .0276970
877.242 .0276889
877.909 .0276808
878.577 .0276726
879.244 .0276642
879.911 .0276558
880.577 .0276474
881.243 .0276389
881.909 .0276304
882.575 .0276218
883.240 .0276134
883.904 .0276050
884.569 .0275968
885.232 .0275887
885.896 .0275809
886.559 .0275733
887.222 .0275661
887.885 .0275593
888.547 .0275529
889.208 .0275471
889.870 .0275418
890.531 .0275371
891.192 .0275330
891.852 .0275296
892.512 .0275268
893.171 .0275246
893.830 .0275230
894.489 .0275219
895.148 .0275212
895.806 .0275210
896.464 .0275210
897.121 .0275212
897.778 .0275215
898.434 .0275218
899.091 .0275214
899.747 .0275210
900.402 .0275202
901.057 .0275190
901.712 .0275172
902.366 .0275147
903.020 .0275116
903.674 .0275078
904.327 .0275032
904.980 .0274979
905.633 .0274919
906.285 .0274851
906.936 .0274775
907.588 .0274715
908.239 .0274629
908.889 .0274536
909.540 .0274437
910.190 .0274332
910.839 .0274221
911.488 .0274105
912.137 .0273984
912.785 .0273858
913.433 .0273728
914.081 .0273593
914.728 .0273453
915.375 .0273309
916.021 .0273160
916.668 .0273008
917.313 .0272852
917.959 .0272693
918.604 .0272532
919.248 .0272367
919.892 .0272199
920.536 .0272028
921.180 .0271854
921.823 .0271675
922.465 .0271493
923.108 .0271307
923.750 .0271117
924.391 .0270925
925.032 .0270729
925.673 .0270530
926.313 .0270328
926.953 .0270122
927.593 .0269912
928.232 .0269697
928.871 .0269478
929.510 .0269256
930.148 .0269031
930.786 .0268804
931.423 .0268576
932.060 .0268348
932.697 .0268120
933.333 .0267894
933.969 .0267668
934.604 .0267444
935.239 .0267221
935.874 .0267000
936.508 .0266780
937.142 .0266563
937.776 .0266348
938.409 .0266136
939.042 .0265927
939.674 .0265722
940.306 .0265519
940.938 .0265318
941.569 .0265120
942.200 .0264924
942.830 .0264730
943.460 .0264538
944.090 .0264349
944.720 .0264162
945.349 .0263980
945.977 .0263802
946.606 .0263628
947.233 .0263458
947.861 .0263291
948.488 .0263128
949.115 .0262968
949.741 .0262809
950.367 .0262653
950.993 .0262499
951.618 .0262347
952.243 .0262197
952.868 .0262049
953.492 .0261905
954.115 .0261763
954.739 .0261625
955.362 .0261489
955.984 .0261357
956.607 .0261227
957.229 .0261100
957.850 .0260976
958.471 .0260857
959.092 .0260741
959.713 .0260631
960.333 .0260526
960.952 .0260425
961.572 .0260330
962.191 .0260240
962.809 .0260155
963.428 .0260075
964.045 .0259999
964.663 .0259929
965.280 .0259864
965.897 .0259804
966.513 .0259749
967.129 .0259700
967.745 .0259657
968.361 .0259618
968.976 .0259585
969.590 .0259557
970.205 .0259534
970.818 .0259517
971.432 .0259504
972.045 .0259498
972.658 .0259496
973.271 .0259499
973.883 .0259506
974.495 .0259517
975.106 .0259532
975.717 .0259549
976.328 .0259570
976.938 .0259594
977.548 .0259621
978.158 .0259649
978.768 .0259696
979.377 .0259728
979.985 .0259761
980.594 .0259795
981.202 .0259829
981.809 .0259863
982.417 .0259899
983.024 .0259934
983.631 .0259970
984.237 .0260006
984.843 .0260041
985.449 .0260075
986.054 .0260107
986.659 .0260138
987.264 .0260150
987.868 .0260177
988.472 .0260202
989.076 .0260225
989.679 .0260246
990.282 .0260265
990.885 .0260281
991.487 .0260296
992.090 .0260308
992.691 .0260316
993.293 .0260322
993.894 .0260324
994.495 .0260323
995.095 .0260318
995.696 .0260309
996.296 .0260296
996.895 .0260280
997.494 .0260260
998.093 .0260235
998.692 .0260205
999.291 .0260170
999.889 .0260129
1000.487 .0260082
1001.084 .0260030
1001.681 .0259972
1002.278 .0259910
1002.875 .0259843
1003.471 .0259773
1004.067 .0259699
1004.663 .0259621
1005.258 .0259540
1005.854 .0259457
1006.449 .0259371
1007.043 .0259284
1007.638 .0259195
1008.232 .0259104
1008.826 .0259013
1009.419 .0258922
1010.012 .0258831
1010.605 .0258741
1011.198 .0258652
1011.791 .0258563
1012.383 .0258476
1012.975 .0258390
1013.566 .0258306
1014.158 .0258223
1014.749 .0258142
1015.340 .0258062
1015.931 .0257984
1016.521 .0257907
1017.111 .0257831
1017.701 .0257755
1018.291 .0257679
1018.880 .0257603
1019.470 .0257527
1020.059 .0257450
1020.647 .0257372
1021.236 .0257291
1021.824 .0257208
1022.412 .0257122
1023.000 .0257032
1023.588 .0256937
1024.175 .0256838
1024.762 .0256736
1025.349 .0256630
1025.936 .0256523
1026.523 .0256415
1027.109 .0256306
1027.695 .0256198
1028.281 .0256091
1028.867 .0255986
1029.452 .0255880
1030.038 .0255776
1030.623 .0255673
1031.208 .0255571
1031.792 .0255472
1032.377 .0255376
1032.961 .0255284
1033.546 .0255197
1034.130 .0255114
1034.714 .0255035
1035.297 .0254959
1035.881 .0254884
1036.464 .0254809
1037.047 .0254733
1037.630 .0254656
1038.213 .0254578
1038.796 .0254500
1039.378 .0254422
1039.961 .0254347
1040.543 .0254274
1041.125 .0254203
1041.707 .0254134
1042.289 .0254067
1042.871 .0253999
1043.452 .0253929
1044.034 .0253858
1044.615 .0253784
1045.196 .0253708
1045.777 .0253631
1046.358 .0253554
1046.939 .0253478
1047.520 .0253402
1048.101 .0253327
1048.681 .0253252
1049.262 .0253176
1049.842 .0253100
1050.422 .0253023
1051.002 .0252944
1051.582 .0252866
1052.162 .0252789
1052.742 .0252716
1053.322 .0252648
1053.902 .0252589
1054.482 .0252538
1055.061 .0252498
1055.641 .0252468
1056.220 .0252448
1056.800 .0252437
1057.379 .0252436
1057.958 .0252443
1058.538 .0252457
1059.117 .0252479
1059.696 .0252508
1060.275 .0252542
1060.854 .0252580
1061.433 .0252622
1062.012 .0252665
1062.592 .0252709
1063.171 .0252752
1063.750 .0252793
1064.329 .0252831
1064.908 .0252867
1065.487 .0252900
1066.066 .0252930
1066.645 .0252958
1067.224 .0252983
1067.803 .0253007
1068.382 .0253030
1068.961 .0253053
1069.540 .0253078
1070.119 .0253105
1070.698 .0253136
1071.278 .0253173
1071.857 .0253216
1072.436 .0253266
1073.016 .0253323
1073.595 .0253384
1074.175 .0253449
1074.754 .0253517
1075.334 .0253587
1075.913 .0253659
1076.493 .0253733
1077.073 .0253810
1077.653 .0253892
1078.233 .0253979
1078.813 .0254074
1079.393 .0254175
1079.974 .0254282
1080.554 .0254394
1081.135 .0254509
1081.716 .0254623
1082.296 .0254736
1082.877 .0254848
1083.458 .0254957
1084.040 .0255065
1084.621 .0255171
1085.202 .0255277
1085.784 .0255381
1086.366 .0255483
1086.948 .0255580
1087.530 .0255670
1088.112 .0255748
1088.695 .0255812
1089.277 .0255860
1089.860 .0255891
1090.443 .0255908
1091.026 .0255914
1091.610 .0255911
1092.193 .0255904
1092.777 .0255896
1093.361 .0255887
1093.946 .0255879
1094.530 .0255870
1095.115 .0255861
1095.700 .0255850
1096.285 .0255836
1096.871 .0255821
1097.456 .0255805
1098.042 .0255793
1098.628 .0255788
1099.215 .0255791
1099.802 .0255805
1100.389 .0255830
1100.976 .0255864
1101.564 .0255906
1102.152 .0255954
1102.740 .0256007
1103.329 .0256063
1103.917 .0256123
1104.507 .0256186
1105.096 .0256254
1105.686 .0256328
1106.276 .0256408
1106.867 .0256495
1107.457 .0256587
1108.049 .0256683
1108.640 .0256780
1109.232 .0256875
1109.825 .0256966
1110.417 .0257050
1111.010 .0257128
1111.604 .0257200
1112.198 .0257267
1112.792 .0257329
1113.387 .0257387
1113.982 .0257442
1114.577 .0257493
1115.173 .0257538
1115.769 .0257577
1116.366 .0257610
1116.963 .0257636
1117.561 .0257658
1118.159 .0257679
1118.758 .0257704
1119.357 .0257738
1119.957 .0257782
1120.557 .0257841
1121.157 .0257916
1121.758 .0258009
1122.360 .0258121
1122.962 .0258251
1123.564 .0258398
1124.167 .0258417
1124.771 .0258584
1125.375 .0258770
1125.980 .0258974
1126.585 .0259194
1127.191 .0259430
1127.797 .0259682
1128.404 .0259948
1129.012 .0260223
1129.620 .0260506
1130.229 .0260794
1130.838 .0261083
1131.448 .0261372
1132.058 .0261659
1132.669 .0262109
1133.281 .0262406
1133.894 .0262703
1134.507 .0262989
1135.120 .0263270
1135.735 .0263507
1136.350 .0263843
1136.965 .0265394
1137.582 .0265584
1138.199 .0265688
1138.816 .0265702
1139.435 .0265687
1140.054 .0265616
1140.674 .0265504
1141.294 .0265499
1141.916 .0265529
1142.538 .0265319
1143.160 .0265355
1143.784 .0264447
1144.408 .0267480
1145.033 .0267121
