Measurement Sequence started on: 14-45-04-498
Integration time: 36
Scans to Average: 2 
>>>>>Begin Spectral Data<<<<<
433.946 .0632956
434.870 .0540149
435.793 .0504153
436.715 .0486482
437.635 .0480928
438.555 .0485379
439.473 .0474515
440.389 .0468062
441.305 .0463272
442.219 .0459353
443.132 .0465556
444.044 .0460445
444.954 .0457190
445.863 .0454828
446.771 .0452714
447.678 .0450316
448.584 .0448432
449.488 .0446823
450.391 .0445391
451.293 .0444083
452.194 .0442864
453.094 .0441710
453.992 .0440593
454.890 .0439484
455.786 .0438373
456.681 .0437251
457.575 .0436115
458.468 .0434965
459.360 .0433802
460.250 .0432626
461.140 .0431438
462.028 .0430241
462.915 .0429035
463.801 .0427829
464.687 .0426637
465.571 .0425470
466.454 .0424340
467.335 .0423261
468.216 .0422242
469.096 .0421284
469.975 .0420387
470.853 .0419541
471.729 .0418737
472.605 .0417968
473.479 .0417224
474.353 .0416501
475.226 .0415798
476.097 .0415117
476.968 .0414462
477.838 .0413837
478.706 .0413242
479.574 .0412674
480.441 .0412131
481.306 .0411603
482.171 .0411084
483.035 .0410565
483.898 .0410040
484.760 .0409508
485.621 .0408971
486.481 .0408429
487.340 .0407888
488.198 .0407351
489.055 .0406822
489.912 .0406298
490.767 .0405778
491.622 .0404971
492.476 .0404442
493.329 .0403906
494.180 .0403362
495.032 .0402810
495.882 .0402252
496.731 .0401690
497.580 .0401127
498.427 .0400569
499.274 .0400016
500.120 .0399766
500.965 .0399233
501.809 .0398713
502.653 .0398206
503.495 .0397711
504.337 .0397228
505.178 .0396755
506.018 .0396290
506.858 .0395832
507.696 .0395384
508.534 .0394948
509.371 .0394526
510.208 .0394120
511.043 .0393732
511.878 .0393361
512.712 .0393008
513.545 .0392667
514.377 .0392336
515.209 .0392012
516.040 .0391690
516.870 .0391366
517.699 .0391037
518.528 .0390699
519.356 .0390346
520.183 .0389975
521.010 .0389582
521.836 .0389160
522.661 .0388705
523.485 .0388211
524.309 .0387678
525.132 .0387103
525.954 .0386487
526.776 .0385831
527.597 .0385141
528.417 .0384422
529.237 .0383679
530.056 .0382915
530.874 .0382141
531.692 .0381361
532.508 .0380578
533.325 .0379797
534.140 .0379024
534.955 .0378262
535.770 .0377515
536.583 .0376787
537.397 .0376081
538.209 .0375401
539.021 .0374753
539.832 .0374144
540.643 .0373579
541.453 .0373063
542.262 .0372597
543.071 .0372179
543.879 .0371808
544.687 .0371472
545.494 .0371163
546.300 .0370872
547.106 .0370594
547.911 .0370325
548.716 .0370060
549.520 .0369802
550.323 .0369553
551.126 .0369312
551.929 .0369079
552.731 .0368852
553.532 .0368632
554.332 .0368417
555.133 .0368208
555.932 .0368001
556.731 .0367801
557.530 .0367605
558.328 .0367416
559.125 .0367236
559.922 .0367068
560.719 .0366911
561.515 .0366766
562.310 .0366631
563.105 .0366506
563.899 .0366385
564.693 .0366264
565.487 .0366138
566.280 .0366003
567.072 .0365855
567.864 .0365691
568.655 .0365509
569.446 .0365313
570.236 .0365103
571.026 .0364881
571.816 .0364649
572.605 .0364409
573.393 .0364162
574.181 .0363907
574.969 .0363644
575.756 .0363370
576.543 .0363084
577.329 .0362787
578.115 .0362480
578.900 .0362166
579.685 .0361848
580.469 .0361531
581.253 .0361218
582.036 .0360913
582.820 .0360615
583.602 .0360327
584.384 .0360048
585.166 .0359777
585.947 .0359512
586.728 .0359255
587.509 .0359002
588.289 .0358755
589.069 .0358511
589.848 .0358270
590.627 .0358031
591.405 .0357795
592.183 .0357559
592.961 .0357323
593.738 .0357088
594.515 .0356853
595.291 .0356617
596.067 .0356382
596.843 .0356147
597.618 .0355914
598.393 .0355577
599.167 .0355351
599.941 .0355129
600.715 .0354911
601.488 .0354695
602.261 .0354484
603.034 .0354276
603.806 .0354072
604.578 .0353872
605.349 .0353676
606.121 .0353486
606.891 .0353400
607.662 .0353215
608.432 .0353035
609.201 .0352858
609.971 .0352685
610.740 .0352513
611.508 .0352341
612.277 .0352169
613.045 .0351997
613.812 .0351822
614.579 .0351646
615.346 .0351469
616.113 .0351290
616.879 .0351108
617.645 .0350924
618.411 .0350737
619.176 .0350546
619.941 .0350349
620.705 .0350148
621.470 .0349940
622.233 .0349726
622.997 .0349507
623.760 .0349282
624.523 .0349053
625.286 .0348821
626.048 .0348587
626.810 .0348352
627.572 .0348115
628.333 .0347878
629.095 .0347641
629.855 .0347405
630.616 .0347172
631.376 .0346941
632.136 .0346713
632.895 .0346490
633.655 .0346272
634.414 .0346060
635.172 .0345855
635.931 .0345657
636.689 .0345466
637.447 .0345283
638.204 .0345108
638.962 .0344942
639.718 .0344784
640.475 .0344635
641.231 .0344494
641.988 .0344360
642.743 .0344233
643.499 .0344110
644.254 .0343991
645.009 .0343876
645.764 .0343765
646.518 .0343657
647.272 .0343552
648.026 .0343448
648.780 .0343346
649.533 .0343244
650.286 .0343141
651.039 .0343034
651.792 .0342923
652.544 .0342808
653.296 .0342688
654.048 .0342563
654.799 .0342434
655.550 .0342301
656.301 .0342163
657.052 .0342021
657.802 .0341875
658.552 .0341724
659.302 .0341567
660.052 .0341406
660.801 .0341239
661.550 .0341068
662.299 .0340891
663.048 .0340710
663.796 .0340526
664.544 .0340338
665.292 .0340147
666.040 .0339954
666.787 .0339760
667.534 .0339566
668.281 .0339373
669.028 .0339181
669.774 .0338993
670.521 .0338807
671.266 .0338624
672.012 .0338446
672.758 .0338271
673.503 .0338100
674.248 .0337933
674.992 .0337770
675.737 .0337612
676.481 .0337459
677.225 .0337311
677.969 .0337168
678.712 .0337030
679.455 .0336897
680.199 .0336768
680.941 .0336644
681.684 .0336524
682.426 .0336408
683.168 .0336294
683.910 .0336184
684.652 .0336074
685.393 .0335966
686.134 .0335859
686.875 .0335752
687.616 .0335647
688.356 .0335543
689.097 .0335441
689.837 .0335342
690.576 .0335244
691.316 .0335149
692.055 .0335054
692.794 .0334961
693.533 .0334868
694.272 .0334776
695.010 .0334683
695.748 .0334589
696.486 .0334496
697.224 .0334403
697.962 .0334310
698.699 .0334216
699.436 .0334122
700.173 .0334027
700.909 .0333932
701.646 .0333836
702.382 .0333739
703.118 .0333641
703.853 .0333542
704.589 .0333441
705.324 .0333338
706.059 .0333232
706.794 .0333122
707.529 .0333008
708.263 .0332890
708.997 .0332768
709.731 .0332642
710.465 .0332513
711.198 .0332380
711.931 .0332246
712.664 .0332108
713.397 .0331968
714.130 .0331825
714.862 .0331678
715.594 .0331527
716.326 .0331371
717.058 .0331210
717.789 .0331044
718.520 .0330873
719.251 .0330697
719.982 .0330515
720.713 .0330329
721.443 .0330139
722.173 .0329945
722.903 .0329749
723.633 .0329551
724.362 .0329351
725.091 .0329150
725.820 .0328950
726.549 .0328749
727.278 .0328549
728.006 .0328350
728.734 .0328152
729.462 .0327956
730.190 .0327762
730.917 .0327571
731.644 .0327383
732.371 .0327199
733.098 .0327021
733.825 .0326848
734.551 .0326680
735.277 .0326519
736.003 .0326365
736.728 .0326216
737.454 .0326074
738.179 .0325937
738.904 .0325805
739.629 .0325678
740.353 .0325555
741.077 .0325437
741.801 .0325322
742.525 .0325211
743.249 .0325103
743.972 .0324998
744.695 .0324895
745.418 .0324794
746.141 .0324696
746.863 .0324600
747.585 .0324505
748.307 .0324412
749.029 .0324319
749.750 .0324226
750.472 .0324133
751.193 .0324039
751.913 .0323945
752.634 .0323850
753.354 .0323755
754.074 .0323660
754.794 .0323565
755.514 .0323472
756.233 .0323379
756.952 .0323287
757.671 .0323195
758.390 .0323103
759.108 .0323010
759.826 .0322914
760.544 .0322817
761.262 .0322717
761.979 .0322613
762.697 .0322506
763.414 .0322395
764.130 .0322279
764.847 .0322159
765.563 .0322034
766.279 .0321904
766.995 .0321770
767.710 .0321632
768.426 .0321491
769.141 .0321346
769.855 .0321198
770.570 .0321046
771.284 .0320890
771.998 .0320731
772.712 .0320567
773.426 .0320401
774.139 .0320231
774.852 .0320060
775.565 .0319887
776.277 .0319714
776.990 .0319542
777.702 .0319370
778.414 .0319199
779.125 .0319029
779.836 .0318861
780.547 .0318694
781.258 .0318529
781.969 .0318366
782.679 .0318205
783.389 .0317968
784.099 .0317810
784.808 .0317653
785.517 .0317496
786.226 .0317340
786.935 .0317184
787.643 .0317027
788.352 .0316870
789.060 .0316712
789.767 .0316553
790.475 .0316394
791.182 .0316233
791.889 .0316150
792.595 .0315988
793.301 .0315825
794.008 .0315662
794.713 .0315496
795.419 .0315330
796.124 .0315162
796.829 .0314993
797.534 .0314823
798.238 .0314653
798.942 .0314483
799.646 .0314313
800.350 .0314145
801.053 .0313977
801.756 .0313812
802.459 .0313649
803.162 .0313488
803.864 .0313329
804.566 .0313173
805.267 .0313020
805.969 .0312869
806.670 .0312722
807.371 .0312577
808.071 .0312435
808.772 .0312296
809.472 .0312160
810.171 .0312027
810.871 .0311896
811.570 .0311768
812.269 .0311642
812.967 .0311517
813.666 .0311394
814.364 .0311272
815.061 .0311150
815.759 .0311029
816.456 .0310908
817.153 .0310786
817.849 .0310665
818.545 .0310543
819.241 .0310421
819.937 .0310299
820.632 .0310177
821.327 .0310054
822.022 .0309931
822.717 .0309807
823.411 .0309682
824.105 .0309556
824.798 .0309428
825.491 .0309299
826.184 .0309169
826.877 .0309038
827.569 .0308907
828.261 .0308774
828.953 .0308642
829.645 .0308509
830.336 .0308377
831.027 .0308246
831.717 .0308116
832.407 .0307988
833.097 .0307862
833.787 .0307738
834.476 .0307616
835.165 .0307496
835.854 .0307378
836.542 .0307260
837.230 .0307144
837.918 .0307029
838.605 .0306914
839.292 .0306799
839.979 .0306685
840.665 .0306570
841.352 .0306455
842.037 .0306338
842.723 .0306220
843.408 .0306100
844.093 .0305976
844.777 .0305848
845.462 .0305717
846.145 .0305581
846.829 .0305441
847.512 .0305297
848.195 .0305149
848.878 .0304997
849.560 .0304841
850.242 .0304681
850.923 .0304516
851.605 .0304346
852.286 .0304172
852.966 .0303993
853.646 .0303809
854.326 .0303620
855.006 .0303428
855.685 .0303232
856.364 .0303033
857.043 .0302833
857.721 .0302630
858.399 .0302427
859.077 .0302224
859.754 .0302021
860.431 .0301820
861.107 .0301622
861.784 .0301425
862.459 .0301232
863.135 .0301042
863.810 .0300854
864.485 .0300669
865.160 .0300487
865.834 .0300306
866.508 .0300128
867.181 .0299951
867.854 .0299775
868.527 .0299601
869.199 .0299428
869.872 .0299257
870.543 .0299086
871.215 .0298916
871.886 .0298746
872.557 .0298575
873.227 .0298403
873.897 .0298230
874.567 .0298056
875.236 .0297881
875.905 .0297704
876.573 .0297526
877.242 .0297348
877.909 .0297169
878.577 .0296990
879.244 .0296813
879.911 .0296636
880.577 .0296462
881.243 .0296290
881.909 .0296121
882.575 .0295956
883.240 .0295795
883.904 .0295638
884.569 .0295485
885.232 .0295338
885.896 .0295195
886.559 .0295057
887.222 .0294924
887.885 .0294798
888.547 .0294678
889.208 .0294564
889.870 .0294457
890.531 .0294355
891.192 .0294259
891.852 .0294167
892.512 .0294079
893.171 .0293995
893.830 .0293914
894.489 .0293835
895.148 .0293759
895.806 .0293684
896.464 .0293611
897.121 .0293539
897.778 .0293468
898.434 .0293398
899.091 .0293290
899.747 .0293220
900.402 .0293150
901.057 .0293079
901.712 .0293008
902.366 .0292936
903.020 .0292862
903.674 .0292785
904.327 .0292705
904.980 .0292622
905.633 .0292535
906.285 .0292444
906.936 .0292350
907.588 .0292296
908.239 .0292196
908.889 .0292092
909.540 .0291986
910.190 .0291877
910.839 .0291766
911.488 .0291652
912.137 .0291536
912.785 .0291418
913.433 .0291299
914.081 .0291178
914.728 .0291056
915.375 .0290933
916.021 .0290809
916.668 .0290684
917.313 .0290558
917.959 .0290429
918.604 .0290299
919.248 .0290166
919.892 .0290032
920.536 .0289895
921.180 .0289757
921.823 .0289618
922.465 .0289477
923.108 .0289334
923.750 .0289189
924.391 .0289043
925.032 .0288894
925.673 .0288744
926.313 .0288592
926.953 .0288438
927.593 .0288284
928.232 .0288129
928.871 .0287975
929.510 .0287820
930.148 .0287666
930.786 .0287511
931.423 .0287356
932.060 .0287199
932.697 .0287040
933.333 .0286879
933.969 .0286716
934.604 .0286551
935.239 .0286384
935.874 .0286215
936.508 .0286044
937.142 .0285872
937.776 .0285697
938.409 .0285520
939.042 .0285342
939.674 .0285161
940.306 .0284978
940.938 .0284792
941.569 .0284605
942.200 .0284416
942.830 .0284225
943.460 .0284033
944.090 .0283839
944.720 .0283644
945.349 .0283446
945.977 .0283246
946.606 .0283044
947.233 .0282838
947.861 .0282630
948.488 .0282418
949.115 .0282203
949.741 .0281984
950.367 .0281764
950.993 .0281541
951.618 .0281317
952.243 .0281092
952.868 .0280865
953.492 .0280638
954.115 .0280411
954.739 .0280183
955.362 .0279956
955.984 .0279730
956.607 .0279506
957.229 .0279284
957.850 .0279064
958.471 .0278847
959.092 .0278633
959.713 .0278423
960.333 .0278215
960.952 .0278010
961.572 .0277808
962.191 .0277608
962.809 .0277411
963.428 .0277217
964.045 .0277026
964.663 .0276839
965.280 .0276655
965.897 .0276476
966.513 .0276301
967.129 .0276131
967.745 .0275965
968.361 .0275804
968.976 .0275647
969.590 .0275494
970.205 .0275346
970.818 .0275203
971.432 .0275065
972.045 .0274932
972.658 .0274803
973.271 .0274678
973.883 .0274557
974.495 .0274439
975.106 .0274325
975.717 .0274213
976.328 .0274104
976.938 .0273998
977.548 .0273894
978.158 .0273793
978.768 .0273649
979.377 .0273553
979.985 .0273459
980.594 .0273366
981.202 .0273274
981.809 .0273183
982.417 .0273094
983.024 .0273006
983.631 .0272919
984.237 .0272834
984.843 .0272751
985.449 .0272669
986.054 .0272588
986.659 .0272508
987.264 .0272471
987.868 .0272393
988.472 .0272316
989.076 .0272240
989.679 .0272166
990.282 .0272094
990.885 .0272024
991.487 .0271958
992.090 .0271895
992.691 .0271836
993.293 .0271781
993.894 .0271730
994.495 .0271682
995.095 .0271638
995.696 .0271598
996.296 .0271560
996.895 .0271527
997.494 .0271498
998.093 .0271473
998.692 .0271451
999.291 .0271432
999.889 .0271417
1000.487 .0271403
1001.084 .0271391
1001.681 .0271381
1002.278 .0271373
1002.875 .0271366
1003.471 .0271360
1004.067 .0271355
1004.663 .0271351
1005.258 .0271349
1005.854 .0271346
1006.449 .0271345
1007.043 .0271344
1007.638 .0271343
1008.232 .0271343
1008.826 .0271344
1009.419 .0271346
1010.012 .0271350
1010.605 .0271355
1011.198 .0271362
1011.791 .0271370
1012.383 .0271380
1012.975 .0271392
1013.566 .0271406
1014.158 .0271423
1014.749 .0271442
1015.340 .0271465
1015.931 .0271491
1016.521 .0271521
1017.111 .0271554
1017.701 .0271591
1018.291 .0271630
1018.880 .0271672
1019.470 .0271715
1020.059 .0271761
1020.647 .0271807
1021.236 .0271855
1021.824 .0271903
1022.412 .0271952
1023.000 .0272001
1023.588 .0272050
1024.175 .0272099
1024.762 .0272148
1025.349 .0272196
1025.936 .0272244
1026.523 .0272292
1027.109 .0272337
1027.695 .0272381
1028.281 .0272423
1028.867 .0272463
1029.452 .0272500
1030.038 .0272535
1030.623 .0272567
1031.208 .0272597
1031.792 .0272624
1032.377 .0272647
1032.961 .0272668
1033.546 .0272684
1034.130 .0272696
1034.714 .0272702
1035.297 .0272703
1035.881 .0272699
1036.464 .0272689
1037.047 .0272673
1037.630 .0272652
1038.213 .0272627
1038.796 .0272599
1039.378 .0272567
1039.961 .0272533
1040.543 .0272496
1041.125 .0272456
1041.707 .0272413
1042.289 .0272366
1042.871 .0272316
1043.452 .0272262
1044.034 .0272204
1044.615 .0272141
1045.196 .0272075
1045.777 .0272005
1046.358 .0271932
1046.939 .0271857
1047.520 .0271780
1048.101 .0271700
1048.681 .0271618
1049.262 .0271533
1049.842 .0271447
1050.422 .0271358
1051.002 .0271268
1051.582 .0271177
1052.162 .0271086
1052.742 .0270995
1053.322 .0270906
1053.902 .0270818
1054.482 .0270733
1055.061 .0270650
1055.641 .0270570
1056.220 .0270492
1056.800 .0270417
1057.379 .0270344
1057.958 .0270273
1058.538 .0270203
1059.117 .0270134
1059.696 .0270066
1060.275 .0269999
1060.854 .0269933
1061.433 .0269868
1062.012 .0269803
1062.592 .0269739
1063.171 .0269674
1063.750 .0269607
1064.329 .0269539
1064.908 .0269467
1065.487 .0269391
1066.066 .0269312
1066.645 .0269228
1067.224 .0269141
1067.803 .0269051
1068.382 .0268959
1068.961 .0268865
1069.540 .0268769
1070.119 .0268671
1070.698 .0268571
1071.278 .0268469
1071.857 .0268366
1072.436 .0268260
1073.016 .0268155
1073.595 .0268048
1074.175 .0267943
1074.754 .0267839
1075.334 .0267736
1075.913 .0267635
1076.493 .0267535
1077.073 .0267435
1077.653 .0267333
1078.233 .0267231
1078.813 .0267128
1079.393 .0267024
1079.974 .0266921
1080.554 .0266818
1081.135 .0266718
1081.716 .0266620
1082.296 .0266526
1082.877 .0266434
1083.458 .0266346
1084.040 .0266261
1084.621 .0266178
1085.202 .0266098
1085.784 .0266021
1086.366 .0265947
1086.948 .0265877
1087.530 .0265810
1088.112 .0265747
1088.695 .0265687
1089.277 .0265631
1089.860 .0265576
1090.443 .0265524
1091.026 .0265473
1091.610 .0265424
1092.193 .0265378
1092.777 .0265334
1093.361 .0265295
1093.946 .0265261
1094.530 .0265232
1095.115 .0265207
1095.700 .0265186
1096.285 .0265166
1096.871 .0265146
1097.456 .0265126
1098.042 .0265103
1098.628 .0265077
1099.215 .0265050
1099.802 .0265024
1100.389 .0264998
1100.976 .0264973
1101.564 .0264951
1102.152 .0264932
1102.740 .0264916
1103.329 .0264902
1103.917 .0264893
1104.507 .0264887
1105.096 .0264886
1105.686 .0264891
1106.276 .0264904
1106.867 .0264927
1107.457 .0264959
1108.049 .0265002
1108.640 .0265055
1109.232 .0265117
1109.825 .0265186
1110.417 .0265263
1111.010 .0265348
1111.604 .0265439
1112.198 .0265538
1112.792 .0265647
1113.387 .0265768
1113.982 .0265901
1114.577 .0266046
1115.173 .0266206
1115.769 .0266378
1116.366 .0266563
1116.963 .0266756
1117.561 .0266959
1118.159 .0267170
1118.758 .0267388
1119.357 .0267614
1119.957 .0267849
1120.557 .0268093
1121.157 .0268348
1121.758 .0268613
1122.360 .0268886
1122.962 .0269167
1123.564 .0269451
1124.167 .0269590
1124.771 .0269875
1125.375 .0270161
1125.980 .0270450
1126.585 .0270744
1127.191 .0271045
1127.797 .0271360
1128.404 .0271692
1129.012 .0272044
1129.620 .0272418
1130.229 .0272813
1130.838 .0273230
1131.448 .0273666
1132.058 .0274123
1132.669 .0274779
1133.281 .0275283
1133.894 .0275809
1134.507 .0276361
1135.120 .0276949
1135.735 .0277549
1136.350 .0278149
1136.965 .0277825
1137.582 .0278686
1138.199 .0279542
1138.816 .0280383
1139.435 .0281202
1140.054 .0282008
1140.674 .0282803
1141.294 .0283583
1141.916 .0284381
1142.538 .0285283
1143.160 .0286482
1143.784 .0286999
1144.408 .0287232
1145.033 .0288616
