Measurement Sequence started on: 14-45-04-498
Integration time: 36
Scans to Average: 2 
>>>>>Begin Spectral Data<<<<<
433.946 .0605618
434.870 .0425841
435.793 .0390793
436.715 .0362997
437.635 .0378343
438.555 .0396694
439.473 .0389304
440.389 .0389140
441.305 .0390131
442.219 .0391369
443.132 .0390956
444.044 .0388837
444.954 .0388455
445.863 .0389437
446.771 .0389525
447.678 .0388576
448.584 .0387952
449.488 .0387283
450.391 .0386514
451.293 .0385639
452.194 .0384697
453.094 .0383711
453.992 .0382673
454.890 .0381590
455.786 .0380478
456.681 .0379351
457.575 .0378238
458.468 .0377162
459.360 .0376146
460.250 .0375211
461.140 .0374355
462.028 .0373579
462.915 .0372867
463.801 .0372199
464.687 .0371553
465.571 .0370920
466.454 .0370287
467.335 .0369651
468.216 .0369010
469.096 .0368364
469.975 .0367717
470.853 .0367072
471.729 .0366431
472.605 .0365793
473.479 .0365159
474.353 .0364526
475.226 .0363892
476.097 .0363258
476.968 .0362626
477.838 .0362007
478.706 .0361409
479.574 .0360840
480.441 .0360309
481.306 .0359825
482.171 .0359388
483.035 .0358998
483.898 .0358656
484.760 .0358357
485.621 .0358097
486.481 .0357873
487.340 .0357679
488.198 .0357510
489.055 .0357360
489.912 .0357219
490.767 .0357082
491.622 .0356839
492.476 .0356657
493.329 .0356458
494.180 .0356239
495.032 .0355999
495.882 .0355741
496.731 .0355466
497.580 .0355175
498.427 .0354863
499.274 .0354529
500.120 .0354299
500.965 .0353919
501.809 .0353508
502.653 .0353065
503.495 .0352593
504.337 .0352102
505.178 .0351605
506.018 .0351111
506.858 .0350628
507.696 .0350167
508.534 .0349738
509.371 .0349341
510.208 .0348981
511.043 .0348651
511.878 .0348343
512.712 .0348055
513.545 .0347783
514.377 .0347520
515.209 .0347268
516.040 .0347032
516.870 .0346819
517.699 .0346631
518.528 .0346476
519.356 .0346356
520.183 .0346268
521.010 .0346207
521.836 .0346154
522.661 .0346091
523.485 .0346004
524.309 .0345879
525.132 .0345709
525.954 .0345487
526.776 .0345214
527.597 .0344894
528.417 .0344534
529.237 .0344149
530.056 .0343741
530.874 .0343317
531.692 .0342882
532.508 .0342433
533.325 .0341966
534.140 .0341475
534.955 .0340958
535.770 .0340415
536.583 .0339844
537.397 .0339249
538.209 .0338632
539.021 .0338005
539.832 .0337380
540.643 .0336766
541.453 .0336171
542.262 .0335600
543.071 .0335049
543.879 .0334517
544.687 .0333999
545.494 .0333487
546.300 .0332974
547.106 .0332456
547.911 .0331930
548.716 .0331395
549.520 .0330855
550.323 .0330318
551.126 .0329790
551.929 .0329276
552.731 .0328777
553.532 .0328294
554.332 .0327823
555.133 .0327362
555.932 .0326910
556.731 .0326464
557.530 .0326022
558.328 .0325582
559.125 .0325144
559.922 .0324715
560.719 .0324294
561.515 .0323887
562.310 .0323498
563.105 .0323124
563.899 .0322765
564.693 .0322417
565.487 .0322078
566.280 .0321744
567.072 .0321408
567.864 .0321067
568.655 .0320713
569.446 .0320346
570.236 .0319964
571.026 .0319569
571.816 .0319164
572.605 .0318750
573.393 .0318330
574.181 .0317907
574.969 .0317482
575.756 .0317058
576.543 .0316636
577.329 .0316220
578.115 .0315809
578.900 .0315405
579.685 .0315012
580.469 .0314633
581.253 .0314272
582.036 .0313931
582.820 .0313611
583.602 .0313313
584.384 .0313036
585.166 .0312782
585.947 .0312550
586.728 .0312340
587.509 .0312151
588.289 .0311981
589.069 .0311829
589.848 .0311691
590.627 .0311566
591.405 .0311451
592.183 .0311344
592.961 .0311242
593.738 .0311142
594.515 .0311042
595.291 .0310941
596.067 .0310836
596.843 .0310727
597.618 .0310611
598.393 .0310417
599.167 .0310288
599.941 .0310154
600.715 .0310014
601.488 .0309868
602.261 .0309717
603.034 .0309560
603.806 .0309397
604.578 .0309226
605.349 .0309048
606.121 .0308864
606.891 .0308758
607.662 .0308567
608.432 .0308372
609.201 .0308175
609.971 .0307977
610.740 .0307778
611.508 .0307580
612.277 .0307382
613.045 .0307184
613.812 .0306985
614.579 .0306786
615.346 .0306584
616.113 .0306381
616.879 .0306174
617.645 .0305964
618.411 .0305752
619.176 .0305537
619.941 .0305320
620.705 .0305101
621.470 .0304882
622.233 .0304660
622.997 .0304436
623.760 .0304208
624.523 .0303977
625.286 .0303742
626.048 .0303502
626.810 .0303259
627.572 .0303014
628.333 .0302767
629.095 .0302521
629.855 .0302278
630.616 .0302038
631.376 .0301804
632.136 .0301576
632.895 .0301353
633.655 .0301137
634.414 .0300926
635.172 .0300723
635.931 .0300526
636.689 .0300338
637.447 .0300159
638.204 .0299988
638.962 .0299828
639.718 .0299678
640.475 .0299538
641.231 .0299408
641.988 .0299287
642.743 .0299173
643.499 .0299067
644.254 .0298966
645.009 .0298869
645.764 .0298776
646.518 .0298684
647.272 .0298593
648.026 .0298500
648.780 .0298405
649.533 .0298308
650.286 .0298206
651.039 .0298101
651.792 .0297991
652.544 .0297877
653.296 .0297758
654.048 .0297635
654.799 .0297506
655.550 .0297373
656.301 .0297234
657.052 .0297091
657.802 .0296944
658.552 .0296792
659.302 .0296638
660.052 .0296481
660.801 .0296322
661.550 .0296162
662.299 .0295999
663.048 .0295833
663.796 .0295664
664.544 .0295492
665.292 .0295317
666.040 .0295138
666.787 .0294955
667.534 .0294770
668.281 .0294583
669.028 .0294394
669.774 .0294204
670.521 .0294013
671.266 .0293821
672.012 .0293627
672.758 .0293433
673.503 .0293237
674.248 .0293041
674.992 .0292846
675.737 .0292650
676.481 .0292456
677.225 .0292262
677.969 .0292071
678.712 .0291883
679.455 .0291698
680.199 .0291517
680.941 .0291340
681.684 .0291168
682.426 .0291001
683.168 .0290839
683.910 .0290681
684.652 .0290527
685.393 .0290378
686.134 .0290233
686.875 .0290094
687.616 .0289960
688.356 .0289833
689.097 .0289713
689.837 .0289600
690.576 .0289493
691.316 .0289391
692.055 .0289294
692.794 .0289199
693.533 .0289105
694.272 .0289013
695.010 .0288922
695.748 .0288831
696.486 .0288740
697.224 .0288650
697.962 .0288560
698.699 .0288470
699.436 .0288379
700.173 .0288287
700.909 .0288195
701.646 .0288102
702.382 .0288009
703.118 .0287915
703.853 .0287821
704.589 .0287727
705.324 .0287632
706.059 .0287536
706.794 .0287439
707.529 .0287340
708.263 .0287240
708.997 .0287139
709.731 .0287040
710.465 .0286942
711.198 .0286845
711.931 .0286751
712.664 .0286659
713.397 .0286568
714.130 .0286478
714.862 .0286388
715.594 .0286297
716.326 .0286206
717.058 .0286113
717.789 .0286020
718.520 .0285926
719.251 .0285831
719.982 .0285733
720.713 .0285632
721.443 .0285526
722.173 .0285415
722.903 .0285297
723.633 .0285173
724.362 .0285043
725.091 .0284906
725.820 .0284763
726.549 .0284614
727.278 .0284459
728.006 .0284298
728.734 .0284132
729.462 .0283960
730.190 .0283784
730.917 .0283603
731.644 .0283421
732.371 .0283237
733.098 .0283054
733.825 .0282874
734.551 .0282698
735.277 .0282526
736.003 .0282360
736.728 .0282200
737.454 .0282047
738.179 .0281901
738.904 .0281762
739.629 .0281631
740.353 .0281508
741.077 .0281393
741.801 .0281285
742.525 .0281185
743.249 .0281092
743.972 .0281006
744.695 .0280925
745.418 .0280850
746.141 .0280778
746.863 .0280710
747.585 .0280643
748.307 .0280577
749.029 .0280512
749.750 .0280446
750.472 .0280378
751.193 .0280308
751.913 .0280236
752.634 .0280163
753.354 .0280087
754.074 .0280009
754.794 .0279931
755.514 .0279851
756.233 .0279770
756.952 .0279689
757.671 .0279608
758.390 .0279525
759.108 .0279442
759.826 .0279358
760.544 .0279273
761.262 .0279187
761.979 .0279102
762.697 .0279018
763.414 .0278937
764.130 .0278859
764.847 .0278784
765.563 .0278712
766.279 .0278644
766.995 .0278579
767.710 .0278517
768.426 .0278457
769.141 .0278399
769.855 .0278342
770.570 .0278288
771.284 .0278236
771.998 .0278187
772.712 .0278141
773.426 .0278096
774.139 .0278054
774.852 .0278013
775.565 .0277974
776.277 .0277936
776.990 .0277899
777.702 .0277862
778.414 .0277826
779.125 .0277790
779.836 .0277754
780.547 .0277717
781.258 .0277681
781.969 .0277643
782.679 .0277605
783.389 .0277541
784.099 .0277499
784.808 .0277456
785.517 .0277410
786.226 .0277362
786.935 .0277310
787.643 .0277256
788.352 .0277197
789.060 .0277135
789.767 .0277069
790.475 .0277000
791.182 .0276927
791.889 .0276883
792.595 .0276804
793.301 .0276724
794.008 .0276641
794.713 .0276556
795.419 .0276470
796.124 .0276381
796.829 .0276290
797.534 .0276196
798.238 .0276099
798.942 .0275997
799.646 .0275891
800.350 .0275780
801.053 .0275664
801.756 .0275544
802.459 .0275420
803.162 .0275291
803.864 .0275158
804.566 .0275021
805.267 .0274880
805.969 .0274735
806.670 .0274585
807.371 .0274432
808.071 .0274275
808.772 .0274116
809.472 .0273956
810.171 .0273793
810.871 .0273630
811.570 .0273465
812.269 .0273300
812.967 .0273134
813.666 .0272967
814.364 .0272800
815.061 .0272635
815.759 .0272471
816.456 .0272310
817.153 .0272154
817.849 .0272001
818.545 .0271854
819.241 .0271712
819.937 .0271574
820.632 .0271442
821.327 .0271315
822.022 .0271193
822.717 .0271078
823.411 .0270969
824.105 .0270868
824.798 .0270775
825.491 .0270690
826.184 .0270612
826.877 .0270541
827.569 .0270477
828.261 .0270417
828.953 .0270363
829.645 .0270312
830.336 .0270265
831.027 .0270221
831.717 .0270179
832.407 .0270139
833.097 .0270101
833.787 .0270064
834.476 .0270027
835.165 .0269992
835.854 .0269956
836.542 .0269921
837.230 .0269886
837.918 .0269851
838.605 .0269815
839.292 .0269779
839.979 .0269742
840.665 .0269704
841.352 .0269663
842.037 .0269621
842.723 .0269577
843.408 .0269531
844.093 .0269483
844.777 .0269434
845.462 .0269383
846.145 .0269331
846.829 .0269278
847.512 .0269223
848.195 .0269166
848.878 .0269108
849.560 .0269047
850.242 .0268984
850.923 .0268918
851.605 .0268851
852.286 .0268780
852.966 .0268708
853.646 .0268635
854.326 .0268560
855.006 .0268485
855.685 .0268408
856.364 .0268329
857.043 .0268250
857.721 .0268170
858.399 .0268088
859.077 .0268005
859.754 .0267921
860.431 .0267836
861.107 .0267751
861.784 .0267664
862.459 .0267577
863.135 .0267488
863.810 .0267397
864.485 .0267305
865.160 .0267211
865.834 .0267115
866.508 .0267018
867.181 .0266918
867.854 .0266816
868.527 .0266713
869.199 .0266606
869.872 .0266497
870.543 .0266386
871.215 .0266271
871.886 .0266153
872.557 .0266033
873.227 .0265910
873.897 .0265783
874.567 .0265654
875.236 .0265522
875.905 .0265387
876.573 .0265248
877.242 .0265107
877.909 .0264963
878.577 .0264815
879.244 .0264665
879.911 .0264512
880.577 .0264357
881.243 .0264199
881.909 .0264041
882.575 .0263882
883.240 .0263723
883.904 .0263565
884.569 .0263407
885.232 .0263251
885.896 .0263097
886.559 .0262945
887.222 .0262796
887.885 .0262648
888.547 .0262504
889.208 .0262363
889.870 .0262225
890.531 .0262090
891.192 .0261960
891.852 .0261832
892.512 .0261707
893.171 .0261585
893.830 .0261464
894.489 .0261346
895.148 .0261230
895.806 .0261116
896.464 .0261005
897.121 .0260896
897.778 .0260789
898.434 .0260685
899.091 .0260534
899.747 .0260433
900.402 .0260332
901.057 .0260232
901.712 .0260132
902.366 .0260032
903.020 .0259932
903.674 .0259831
904.327 .0259731
904.980 .0259629
905.633 .0259525
906.285 .0259420
906.936 .0259312
907.588 .0259254
908.239 .0259144
908.889 .0259033
909.540 .0258922
910.190 .0258811
910.839 .0258700
911.488 .0258591
912.137 .0258482
912.785 .0258376
913.433 .0258271
914.081 .0258168
914.728 .0258068
915.375 .0257970
916.021 .0257874
916.668 .0257782
917.313 .0257691
917.959 .0257603
918.604 .0257516
919.248 .0257431
919.892 .0257347
920.536 .0257264
921.180 .0257183
921.823 .0257105
922.465 .0257028
923.108 .0256954
923.750 .0256882
924.391 .0256811
925.032 .0256743
925.673 .0256675
926.313 .0256608
926.953 .0256542
927.593 .0256477
928.232 .0256413
928.871 .0256350
929.510 .0256288
930.148 .0256226
930.786 .0256165
931.423 .0256102
932.060 .0256038
932.697 .0255970
933.333 .0255900
933.969 .0255827
934.604 .0255751
935.239 .0255671
935.874 .0255589
936.508 .0255503
937.142 .0255415
937.776 .0255324
938.409 .0255229
939.042 .0255131
939.674 .0255029
940.306 .0254922
940.938 .0254811
941.569 .0254696
942.200 .0254578
942.830 .0254455
943.460 .0254329
944.090 .0254200
944.720 .0254067
945.349 .0253931
945.977 .0253793
946.606 .0253652
947.233 .0253508
947.861 .0253362
948.488 .0253214
949.115 .0253065
949.741 .0252917
950.367 .0252769
950.993 .0252623
951.618 .0252479
952.243 .0252338
952.868 .0252201
953.492 .0252068
954.115 .0251937
954.739 .0251810
955.362 .0251686
955.984 .0251564
956.607 .0251445
957.229 .0251329
957.850 .0251217
958.471 .0251109
959.092 .0251005
959.713 .0250905
960.333 .0250810
960.952 .0250718
961.572 .0250628
962.191 .0250539
962.809 .0250451
963.428 .0250363
964.045 .0250276
964.663 .0250191
965.280 .0250109
965.897 .0250031
966.513 .0249956
967.129 .0249885
967.745 .0249816
968.361 .0249749
968.976 .0249681
969.590 .0249612
970.205 .0249542
970.818 .0249470
971.432 .0249395
972.045 .0249320
972.658 .0249243
973.271 .0249166
973.883 .0249087
974.495 .0249006
975.106 .0248923
975.717 .0248838
976.328 .0248749
976.938 .0248657
977.548 .0248562
978.158 .0248463
978.768 .0248294
979.377 .0248186
979.985 .0248077
980.594 .0247965
981.202 .0247852
981.809 .0247738
982.417 .0247623
983.024 .0247506
983.631 .0247389
984.237 .0247270
984.843 .0247149
985.449 .0247028
986.054 .0246906
986.659 .0246783
987.264 .0246728
987.868 .0246607
988.472 .0246488
989.076 .0246372
989.679 .0246258
990.282 .0246147
990.885 .0246039
991.487 .0245933
992.090 .0245829
992.691 .0245727
993.293 .0245627
993.894 .0245530
994.495 .0245435
995.095 .0245344
995.696 .0245256
996.296 .0245173
996.895 .0245093
997.494 .0245018
998.093 .0244947
998.692 .0244878
999.291 .0244811
999.889 .0244745
1000.487 .0244680
1001.084 .0244614
1001.681 .0244549
1002.278 .0244484
1002.875 .0244419
1003.471 .0244355
1004.067 .0244292
1004.663 .0244229
1005.258 .0244167
1005.854 .0244105
1006.449 .0244044
1007.043 .0243982
1007.638 .0243921
1008.232 .0243859
1008.826 .0243797
1009.419 .0243737
1010.012 .0243679
1010.605 .0243622
1011.198 .0243569
1011.791 .0243518
1012.383 .0243471
1012.975 .0243428
1013.566 .0243389
1014.158 .0243353
1014.749 .0243320
1015.340 .0243289
1015.931 .0243260
1016.521 .0243232
1017.111 .0243206
1017.701 .0243182
1018.291 .0243159
1018.880 .0243139
1019.470 .0243122
1020.059 .0243109
1020.647 .0243100
1021.236 .0243096
1021.824 .0243095
1022.412 .0243097
1023.000 .0243101
1023.588 .0243107
1024.175 .0243116
1024.762 .0243126
1025.349 .0243138
1025.936 .0243153
1026.523 .0243172
1027.109 .0243195
1027.695 .0243221
1028.281 .0243252
1028.867 .0243285
1029.452 .0243321
1030.038 .0243359
1030.623 .0243398
1031.208 .0243439
1031.792 .0243483
1032.377 .0243530
1032.961 .0243580
1033.546 .0243633
1034.130 .0243690
1034.714 .0243750
1035.297 .0243812
1035.881 .0243875
1036.464 .0243938
1037.047 .0244001
1037.630 .0244064
1038.213 .0244126
1038.796 .0244188
1039.378 .0244250
1039.961 .0244313
1040.543 .0244376
1041.125 .0244439
1041.707 .0244500
1042.289 .0244560
1042.871 .0244617
1043.452 .0244671
1044.034 .0244723
1044.615 .0244773
1045.196 .0244821
1045.777 .0244869
1046.358 .0244915
1046.939 .0244961
1047.520 .0245005
1048.101 .0245046
1048.681 .0245083
1049.262 .0245114
1049.842 .0245141
1050.422 .0245162
1051.002 .0245178
1051.582 .0245191
1052.162 .0245202
1052.742 .0245213
1053.322 .0245223
1053.902 .0245235
1054.482 .0245247
1055.061 .0245259
1055.641 .0245272
1056.220 .0245285
1056.800 .0245299
1057.379 .0245314
1057.958 .0245332
1058.538 .0245352
1059.117 .0245375
1059.696 .0245401
1060.275 .0245429
1060.854 .0245461
1061.433 .0245493
1062.012 .0245526
1062.592 .0245560
1063.171 .0245594
1063.750 .0245629
1064.329 .0245663
1064.908 .0245698
1065.487 .0245734
1066.066 .0245771
1066.645 .0245810
1067.224 .0245851
1067.803 .0245895
1068.382 .0245941
1068.961 .0245990
1069.540 .0246040
1070.119 .0246091
1070.698 .0246144
1071.278 .0246196
1071.857 .0246247
1072.436 .0246297
1073.016 .0246345
1073.595 .0246391
1074.175 .0246434
1074.754 .0246476
1075.334 .0246515
1075.913 .0246551
1076.493 .0246582
1077.073 .0246610
1077.653 .0246631
1078.233 .0246646
1078.813 .0246654
1079.393 .0246656
1079.974 .0246652
1080.554 .0246645
1081.135 .0246635
1081.716 .0246624
1082.296 .0246611
1082.877 .0246594
1083.458 .0246574
1084.040 .0246548
1084.621 .0246515
1085.202 .0246473
1085.784 .0246423
1086.366 .0246364
1086.948 .0246298
1087.530 .0246225
1088.112 .0246146
1088.695 .0246063
1089.277 .0245975
1089.860 .0245883
1090.443 .0245786
1091.026 .0245683
1091.610 .0245575
1092.193 .0245462
1092.777 .0245344
1093.361 .0245224
1093.946 .0245102
1094.530 .0244980
1095.115 .0244861
1095.700 .0244744
1096.285 .0244630
1096.871 .0244519
1097.456 .0244410
1098.042 .0244301
1098.628 .0244192
1099.215 .0244082
1099.802 .0243972
1100.389 .0243861
1100.976 .0243751
1101.564 .0243642
1102.152 .0243536
1102.740 .0243433
1103.329 .0243334
1103.917 .0243242
1104.507 .0243156
1105.096 .0243077
1105.686 .0243008
1106.276 .0242949
1106.867 .0242902
1107.457 .0242867
1108.049 .0242845
1108.640 .0242836
1109.232 .0242841
1109.825 .0242861
1110.417 .0242893
1111.010 .0242938
1111.604 .0242995
1112.198 .0243062
1112.792 .0243138
1113.387 .0243220
1113.982 .0243307
1114.577 .0243396
1115.173 .0243484
1115.769 .0243571
1116.366 .0243656
1116.963 .0243738
1117.561 .0243819
1118.159 .0243897
1118.758 .0243978
1119.357 .0244062
1119.957 .0244153
1120.557 .0244254
1121.157 .0244369
1121.758 .0244500
1122.360 .0244647
1122.962 .0244810
1123.564 .0244987
1124.167 .0245062
1124.771 .0245248
1125.375 .0245446
1125.980 .0245652
1126.585 .0245865
1127.191 .0246087
1127.797 .0246320
1128.404 .0246565
1129.012 .0246823
1129.620 .0247095
1130.229 .0247380
1130.838 .0247672
1131.448 .0247970
1132.058 .0248272
1132.669 .0248697
1133.281 .0249032
1133.894 .0249387
1134.507 .0249695
1135.120 .0250124
1135.735 .0250538
1136.350 .0251072
1136.965 .0251953
1137.582 .0252560
1138.199 .0253120
1138.816 .0253501
1139.435 .0253774
1140.054 .0253973
1140.674 .0254106
1141.294 .0254360
1141.916 .0254731
1142.538 .0253298
1143.160 .0256443
1143.784 .0255959
1144.408 .0259217
1145.033 .0259607
