Measurement Sequence started on: 14-45-04-498
Integration time: 36
Scans to Average: 2 
>>>>>Begin Spectral Data<<<<<
433.946 .0300567
434.870 .0516429
435.793 .0494005
436.715 .0482182
437.635 .0468305
438.555 .0455574
439.473 .0455007
440.389 .0447859
441.305 .0442346
442.219 .0437848
443.132 .0444011
444.044 .0438697
444.954 .0434523
445.863 .0430935
446.771 .0428046
447.678 .0425797
448.584 .0423545
449.488 .0421642
450.391 .0420001
451.293 .0418573
452.194 .0417314
453.094 .0416189
453.992 .0415192
454.890 .0414300
455.786 .0413496
456.681 .0412771
457.575 .0412103
458.468 .0411472
459.360 .0410869
460.250 .0410284
461.140 .0409709
462.028 .0409141
462.915 .0408576
463.801 .0408006
464.687 .0407432
465.571 .0406852
466.454 .0406258
467.335 .0405651
468.216 .0405026
469.096 .0404384
469.975 .0403727
470.853 .0403060
471.729 .0402385
472.605 .0401712
473.479 .0401046
474.353 .0400393
475.226 .0399753
476.097 .0399129
476.968 .0398521
477.838 .0397931
478.706 .0397353
479.574 .0396793
480.441 .0396254
481.306 .0395740
482.171 .0395254
483.035 .0394802
483.898 .0394384
484.760 .0393997
485.621 .0393638
486.481 .0393302
487.340 .0392983
488.198 .0392679
489.055 .0392387
489.912 .0392105
490.767 .0391836
491.622 .0391470
492.476 .0391225
493.329 .0390987
494.180 .0390750
495.032 .0390514
495.882 .0390276
496.731 .0390033
497.580 .0389784
498.427 .0389529
499.274 .0389264
500.120 .0389116
500.965 .0388830
501.809 .0388524
502.653 .0388195
503.495 .0387845
504.337 .0387476
505.178 .0387093
506.018 .0386706
506.858 .0386318
507.696 .0385933
508.534 .0385558
509.371 .0385195
510.208 .0384845
511.043 .0384505
511.878 .0384177
512.712 .0383859
513.545 .0383551
514.377 .0383253
515.209 .0382967
516.040 .0382692
516.870 .0382427
517.699 .0382166
518.528 .0381904
519.356 .0381632
520.183 .0381341
521.010 .0381019
521.836 .0380657
522.661 .0380248
523.485 .0379781
524.309 .0379256
525.132 .0378673
525.954 .0378032
526.776 .0377339
527.597 .0376599
528.417 .0375819
529.237 .0375005
530.056 .0374163
530.874 .0373291
531.692 .0372393
532.508 .0371470
533.325 .0370526
534.140 .0369568
534.955 .0368606
535.770 .0367649
536.583 .0366709
537.397 .0365804
538.209 .0364945
539.021 .0364138
539.832 .0363391
540.643 .0362708
541.453 .0362086
542.262 .0361522
543.071 .0361011
543.879 .0360551
544.687 .0360142
545.494 .0359782
546.300 .0359465
547.106 .0359186
547.911 .0358947
548.716 .0358742
549.520 .0358565
550.323 .0358410
551.126 .0358267
551.929 .0358135
552.731 .0358011
553.532 .0357895
554.332 .0357783
555.133 .0357676
555.932 .0357573
556.731 .0357470
557.530 .0357362
558.328 .0357245
559.125 .0357117
559.922 .0356975
560.719 .0356819
561.515 .0356645
562.310 .0356456
563.105 .0356252
563.899 .0356036
564.693 .0355806
565.487 .0355562
566.280 .0355306
567.072 .0355040
567.864 .0354768
568.655 .0354490
569.446 .0354208
570.236 .0353923
571.026 .0353638
571.816 .0353349
572.605 .0353056
573.393 .0352756
574.181 .0352450
574.969 .0352135
575.756 .0351810
576.543 .0351477
577.329 .0351135
578.115 .0350788
578.900 .0350433
579.685 .0350074
580.469 .0349710
581.253 .0349344
582.036 .0348977
582.820 .0348607
583.602 .0348235
584.384 .0347859
585.166 .0347480
585.947 .0347098
586.728 .0346714
587.509 .0346330
588.289 .0345950
589.069 .0345574
589.848 .0345204
590.627 .0344842
591.405 .0344490
592.183 .0344147
592.961 .0343811
593.738 .0343482
594.515 .0343157
595.291 .0342835
596.067 .0342517
596.843 .0342203
597.618 .0341893
598.393 .0341458
599.167 .0341169
599.941 .0340889
600.715 .0340618
601.488 .0340357
602.261 .0340106
603.034 .0339863
603.806 .0339627
604.578 .0339397
605.349 .0339173
606.121 .0338953
606.891 .0338853
607.662 .0338639
608.432 .0338430
609.201 .0338225
609.971 .0338026
610.740 .0337832
611.508 .0337643
612.277 .0337458
613.045 .0337274
613.812 .0337091
614.579 .0336906
615.346 .0336719
616.113 .0336528
616.879 .0336334
617.645 .0336136
618.411 .0335936
619.176 .0335734
619.941 .0335531
620.705 .0335330
621.470 .0335129
622.233 .0334929
622.997 .0334730
623.760 .0334530
624.523 .0334328
625.286 .0334124
626.048 .0333919
626.810 .0333711
627.572 .0333501
628.333 .0333289
629.095 .0333076
629.855 .0332862
630.616 .0332646
631.376 .0332429
632.136 .0332210
632.895 .0331987
633.655 .0331760
634.414 .0331527
635.172 .0331287
635.931 .0331039
636.689 .0330784
637.447 .0330520
638.204 .0330248
638.962 .0329968
639.718 .0329684
640.475 .0329394
641.231 .0329100
641.988 .0328804
642.743 .0328506
643.499 .0328207
644.254 .0327908
645.009 .0327609
645.764 .0327312
646.518 .0327017
647.272 .0326726
648.026 .0326441
648.780 .0326164
649.533 .0325895
650.286 .0325638
651.039 .0325392
651.792 .0325159
652.544 .0324940
653.296 .0324736
654.048 .0324546
654.799 .0324370
655.550 .0324209
656.301 .0324061
657.052 .0323925
657.802 .0323800
658.552 .0323685
659.302 .0323577
660.052 .0323476
660.801 .0323380
661.550 .0323287
662.299 .0323196
663.048 .0323106
663.796 .0323017
664.544 .0322928
665.292 .0322837
666.040 .0322743
666.787 .0322647
667.534 .0322546
668.281 .0322440
669.028 .0322330
669.774 .0322214
670.521 .0322093
671.266 .0321968
672.012 .0321837
672.758 .0321702
673.503 .0321562
674.248 .0321419
674.992 .0321274
675.737 .0321128
676.481 .0320982
677.225 .0320837
677.969 .0320694
678.712 .0320553
679.455 .0320414
680.199 .0320277
680.941 .0320141
681.684 .0320006
682.426 .0319871
683.168 .0319736
683.910 .0319601
684.652 .0319466
685.393 .0319333
686.134 .0319200
686.875 .0319067
687.616 .0318934
688.356 .0318798
689.097 .0318661
689.837 .0318520
690.576 .0318375
691.316 .0318224
692.055 .0318069
692.794 .0317908
693.533 .0317741
694.272 .0317568
695.010 .0317390
695.748 .0317206
696.486 .0317017
697.224 .0316822
697.962 .0316622
698.699 .0316417
699.436 .0316210
700.173 .0316001
700.909 .0315791
701.646 .0315580
702.382 .0315369
703.118 .0315159
703.853 .0314950
704.589 .0314743
705.324 .0314538
706.059 .0314338
706.794 .0314141
707.529 .0313949
708.263 .0313763
708.997 .0313583
709.731 .0313409
710.465 .0313243
711.198 .0313082
711.931 .0312928
712.664 .0312779
713.397 .0312634
714.130 .0312494
714.862 .0312357
715.594 .0312223
716.326 .0312091
717.058 .0311961
717.789 .0311833
718.520 .0311707
719.251 .0311583
719.982 .0311462
720.713 .0311343
721.443 .0311226
722.173 .0311110
722.903 .0310997
723.633 .0310887
724.362 .0310778
725.091 .0310673
725.820 .0310571
726.549 .0310473
727.278 .0310378
728.006 .0310287
728.734 .0310201
729.462 .0310120
730.190 .0310044
730.917 .0309973
731.644 .0309907
732.371 .0309848
733.098 .0309794
733.825 .0309745
734.551 .0309702
735.277 .0309663
736.003 .0309626
736.728 .0309592
737.454 .0309559
738.179 .0309527
738.904 .0309494
739.629 .0309460
740.353 .0309425
741.077 .0309387
741.801 .0309347
742.525 .0309302
743.249 .0309254
743.972 .0309199
744.695 .0309139
745.418 .0309072
746.141 .0308997
746.863 .0308916
747.585 .0308827
748.307 .0308730
749.029 .0308626
749.750 .0308516
750.472 .0308399
751.193 .0308277
751.913 .0308150
752.634 .0308018
753.354 .0307884
754.074 .0307748
754.794 .0307609
755.514 .0307470
756.233 .0307329
756.952 .0307187
757.671 .0307045
758.390 .0306901
759.108 .0306756
759.826 .0306610
760.544 .0306462
761.262 .0306313
761.979 .0306162
762.697 .0306009
763.414 .0305854
764.130 .0305698
764.847 .0305539
765.563 .0305379
766.279 .0305217
766.995 .0305053
767.710 .0304886
768.426 .0304718
769.141 .0304547
769.855 .0304375
770.570 .0304201
771.284 .0304026
771.998 .0303852
772.712 .0303679
773.426 .0303508
774.139 .0303341
774.852 .0303179
775.565 .0303021
776.277 .0302870
776.990 .0302726
777.702 .0302588
778.414 .0302458
779.125 .0302334
779.836 .0302219
780.547 .0302110
781.258 .0302010
781.969 .0301917
782.679 .0301832
783.389 .0301730
784.099 .0301661
784.808 .0301597
785.517 .0301539
786.226 .0301486
786.935 .0301436
787.643 .0301389
788.352 .0301345
789.060 .0301302
789.767 .0301260
790.475 .0301219
791.182 .0301178
791.889 .0301155
792.595 .0301114
793.301 .0301073
794.008 .0301033
794.713 .0300993
795.419 .0300955
796.124 .0300918
796.829 .0300882
797.534 .0300849
798.238 .0300817
798.942 .0300787
799.646 .0300759
800.350 .0300733
801.053 .0300709
801.756 .0300686
802.459 .0300665
803.162 .0300646
803.864 .0300628
804.566 .0300611
805.267 .0300595
805.969 .0300579
806.670 .0300564
807.371 .0300550
808.071 .0300535
808.772 .0300521
809.472 .0300506
810.171 .0300490
810.871 .0300471
811.570 .0300450
812.269 .0300424
812.967 .0300393
813.666 .0300356
814.364 .0300313
815.061 .0300263
815.759 .0300208
816.456 .0300147
817.153 .0300081
817.849 .0300009
818.545 .0299932
819.241 .0299848
819.937 .0299757
820.632 .0299660
821.327 .0299556
822.022 .0299445
822.717 .0299329
823.411 .0299207
824.105 .0299081
824.798 .0298952
825.491 .0298819
826.184 .0298684
826.877 .0298547
827.569 .0298406
828.261 .0298263
828.953 .0298117
829.645 .0297969
830.336 .0297819
831.027 .0297667
831.717 .0297514
832.407 .0297360
833.097 .0297204
833.787 .0297047
834.476 .0296888
835.165 .0296726
835.854 .0296562
836.542 .0296396
837.230 .0296227
837.918 .0296057
838.605 .0295885
839.292 .0295711
839.979 .0295535
840.665 .0295355
841.352 .0295172
842.037 .0294983
842.723 .0294790
843.408 .0294592
844.093 .0294390
844.777 .0294183
845.462 .0293972
846.145 .0293759
846.829 .0293545
847.512 .0293329
848.195 .0293114
848.878 .0292898
849.560 .0292682
850.242 .0292466
850.923 .0292251
851.605 .0292036
852.286 .0291821
852.966 .0291607
853.646 .0291393
854.326 .0291181
855.006 .0290971
855.685 .0290765
856.364 .0290562
857.043 .0290364
857.721 .0290171
858.399 .0289983
859.077 .0289800
859.754 .0289622
860.431 .0289449
861.107 .0289282
861.784 .0289120
862.459 .0288965
863.135 .0288817
863.810 .0288675
864.485 .0288540
865.160 .0288412
865.834 .0288291
866.508 .0288175
867.181 .0288064
867.854 .0287958
868.527 .0287857
869.199 .0287761
869.872 .0287671
870.543 .0287586
871.215 .0287506
871.886 .0287430
872.557 .0287357
873.227 .0287287
873.897 .0287219
874.567 .0287152
875.236 .0287085
875.905 .0287020
876.573 .0286956
877.242 .0286893
877.909 .0286830
878.577 .0286769
879.244 .0286708
879.911 .0286646
880.577 .0286583
881.243 .0286518
881.909 .0286453
882.575 .0286387
883.240 .0286322
883.904 .0286258
884.569 .0286198
885.232 .0286141
885.896 .0286089
886.559 .0286043
887.222 .0286002
887.885 .0285968
888.547 .0285939
889.208 .0285917
889.870 .0285902
890.531 .0285895
891.192 .0285895
891.852 .0285904
892.512 .0285922
893.171 .0285948
893.830 .0285981
894.489 .0286020
895.148 .0286065
895.806 .0286114
896.464 .0286166
897.121 .0286221
897.778 .0286278
898.434 .0286337
899.091 .0286420
899.747 .0286477
900.402 .0286532
901.057 .0286585
901.712 .0286633
902.366 .0286675
903.020 .0286709
903.674 .0286733
904.327 .0286747
904.980 .0286750
905.633 .0286742
906.285 .0286724
906.936 .0286693
907.588 .0286645
908.239 .0286597
908.889 .0286538
909.540 .0286467
910.190 .0286384
910.839 .0286289
911.488 .0286183
912.137 .0286067
912.785 .0285942
913.433 .0285809
914.081 .0285668
914.728 .0285520
915.375 .0285366
916.021 .0285205
916.668 .0285037
917.313 .0284863
917.959 .0284683
918.604 .0284496
919.248 .0284306
919.892 .0284110
920.536 .0283912
921.180 .0283711
921.823 .0283509
922.465 .0283305
923.108 .0283100
923.750 .0282895
924.391 .0282689
925.032 .0282482
925.673 .0282276
926.313 .0282069
926.953 .0281863
927.593 .0281657
928.232 .0281452
928.871 .0281246
929.510 .0281039
930.148 .0280832
930.786 .0280622
931.423 .0280409
932.060 .0280192
932.697 .0279971
933.333 .0279745
933.969 .0279515
934.604 .0279279
935.239 .0279038
935.874 .0278792
936.508 .0278541
937.142 .0278285
937.776 .0278024
938.409 .0277759
939.042 .0277489
939.674 .0277216
940.306 .0276940
940.938 .0276662
941.569 .0276382
942.200 .0276101
942.830 .0275818
943.460 .0275536
944.090 .0275252
944.720 .0274968
945.349 .0274683
945.977 .0274398
946.606 .0274114
947.233 .0273830
947.861 .0273548
948.488 .0273269
949.115 .0272993
949.741 .0272722
950.367 .0272456
950.993 .0272195
951.618 .0271939
952.243 .0271690
952.868 .0271446
953.492 .0271209
954.115 .0270978
954.739 .0270755
955.362 .0270539
955.984 .0270331
956.607 .0270130
957.229 .0269937
957.850 .0269750
958.471 .0269570
959.092 .0269395
959.713 .0269227
960.333 .0269063
960.952 .0268905
961.572 .0268751
962.191 .0268604
962.809 .0268461
963.428 .0268325
964.045 .0268194
964.663 .0268070
965.280 .0267951
965.897 .0267839
966.513 .0267733
967.129 .0267633
967.745 .0267538
968.361 .0267449
968.976 .0267366
969.590 .0267288
970.205 .0267215
970.818 .0267148
971.432 .0267085
972.045 .0267026
972.658 .0266971
973.271 .0266918
973.883 .0266869
974.495 .0266821
975.106 .0266775
975.717 .0266730
976.328 .0266687
976.938 .0266646
977.548 .0266606
978.158 .0266568
978.768 .0266516
979.377 .0266481
979.985 .0266449
980.594 .0266418
981.202 .0266388
981.809 .0266361
982.417 .0266335
983.024 .0266311
983.631 .0266289
984.237 .0266269
984.843 .0266250
985.449 .0266234
986.054 .0266220
986.659 .0266208
987.264 .0266210
987.868 .0266203
988.472 .0266200
989.076 .0266200
989.679 .0266204
990.282 .0266211
990.885 .0266221
991.487 .0266234
992.090 .0266250
992.691 .0266268
993.293 .0266289
993.894 .0266312
994.495 .0266338
995.095 .0266366
995.696 .0266397
996.296 .0266432
996.895 .0266469
997.494 .0266510
998.093 .0266553
998.692 .0266599
999.291 .0266646
999.889 .0266694
1000.487 .0266743
1001.084 .0266793
1001.681 .0266844
1002.278 .0266897
1002.875 .0266951
1003.471 .0267006
1004.067 .0267063
1004.663 .0267120
1005.258 .0267178
1005.854 .0267235
1006.449 .0267290
1007.043 .0267344
1007.638 .0267397
1008.232 .0267449
1008.826 .0267501
1009.419 .0267553
1010.012 .0267607
1010.605 .0267663
1011.198 .0267720
1011.791 .0267778
1012.383 .0267838
1012.975 .0267898
1013.566 .0267958
1014.158 .0268019
1014.749 .0268081
1015.340 .0268143
1015.931 .0268206
1016.521 .0268270
1017.111 .0268335
1017.701 .0268400
1018.291 .0268464
1018.880 .0268526
1019.470 .0268585
1020.059 .0268640
1020.647 .0268692
1021.236 .0268739
1021.824 .0268783
1022.412 .0268822
1023.000 .0268858
1023.588 .0268890
1024.175 .0268919
1024.762 .0268945
1025.349 .0268969
1025.936 .0268989
1026.523 .0269005
1027.109 .0269018
1027.695 .0269027
1028.281 .0269032
1028.867 .0269031
1029.452 .0269026
1030.038 .0269017
1030.623 .0269003
1031.208 .0268985
1031.792 .0268963
1032.377 .0268937
1032.961 .0268908
1033.546 .0268874
1034.130 .0268835
1034.714 .0268792
1035.297 .0268742
1035.881 .0268686
1036.464 .0268625
1037.047 .0268558
1037.630 .0268487
1038.213 .0268412
1038.796 .0268334
1039.378 .0268253
1039.961 .0268169
1040.543 .0268081
1041.125 .0267990
1041.707 .0267893
1042.289 .0267791
1042.871 .0267683
1043.452 .0267570
1044.034 .0267451
1044.615 .0267328
1045.196 .0267201
1045.777 .0267072
1046.358 .0266940
1046.939 .0266806
1047.520 .0266669
1048.101 .0266530
1048.681 .0266388
1049.262 .0266244
1049.842 .0266096
1050.422 .0265947
1051.002 .0265797
1051.582 .0265648
1052.162 .0265500
1052.742 .0265355
1053.322 .0265214
1053.902 .0265077
1054.482 .0264943
1055.061 .0264813
1055.641 .0264687
1056.220 .0264563
1056.800 .0264443
1057.379 .0264325
1057.958 .0264209
1058.538 .0264095
1059.117 .0263984
1059.696 .0263875
1060.275 .0263769
1060.854 .0263665
1061.433 .0263561
1062.012 .0263457
1062.592 .0263352
1063.171 .0263243
1063.750 .0263129
1064.329 .0263012
1064.908 .0262888
1065.487 .0262760
1066.066 .0262627
1066.645 .0262491
1067.224 .0262353
1067.803 .0262213
1068.382 .0262074
1068.961 .0261933
1069.540 .0261792
1070.119 .0261650
1070.698 .0261508
1071.278 .0261366
1071.857 .0261225
1072.436 .0261086
1073.016 .0260953
1073.595 .0260825
1074.175 .0260704
1074.754 .0260590
1075.334 .0260482
1075.913 .0260381
1076.493 .0260283
1077.073 .0260188
1077.653 .0260095
1078.233 .0260004
1078.813 .0259915
1079.393 .0259829
1079.974 .0259747
1080.554 .0259671
1081.135 .0259602
1081.716 .0259538
1082.296 .0259482
1082.877 .0259431
1083.458 .0259384
1084.040 .0259340
1084.621 .0259298
1085.202 .0259257
1085.784 .0259218
1086.366 .0259180
1086.948 .0259146
1087.530 .0259116
1088.112 .0259092
1088.695 .0259071
1089.277 .0259056
1089.860 .0259042
1090.443 .0259031
1091.026 .0259020
1091.610 .0259010
1092.193 .0259000
1092.777 .0258991
1093.361 .0258984
1093.946 .0258979
1094.530 .0258977
1095.115 .0258979
1095.700 .0258984
1096.285 .0258991
1096.871 .0258997
1097.456 .0259003
1098.042 .0259007
1098.628 .0259008
1099.215 .0259009
1099.802 .0259010
1100.389 .0259015
1100.976 .0259025
1101.564 .0259041
1102.152 .0259065
1102.740 .0259097
1103.329 .0259135
1103.917 .0259178
1104.507 .0259225
1105.096 .0259277
1105.686 .0259333
1106.276 .0259395
1106.867 .0259465
1107.457 .0259543
1108.049 .0259630
1108.640 .0259726
1109.232 .0259830
1109.825 .0259941
1110.417 .0260056
1111.010 .0260173
1111.604 .0260290
1112.198 .0260408
1112.792 .0260526
1113.387 .0260646
1113.982 .0260770
1114.577 .0260899
1115.173 .0261034
1115.769 .0261176
1116.366 .0261324
1116.963 .0261476
1117.561 .0261631
1118.159 .0261785
1118.758 .0261937
1119.357 .0262088
1119.957 .0262238
1120.557 .0262390
1121.157 .0262546
1121.758 .0262708
1122.360 .0262879
1122.962 .0263059
1123.564 .0263250
1124.167 .0263331
1124.771 .0263522
1125.375 .0263721
1125.980 .0263926
1126.585 .0264137
1127.191 .0264354
1127.797 .0264577
1128.404 .0264807
1129.012 .0265050
1129.620 .0265307
1130.229 .0265581
1130.838 .0265874
1131.448 .0266183
1132.058 .0266503
1132.669 .0266971
1133.281 .0267325
1133.894 .0267697
1134.507 .0268005
1135.120 .0268294
1135.735 .0268697
1136.350 .0269280
1136.965 .0269770
1137.582 .0270198
1138.199 .0270678
1138.816 .0271161
1139.435 .0271636
1140.054 .0272008
1140.674 .0272327
1141.294 .0272747
1141.916 .0273310
1142.538 .0271663
1143.160 .0271227
1143.784 .0274330
1144.408 .0279309
1145.033 .0281522
