Measurement Sequence started on: 14-45-04-498
Integration time: 36
Scans to Average: 2 
>>>>>Begin Spectral Data<<<<<
433.946 .0432396
434.870 .0414169
435.793 .0400420
436.715 .0387300
437.635 .0388051
438.555 .0396435
439.473 .0394861
440.389 .0394308
441.305 .0394160
442.219 .0394047
443.132 .0393875
444.044 .0392596
444.954 .0391992
445.863 .0392028
446.771 .0391972
447.678 .0391428
448.584 .0390926
449.488 .0390420
450.391 .0389888
451.293 .0389330
452.194 .0388758
453.094 .0388186
453.992 .0387607
454.890 .0387011
455.786 .0386383
456.681 .0385716
457.575 .0385004
458.468 .0384252
459.360 .0383465
460.250 .0382660
461.140 .0381844
462.028 .0381036
462.915 .0380241
463.801 .0379467
464.687 .0378712
465.571 .0377973
466.454 .0377244
467.335 .0376523
468.216 .0375806
469.096 .0375091
469.975 .0374379
470.853 .0373675
471.729 .0372986
472.605 .0372321
473.479 .0371692
474.353 .0371107
475.226 .0370570
476.097 .0370086
476.968 .0369649
477.838 .0369258
478.706 .0368899
479.574 .0368567
480.441 .0368253
481.306 .0367954
482.171 .0367665
483.035 .0367387
483.898 .0367121
484.760 .0366869
485.621 .0366629
486.481 .0366400
487.340 .0366175
488.198 .0365951
489.055 .0365717
489.912 .0365469
490.767 .0365204
491.622 .0364739
492.476 .0364436
493.329 .0364118
494.180 .0363782
495.032 .0363432
495.882 .0363068
496.731 .0362688
497.580 .0362295
498.427 .0361890
499.274 .0361475
500.120 .0361256
500.965 .0360842
501.809 .0360430
502.653 .0360025
503.495 .0359625
504.337 .0359230
505.178 .0358837
506.018 .0358446
506.858 .0358052
507.696 .0357651
508.534 .0357245
509.371 .0356836
510.208 .0356427
511.043 .0356022
511.878 .0355630
512.712 .0355256
513.545 .0354898
514.377 .0354556
515.209 .0354223
516.040 .0353895
516.870 .0353561
517.699 .0353215
518.528 .0352851
519.356 .0352466
520.183 .0352060
521.010 .0351636
521.836 .0351199
522.661 .0350757
523.485 .0350315
524.309 .0349875
525.132 .0349438
525.954 .0349000
526.776 .0348557
527.597 .0348105
528.417 .0347641
529.237 .0347162
530.056 .0346667
530.874 .0346158
531.692 .0345640
532.508 .0345120
533.325 .0344604
534.140 .0344100
534.955 .0343612
535.770 .0343143
536.583 .0342691
537.397 .0342257
538.209 .0341838
539.021 .0341433
539.832 .0341037
540.643 .0340651
541.453 .0340276
542.262 .0339909
543.071 .0339555
543.879 .0339215
544.687 .0338890
545.494 .0338575
546.300 .0338269
547.106 .0337969
547.911 .0337672
548.716 .0337374
549.520 .0337076
550.323 .0336774
551.126 .0336467
551.929 .0336153
552.731 .0335832
553.532 .0335504
554.332 .0335166
555.133 .0334818
555.932 .0334461
556.731 .0334091
557.530 .0333707
558.328 .0333309
559.125 .0332897
559.922 .0332473
560.719 .0332037
561.515 .0331591
562.310 .0331137
563.105 .0330679
563.899 .0330217
564.693 .0329751
565.487 .0329284
566.280 .0328815
567.072 .0328344
567.864 .0327873
568.655 .0327403
569.446 .0326938
570.236 .0326482
571.026 .0326038
571.816 .0325608
572.605 .0325194
573.393 .0324798
574.181 .0324420
574.969 .0324060
575.756 .0323714
576.543 .0323380
577.329 .0323056
578.115 .0322738
578.900 .0322426
579.685 .0322120
580.469 .0321821
581.253 .0321531
582.036 .0321248
582.820 .0320974
583.602 .0320707
584.384 .0320444
585.166 .0320184
585.947 .0319922
586.728 .0319657
587.509 .0319388
588.289 .0319112
589.069 .0318831
589.848 .0318543
590.627 .0318249
591.405 .0317951
592.183 .0317650
592.961 .0317347
593.738 .0317042
594.515 .0316737
595.291 .0316431
596.067 .0316126
596.843 .0315821
597.618 .0315517
598.393 .0315071
599.167 .0314774
599.941 .0314480
600.715 .0314191
601.488 .0313907
602.261 .0313630
603.034 .0313358
603.806 .0313091
604.578 .0312828
605.349 .0312570
606.121 .0312316
606.891 .0312197
607.662 .0311947
608.432 .0311700
609.201 .0311458
609.971 .0311219
610.740 .0310985
611.508 .0310754
612.277 .0310526
613.045 .0310300
613.812 .0310078
614.579 .0309858
615.346 .0309641
616.113 .0309426
616.879 .0309215
617.645 .0309006
618.411 .0308800
619.176 .0308597
619.941 .0308396
620.705 .0308197
621.470 .0307999
622.233 .0307805
622.997 .0307612
623.760 .0307423
624.523 .0307236
625.286 .0307053
626.048 .0306872
626.810 .0306694
627.572 .0306516
628.333 .0306341
629.095 .0306166
629.855 .0305992
630.616 .0305818
631.376 .0305645
632.136 .0305472
632.895 .0305300
633.655 .0305126
634.414 .0304950
635.172 .0304772
635.931 .0304589
636.689 .0304402
637.447 .0304210
638.204 .0304014
638.962 .0303813
639.718 .0303607
640.475 .0303396
641.231 .0303181
641.988 .0302961
642.743 .0302736
643.499 .0302506
644.254 .0302272
645.009 .0302032
645.764 .0301788
646.518 .0301540
647.272 .0301288
648.026 .0301032
648.780 .0300772
649.533 .0300509
650.286 .0300243
651.039 .0299976
651.792 .0299707
652.544 .0299438
653.296 .0299171
654.048 .0298907
654.799 .0298646
655.550 .0298389
656.301 .0298137
657.052 .0297889
657.802 .0297647
658.552 .0297409
659.302 .0297176
660.052 .0296949
660.801 .0296728
661.550 .0296513
662.299 .0296305
663.048 .0296105
663.796 .0295912
664.544 .0295726
665.292 .0295549
666.040 .0295380
666.787 .0295218
667.534 .0295064
668.281 .0294919
669.028 .0294781
669.774 .0294650
670.521 .0294528
671.266 .0294412
672.012 .0294304
672.758 .0294204
673.503 .0294111
674.248 .0294025
674.992 .0293947
675.737 .0293876
676.481 .0293812
677.225 .0293753
677.969 .0293698
678.712 .0293646
679.455 .0293598
680.199 .0293552
680.941 .0293507
681.684 .0293465
682.426 .0293423
683.168 .0293383
683.910 .0293343
684.652 .0293303
685.393 .0293262
686.134 .0293220
686.875 .0293177
687.616 .0293132
688.356 .0293085
689.097 .0293035
689.837 .0292982
690.576 .0292926
691.316 .0292867
692.055 .0292803
692.794 .0292735
693.533 .0292663
694.272 .0292587
695.010 .0292507
695.748 .0292424
696.486 .0292337
697.224 .0292248
697.962 .0292156
698.699 .0292061
699.436 .0291962
700.173 .0291859
700.909 .0291752
701.646 .0291640
702.382 .0291525
703.118 .0291404
703.853 .0291280
704.589 .0291151
705.324 .0291017
706.059 .0290879
706.794 .0290736
707.529 .0290589
708.263 .0290436
708.997 .0290279
709.731 .0290117
710.465 .0289951
711.198 .0289782
711.931 .0289608
712.664 .0289431
713.397 .0289249
714.130 .0289064
714.862 .0288877
715.594 .0288687
716.326 .0288495
717.058 .0288304
717.789 .0288112
718.520 .0287922
719.251 .0287734
719.982 .0287548
720.713 .0287364
721.443 .0287182
722.173 .0287004
722.903 .0286830
723.633 .0286660
724.362 .0286496
725.091 .0286339
725.820 .0286189
726.549 .0286047
727.278 .0285913
728.006 .0285787
728.734 .0285669
729.462 .0285559
730.190 .0285456
730.917 .0285361
731.644 .0285272
732.371 .0285190
733.098 .0285115
733.825 .0285046
734.551 .0284983
735.277 .0284925
736.003 .0284872
736.728 .0284823
737.454 .0284779
738.179 .0284739
738.904 .0284702
739.629 .0284669
740.353 .0284640
741.077 .0284612
741.801 .0284587
742.525 .0284564
743.249 .0284542
743.972 .0284521
744.695 .0284500
745.418 .0284481
746.141 .0284463
746.863 .0284445
747.585 .0284428
748.307 .0284412
749.029 .0284395
749.750 .0284376
750.472 .0284356
751.193 .0284334
751.913 .0284309
752.634 .0284282
753.354 .0284252
754.074 .0284220
754.794 .0284187
755.514 .0284151
756.233 .0284114
756.952 .0284075
757.671 .0284033
758.390 .0283989
759.108 .0283943
759.826 .0283895
760.544 .0283846
761.262 .0283794
761.979 .0283742
762.697 .0283688
763.414 .0283632
764.130 .0283576
764.847 .0283518
765.563 .0283460
766.279 .0283401
766.995 .0283342
767.710 .0283283
768.426 .0283225
769.141 .0283167
769.855 .0283108
770.570 .0283049
771.284 .0282988
771.998 .0282926
772.712 .0282862
773.426 .0282797
774.139 .0282730
774.852 .0282663
775.565 .0282594
776.277 .0282524
776.990 .0282453
777.702 .0282380
778.414 .0282305
779.125 .0282227
779.836 .0282146
780.547 .0282062
781.258 .0281976
781.969 .0281887
782.679 .0281796
783.389 .0281654
784.099 .0281558
784.808 .0281460
785.517 .0281359
786.226 .0281255
786.935 .0281147
787.643 .0281036
788.352 .0280924
789.060 .0280808
789.767 .0280691
790.475 .0280572
791.182 .0280451
791.889 .0280383
792.595 .0280258
793.301 .0280130
794.008 .0280000
794.713 .0279866
795.419 .0279731
796.124 .0279596
796.829 .0279460
797.534 .0279326
798.238 .0279192
798.942 .0279060
799.646 .0278929
800.350 .0278799
801.053 .0278670
801.756 .0278544
802.459 .0278420
803.162 .0278299
803.864 .0278183
804.566 .0278070
805.267 .0277962
805.969 .0277858
806.670 .0277757
807.371 .0277660
808.071 .0277566
808.772 .0277474
809.472 .0277385
810.171 .0277298
810.871 .0277214
811.570 .0277133
812.269 .0277055
812.967 .0276980
813.666 .0276906
814.364 .0276833
815.061 .0276762
815.759 .0276691
816.456 .0276620
817.153 .0276549
817.849 .0276479
818.545 .0276410
819.241 .0276341
819.937 .0276274
820.632 .0276208
821.327 .0276142
822.022 .0276077
822.717 .0276012
823.411 .0275947
824.105 .0275882
824.798 .0275819
825.491 .0275756
826.184 .0275696
826.877 .0275639
827.569 .0275585
828.261 .0275536
828.953 .0275492
829.645 .0275453
830.336 .0275418
831.027 .0275388
831.717 .0275363
832.407 .0275342
833.097 .0275325
833.787 .0275313
834.476 .0275304
835.165 .0275299
835.854 .0275296
836.542 .0275294
837.230 .0275294
837.918 .0275293
838.605 .0275292
839.292 .0275290
839.979 .0275286
840.665 .0275280
841.352 .0275271
842.037 .0275260
842.723 .0275245
843.408 .0275225
844.093 .0275201
844.777 .0275172
845.462 .0275138
846.145 .0275099
846.829 .0275055
847.512 .0275006
848.195 .0274954
848.878 .0274897
849.560 .0274836
850.242 .0274771
850.923 .0274701
851.605 .0274628
852.286 .0274550
852.966 .0274469
853.646 .0274386
854.326 .0274300
855.006 .0274213
855.685 .0274125
856.364 .0274037
857.043 .0273948
857.721 .0273859
858.399 .0273770
859.077 .0273680
859.754 .0273590
860.431 .0273498
861.107 .0273406
861.784 .0273313
862.459 .0273219
863.135 .0273123
863.810 .0273025
864.485 .0272924
865.160 .0272819
865.834 .0272711
866.508 .0272599
867.181 .0272482
867.854 .0272360
868.527 .0272234
869.199 .0272103
869.872 .0271968
870.543 .0271827
871.215 .0271682
871.886 .0271533
872.557 .0271379
873.227 .0271222
873.897 .0271061
874.567 .0270897
875.236 .0270731
875.905 .0270564
876.573 .0270395
877.242 .0270224
877.909 .0270052
878.577 .0269878
879.244 .0269702
879.911 .0269524
880.577 .0269345
881.243 .0269165
881.909 .0268986
882.575 .0268807
883.240 .0268629
883.904 .0268454
884.569 .0268281
885.232 .0268109
885.896 .0267940
886.559 .0267773
887.222 .0267608
887.885 .0267445
888.547 .0267284
889.208 .0267126
889.870 .0266972
890.531 .0266820
891.192 .0266672
891.852 .0266528
892.512 .0266388
893.171 .0266251
893.830 .0266117
894.489 .0265988
895.148 .0265861
895.806 .0265738
896.464 .0265618
897.121 .0265501
897.778 .0265386
898.434 .0265274
899.091 .0265115
899.747 .0265008
900.402 .0264903
901.057 .0264800
901.712 .0264699
902.366 .0264601
903.020 .0264505
903.674 .0264410
904.327 .0264315
904.980 .0264221
905.633 .0264127
906.285 .0264031
906.936 .0263934
907.588 .0263882
908.239 .0263783
908.889 .0263683
909.540 .0263582
910.190 .0263480
910.839 .0263378
911.488 .0263275
912.137 .0263172
912.785 .0263070
913.433 .0262968
914.081 .0262867
914.728 .0262766
915.375 .0262667
916.021 .0262569
916.668 .0262472
917.313 .0262376
917.959 .0262280
918.604 .0262185
919.248 .0262091
919.892 .0261998
920.536 .0261906
921.180 .0261815
921.823 .0261725
922.465 .0261636
923.108 .0261548
923.750 .0261461
924.391 .0261374
925.032 .0261287
925.673 .0261201
926.313 .0261115
926.953 .0261029
927.593 .0260943
928.232 .0260859
928.871 .0260775
929.510 .0260691
930.148 .0260608
930.786 .0260524
931.423 .0260440
932.060 .0260356
932.697 .0260271
933.333 .0260185
933.969 .0260099
934.604 .0260012
935.239 .0259925
935.874 .0259837
936.508 .0259749
937.142 .0259660
937.776 .0259569
938.409 .0259478
939.042 .0259387
939.674 .0259295
940.306 .0259203
940.938 .0259111
941.569 .0259019
942.200 .0258928
942.830 .0258838
943.460 .0258747
944.090 .0258657
944.720 .0258567
945.349 .0258477
945.977 .0258387
946.606 .0258297
947.233 .0258208
947.861 .0258119
948.488 .0258031
949.115 .0257943
949.741 .0257856
950.367 .0257770
950.993 .0257683
951.618 .0257597
952.243 .0257512
952.868 .0257427
953.492 .0257342
954.115 .0257259
954.739 .0257177
955.362 .0257096
955.984 .0257017
956.607 .0256940
957.229 .0256865
957.850 .0256792
958.471 .0256721
959.092 .0256652
959.713 .0256584
960.333 .0256518
960.952 .0256454
961.572 .0256391
962.191 .0256329
962.809 .0256269
963.428 .0256210
964.045 .0256151
964.663 .0256094
965.280 .0256036
965.897 .0255979
966.513 .0255921
967.129 .0255863
967.745 .0255803
968.361 .0255742
968.976 .0255680
969.590 .0255616
970.205 .0255550
970.818 .0255483
971.432 .0255414
972.045 .0255344
972.658 .0255270
973.271 .0255194
973.883 .0255114
974.495 .0255031
975.106 .0254945
975.717 .0254856
976.328 .0254763
976.938 .0254667
977.548 .0254567
978.158 .0254465
978.768 .0254293
979.377 .0254181
979.985 .0254064
980.594 .0253942
981.202 .0253817
981.809 .0253688
982.417 .0253556
983.024 .0253422
983.631 .0253286
984.237 .0253150
984.843 .0253013
985.449 .0252875
986.054 .0252738
986.659 .0252600
987.264 .0252533
987.868 .0252397
988.472 .0252262
989.076 .0252128
989.679 .0251996
990.282 .0251866
990.885 .0251738
991.487 .0251614
992.090 .0251492
992.691 .0251374
993.293 .0251259
993.894 .0251148
994.495 .0251038
995.095 .0250930
995.696 .0250824
996.296 .0250719
996.895 .0250616
997.494 .0250515
998.093 .0250416
998.692 .0250318
999.291 .0250222
999.889 .0250127
1000.487 .0250033
1001.084 .0249939
1001.681 .0249844
1002.278 .0249748
1002.875 .0249650
1003.471 .0249551
1004.067 .0249450
1004.663 .0249348
1005.258 .0249245
1005.854 .0249141
1006.449 .0249037
1007.043 .0248931
1007.638 .0248825
1008.232 .0248718
1008.826 .0248609
1009.419 .0248500
1010.012 .0248391
1010.605 .0248282
1011.198 .0248174
1011.791 .0248069
1012.383 .0247967
1012.975 .0247868
1013.566 .0247774
1014.158 .0247685
1014.749 .0247599
1015.340 .0247519
1015.931 .0247442
1016.521 .0247370
1017.111 .0247304
1017.701 .0247242
1018.291 .0247187
1018.880 .0247138
1019.470 .0247096
1020.059 .0247060
1020.647 .0247030
1021.236 .0247005
1021.824 .0246985
1022.412 .0246969
1023.000 .0246955
1023.588 .0246945
1024.175 .0246936
1024.762 .0246930
1025.349 .0246926
1025.936 .0246924
1026.523 .0246922
1027.109 .0246921
1027.695 .0246918
1028.281 .0246915
1028.867 .0246910
1029.452 .0246903
1030.038 .0246895
1030.623 .0246886
1031.208 .0246876
1031.792 .0246867
1032.377 .0246857
1032.961 .0246846
1033.546 .0246835
1034.130 .0246823
1034.714 .0246809
1035.297 .0246791
1035.881 .0246772
1036.464 .0246751
1037.047 .0246728
1037.630 .0246704
1038.213 .0246681
1038.796 .0246658
1039.378 .0246635
1039.961 .0246612
1040.543 .0246589
1041.125 .0246567
1041.707 .0246544
1042.289 .0246521
1042.871 .0246499
1043.452 .0246478
1044.034 .0246460
1044.615 .0246445
1045.196 .0246434
1045.777 .0246427
1046.358 .0246423
1046.939 .0246420
1047.520 .0246420
1048.101 .0246420
1048.681 .0246420
1049.262 .0246421
1049.842 .0246423
1050.422 .0246426
1051.002 .0246431
1051.582 .0246439
1052.162 .0246450
1052.742 .0246465
1053.322 .0246482
1053.902 .0246502
1054.482 .0246524
1055.061 .0246548
1055.641 .0246576
1056.220 .0246609
1056.800 .0246647
1057.379 .0246693
1057.958 .0246745
1058.538 .0246806
1059.117 .0246875
1059.696 .0246951
1060.275 .0247033
1060.854 .0247120
1061.433 .0247210
1062.012 .0247301
1062.592 .0247394
1063.171 .0247488
1063.750 .0247582
1064.329 .0247677
1064.908 .0247772
1065.487 .0247865
1066.066 .0247958
1066.645 .0248048
1067.224 .0248137
1067.803 .0248222
1068.382 .0248303
1068.961 .0248380
1069.540 .0248454
1070.119 .0248524
1070.698 .0248589
1071.278 .0248652
1071.857 .0248710
1072.436 .0248763
1073.016 .0248813
1073.595 .0248857
1074.175 .0248898
1074.754 .0248934
1075.334 .0248967
1075.913 .0248995
1076.493 .0249020
1077.073 .0249039
1077.653 .0249055
1078.233 .0249067
1078.813 .0249075
1079.393 .0249081
1079.974 .0249086
1080.554 .0249091
1081.135 .0249100
1081.716 .0249112
1082.296 .0249131
1082.877 .0249157
1083.458 .0249187
1084.040 .0249223
1084.621 .0249263
1085.202 .0249307
1085.784 .0249353
1086.366 .0249401
1086.948 .0249452
1087.530 .0249505
1088.112 .0249561
1088.695 .0249619
1089.277 .0249680
1089.860 .0249741
1090.443 .0249801
1091.026 .0249857
1091.610 .0249909
1092.193 .0249955
1092.777 .0249995
1093.361 .0250030
1093.946 .0250062
1094.530 .0250092
1095.115 .0250122
1095.700 .0250154
1096.285 .0250188
1096.871 .0250225
1097.456 .0250264
1098.042 .0250304
1098.628 .0250344
1099.215 .0250383
1099.802 .0250420
1100.389 .0250457
1100.976 .0250495
1101.564 .0250533
1102.152 .0250572
1102.740 .0250613
1103.329 .0250656
1103.917 .0250699
1104.507 .0250743
1105.096 .0250786
1105.686 .0250828
1106.276 .0250869
1106.867 .0250908
1107.457 .0250947
1108.049 .0250986
1108.640 .0251025
1109.232 .0251066
1109.825 .0251108
1110.417 .0251151
1111.010 .0251196
1111.604 .0251243
1112.198 .0251292
1112.792 .0251342
1113.387 .0251393
1113.982 .0251444
1114.577 .0251496
1115.173 .0251546
1115.769 .0251595
1116.366 .0251644
1116.963 .0251690
1117.561 .0251736
1118.159 .0251782
1118.758 .0251827
1119.357 .0251873
1119.957 .0251919
1120.557 .0251965
1121.157 .0252013
1121.758 .0252062
1122.360 .0252113
1122.962 .0252165
1123.564 .0252220
1124.167 .0252238
1124.771 .0252297
1125.375 .0252358
1125.980 .0252425
1126.585 .0252495
1127.191 .0252571
1127.797 .0252654
1128.404 .0252746
1129.012 .0252848
1129.620 .0252963
1130.229 .0253095
1130.838 .0253243
1131.448 .0253410
1132.058 .0253598
1132.669 .0253872
1133.281 .0254126
1133.894 .0254421
1134.507 .0254719
1135.120 .0255067
1135.735 .0255498
1136.350 .0256069
1136.965 .0254333
1137.582 .0254769
1138.199 .0255290
1138.816 .0255865
1139.435 .0256544
1140.054 .0257281
1140.674 .0258129
1141.294 .0259190
1141.916 .0260400
1142.538 .0260580
1143.160 .0262027
1143.784 .0264383
1144.408 .0268224
1145.033 .0269753
