Measurement Sequence started on: 14-45-04-498
Integration time: 36
Scans to Average: 2 
>>>>>Begin Spectral Data<<<<<
433.946 .0617673
434.870 .0491937
435.793 .0489102
436.715 .0462546
437.635 .0458128
438.555 .0471715
439.473 .0464591
440.389 .0462484
441.305 .0460788
442.219 .0459659
443.132 .0461336
444.044 .0459192
444.954 .0457152
445.863 .0456463
446.771 .0455960
447.678 .0454699
448.584 .0453779
449.488 .0452945
450.391 .0452184
451.293 .0451473
452.194 .0450820
453.094 .0450226
453.992 .0449692
454.890 .0449195
455.786 .0448706
456.681 .0448201
457.575 .0447667
458.468 .0447100
459.360 .0446500
460.250 .0445874
461.140 .0445230
462.028 .0444583
462.915 .0443937
463.801 .0443292
464.687 .0442642
465.571 .0441977
466.454 .0441282
467.335 .0440545
468.216 .0439756
469.096 .0438912
469.975 .0438018
470.853 .0437084
471.729 .0436125
472.605 .0435161
473.479 .0434210
474.353 .0433283
475.226 .0432389
476.097 .0431532
476.968 .0430707
477.838 .0429908
478.706 .0429131
479.574 .0428372
480.441 .0427634
481.306 .0426923
482.171 .0426246
483.035 .0425612
483.898 .0425030
484.760 .0424500
485.621 .0424021
486.481 .0423591
487.340 .0423198
488.198 .0422833
489.055 .0422488
489.912 .0422154
490.767 .0421828
491.622 .0421374
492.476 .0421062
493.329 .0420756
494.180 .0420452
495.032 .0420148
495.882 .0419840
496.731 .0419523
497.580 .0419189
498.427 .0418835
499.274 .0418456
500.120 .0418199
500.965 .0417771
501.809 .0417311
502.653 .0416818
503.495 .0416291
504.337 .0415735
505.178 .0415153
506.018 .0414555
506.858 .0413949
507.696 .0413343
508.534 .0412740
509.371 .0412153
510.208 .0411584
511.043 .0411041
511.878 .0410527
512.712 .0410046
513.545 .0409600
514.377 .0409191
515.209 .0408819
516.040 .0408485
516.870 .0408186
517.699 .0407926
518.528 .0407699
519.356 .0407503
520.183 .0407329
521.010 .0407171
521.836 .0407015
522.661 .0406853
523.485 .0406665
524.309 .0406441
525.132 .0406170
525.954 .0405848
526.776 .0405465
527.597 .0405025
528.417 .0404526
529.237 .0403971
530.056 .0403361
530.874 .0402698
531.692 .0401981
532.508 .0401214
533.325 .0400399
534.140 .0399542
534.955 .0398649
535.770 .0397734
536.583 .0396805
537.397 .0395881
538.209 .0394977
539.021 .0394104
539.832 .0393271
540.643 .0392490
541.453 .0391764
542.262 .0391093
543.071 .0390470
543.879 .0389892
544.687 .0389354
545.494 .0388848
546.300 .0388370
547.106 .0387919
547.911 .0387495
548.716 .0387097
549.520 .0386725
550.323 .0386378
551.126 .0386052
551.929 .0385738
552.731 .0385428
553.532 .0385113
554.332 .0384784
555.133 .0384430
555.932 .0384047
556.731 .0383634
557.530 .0383192
558.328 .0382724
559.125 .0382233
559.922 .0381727
560.719 .0381210
561.515 .0380687
562.310 .0380158
563.105 .0379627
563.899 .0379089
564.693 .0378544
565.487 .0377990
566.280 .0377428
567.072 .0376855
567.864 .0376274
568.655 .0375689
569.446 .0375105
570.236 .0374527
571.026 .0373961
571.816 .0373411
572.605 .0372883
573.393 .0372374
574.181 .0371884
574.969 .0371407
575.756 .0370942
576.543 .0370484
577.329 .0370030
578.115 .0369579
578.900 .0369133
579.685 .0368694
580.469 .0368266
581.253 .0367851
582.036 .0367451
582.820 .0367064
583.602 .0366691
584.384 .0366327
585.166 .0365969
585.947 .0365614
586.728 .0365259
587.509 .0364903
588.289 .0364545
589.069 .0364181
589.848 .0363811
590.627 .0363437
591.405 .0363060
592.183 .0362678
592.961 .0362292
593.738 .0361903
594.515 .0361512
595.291 .0361119
596.067 .0360723
596.843 .0360324
597.618 .0359925
598.393 .0359326
599.167 .0358928
599.941 .0358531
600.715 .0358138
601.488 .0357749
602.261 .0357366
603.034 .0356990
603.806 .0356621
604.578 .0356260
605.349 .0355908
606.121 .0355566
606.891 .0355422
607.662 .0355094
608.432 .0354775
609.201 .0354466
609.971 .0354165
610.740 .0353874
611.508 .0353591
612.277 .0353317
613.045 .0353051
613.812 .0352792
614.579 .0352539
615.346 .0352293
616.113 .0352051
616.879 .0351814
617.645 .0351581
618.411 .0351351
619.176 .0351123
619.941 .0350896
620.705 .0350669
621.470 .0350441
622.233 .0350211
622.997 .0349979
623.760 .0349744
624.523 .0349507
625.286 .0349267
626.048 .0349025
626.810 .0348781
627.572 .0348534
628.333 .0348284
629.095 .0348031
629.855 .0347773
630.616 .0347511
631.376 .0347244
632.136 .0346971
632.895 .0346694
633.655 .0346411
634.414 .0346123
635.172 .0345830
635.931 .0345531
636.689 .0345227
637.447 .0344917
638.204 .0344602
638.962 .0344283
639.718 .0343959
640.475 .0343633
641.231 .0343303
641.988 .0342973
642.743 .0342641
643.499 .0342308
644.254 .0341975
645.009 .0341642
645.764 .0341310
646.518 .0340979
647.272 .0340650
648.026 .0340325
648.780 .0340003
649.533 .0339685
650.286 .0339373
651.039 .0339066
651.792 .0338765
652.544 .0338471
653.296 .0338184
654.048 .0337905
654.799 .0337633
655.550 .0337370
656.301 .0337115
657.052 .0336867
657.802 .0336626
658.552 .0336391
659.302 .0336163
660.052 .0335940
660.801 .0335722
661.550 .0335510
662.299 .0335304
663.048 .0335103
663.796 .0334907
664.544 .0334716
665.292 .0334528
666.040 .0334344
666.787 .0334162
667.534 .0333983
668.281 .0333805
669.028 .0333629
669.774 .0333454
670.521 .0333281
671.266 .0333110
672.012 .0332939
672.758 .0332769
673.503 .0332599
674.248 .0332429
674.992 .0332259
675.737 .0332088
676.481 .0331916
677.225 .0331742
677.969 .0331565
678.712 .0331386
679.455 .0331204
680.199 .0331018
680.941 .0330829
681.684 .0330635
682.426 .0330437
683.168 .0330236
683.910 .0330033
684.652 .0329827
685.393 .0329619
686.134 .0329411
686.875 .0329201
687.616 .0328991
688.356 .0328780
689.097 .0328570
689.837 .0328359
690.576 .0328148
691.316 .0327938
692.055 .0327729
692.794 .0327520
693.533 .0327313
694.272 .0327107
695.010 .0326903
695.748 .0326701
696.486 .0326502
697.224 .0326305
697.962 .0326111
698.699 .0325921
699.436 .0325735
700.173 .0325553
700.909 .0325375
701.646 .0325201
702.382 .0325031
703.118 .0324864
703.853 .0324701
704.589 .0324543
705.324 .0324389
706.059 .0324240
706.794 .0324095
707.529 .0323954
708.263 .0323816
708.997 .0323683
709.731 .0323552
710.465 .0323425
711.198 .0323299
711.931 .0323177
712.664 .0323057
713.397 .0322939
714.130 .0322824
714.862 .0322711
715.594 .0322600
716.326 .0322490
717.058 .0322380
717.789 .0322269
718.520 .0322158
719.251 .0322046
719.982 .0321933
720.713 .0321819
721.443 .0321704
722.173 .0321587
722.903 .0321470
723.633 .0321352
724.362 .0321232
725.091 .0321112
725.820 .0320991
726.549 .0320870
727.278 .0320749
728.006 .0320627
728.734 .0320506
729.462 .0320384
730.190 .0320263
730.917 .0320141
731.644 .0320020
732.371 .0319898
733.098 .0319776
733.825 .0319654
734.551 .0319531
735.277 .0319407
736.003 .0319281
736.728 .0319154
737.454 .0319023
738.179 .0318890
738.904 .0318752
739.629 .0318611
740.353 .0318465
741.077 .0318315
741.801 .0318161
742.525 .0318003
743.249 .0317842
743.972 .0317677
744.695 .0317510
745.418 .0317340
746.141 .0317167
746.863 .0316992
747.585 .0316816
748.307 .0316637
749.029 .0316456
749.750 .0316273
750.472 .0316089
751.193 .0315904
751.913 .0315719
752.634 .0315535
753.354 .0315351
754.074 .0315169
754.794 .0314989
755.514 .0314811
756.233 .0314635
756.952 .0314462
757.671 .0314291
758.390 .0314123
759.108 .0313958
759.826 .0313796
760.544 .0313638
761.262 .0313484
761.979 .0313335
762.697 .0313191
763.414 .0313053
764.130 .0312920
764.847 .0312793
765.563 .0312671
766.279 .0312555
766.995 .0312445
767.710 .0312340
768.426 .0312241
769.141 .0312147
769.855 .0312059
770.570 .0311977
771.284 .0311900
771.998 .0311828
772.712 .0311761
773.426 .0311697
774.139 .0311637
774.852 .0311580
775.565 .0311525
776.277 .0311471
776.990 .0311419
777.702 .0311367
778.414 .0311314
779.125 .0311261
779.836 .0311207
780.547 .0311152
781.258 .0311096
781.969 .0311040
782.679 .0310982
783.389 .0310888
784.099 .0310826
784.808 .0310762
785.517 .0310696
786.226 .0310627
786.935 .0310555
787.643 .0310481
788.352 .0310405
789.060 .0310328
789.767 .0310250
790.475 .0310171
791.182 .0310091
791.889 .0310050
792.595 .0309968
793.301 .0309885
794.008 .0309800
794.713 .0309713
795.419 .0309626
796.124 .0309536
796.829 .0309446
797.534 .0309354
798.238 .0309260
798.942 .0309165
799.646 .0309067
800.350 .0308969
801.053 .0308868
801.756 .0308765
802.459 .0308660
803.162 .0308553
803.864 .0308443
804.566 .0308329
805.267 .0308212
805.969 .0308091
806.670 .0307966
807.371 .0307837
808.071 .0307705
808.772 .0307568
809.472 .0307428
810.171 .0307286
810.871 .0307139
811.570 .0306990
812.269 .0306837
812.967 .0306680
813.666 .0306519
814.364 .0306354
815.061 .0306184
815.759 .0306010
816.456 .0305833
817.153 .0305652
817.849 .0305468
818.545 .0305282
819.241 .0305094
819.937 .0304904
820.632 .0304711
821.327 .0304516
822.022 .0304319
822.717 .0304121
823.411 .0303920
824.105 .0303719
824.798 .0303518
825.491 .0303317
826.184 .0303117
826.877 .0302919
827.569 .0302723
828.261 .0302531
828.953 .0302343
829.645 .0302159
830.336 .0301979
831.027 .0301805
831.717 .0301635
832.407 .0301472
833.097 .0301314
833.787 .0301163
834.476 .0301017
835.165 .0300879
835.854 .0300746
836.542 .0300620
837.230 .0300500
837.918 .0300385
838.605 .0300275
839.292 .0300170
839.979 .0300069
840.665 .0299972
841.352 .0299878
842.037 .0299787
842.723 .0299699
843.408 .0299614
844.093 .0299530
844.777 .0299449
845.462 .0299369
846.145 .0299291
846.829 .0299213
847.512 .0299137
848.195 .0299060
848.878 .0298984
849.560 .0298908
850.242 .0298831
850.923 .0298754
851.605 .0298677
852.286 .0298598
852.966 .0298519
853.646 .0298439
854.326 .0298358
855.006 .0298277
855.685 .0298196
856.364 .0298116
857.043 .0298037
857.721 .0297959
858.399 .0297883
859.077 .0297808
859.754 .0297734
860.431 .0297660
861.107 .0297586
861.784 .0297513
862.459 .0297440
863.135 .0297367
863.810 .0297294
864.485 .0297220
865.160 .0297146
865.834 .0297070
866.508 .0296992
867.181 .0296910
867.854 .0296824
868.527 .0296734
869.199 .0296638
869.872 .0296538
870.543 .0296433
871.215 .0296325
871.886 .0296212
872.557 .0296097
873.227 .0295979
873.897 .0295859
874.567 .0295737
875.236 .0295613
875.905 .0295486
876.573 .0295357
877.242 .0295225
877.909 .0295091
878.577 .0294954
879.244 .0294814
879.911 .0294673
880.577 .0294528
881.243 .0294382
881.909 .0294234
882.575 .0294085
883.240 .0293935
883.904 .0293783
884.569 .0293630
885.232 .0293476
885.896 .0293321
886.559 .0293166
887.222 .0293011
887.885 .0292856
888.547 .0292700
889.208 .0292545
889.870 .0292389
890.531 .0292234
891.192 .0292079
891.852 .0291925
892.512 .0291772
893.171 .0291619
893.830 .0291468
894.489 .0291318
895.148 .0291169
895.806 .0291021
896.464 .0290873
897.121 .0290725
897.778 .0290578
898.434 .0290431
899.091 .0290218
899.747 .0290074
900.402 .0289931
901.057 .0289790
901.712 .0289651
902.366 .0289513
903.020 .0289376
903.674 .0289238
904.327 .0289101
904.980 .0288962
905.633 .0288823
906.285 .0288684
906.936 .0288544
907.588 .0288469
908.239 .0288328
908.889 .0288187
909.540 .0288046
910.190 .0287903
910.839 .0287759
911.488 .0287614
912.137 .0287468
912.785 .0287322
913.433 .0287177
914.081 .0287033
914.728 .0286890
915.375 .0286747
916.021 .0286605
916.668 .0286462
917.313 .0286320
917.959 .0286176
918.604 .0286033
919.248 .0285889
919.892 .0285746
920.536 .0285603
921.180 .0285462
921.823 .0285321
922.465 .0285181
923.108 .0285040
923.750 .0284899
924.391 .0284757
925.032 .0284614
925.673 .0284470
926.313 .0284325
926.953 .0284179
927.593 .0284034
928.232 .0283888
928.871 .0283743
929.510 .0283598
930.148 .0283455
930.786 .0283312
931.423 .0283171
932.060 .0283030
932.697 .0282891
933.333 .0282754
933.969 .0282618
934.604 .0282484
935.239 .0282352
935.874 .0282221
936.508 .0282091
937.142 .0281964
937.776 .0281838
938.409 .0281714
939.042 .0281593
939.674 .0281474
940.306 .0281358
940.938 .0281244
941.569 .0281132
942.200 .0281023
942.830 .0280916
943.460 .0280811
944.090 .0280709
944.720 .0280608
945.349 .0280509
945.977 .0280411
946.606 .0280315
947.233 .0280219
947.861 .0280123
948.488 .0280027
949.115 .0279931
949.741 .0279835
950.367 .0279739
950.993 .0279642
951.618 .0279545
952.243 .0279448
952.868 .0279351
953.492 .0279253
954.115 .0279155
954.739 .0279057
955.362 .0278959
955.984 .0278860
956.607 .0278762
957.229 .0278665
957.850 .0278568
958.471 .0278472
959.092 .0278376
959.713 .0278282
960.333 .0278187
960.952 .0278093
961.572 .0277998
962.191 .0277903
962.809 .0277807
963.428 .0277711
964.045 .0277615
964.663 .0277518
965.280 .0277420
965.897 .0277323
966.513 .0277224
967.129 .0277125
967.745 .0277026
968.361 .0276925
968.976 .0276825
969.590 .0276724
970.205 .0276623
970.818 .0276521
971.432 .0276420
972.045 .0276317
972.658 .0276214
973.271 .0276109
973.883 .0276003
974.495 .0275895
975.106 .0275784
975.717 .0275672
976.328 .0275558
976.938 .0275441
977.548 .0275323
978.158 .0275203
978.768 .0275011
979.377 .0274883
979.985 .0274752
980.594 .0274618
981.202 .0274481
981.809 .0274341
982.417 .0274198
983.024 .0274053
983.631 .0273905
984.237 .0273756
984.843 .0273606
985.449 .0273453
986.054 .0273299
986.659 .0273142
987.264 .0273058
987.868 .0272900
988.472 .0272741
989.076 .0272581
989.679 .0272421
990.282 .0272260
990.885 .0272100
991.487 .0271941
992.090 .0271783
992.691 .0271625
993.293 .0271469
993.894 .0271314
994.495 .0271161
995.095 .0271009
995.696 .0270860
996.296 .0270714
996.895 .0270573
997.494 .0270436
998.093 .0270304
998.692 .0270176
999.291 .0270054
999.889 .0269936
1000.487 .0269822
1001.084 .0269712
1001.681 .0269606
1002.278 .0269503
1002.875 .0269404
1003.471 .0269309
1004.067 .0269218
1004.663 .0269131
1005.258 .0269047
1005.854 .0268965
1006.449 .0268886
1007.043 .0268809
1007.638 .0268734
1008.232 .0268660
1008.826 .0268589
1009.419 .0268519
1010.012 .0268452
1010.605 .0268388
1011.198 .0268325
1011.791 .0268266
1012.383 .0268208
1012.975 .0268152
1013.566 .0268097
1014.158 .0268043
1014.749 .0267991
1015.340 .0267940
1015.931 .0267890
1016.521 .0267841
1017.111 .0267795
1017.701 .0267751
1018.291 .0267709
1018.880 .0267668
1019.470 .0267630
1020.059 .0267594
1020.647 .0267560
1021.236 .0267528
1021.824 .0267500
1022.412 .0267476
1023.000 .0267457
1023.588 .0267443
1024.175 .0267434
1024.762 .0267430
1025.349 .0267430
1025.936 .0267433
1026.523 .0267440
1027.109 .0267448
1027.695 .0267460
1028.281 .0267473
1028.867 .0267489
1029.452 .0267507
1030.038 .0267528
1030.623 .0267551
1031.208 .0267575
1031.792 .0267601
1032.377 .0267626
1032.961 .0267649
1033.546 .0267671
1034.130 .0267691
1034.714 .0267710
1035.297 .0267727
1035.881 .0267744
1036.464 .0267761
1037.047 .0267778
1037.630 .0267796
1038.213 .0267815
1038.796 .0267833
1039.378 .0267852
1039.961 .0267870
1040.543 .0267888
1041.125 .0267906
1041.707 .0267924
1042.289 .0267944
1042.871 .0267963
1043.452 .0267983
1044.034 .0268004
1044.615 .0268024
1045.196 .0268043
1045.777 .0268060
1046.358 .0268076
1046.939 .0268090
1047.520 .0268103
1048.101 .0268115
1048.681 .0268126
1049.262 .0268138
1049.842 .0268151
1050.422 .0268166
1051.002 .0268182
1051.582 .0268199
1052.162 .0268218
1052.742 .0268238
1053.322 .0268259
1053.902 .0268282
1054.482 .0268305
1055.061 .0268329
1055.641 .0268355
1056.220 .0268381
1056.800 .0268408
1057.379 .0268434
1057.958 .0268458
1058.538 .0268481
1059.117 .0268501
1059.696 .0268519
1060.275 .0268534
1060.854 .0268547
1061.433 .0268560
1062.012 .0268572
1062.592 .0268585
1063.171 .0268599
1063.750 .0268615
1064.329 .0268632
1064.908 .0268651
1065.487 .0268670
1066.066 .0268689
1066.645 .0268708
1067.224 .0268726
1067.803 .0268743
1068.382 .0268759
1068.961 .0268774
1069.540 .0268786
1070.119 .0268796
1070.698 .0268802
1071.278 .0268804
1071.857 .0268802
1072.436 .0268795
1073.016 .0268783
1073.595 .0268765
1074.175 .0268743
1074.754 .0268717
1075.334 .0268687
1075.913 .0268654
1076.493 .0268621
1077.073 .0268586
1077.653 .0268553
1078.233 .0268521
1078.813 .0268490
1079.393 .0268462
1079.974 .0268433
1080.554 .0268406
1081.135 .0268378
1081.716 .0268349
1082.296 .0268319
1082.877 .0268288
1083.458 .0268256
1084.040 .0268223
1084.621 .0268189
1085.202 .0268155
1085.784 .0268121
1086.366 .0268086
1086.948 .0268049
1087.530 .0268010
1088.112 .0267969
1088.695 .0267925
1089.277 .0267878
1089.860 .0267826
1090.443 .0267771
1091.026 .0267712
1091.610 .0267648
1092.193 .0267581
1092.777 .0267509
1093.361 .0267433
1093.946 .0267352
1094.530 .0267266
1095.115 .0267176
1095.700 .0267082
1096.285 .0266985
1096.871 .0266883
1097.456 .0266778
1098.042 .0266669
1098.628 .0266557
1099.215 .0266442
1099.802 .0266326
1100.389 .0266208
1100.976 .0266091
1101.564 .0265978
1102.152 .0265869
1102.740 .0265767
1103.329 .0265674
1103.917 .0265591
1104.507 .0265517
1105.096 .0265453
1105.686 .0265398
1106.276 .0265350
1106.867 .0265313
1107.457 .0265284
1108.049 .0265266
1108.640 .0265259
1109.232 .0265266
1109.825 .0265289
1110.417 .0265326
1111.010 .0265377
1111.604 .0265441
1112.198 .0265515
1112.792 .0265598
1113.387 .0265687
1113.982 .0265783
1114.577 .0265889
1115.173 .0266005
1115.769 .0266134
1116.366 .0266276
1116.963 .0266434
1117.561 .0266606
1118.159 .0266792
1118.758 .0266989
1119.357 .0267196
1119.957 .0267410
1120.557 .0267633
1121.157 .0267868
1121.758 .0268115
1122.360 .0268378
1122.962 .0268658
1123.564 .0268957
1124.167 .0269071
1124.771 .0269396
1125.375 .0269736
1125.980 .0270090
1126.585 .0270453
1127.191 .0270824
1127.797 .0271204
1128.404 .0271594
1129.012 .0271998
1129.620 .0272419
1130.229 .0272858
1130.838 .0273316
1131.448 .0273790
1132.058 .0274279
1132.669 .0275013
1133.281 .0275541
1133.894 .0276088
1134.507 .0276582
1135.120 .0277119
1135.735 .0277773
1136.350 .0278480
1136.965 .0278545
1137.582 .0279200
1138.199 .0279883
1138.816 .0280525
1139.435 .0281146
1140.054 .0281734
1140.674 .0282365
1141.294 .0283095
1141.916 .0283977
1142.538 .0282895
1143.160 .0284455
1143.784 .0287941
1144.408 .0289769
1145.033 .0292079
