Measurement Sequence started on: 14-45-04-498
Integration time: 36
Scans to Average: 2 
>>>>>Begin Spectral Data<<<<<
433.946 .0283584
434.870 .0288665
435.793 .0315532
436.715 .0365902
437.635 .0380898
438.555 .0364168
439.473 .0372357
440.389 .0378084
441.305 .0381492
442.219 .0382787
443.132 .0372152
444.044 .0377106
444.954 .0380611
445.863 .0381414
446.771 .0381376
447.678 .0382163
448.584 .0382462
449.488 .0382407
450.391 .0382123
451.293 .0381719
452.194 .0381237
453.094 .0380670
453.992 .0380028
454.890 .0379314
455.786 .0378535
456.681 .0377688
457.575 .0376783
458.468 .0375826
459.360 .0374830
460.250 .0373814
461.140 .0372795
462.028 .0371785
462.915 .0370807
463.801 .0369866
464.687 .0368967
465.571 .0368107
466.454 .0367281
467.335 .0366479
468.216 .0365702
469.096 .0364942
469.975 .0364204
470.853 .0363497
471.729 .0362828
472.605 .0362205
473.479 .0361637
474.353 .0361123
475.226 .0360653
476.097 .0360218
476.968 .0359804
477.838 .0359394
478.706 .0358979
479.574 .0358548
480.441 .0358097
481.306 .0357631
482.171 .0357152
483.035 .0356670
483.898 .0356197
484.760 .0355740
485.621 .0355304
486.481 .0354893
487.340 .0354504
488.198 .0354132
489.055 .0353773
489.912 .0353421
490.767 .0353073
491.622 .0352604
492.476 .0352274
493.329 .0351953
494.180 .0351646
495.032 .0351357
495.882 .0351082
496.731 .0350821
497.580 .0350565
498.427 .0350306
499.274 .0350031
500.120 .0349835
500.965 .0349508
501.809 .0349145
502.653 .0348740
503.495 .0348288
504.337 .0347791
505.178 .0347252
506.018 .0346674
506.858 .0346061
507.696 .0345422
508.534 .0344763
509.371 .0344088
510.208 .0343404
511.043 .0342716
511.878 .0342032
512.712 .0341357
513.545 .0340698
514.377 .0340059
515.209 .0339447
516.040 .0338866
516.870 .0338321
517.699 .0337817
518.528 .0337359
519.356 .0336949
520.183 .0336588
521.010 .0336274
521.836 .0336006
522.661 .0335777
523.485 .0335584
524.309 .0335421
525.132 .0335279
525.954 .0335148
526.776 .0335018
527.597 .0334877
528.417 .0334717
529.237 .0334527
530.056 .0334300
530.874 .0334029
531.692 .0333713
532.508 .0333350
533.325 .0332944
534.140 .0332500
534.955 .0332022
535.770 .0331512
536.583 .0330971
537.397 .0330397
538.209 .0329796
539.021 .0329169
539.832 .0328520
540.643 .0327854
541.453 .0327178
542.262 .0326499
543.071 .0325830
543.879 .0325182
544.687 .0324564
545.494 .0323981
546.300 .0323435
547.106 .0322926
547.911 .0322451
548.716 .0322008
549.520 .0321591
550.323 .0321199
551.126 .0320829
551.929 .0320477
552.731 .0320145
553.532 .0319835
554.332 .0319551
555.133 .0319292
555.932 .0319059
556.731 .0318848
557.530 .0318656
558.328 .0318477
559.125 .0318305
559.922 .0318135
560.719 .0317958
561.515 .0317773
562.310 .0317579
563.105 .0317379
563.899 .0317175
564.693 .0316973
565.487 .0316776
566.280 .0316589
567.072 .0316409
567.864 .0316234
568.655 .0316062
569.446 .0315888
570.236 .0315707
571.026 .0315517
571.816 .0315316
572.605 .0315104
573.393 .0314883
574.181 .0314657
574.969 .0314426
575.756 .0314190
576.543 .0313948
577.329 .0313701
578.115 .0313445
578.900 .0313178
579.685 .0312901
580.469 .0312615
581.253 .0312323
582.036 .0312026
582.820 .0311728
583.602 .0311432
584.384 .0311141
585.166 .0310858
585.947 .0310582
586.728 .0310315
587.509 .0310058
588.289 .0309812
589.069 .0309577
589.848 .0309351
590.627 .0309135
591.405 .0308930
592.183 .0308737
592.961 .0308555
593.738 .0308385
594.515 .0308228
595.291 .0308083
596.067 .0307947
596.843 .0307817
597.618 .0307691
598.393 .0307493
599.167 .0307364
599.941 .0307230
600.715 .0307093
601.488 .0306950
602.261 .0306803
603.034 .0306652
603.806 .0306498
604.578 .0306341
605.349 .0306180
606.121 .0306015
606.891 .0305921
607.662 .0305749
608.432 .0305572
609.201 .0305389
609.971 .0305202
610.740 .0305011
611.508 .0304815
612.277 .0304617
613.045 .0304416
613.812 .0304215
614.579 .0304014
615.346 .0303812
616.113 .0303610
616.879 .0303407
617.645 .0303205
618.411 .0303002
619.176 .0302798
619.941 .0302594
620.705 .0302388
621.470 .0302182
622.233 .0301974
622.997 .0301767
623.760 .0301562
624.523 .0301360
625.286 .0301161
626.048 .0300965
626.810 .0300772
627.572 .0300582
628.333 .0300394
629.095 .0300207
629.855 .0300021
630.616 .0299835
631.376 .0299649
632.136 .0299463
632.895 .0299276
633.655 .0299089
634.414 .0298903
635.172 .0298716
635.931 .0298528
636.689 .0298338
637.447 .0298148
638.204 .0297956
638.962 .0297763
639.718 .0297569
640.475 .0297376
641.231 .0297183
641.988 .0296990
642.743 .0296798
643.499 .0296608
644.254 .0296420
645.009 .0296234
645.764 .0296052
646.518 .0295876
647.272 .0295704
648.026 .0295539
648.780 .0295381
649.533 .0295230
650.286 .0295084
651.039 .0294944
651.792 .0294809
652.544 .0294678
653.296 .0294550
654.048 .0294427
654.799 .0294306
655.550 .0294188
656.301 .0294072
657.052 .0293958
657.802 .0293845
658.552 .0293731
659.302 .0293616
660.052 .0293499
660.801 .0293379
661.550 .0293257
662.299 .0293131
663.048 .0293002
663.796 .0292868
664.544 .0292732
665.292 .0292592
666.040 .0292450
666.787 .0292306
667.534 .0292161
668.281 .0292016
669.028 .0291872
669.774 .0291730
670.521 .0291589
671.266 .0291451
672.012 .0291315
672.758 .0291183
673.503 .0291054
674.248 .0290929
674.992 .0290808
675.737 .0290690
676.481 .0290576
677.225 .0290465
677.969 .0290355
678.712 .0290247
679.455 .0290140
680.199 .0290035
680.941 .0289930
681.684 .0289827
682.426 .0289725
683.168 .0289623
683.910 .0289523
684.652 .0289423
685.393 .0289323
686.134 .0289222
686.875 .0289120
687.616 .0289017
688.356 .0288913
689.097 .0288808
689.837 .0288703
690.576 .0288597
691.316 .0288492
692.055 .0288387
692.794 .0288281
693.533 .0288176
694.272 .0288071
695.010 .0287966
695.748 .0287861
696.486 .0287756
697.224 .0287651
697.962 .0287545
698.699 .0287437
699.436 .0287328
700.173 .0287217
700.909 .0287103
701.646 .0286988
702.382 .0286872
703.118 .0286755
703.853 .0286637
704.589 .0286518
705.324 .0286398
706.059 .0286275
706.794 .0286149
707.529 .0286019
708.263 .0285884
708.997 .0285745
709.731 .0285601
710.465 .0285454
711.198 .0285305
711.931 .0285153
712.664 .0285001
713.397 .0284847
714.130 .0284692
714.862 .0284536
715.594 .0284380
716.326 .0284222
717.058 .0284063
717.789 .0283903
718.520 .0283743
719.251 .0283582
719.982 .0283422
720.713 .0283262
721.443 .0283103
722.173 .0282945
722.903 .0282790
723.633 .0282637
724.362 .0282489
725.091 .0282345
725.820 .0282206
726.549 .0282071
727.278 .0281941
728.006 .0281815
728.734 .0281693
729.462 .0281576
730.190 .0281464
730.917 .0281356
731.644 .0281254
732.371 .0281157
733.098 .0281067
733.825 .0280983
734.551 .0280905
735.277 .0280832
736.003 .0280764
736.728 .0280701
737.454 .0280641
738.179 .0280585
738.904 .0280532
739.629 .0280482
740.353 .0280434
741.077 .0280387
741.801 .0280341
742.525 .0280296
743.249 .0280250
743.972 .0280203
744.695 .0280155
745.418 .0280105
746.141 .0280052
746.863 .0279996
747.585 .0279936
748.307 .0279871
749.029 .0279801
749.750 .0279724
750.472 .0279640
751.193 .0279550
751.913 .0279452
752.634 .0279348
753.354 .0279239
754.074 .0279124
754.794 .0279006
755.514 .0278884
756.233 .0278759
756.952 .0278631
757.671 .0278500
758.390 .0278366
759.108 .0278229
759.826 .0278090
760.544 .0277949
761.262 .0277807
761.979 .0277666
762.697 .0277525
763.414 .0277385
764.130 .0277247
764.847 .0277110
765.563 .0276976
766.279 .0276844
766.995 .0276715
767.710 .0276588
768.426 .0276464
769.141 .0276343
769.855 .0276223
770.570 .0276107
771.284 .0275991
771.998 .0275878
772.712 .0275765
773.426 .0275654
774.139 .0275544
774.852 .0275435
775.565 .0275327
776.277 .0275220
776.990 .0275113
777.702 .0275006
778.414 .0274898
779.125 .0274789
779.836 .0274679
780.547 .0274569
781.258 .0274461
781.969 .0274354
782.679 .0274249
783.389 .0274099
784.099 .0274002
784.808 .0273907
785.517 .0273815
786.226 .0273724
786.935 .0273635
787.643 .0273548
788.352 .0273464
789.060 .0273382
789.767 .0273304
790.475 .0273229
791.182 .0273156
791.889 .0273130
792.595 .0273060
793.301 .0272992
794.008 .0272925
794.713 .0272860
795.419 .0272796
796.124 .0272734
796.829 .0272673
797.534 .0272614
798.238 .0272557
798.942 .0272502
799.646 .0272449
800.350 .0272397
801.053 .0272348
801.756 .0272301
802.459 .0272255
803.162 .0272210
803.864 .0272167
804.566 .0272125
805.267 .0272082
805.969 .0272039
806.670 .0271995
807.371 .0271949
808.071 .0271902
808.772 .0271854
809.472 .0271804
810.171 .0271752
810.871 .0271699
811.570 .0271644
812.269 .0271586
812.967 .0271525
813.666 .0271460
814.364 .0271391
815.061 .0271318
815.759 .0271239
816.456 .0271155
817.153 .0271066
817.849 .0270971
818.545 .0270870
819.241 .0270762
819.937 .0270648
820.632 .0270527
821.327 .0270400
822.022 .0270265
822.717 .0270124
823.411 .0269976
824.105 .0269822
824.798 .0269663
825.491 .0269497
826.184 .0269328
826.877 .0269156
827.569 .0268983
828.261 .0268808
828.953 .0268633
829.645 .0268459
830.336 .0268286
831.027 .0268115
831.717 .0267946
832.407 .0267780
833.097 .0267615
833.787 .0267453
834.476 .0267293
835.165 .0267135
835.854 .0266979
836.542 .0266825
837.230 .0266673
837.918 .0266522
838.605 .0266372
839.292 .0266223
839.979 .0266075
840.665 .0265928
841.352 .0265783
842.037 .0265639
842.723 .0265496
843.408 .0265356
844.093 .0265216
844.777 .0265078
845.462 .0264941
846.145 .0264806
846.829 .0264673
847.512 .0264542
848.195 .0264413
848.878 .0264287
849.560 .0264163
850.242 .0264041
850.923 .0263923
851.605 .0263807
852.286 .0263692
852.966 .0263581
853.646 .0263471
854.326 .0263364
855.006 .0263260
855.685 .0263160
856.364 .0263062
857.043 .0262969
857.721 .0262879
858.399 .0262794
859.077 .0262712
859.754 .0262635
860.431 .0262562
861.107 .0262494
861.784 .0262429
862.459 .0262368
863.135 .0262312
863.810 .0262259
864.485 .0262209
865.160 .0262162
865.834 .0262117
866.508 .0262074
867.181 .0262032
867.854 .0261992
868.527 .0261953
869.199 .0261915
869.872 .0261879
870.543 .0261846
871.215 .0261814
871.886 .0261784
872.557 .0261757
873.227 .0261730
873.897 .0261705
874.567 .0261681
875.236 .0261656
875.905 .0261630
876.573 .0261604
877.242 .0261576
877.909 .0261547
878.577 .0261516
879.244 .0261484
879.911 .0261449
880.577 .0261410
881.243 .0261369
881.909 .0261323
882.575 .0261273
883.240 .0261217
883.904 .0261157
884.569 .0261092
885.232 .0261021
885.896 .0260946
886.559 .0260867
887.222 .0260784
887.885 .0260697
888.547 .0260606
889.208 .0260514
889.870 .0260420
890.531 .0260325
891.192 .0260229
891.852 .0260134
892.512 .0260040
893.171 .0259945
893.830 .0259849
894.489 .0259753
895.148 .0259654
895.806 .0259553
896.464 .0259450
897.121 .0259345
897.778 .0259237
898.434 .0259129
899.091 .0258964
899.747 .0258851
900.402 .0258738
901.057 .0258623
901.712 .0258506
902.366 .0258388
903.020 .0258268
903.674 .0258146
904.327 .0258021
904.980 .0257894
905.633 .0257763
906.285 .0257630
906.936 .0257494
907.588 .0257414
908.239 .0257273
908.889 .0257129
909.540 .0256980
910.190 .0256828
910.839 .0256672
911.488 .0256513
912.137 .0256349
912.785 .0256183
913.433 .0256013
914.081 .0255840
914.728 .0255664
915.375 .0255487
916.021 .0255308
916.668 .0255127
917.313 .0254947
917.959 .0254766
918.604 .0254585
919.248 .0254405
919.892 .0254226
920.536 .0254047
921.180 .0253868
921.823 .0253688
922.465 .0253507
923.108 .0253326
923.750 .0253144
924.391 .0252961
925.032 .0252776
925.673 .0252592
926.313 .0252407
926.953 .0252222
927.593 .0252038
928.232 .0251855
928.871 .0251672
929.510 .0251490
930.148 .0251310
930.786 .0251132
931.423 .0250956
932.060 .0250781
932.697 .0250609
933.333 .0250438
933.969 .0250268
934.604 .0250099
935.239 .0249931
935.874 .0249762
936.508 .0249593
937.142 .0249424
937.776 .0249256
938.409 .0249089
939.042 .0248925
939.674 .0248765
940.306 .0248609
940.938 .0248459
941.569 .0248313
942.200 .0248174
942.830 .0248039
943.460 .0247910
944.090 .0247786
944.720 .0247667
945.349 .0247555
945.977 .0247450
946.606 .0247352
947.233 .0247260
947.861 .0247175
948.488 .0247096
949.115 .0247022
949.741 .0246952
950.367 .0246887
950.993 .0246826
951.618 .0246768
952.243 .0246714
952.868 .0246665
953.492 .0246619
954.115 .0246577
954.739 .0246539
955.362 .0246504
955.984 .0246473
956.607 .0246444
957.229 .0246419
957.850 .0246395
958.471 .0246373
959.092 .0246354
959.713 .0246336
960.333 .0246319
960.952 .0246302
961.572 .0246286
962.191 .0246268
962.809 .0246249
963.428 .0246230
964.045 .0246209
964.663 .0246188
965.280 .0246169
965.897 .0246150
966.513 .0246134
967.129 .0246120
967.745 .0246109
968.361 .0246100
968.976 .0246093
969.590 .0246086
970.205 .0246080
970.818 .0246074
971.432 .0246068
972.045 .0246060
972.658 .0246052
973.271 .0246042
973.883 .0246030
974.495 .0246017
975.106 .0246001
975.717 .0245982
976.328 .0245961
976.938 .0245937
977.548 .0245910
978.158 .0245880
978.768 .0245821
979.377 .0245785
979.985 .0245748
980.594 .0245710
981.202 .0245671
981.809 .0245629
982.417 .0245586
983.024 .0245541
983.631 .0245493
984.237 .0245444
984.843 .0245392
985.449 .0245339
986.054 .0245285
986.659 .0245231
987.264 .0245207
987.868 .0245153
988.472 .0245101
989.076 .0245049
989.679 .0244998
990.282 .0244947
990.885 .0244896
991.487 .0244844
992.090 .0244791
992.691 .0244736
993.293 .0244680
993.894 .0244621
994.495 .0244560
995.095 .0244498
995.696 .0244433
996.296 .0244366
996.895 .0244296
997.494 .0244221
998.093 .0244142
998.692 .0244058
999.291 .0243966
999.889 .0243869
1000.487 .0243764
1001.084 .0243654
1001.681 .0243538
1002.278 .0243417
1002.875 .0243294
1003.471 .0243167
1004.067 .0243037
1004.663 .0242903
1005.258 .0242766
1005.854 .0242626
1006.449 .0242481
1007.043 .0242334
1007.638 .0242184
1008.232 .0242032
1008.826 .0241880
1009.419 .0241729
1010.012 .0241579
1010.605 .0241432
1011.198 .0241287
1011.791 .0241145
1012.383 .0241005
1012.975 .0240868
1013.566 .0240735
1014.158 .0240605
1014.749 .0240481
1015.340 .0240361
1015.931 .0240247
1016.521 .0240138
1017.111 .0240033
1017.701 .0239933
1018.291 .0239835
1018.880 .0239741
1019.470 .0239648
1020.059 .0239558
1020.647 .0239471
1021.236 .0239388
1021.824 .0239308
1022.412 .0239232
1023.000 .0239160
1023.588 .0239091
1024.175 .0239024
1024.762 .0238959
1025.349 .0238894
1025.936 .0238828
1026.523 .0238762
1027.109 .0238695
1027.695 .0238629
1028.281 .0238563
1028.867 .0238498
1029.452 .0238434
1030.038 .0238372
1030.623 .0238312
1031.208 .0238252
1031.792 .0238192
1032.377 .0238133
1032.961 .0238075
1033.546 .0238019
1034.130 .0237966
1034.714 .0237918
1035.297 .0237875
1035.881 .0237840
1036.464 .0237813
1037.047 .0237795
1037.630 .0237783
1038.213 .0237778
1038.796 .0237779
1039.378 .0237784
1039.961 .0237793
1040.543 .0237804
1041.125 .0237819
1041.707 .0237838
1042.289 .0237860
1042.871 .0237888
1043.452 .0237921
1044.034 .0237959
1044.615 .0238002
1045.196 .0238048
1045.777 .0238096
1046.358 .0238145
1046.939 .0238194
1047.520 .0238242
1048.101 .0238289
1048.681 .0238334
1049.262 .0238380
1049.842 .0238427
1050.422 .0238475
1051.002 .0238525
1051.582 .0238578
1052.162 .0238633
1052.742 .0238689
1053.322 .0238744
1053.902 .0238798
1054.482 .0238849
1055.061 .0238897
1055.641 .0238944
1056.220 .0238990
1056.800 .0239036
1057.379 .0239085
1057.958 .0239136
1058.538 .0239191
1059.117 .0239249
1059.696 .0239310
1060.275 .0239373
1060.854 .0239436
1061.433 .0239499
1062.012 .0239561
1062.592 .0239622
1063.171 .0239683
1063.750 .0239744
1064.329 .0239806
1064.908 .0239870
1065.487 .0239936
1066.066 .0240003
1066.645 .0240072
1067.224 .0240141
1067.803 .0240209
1068.382 .0240275
1068.961 .0240339
1069.540 .0240402
1070.119 .0240463
1070.698 .0240523
1071.278 .0240585
1071.857 .0240648
1072.436 .0240713
1073.016 .0240782
1073.595 .0240853
1074.175 .0240927
1074.754 .0241003
1075.334 .0241080
1075.913 .0241157
1076.493 .0241233
1077.073 .0241311
1077.653 .0241390
1078.233 .0241470
1078.813 .0241552
1079.393 .0241638
1079.974 .0241726
1080.554 .0241817
1081.135 .0241909
1081.716 .0242002
1082.296 .0242093
1082.877 .0242179
1083.458 .0242259
1084.040 .0242331
1084.621 .0242394
1085.202 .0242445
1085.784 .0242486
1086.366 .0242516
1086.948 .0242535
1087.530 .0242544
1088.112 .0242543
1088.695 .0242533
1089.277 .0242512
1089.860 .0242482
1090.443 .0242440
1091.026 .0242387
1091.610 .0242324
1092.193 .0242251
1092.777 .0242172
1093.361 .0242089
1093.946 .0242004
1094.530 .0241919
1095.115 .0241837
1095.700 .0241759
1096.285 .0241685
1096.871 .0241615
1097.456 .0241548
1098.042 .0241482
1098.628 .0241416
1099.215 .0241352
1099.802 .0241289
1100.389 .0241232
1100.976 .0241180
1101.564 .0241136
1102.152 .0241103
1102.740 .0241082
1103.329 .0241073
1103.917 .0241076
1104.507 .0241090
1105.096 .0241112
1105.686 .0241139
1106.276 .0241171
1106.867 .0241206
1107.457 .0241245
1108.049 .0241289
1108.640 .0241338
1109.232 .0241392
1109.825 .0241453
1110.417 .0241517
1111.010 .0241584
1111.604 .0241647
1112.198 .0241703
1112.792 .0241748
1113.387 .0241780
1113.982 .0241797
1114.577 .0241802
1115.173 .0241798
1115.769 .0241790
1116.366 .0241780
1116.963 .0241771
1117.561 .0241763
1118.159 .0241756
1118.758 .0241749
1119.357 .0241742
1119.957 .0241733
1120.557 .0241723
1121.157 .0241714
1121.758 .0241711
1122.360 .0241718
1122.962 .0241739
1123.564 .0241777
1124.167 .0241773
1124.771 .0241835
1125.375 .0241916
1125.980 .0242015
1126.585 .0242130
1127.191 .0242259
1127.797 .0242401
1128.404 .0242557
1129.012 .0242730
1129.620 .0242922
1130.229 .0243136
1130.838 .0243374
1131.448 .0243636
1132.058 .0243918
1132.669 .0244327
1133.281 .0244649
1133.894 .0244982
1134.507 .0245309
1135.120 .0245616
1135.735 .0245929
1136.350 .0246260
1136.965 .0247144
1137.582 .0247648
1138.199 .0248153
1138.816 .0248660
1139.435 .0249089
1140.054 .0249435
1140.674 .0249713
1141.294 .0249896
1141.916 .0250169
1142.538 .0250025
1143.160 .0249518
1143.784 .0249693
1144.408 .0250195
1145.033 .0255095
