Measurement Sequence started on: 14-45-04-498
Integration time: 36
Scans to Average: 2 
>>>>>Begin Spectral Data<<<<<
433.946 .0449022
434.870 .0456190
435.793 .0460744
436.715 .0451080
437.635 .0439776
438.555 .0447528
439.473 .0447277
440.389 .0447360
441.305 .0447901
442.219 .0448998
443.132 .0451226
444.044 .0451008
444.954 .0450512
445.863 .0450482
446.771 .0450995
447.678 .0451043
448.584 .0451041
449.488 .0450965
450.391 .0450784
451.293 .0450468
452.194 .0450004
453.094 .0449407
453.992 .0448682
454.890 .0447847
455.786 .0446917
456.681 .0445900
457.575 .0444800
458.468 .0443625
459.360 .0442383
460.250 .0441086
461.140 .0439741
462.028 .0438359
462.915 .0436952
463.801 .0435536
464.687 .0434119
465.571 .0432711
466.454 .0431320
467.335 .0429949
468.216 .0428601
469.096 .0427274
469.975 .0425970
470.853 .0424689
471.729 .0423433
472.605 .0422206
473.479 .0421011
474.353 .0419856
475.226 .0418740
476.097 .0417668
476.968 .0416638
477.838 .0415647
478.706 .0414686
479.574 .0413749
480.441 .0412830
481.306 .0411929
482.171 .0411045
483.035 .0410180
483.898 .0409338
484.760 .0408522
485.621 .0407732
486.481 .0406969
487.340 .0406231
488.198 .0405516
489.055 .0404817
489.912 .0404131
490.767 .0403454
491.622 .0402473
492.476 .0401799
493.329 .0401119
494.180 .0400431
495.032 .0399734
495.882 .0399024
496.731 .0398297
497.580 .0397553
498.427 .0396789
499.274 .0396003
500.120 .0395539
500.965 .0394721
501.809 .0393885
502.653 .0393034
503.495 .0392174
504.337 .0391309
505.178 .0390444
506.018 .0389592
506.858 .0388758
507.696 .0387951
508.534 .0387182
509.371 .0386461
510.208 .0385800
511.043 .0385210
511.878 .0384703
512.712 .0384284
513.545 .0383963
514.377 .0383743
515.209 .0383618
516.040 .0383584
516.870 .0383633
517.699 .0383756
518.528 .0383942
519.356 .0384182
520.183 .0384465
521.010 .0384787
521.836 .0385141
522.661 .0385518
523.485 .0385907
524.309 .0386299
525.132 .0386677
525.954 .0387028
526.776 .0387338
527.597 .0387591
528.417 .0387769
529.237 .0387862
530.056 .0387860
530.874 .0387752
531.692 .0387535
532.508 .0387214
533.325 .0386792
534.140 .0386279
534.955 .0385683
535.770 .0385012
536.583 .0384271
537.397 .0383466
538.209 .0382596
539.021 .0381659
539.832 .0380659
540.643 .0379597
541.453 .0378477
542.262 .0377310
543.071 .0376103
543.879 .0374867
544.687 .0373611
545.494 .0372344
546.300 .0371070
547.106 .0369794
547.911 .0368519
548.716 .0367250
549.520 .0365992
550.323 .0364749
551.126 .0363527
551.929 .0362333
552.731 .0361173
553.532 .0360053
554.332 .0358975
555.133 .0357944
555.932 .0356960
556.731 .0356023
557.530 .0355131
558.328 .0354283
559.125 .0353476
559.922 .0352707
560.719 .0351973
561.515 .0351272
562.310 .0350602
563.105 .0349962
563.899 .0349347
564.693 .0348757
565.487 .0348186
566.280 .0347629
567.072 .0347082
567.864 .0346537
568.655 .0345991
569.446 .0345439
570.236 .0344880
571.026 .0344313
571.816 .0343737
572.605 .0343155
573.393 .0342569
574.181 .0341980
574.969 .0341391
575.756 .0340805
576.543 .0340226
577.329 .0339658
578.115 .0339103
578.900 .0338563
579.685 .0338042
580.469 .0337541
581.253 .0337062
582.036 .0336607
582.820 .0336178
583.602 .0335774
584.384 .0335397
585.166 .0335044
585.947 .0334713
586.728 .0334405
587.509 .0334118
588.289 .0333849
589.069 .0333596
589.848 .0333357
590.627 .0333129
591.405 .0332909
592.183 .0332695
592.961 .0332484
593.738 .0332275
594.515 .0332068
595.291 .0331862
596.067 .0331659
596.843 .0331459
597.618 .0331264
598.393 .0330985
599.167 .0330800
599.941 .0330618
600.715 .0330437
601.488 .0330256
602.261 .0330075
603.034 .0329893
603.806 .0329711
604.578 .0329528
605.349 .0329346
606.121 .0329166
606.891 .0329079
607.662 .0328902
608.432 .0328727
609.201 .0328555
609.971 .0328387
610.740 .0328220
611.508 .0328057
612.277 .0327896
613.045 .0327738
613.812 .0327585
614.579 .0327437
615.346 .0327294
616.113 .0327156
616.879 .0327024
617.645 .0326896
618.411 .0326773
619.176 .0326653
619.941 .0326537
620.705 .0326425
621.470 .0326317
622.233 .0326213
622.997 .0326114
623.760 .0326020
624.523 .0325932
625.286 .0325851
626.048 .0325775
626.810 .0325704
627.572 .0325638
628.333 .0325575
629.095 .0325516
629.855 .0325460
630.616 .0325406
631.376 .0325354
632.136 .0325305
632.895 .0325257
633.655 .0325212
634.414 .0325167
635.172 .0325122
635.931 .0325076
636.689 .0325028
637.447 .0324977
638.204 .0324923
638.962 .0324865
639.718 .0324803
640.475 .0324735
641.231 .0324663
641.988 .0324584
642.743 .0324500
643.499 .0324408
644.254 .0324310
645.009 .0324204
645.764 .0324092
646.518 .0323973
647.272 .0323848
648.026 .0323719
648.780 .0323586
649.533 .0323450
650.286 .0323311
651.039 .0323169
651.792 .0323026
652.544 .0322883
653.296 .0322741
654.048 .0322600
654.799 .0322463
655.550 .0322328
656.301 .0322198
657.052 .0322072
657.802 .0321951
658.552 .0321832
659.302 .0321716
660.052 .0321603
660.801 .0321490
661.550 .0321379
662.299 .0321267
663.048 .0321154
663.796 .0321039
664.544 .0320921
665.292 .0320800
666.040 .0320674
666.787 .0320543
667.534 .0320408
668.281 .0320268
669.028 .0320124
669.774 .0319977
670.521 .0319827
671.266 .0319674
672.012 .0319519
672.758 .0319362
673.503 .0319203
674.248 .0319042
674.992 .0318881
675.737 .0318719
676.481 .0318558
677.225 .0318399
677.969 .0318243
678.712 .0318090
679.455 .0317942
680.199 .0317799
680.941 .0317662
681.684 .0317530
682.426 .0317403
683.168 .0317281
683.910 .0317163
684.652 .0317049
685.393 .0316940
686.134 .0316834
686.875 .0316732
687.616 .0316634
688.356 .0316538
689.097 .0316445
689.837 .0316354
690.576 .0316264
691.316 .0316173
692.055 .0316083
692.794 .0315991
693.533 .0315898
694.272 .0315803
695.010 .0315707
695.748 .0315609
696.486 .0315509
697.224 .0315406
697.962 .0315299
698.699 .0315189
699.436 .0315075
700.173 .0314958
700.909 .0314837
701.646 .0314714
702.382 .0314587
703.118 .0314458
703.853 .0314327
704.589 .0314193
705.324 .0314057
706.059 .0313919
706.794 .0313779
707.529 .0313636
708.263 .0313493
708.997 .0313348
709.731 .0313203
710.465 .0313059
711.198 .0312916
711.931 .0312774
712.664 .0312633
713.397 .0312494
714.130 .0312355
714.862 .0312218
715.594 .0312082
716.326 .0311946
717.058 .0311812
717.789 .0311679
718.520 .0311546
719.251 .0311415
719.982 .0311285
720.713 .0311155
721.443 .0311027
722.173 .0310899
722.903 .0310774
723.633 .0310650
724.362 .0310529
725.091 .0310411
725.820 .0310296
726.549 .0310183
727.278 .0310072
728.006 .0309962
728.734 .0309854
729.462 .0309746
730.190 .0309640
730.917 .0309534
731.644 .0309430
732.371 .0309327
733.098 .0309226
733.825 .0309126
734.551 .0309028
735.277 .0308930
736.003 .0308832
736.728 .0308734
737.454 .0308635
738.179 .0308535
738.904 .0308435
739.629 .0308336
740.353 .0308236
741.077 .0308136
741.801 .0308036
742.525 .0307937
743.249 .0307837
743.972 .0307737
744.695 .0307637
745.418 .0307538
746.141 .0307440
746.863 .0307343
747.585 .0307248
748.307 .0307154
749.029 .0307063
749.750 .0306973
750.472 .0306885
751.193 .0306799
751.913 .0306715
752.634 .0306634
753.354 .0306555
754.074 .0306480
754.794 .0306408
755.514 .0306339
756.233 .0306273
756.952 .0306208
757.671 .0306145
758.390 .0306083
759.108 .0306021
759.826 .0305959
760.544 .0305899
761.262 .0305839
761.979 .0305780
762.697 .0305721
763.414 .0305662
764.130 .0305603
764.847 .0305541
765.563 .0305477
766.279 .0305411
766.995 .0305341
767.710 .0305269
768.426 .0305195
769.141 .0305117
769.855 .0305038
770.570 .0304956
771.284 .0304871
771.998 .0304784
772.712 .0304694
773.426 .0304601
774.139 .0304506
774.852 .0304408
775.565 .0304307
776.277 .0304205
776.990 .0304102
777.702 .0303999
778.414 .0303896
779.125 .0303793
779.836 .0303692
780.547 .0303593
781.258 .0303497
781.969 .0303404
782.679 .0303315
783.389 .0303197
784.099 .0303117
784.808 .0303040
785.517 .0302967
786.226 .0302896
786.935 .0302828
787.643 .0302763
788.352 .0302700
789.060 .0302639
789.767 .0302582
790.475 .0302528
791.182 .0302477
791.889 .0302455
792.595 .0302407
793.301 .0302361
794.008 .0302316
794.713 .0302271
795.419 .0302225
796.124 .0302177
796.829 .0302128
797.534 .0302076
798.238 .0302022
798.942 .0301965
799.646 .0301906
800.350 .0301845
801.053 .0301782
801.756 .0301717
802.459 .0301649
803.162 .0301580
803.864 .0301507
804.566 .0301432
805.267 .0301353
805.969 .0301271
806.670 .0301185
807.371 .0301095
808.071 .0301002
808.772 .0300904
809.472 .0300803
810.171 .0300698
810.871 .0300589
811.570 .0300477
812.269 .0300360
812.967 .0300239
813.666 .0300115
814.364 .0299986
815.061 .0299854
815.759 .0299719
816.456 .0299580
817.153 .0299438
817.849 .0299294
818.545 .0299148
819.241 .0298999
819.937 .0298848
820.632 .0298695
821.327 .0298540
822.022 .0298383
822.717 .0298224
823.411 .0298063
824.105 .0297901
824.798 .0297737
825.491 .0297573
826.184 .0297408
826.877 .0297243
827.569 .0297078
828.261 .0296914
828.953 .0296752
829.645 .0296592
830.336 .0296435
831.027 .0296282
831.717 .0296135
832.407 .0295993
833.097 .0295859
833.787 .0295733
834.476 .0295614
835.165 .0295502
835.854 .0295399
836.542 .0295301
837.230 .0295210
837.918 .0295125
838.605 .0295045
839.292 .0294970
839.979 .0294899
840.665 .0294833
841.352 .0294771
842.037 .0294712
842.723 .0294656
843.408 .0294601
844.093 .0294548
844.777 .0294495
845.462 .0294442
846.145 .0294389
846.829 .0294335
847.512 .0294281
848.195 .0294226
848.878 .0294170
849.560 .0294112
850.242 .0294050
850.923 .0293983
851.605 .0293910
852.286 .0293831
852.966 .0293744
853.646 .0293650
854.326 .0293549
855.006 .0293443
855.685 .0293330
856.364 .0293211
857.043 .0293087
857.721 .0292957
858.399 .0292822
859.077 .0292682
859.754 .0292538
860.431 .0292390
861.107 .0292239
861.784 .0292086
862.459 .0291932
863.135 .0291777
863.810 .0291620
864.485 .0291462
865.160 .0291302
865.834 .0291140
866.508 .0290975
867.181 .0290809
867.854 .0290642
868.527 .0290473
869.199 .0290305
869.872 .0290137
870.543 .0289970
871.215 .0289803
871.886 .0289637
872.557 .0289470
873.227 .0289303
873.897 .0289137
874.567 .0288971
875.236 .0288806
875.905 .0288643
876.573 .0288481
877.242 .0288322
877.909 .0288166
878.577 .0288011
879.244 .0287859
879.911 .0287709
880.577 .0287562
881.243 .0287417
881.909 .0287275
882.575 .0287137
883.240 .0287004
883.904 .0286877
884.569 .0286755
885.232 .0286640
885.896 .0286532
886.559 .0286430
887.222 .0286335
887.885 .0286248
888.547 .0286167
889.208 .0286093
889.870 .0286028
890.531 .0285969
891.192 .0285917
891.852 .0285872
892.512 .0285833
893.171 .0285798
893.830 .0285767
894.489 .0285739
895.148 .0285712
895.806 .0285687
896.464 .0285662
897.121 .0285638
897.778 .0285614
898.434 .0285589
899.091 .0285539
899.747 .0285508
900.402 .0285475
901.057 .0285436
901.712 .0285393
902.366 .0285342
903.020 .0285283
903.674 .0285216
904.327 .0285140
904.980 .0285054
905.633 .0284957
906.285 .0284851
906.936 .0284734
907.588 .0284649
908.239 .0284516
908.889 .0284372
909.540 .0284218
910.190 .0284054
910.839 .0283881
911.488 .0283698
912.137 .0283507
912.785 .0283308
913.433 .0283102
914.081 .0282890
914.728 .0282673
915.375 .0282451
916.021 .0282225
916.668 .0281997
917.313 .0281765
917.959 .0281533
918.604 .0281299
919.248 .0281064
919.892 .0280830
920.536 .0280598
921.180 .0280367
921.823 .0280139
922.465 .0279914
923.108 .0279693
923.750 .0279475
924.391 .0279260
925.032 .0279050
925.673 .0278843
926.313 .0278640
926.953 .0278440
927.593 .0278244
928.232 .0278053
928.871 .0277865
929.510 .0277682
930.148 .0277503
930.786 .0277328
931.423 .0277156
932.060 .0276988
932.697 .0276823
933.333 .0276660
933.969 .0276499
934.604 .0276341
935.239 .0276185
935.874 .0276032
936.508 .0275881
937.142 .0275734
937.776 .0275590
938.409 .0275451
939.042 .0275315
939.674 .0275184
940.306 .0275057
940.938 .0274934
941.569 .0274815
942.200 .0274699
942.830 .0274588
943.460 .0274480
944.090 .0274377
944.720 .0274278
945.349 .0274183
945.977 .0274093
946.606 .0274007
947.233 .0273926
947.861 .0273848
948.488 .0273773
949.115 .0273701
949.741 .0273631
950.367 .0273563
950.993 .0273496
951.618 .0273430
952.243 .0273364
952.868 .0273300
953.492 .0273235
954.115 .0273172
954.739 .0273109
955.362 .0273045
955.984 .0272982
956.607 .0272918
957.229 .0272852
957.850 .0272785
958.471 .0272715
959.092 .0272644
959.713 .0272570
960.333 .0272494
960.952 .0272416
961.572 .0272335
962.191 .0272251
962.809 .0272164
963.428 .0272073
964.045 .0271978
964.663 .0271879
965.280 .0271775
965.897 .0271666
966.513 .0271552
967.129 .0271433
967.745 .0271308
968.361 .0271179
968.976 .0271043
969.590 .0270902
970.205 .0270753
970.818 .0270598
971.432 .0270435
972.045 .0270265
972.658 .0270089
973.271 .0269906
973.883 .0269719
974.495 .0269529
975.106 .0269336
975.717 .0269141
976.328 .0268946
976.938 .0268751
977.548 .0268556
978.158 .0268362
978.768 .0268080
979.377 .0267894
979.985 .0267714
980.594 .0267539
981.202 .0267372
981.809 .0267212
982.417 .0267061
983.024 .0266920
983.631 .0266787
984.237 .0266663
984.843 .0266548
985.449 .0266442
986.054 .0266344
986.659 .0266256
987.264 .0266244
987.868 .0266169
988.472 .0266102
989.076 .0266044
989.679 .0265995
990.282 .0265956
990.885 .0265926
991.487 .0265903
992.090 .0265889
992.691 .0265882
993.293 .0265881
993.894 .0265887
994.495 .0265898
995.095 .0265914
995.696 .0265935
996.296 .0265959
996.895 .0265987
997.494 .0266018
998.093 .0266050
998.692 .0266084
999.291 .0266118
999.889 .0266151
1000.487 .0266184
1001.084 .0266217
1001.681 .0266249
1002.278 .0266281
1002.875 .0266314
1003.471 .0266347
1004.067 .0266380
1004.663 .0266415
1005.258 .0266450
1005.854 .0266486
1006.449 .0266522
1007.043 .0266560
1007.638 .0266598
1008.232 .0266638
1008.826 .0266680
1009.419 .0266725
1010.012 .0266773
1010.605 .0266823
1011.198 .0266876
1011.791 .0266930
1012.383 .0266985
1012.975 .0267042
1013.566 .0267098
1014.158 .0267155
1014.749 .0267212
1015.340 .0267269
1015.931 .0267326
1016.521 .0267385
1017.111 .0267445
1017.701 .0267506
1018.291 .0267568
1018.880 .0267631
1019.470 .0267692
1020.059 .0267753
1020.647 .0267811
1021.236 .0267867
1021.824 .0267921
1022.412 .0267973
1023.000 .0268024
1023.588 .0268073
1024.175 .0268122
1024.762 .0268170
1025.349 .0268216
1025.936 .0268260
1026.523 .0268301
1027.109 .0268338
1027.695 .0268370
1028.281 .0268396
1028.867 .0268417
1029.452 .0268433
1030.038 .0268444
1030.623 .0268451
1031.208 .0268454
1031.792 .0268453
1032.377 .0268448
1032.961 .0268438
1033.546 .0268422
1034.130 .0268398
1034.714 .0268366
1035.297 .0268326
1035.881 .0268277
1036.464 .0268221
1037.047 .0268158
1037.630 .0268089
1038.213 .0268017
1038.796 .0267940
1039.378 .0267859
1039.961 .0267773
1040.543 .0267681
1041.125 .0267581
1041.707 .0267472
1042.289 .0267354
1042.871 .0267228
1043.452 .0267094
1044.034 .0266955
1044.615 .0266812
1045.196 .0266667
1045.777 .0266520
1046.358 .0266371
1046.939 .0266220
1047.520 .0266066
1048.101 .0265909
1048.681 .0265749
1049.262 .0265586
1049.842 .0265421
1050.422 .0265258
1051.002 .0265096
1051.582 .0264940
1052.162 .0264789
1052.742 .0264644
1053.322 .0264506
1053.902 .0264374
1054.482 .0264247
1055.061 .0264124
1055.641 .0264006
1056.220 .0263892
1056.800 .0263784
1057.379 .0263682
1057.958 .0263587
1058.538 .0263500
1059.117 .0263422
1059.696 .0263351
1060.275 .0263288
1060.854 .0263232
1061.433 .0263182
1062.012 .0263136
1062.592 .0263096
1063.171 .0263061
1063.750 .0263031
1064.329 .0263007
1064.908 .0262990
1065.487 .0262980
1066.066 .0262976
1066.645 .0262978
1067.224 .0262985
1067.803 .0262998
1068.382 .0263015
1068.961 .0263036
1069.540 .0263061
1070.119 .0263092
1070.698 .0263127
1071.278 .0263168
1071.857 .0263213
1072.436 .0263261
1073.016 .0263311
1073.595 .0263362
1074.175 .0263413
1074.754 .0263463
1075.334 .0263514
1075.913 .0263565
1076.493 .0263617
1077.073 .0263671
1077.653 .0263727
1078.233 .0263786
1078.813 .0263849
1079.393 .0263916
1079.974 .0263987
1080.554 .0264062
1081.135 .0264142
1081.716 .0264227
1082.296 .0264317
1082.877 .0264413
1083.458 .0264515
1084.040 .0264622
1084.621 .0264734
1085.202 .0264848
1085.784 .0264963
1086.366 .0265078
1086.948 .0265190
1087.530 .0265298
1088.112 .0265400
1088.695 .0265498
1089.277 .0265591
1089.860 .0265679
1090.443 .0265763
1091.026 .0265843
1091.610 .0265918
1092.193 .0265988
1092.777 .0266050
1093.361 .0266106
1093.946 .0266154
1094.530 .0266195
1095.115 .0266229
1095.700 .0266257
1096.285 .0266279
1096.871 .0266295
1097.456 .0266305
1098.042 .0266308
1098.628 .0266305
1099.215 .0266293
1099.802 .0266274
1100.389 .0266247
1100.976 .0266214
1101.564 .0266175
1102.152 .0266132
1102.740 .0266088
1103.329 .0266042
1103.917 .0265995
1104.507 .0265949
1105.096 .0265900
1105.686 .0265851
1106.276 .0265800
1106.867 .0265749
1107.457 .0265699
1108.049 .0265649
1108.640 .0265600
1109.232 .0265555
1109.825 .0265512
1110.417 .0265470
1111.010 .0265430
1111.604 .0265389
1112.198 .0265346
1112.792 .0265301
1113.387 .0265254
1113.982 .0265207
1114.577 .0265161
1115.173 .0265120
1115.769 .0265085
1116.366 .0265060
1116.963 .0265047
1117.561 .0265046
1118.159 .0265058
1118.758 .0265082
1119.357 .0265117
1119.957 .0265160
1120.557 .0265212
1121.157 .0265273
1121.758 .0265343
1122.360 .0265423
1122.962 .0265510
1123.564 .0265606
1124.167 .0265615
1124.771 .0265724
1125.375 .0265840
1125.980 .0265960
1126.585 .0266084
1127.191 .0266211
1127.797 .0266342
1128.404 .0266479
1129.012 .0266622
1129.620 .0266774
1130.229 .0266936
1130.838 .0267107
1131.448 .0267286
1132.058 .0267475
1132.669 .0267793
1133.281 .0267999
1133.894 .0268207
1134.507 .0268407
1135.120 .0268670
1135.735 .0268905
1136.350 .0269132
1136.965 .0268660
1137.582 .0268751
1138.199 .0268901
1138.816 .0269041
1139.435 .0269229
1140.054 .0269514
1140.674 .0269839
1141.294 .0270232
1141.916 .0270629
1142.538 .0270757
1143.160 .0272846
1143.784 .0272511
1144.408 .0272651
1145.033 .0271567
