Measurement Sequence started on: 14-45-04-498
Integration time: 36
Scans to Average: 2 
>>>>>Begin Spectral Data<<<<<
433.946 .0682337
434.870 .0550904
435.793 .0467280
436.715 .0447689
437.635 .0435070
438.555 .0454413
439.473 .0441236
440.389 .0435395
441.305 .0433271
442.219 .0431954
443.132 .0439866
444.044 .0433025
444.954 .0430527
445.863 .0428989
446.771 .0428026
447.678 .0425944
448.584 .0424446
449.488 .0423140
450.391 .0421835
451.293 .0420493
452.194 .0419115
453.094 .0417709
453.992 .0416281
454.890 .0414837
455.786 .0413369
456.681 .0411866
457.575 .0410306
458.468 .0408681
459.360 .0406988
460.250 .0405235
461.140 .0403429
462.028 .0401596
462.915 .0399763
463.801 .0397960
464.687 .0396208
465.571 .0394523
466.454 .0392913
467.335 .0391372
468.216 .0389895
469.096 .0388469
469.975 .0387090
470.853 .0385757
471.729 .0384471
472.605 .0383244
473.479 .0382090
474.353 .0381022
475.226 .0380047
476.097 .0379170
476.968 .0378388
477.838 .0377690
478.706 .0377064
479.574 .0376493
480.441 .0375966
481.306 .0375467
482.171 .0374990
483.035 .0374527
483.898 .0374077
484.760 .0373638
485.621 .0373209
486.481 .0372787
487.340 .0372372
488.198 .0371961
489.055 .0371548
489.912 .0371128
490.767 .0370698
491.622 .0369984
492.476 .0369500
493.329 .0368986
494.180 .0368443
495.032 .0367875
495.882 .0367285
496.731 .0366679
497.580 .0366064
498.427 .0365441
499.274 .0364816
500.120 .0364499
500.965 .0363876
501.809 .0363249
502.653 .0362620
503.495 .0361990
504.337 .0361357
505.178 .0360728
506.018 .0360105
506.858 .0359492
507.696 .0358891
508.534 .0358307
509.371 .0357743
510.208 .0357210
511.043 .0356717
511.878 .0356272
512.712 .0355881
513.545 .0355550
514.377 .0355279
515.209 .0355072
516.040 .0354922
516.870 .0354821
517.699 .0354759
518.528 .0354734
519.356 .0354736
520.183 .0354759
521.010 .0354803
521.836 .0354870
522.661 .0354957
523.485 .0355066
524.309 .0355194
525.132 .0355337
525.954 .0355490
526.776 .0355645
527.597 .0355785
528.417 .0355896
529.237 .0355966
530.056 .0355982
530.874 .0355939
531.692 .0355833
532.508 .0355659
533.325 .0355424
534.140 .0355143
534.955 .0354818
535.770 .0354455
536.583 .0354059
537.397 .0353630
538.209 .0353161
539.021 .0352646
539.832 .0352076
540.643 .0351444
541.453 .0350750
542.262 .0349993
543.071 .0349173
543.879 .0348300
544.687 .0347384
545.494 .0346429
546.300 .0345438
547.106 .0344415
547.911 .0343352
548.716 .0342252
549.520 .0341121
550.323 .0339962
551.126 .0338775
551.929 .0337572
552.731 .0336363
553.532 .0335157
554.332 .0333966
555.133 .0332797
555.932 .0331658
556.731 .0330555
557.530 .0329489
558.328 .0328459
559.125 .0327472
559.922 .0326530
560.719 .0325634
561.515 .0324786
562.310 .0323990
563.105 .0323247
563.899 .0322559
564.693 .0321926
565.487 .0321344
566.280 .0320806
567.072 .0320303
567.864 .0319826
568.655 .0319369
569.446 .0318927
570.236 .0318496
571.026 .0318074
571.816 .0317664
572.605 .0317265
573.393 .0316878
574.181 .0316505
574.969 .0316146
575.756 .0315799
576.543 .0315460
577.329 .0315128
578.115 .0314802
578.900 .0314482
579.685 .0314169
580.469 .0313864
581.253 .0313573
582.036 .0313298
582.820 .0313041
583.602 .0312805
584.384 .0312592
585.166 .0312400
585.947 .0312226
586.728 .0312069
587.509 .0311925
588.289 .0311789
589.069 .0311658
589.848 .0311528
590.627 .0311398
591.405 .0311267
592.183 .0311135
592.961 .0311005
593.738 .0310877
594.515 .0310751
595.291 .0310627
596.067 .0310506
596.843 .0310384
597.618 .0310262
598.393 .0310072
599.167 .0309949
599.941 .0309825
600.715 .0309701
601.488 .0309579
602.261 .0309460
603.034 .0309345
603.806 .0309236
604.578 .0309132
605.349 .0309033
606.121 .0308939
606.891 .0308907
607.662 .0308816
608.432 .0308727
609.201 .0308640
609.971 .0308555
610.740 .0308473
611.508 .0308394
612.277 .0308318
613.045 .0308246
613.812 .0308176
614.579 .0308109
615.346 .0308043
616.113 .0307978
616.879 .0307913
617.645 .0307848
618.411 .0307783
619.176 .0307717
619.941 .0307651
620.705 .0307587
621.470 .0307524
622.233 .0307464
622.997 .0307407
623.760 .0307354
624.523 .0307306
625.286 .0307264
626.048 .0307227
626.810 .0307195
627.572 .0307167
628.333 .0307140
629.095 .0307114
629.855 .0307086
630.616 .0307056
631.376 .0307023
632.136 .0306986
632.895 .0306946
633.655 .0306903
634.414 .0306856
635.172 .0306806
635.931 .0306752
636.689 .0306692
637.447 .0306625
638.204 .0306551
638.962 .0306468
639.718 .0306377
640.475 .0306279
641.231 .0306175
641.988 .0306066
642.743 .0305955
643.499 .0305843
644.254 .0305731
645.009 .0305620
645.764 .0305512
646.518 .0305408
647.272 .0305309
648.026 .0305214
648.780 .0305124
649.533 .0305039
650.286 .0304959
651.039 .0304883
651.792 .0304811
652.544 .0304743
653.296 .0304677
654.048 .0304616
654.799 .0304558
655.550 .0304504
656.301 .0304453
657.052 .0304403
657.802 .0304354
658.552 .0304303
659.302 .0304248
660.052 .0304188
660.801 .0304121
661.550 .0304046
662.299 .0303964
663.048 .0303874
663.796 .0303776
664.544 .0303671
665.292 .0303559
666.040 .0303441
666.787 .0303316
667.534 .0303186
668.281 .0303052
669.028 .0302913
669.774 .0302772
670.521 .0302628
671.266 .0302483
672.012 .0302335
672.758 .0302187
673.503 .0302037
674.248 .0301888
674.992 .0301740
675.737 .0301595
676.481 .0301454
677.225 .0301318
677.969 .0301187
678.712 .0301062
679.455 .0300942
680.199 .0300828
680.941 .0300717
681.684 .0300609
682.426 .0300505
683.168 .0300402
683.910 .0300302
684.652 .0300203
685.393 .0300104
686.134 .0300007
686.875 .0299909
687.616 .0299812
688.356 .0299715
689.097 .0299617
689.837 .0299519
690.576 .0299420
691.316 .0299319
692.055 .0299215
692.794 .0299108
693.533 .0298996
694.272 .0298880
695.010 .0298760
695.748 .0298637
696.486 .0298513
697.224 .0298388
697.962 .0298265
698.699 .0298144
699.436 .0298025
700.173 .0297908
700.909 .0297794
701.646 .0297681
702.382 .0297570
703.118 .0297461
703.853 .0297354
704.589 .0297250
705.324 .0297149
706.059 .0297052
706.794 .0296960
707.529 .0296873
708.263 .0296790
708.997 .0296712
709.731 .0296638
710.465 .0296568
711.198 .0296501
711.931 .0296435
712.664 .0296370
713.397 .0296304
714.130 .0296236
714.862 .0296166
715.594 .0296093
716.326 .0296018
717.058 .0295939
717.789 .0295857
718.520 .0295771
719.251 .0295682
719.982 .0295589
720.713 .0295491
721.443 .0295387
722.173 .0295278
722.903 .0295162
723.633 .0295041
724.362 .0294913
725.091 .0294780
725.820 .0294644
726.549 .0294504
727.278 .0294361
728.006 .0294216
728.734 .0294070
729.462 .0293921
730.190 .0293772
730.917 .0293620
731.644 .0293468
732.371 .0293315
733.098 .0293162
733.825 .0293010
734.551 .0292861
735.277 .0292715
736.003 .0292574
736.728 .0292440
737.454 .0292313
738.179 .0292195
738.904 .0292086
739.629 .0291987
740.353 .0291899
741.077 .0291820
741.801 .0291752
742.525 .0291693
743.249 .0291644
743.972 .0291605
744.695 .0291575
745.418 .0291556
746.141 .0291545
746.863 .0291544
747.585 .0291551
748.307 .0291563
749.029 .0291581
749.750 .0291601
750.472 .0291623
751.193 .0291644
751.913 .0291664
752.634 .0291681
753.354 .0291694
754.074 .0291701
754.794 .0291703
755.514 .0291697
756.233 .0291682
756.952 .0291657
757.671 .0291622
758.390 .0291577
759.108 .0291522
759.826 .0291457
760.544 .0291382
761.262 .0291297
761.979 .0291203
762.697 .0291099
763.414 .0290985
764.130 .0290862
764.847 .0290731
765.563 .0290595
766.279 .0290453
766.995 .0290310
767.710 .0290166
768.426 .0290024
769.141 .0289884
769.855 .0289746
770.570 .0289612
771.284 .0289481
771.998 .0289354
772.712 .0289231
773.426 .0289111
774.139 .0288996
774.852 .0288886
775.565 .0288781
776.277 .0288683
776.990 .0288591
777.702 .0288508
778.414 .0288432
779.125 .0288365
779.836 .0288307
780.547 .0288257
781.258 .0288215
781.969 .0288181
782.679 .0288154
783.389 .0288135
784.099 .0288120
784.808 .0288110
785.517 .0288103
786.226 .0288098
786.935 .0288094
787.643 .0288091
788.352 .0288086
789.060 .0288080
789.767 .0288072
790.475 .0288062
791.182 .0288049
791.889 .0288028
792.595 .0288008
793.301 .0287984
794.008 .0287956
794.713 .0287921
795.419 .0287878
796.124 .0287829
796.829 .0287772
797.534 .0287707
798.238 .0287635
798.942 .0287557
799.646 .0287473
800.350 .0287384
801.053 .0287288
801.756 .0287187
802.459 .0287078
803.162 .0286962
803.864 .0286840
804.566 .0286710
805.267 .0286575
805.969 .0286435
806.670 .0286292
807.371 .0286145
808.071 .0285996
808.772 .0285846
809.472 .0285695
810.171 .0285544
810.871 .0285391
811.570 .0285238
812.269 .0285085
812.967 .0284932
813.666 .0284780
814.364 .0284629
815.061 .0284480
815.759 .0284333
816.456 .0284188
817.153 .0284045
817.849 .0283903
818.545 .0283764
819.241 .0283627
819.937 .0283493
820.632 .0283361
821.327 .0283233
822.022 .0283110
822.717 .0282993
823.411 .0282882
824.105 .0282777
824.798 .0282679
825.491 .0282586
826.184 .0282498
826.877 .0282414
827.569 .0282333
828.261 .0282257
828.953 .0282183
829.645 .0282113
830.336 .0282047
831.027 .0281984
831.717 .0281925
832.407 .0281868
833.097 .0281813
833.787 .0281759
834.476 .0281705
835.165 .0281650
835.854 .0281593
836.542 .0281534
837.230 .0281473
837.918 .0281410
838.605 .0281344
839.292 .0281275
839.979 .0281202
840.665 .0281126
841.352 .0281045
842.037 .0280958
842.723 .0280867
843.408 .0280770
844.093 .0280667
844.777 .0280557
845.462 .0280442
846.145 .0280320
846.829 .0280191
847.512 .0280057
848.195 .0279916
848.878 .0279768
849.560 .0279614
850.242 .0279453
850.923 .0279285
851.605 .0279111
852.286 .0278929
852.966 .0278740
853.646 .0278544
854.326 .0278341
855.006 .0278131
855.685 .0277915
856.364 .0277693
857.043 .0277467
857.721 .0277237
858.399 .0277004
859.077 .0276771
859.754 .0276537
860.431 .0276305
861.107 .0276075
861.784 .0275850
862.459 .0275629
863.135 .0275414
863.810 .0275207
864.485 .0275006
865.160 .0274814
865.834 .0274630
866.508 .0274456
867.181 .0274292
867.854 .0274140
868.527 .0274000
869.199 .0273873
869.872 .0273758
870.543 .0273657
871.215 .0273568
871.886 .0273492
872.557 .0273427
873.227 .0273372
873.897 .0273327
874.567 .0273291
875.236 .0273265
875.905 .0273247
876.573 .0273236
877.242 .0273231
877.909 .0273232
878.577 .0273235
879.244 .0273240
879.911 .0273246
880.577 .0273251
881.243 .0273255
881.909 .0273257
882.575 .0273256
883.240 .0273254
883.904 .0273248
884.569 .0273238
885.232 .0273224
885.896 .0273205
886.559 .0273181
887.222 .0273152
887.885 .0273118
888.547 .0273078
889.208 .0273033
889.870 .0272983
890.531 .0272927
891.192 .0272863
891.852 .0272792
892.512 .0272712
893.171 .0272623
893.830 .0272525
894.489 .0272417
895.148 .0272301
895.806 .0272176
896.464 .0272043
897.121 .0271902
897.778 .0271754
898.434 .0271598
899.091 .0271334
899.747 .0271162
900.402 .0270984
901.057 .0270800
901.712 .0270610
902.366 .0270413
903.020 .0270212
903.674 .0270005
904.327 .0269793
904.980 .0269577
905.633 .0269358
906.285 .0269135
906.936 .0268910
907.588 .0268793
908.239 .0268566
908.889 .0268336
909.540 .0268105
910.190 .0267874
910.839 .0267643
911.488 .0267413
912.137 .0267187
912.785 .0266964
913.433 .0266747
914.081 .0266536
914.728 .0266331
915.375 .0266132
916.021 .0265938
916.668 .0265750
917.313 .0265567
917.959 .0265388
918.604 .0265215
919.248 .0265048
919.892 .0264887
920.536 .0264733
921.180 .0264587
921.823 .0264449
922.465 .0264319
923.108 .0264195
923.750 .0264078
924.391 .0263967
925.032 .0263861
925.673 .0263762
926.313 .0263668
926.953 .0263581
927.593 .0263500
928.232 .0263424
928.871 .0263354
929.510 .0263289
930.148 .0263228
930.786 .0263169
931.423 .0263112
932.060 .0263057
932.697 .0263002
933.333 .0262950
933.969 .0262901
934.604 .0262853
935.239 .0262810
935.874 .0262770
936.508 .0262733
937.142 .0262698
937.776 .0262667
938.409 .0262637
939.042 .0262608
939.674 .0262581
940.306 .0262555
940.938 .0262530
941.569 .0262506
942.200 .0262482
942.830 .0262458
943.460 .0262432
944.090 .0262404
944.720 .0262372
945.349 .0262334
945.977 .0262290
946.606 .0262239
947.233 .0262180
947.861 .0262113
948.488 .0262038
949.115 .0261954
949.741 .0261860
950.367 .0261757
950.993 .0261643
951.618 .0261517
952.243 .0261378
952.868 .0261227
953.492 .0261062
954.115 .0260884
954.739 .0260694
955.362 .0260491
955.984 .0260279
956.607 .0260056
957.229 .0259824
957.850 .0259584
958.471 .0259335
959.092 .0259079
959.713 .0258816
960.333 .0258547
960.952 .0258274
961.572 .0257998
962.191 .0257720
962.809 .0257444
963.428 .0257169
964.045 .0256899
964.663 .0256635
965.280 .0256377
965.897 .0256127
966.513 .0255884
967.129 .0255648
967.745 .0255419
968.361 .0255198
968.976 .0254984
969.590 .0254777
970.205 .0254578
970.818 .0254386
971.432 .0254201
972.045 .0254022
972.658 .0253849
973.271 .0253682
973.883 .0253520
974.495 .0253362
975.106 .0253208
975.717 .0253061
976.328 .0252920
976.938 .0252786
977.548 .0252660
978.158 .0252543
978.768 .0252389
979.377 .0252295
979.985 .0252210
980.594 .0252134
981.202 .0252067
981.809 .0252009
982.417 .0251960
983.024 .0251921
983.631 .0251892
984.237 .0251873
984.843 .0251864
985.449 .0251865
986.054 .0251877
986.659 .0251898
987.264 .0251947
987.868 .0251982
988.472 .0252027
989.076 .0252083
989.679 .0252148
990.282 .0252225
990.885 .0252312
991.487 .0252412
992.090 .0252522
992.691 .0252642
993.293 .0252772
993.894 .0252909
994.495 .0253052
995.095 .0253199
995.696 .0253348
996.296 .0253498
996.895 .0253648
997.494 .0253797
998.093 .0253944
998.692 .0254090
999.291 .0254233
999.889 .0254374
1000.487 .0254511
1001.084 .0254644
1001.681 .0254774
1002.278 .0254899
1002.875 .0255020
1003.471 .0255137
1004.067 .0255249
1004.663 .0255358
1005.258 .0255461
1005.854 .0255560
1006.449 .0255653
1007.043 .0255740
1007.638 .0255818
1008.232 .0255888
1008.826 .0255950
1009.419 .0256002
1010.012 .0256045
1010.605 .0256081
1011.198 .0256109
1011.791 .0256131
1012.383 .0256148
1012.975 .0256162
1013.566 .0256174
1014.158 .0256183
1014.749 .0256190
1015.340 .0256194
1015.931 .0256197
1016.521 .0256196
1017.111 .0256193
1017.701 .0256186
1018.291 .0256176
1018.880 .0256162
1019.470 .0256143
1020.059 .0256118
1020.647 .0256088
1021.236 .0256051
1021.824 .0256005
1022.412 .0255952
1023.000 .0255891
1023.588 .0255822
1024.175 .0255745
1024.762 .0255663
1025.349 .0255574
1025.936 .0255481
1026.523 .0255383
1027.109 .0255281
1027.695 .0255174
1028.281 .0255063
1028.867 .0254948
1029.452 .0254828
1030.038 .0254704
1030.623 .0254576
1031.208 .0254445
1031.792 .0254310
1032.377 .0254173
1032.961 .0254033
1033.546 .0253891
1034.130 .0253748
1034.714 .0253603
1035.297 .0253458
1035.881 .0253312
1036.464 .0253167
1037.047 .0253023
1037.630 .0252881
1038.213 .0252742
1038.796 .0252606
1039.378 .0252475
1039.961 .0252347
1040.543 .0252225
1041.125 .0252107
1041.707 .0251992
1042.289 .0251882
1042.871 .0251774
1043.452 .0251669
1044.034 .0251567
1044.615 .0251467
1045.196 .0251369
1045.777 .0251275
1046.358 .0251183
1046.939 .0251095
1047.520 .0251011
1048.101 .0250931
1048.681 .0250855
1049.262 .0250783
1049.842 .0250716
1050.422 .0250653
1051.002 .0250595
1051.582 .0250543
1052.162 .0250500
1052.742 .0250466
1053.322 .0250443
1053.902 .0250432
1054.482 .0250435
1055.061 .0250452
1055.641 .0250483
1056.220 .0250530
1056.800 .0250591
1057.379 .0250667
1057.958 .0250758
1058.538 .0250862
1059.117 .0250979
1059.696 .0251107
1060.275 .0251244
1060.854 .0251389
1061.433 .0251540
1062.012 .0251696
1062.592 .0251855
1063.171 .0252016
1063.750 .0252177
1064.329 .0252338
1064.908 .0252497
1065.487 .0252652
1066.066 .0252802
1066.645 .0252946
1067.224 .0253085
1067.803 .0253217
1068.382 .0253345
1068.961 .0253467
1069.540 .0253586
1070.119 .0253701
1070.698 .0253811
1071.278 .0253916
1071.857 .0254014
1072.436 .0254104
1073.016 .0254185
1073.595 .0254256
1074.175 .0254315
1074.754 .0254364
1075.334 .0254404
1075.913 .0254434
1076.493 .0254456
1077.073 .0254469
1077.653 .0254474
1078.233 .0254469
1078.813 .0254456
1079.393 .0254434
1079.974 .0254404
1080.554 .0254367
1081.135 .0254327
1081.716 .0254284
1082.296 .0254242
1082.877 .0254202
1083.458 .0254166
1084.040 .0254133
1084.621 .0254100
1085.202 .0254066
1085.784 .0254028
1086.366 .0253986
1086.948 .0253939
1087.530 .0253886
1088.112 .0253829
1088.695 .0253769
1089.277 .0253706
1089.860 .0253641
1090.443 .0253574
1091.026 .0253505
1091.610 .0253431
1092.193 .0253353
1092.777 .0253269
1093.361 .0253181
1093.946 .0253091
1094.530 .0253002
1095.115 .0252917
1095.700 .0252840
1096.285 .0252773
1096.871 .0252716
1097.456 .0252669
1098.042 .0252631
1098.628 .0252600
1099.215 .0252574
1099.802 .0252550
1100.389 .0252526
1100.976 .0252502
1101.564 .0252479
1102.152 .0252457
1102.740 .0252436
1103.329 .0252415
1103.917 .0252392
1104.507 .0252367
1105.096 .0252339
1105.686 .0252307
1106.276 .0252269
1106.867 .0252228
1107.457 .0252182
1108.049 .0252136
1108.640 .0252091
1109.232 .0252050
1109.825 .0252015
1110.417 .0251986
1111.010 .0251962
1111.604 .0251941
1112.198 .0251922
1112.792 .0251900
1113.387 .0251873
1113.982 .0251840
1114.577 .0251796
1115.173 .0251740
1115.769 .0251672
1116.366 .0251591
1116.963 .0251496
1117.561 .0251389
1118.159 .0251270
1118.758 .0251140
1119.357 .0251004
1119.957 .0250865
1120.557 .0250726
1121.157 .0250593
1121.758 .0250466
1122.360 .0250346
1122.962 .0250235
1123.564 .0250131
1124.167 .0250073
1124.771 .0249976
1125.375 .0249883
1125.980 .0249796
1126.585 .0249716
1127.191 .0249646
1127.797 .0249590
1128.404 .0249551
1129.012 .0249531
1129.620 .0249531
1130.229 .0249550
1130.838 .0249586
1131.448 .0249636
1132.058 .0249706
1132.669 .0249779
1133.281 .0249903
1133.894 .0250052
1134.507 .0250251
1135.120 .0250517
1135.735 .0250777
1136.350 .0250966
1136.965 .0250794
1137.582 .0251298
1138.199 .0251732
1138.816 .0252063
1139.435 .0252364
1140.054 .0252683
1140.674 .0253011
1141.294 .0253296
1141.916 .0253626
1142.538 .0254623
1143.160 .0256113
1143.784 .0255631
1144.408 .0253550
1145.033 .0254531
