Measurement Sequence started on: 14-45-04-498
Integration time: 36
Scans to Average: 2 
>>>>>Begin Spectral Data<<<<<
433.946 .0609533
434.870 .0580080
435.793 .0534287
436.715 .0528366
437.635 .0520265
438.555 .0523609
439.473 .0515163
440.389 .0508639
441.305 .0503882
442.219 .0499502
443.132 .0504451
444.044 .0499120
444.954 .0496136
445.863 .0493410
446.771 .0491071
447.678 .0488523
448.584 .0486387
449.488 .0484561
450.391 .0482942
451.293 .0481504
452.194 .0480201
453.094 .0478997
453.992 .0477857
454.890 .0476750
455.786 .0475659
456.681 .0474581
457.575 .0473517
458.468 .0472482
459.360 .0471478
460.250 .0470504
461.140 .0469550
462.028 .0468610
462.915 .0467675
463.801 .0466736
464.687 .0465786
465.571 .0464831
466.454 .0463875
467.335 .0462929
468.216 .0462002
469.096 .0461102
469.975 .0460238
470.853 .0459410
471.729 .0458616
472.605 .0457856
473.479 .0457128
474.353 .0456431
475.226 .0455761
476.097 .0455121
476.968 .0454509
477.838 .0453925
478.706 .0453368
479.574 .0452839
480.441 .0452337
481.306 .0451862
482.171 .0451409
483.035 .0450978
483.898 .0450567
484.760 .0450174
485.621 .0449796
486.481 .0449437
487.340 .0449096
488.198 .0448776
489.055 .0448479
489.912 .0448207
490.767 .0447964
491.622 .0447715
492.476 .0447550
493.329 .0447412
494.180 .0447296
495.032 .0447200
495.882 .0447120
496.731 .0447051
497.580 .0446987
498.427 .0446922
499.274 .0446849
500.120 .0446790
500.965 .0446675
501.809 .0446533
502.653 .0446360
503.495 .0446152
504.337 .0445904
505.178 .0445610
506.018 .0445267
506.858 .0444870
507.696 .0444418
508.534 .0443911
509.371 .0443350
510.208 .0442739
511.043 .0442086
511.878 .0441400
512.712 .0440694
513.545 .0439975
514.377 .0439253
515.209 .0438534
516.040 .0437829
516.870 .0437141
517.699 .0436477
518.528 .0435842
519.356 .0435246
520.183 .0434688
521.010 .0434169
521.836 .0433688
522.661 .0433244
523.485 .0432831
524.309 .0432447
525.132 .0432085
525.954 .0431738
526.776 .0431402
527.597 .0431072
528.417 .0430738
529.237 .0430395
530.056 .0430040
530.874 .0429666
531.692 .0429270
532.508 .0428850
533.325 .0428407
534.140 .0427945
534.955 .0427471
535.770 .0426991
536.583 .0426509
537.397 .0426033
538.209 .0425570
539.021 .0425122
539.832 .0424696
540.643 .0424293
541.453 .0423914
542.262 .0423561
543.071 .0423235
543.879 .0422935
544.687 .0422662
545.494 .0422416
546.300 .0422197
547.106 .0421998
547.911 .0421815
548.716 .0421645
549.520 .0421482
550.323 .0421323
551.126 .0421163
551.929 .0420994
552.731 .0420812
553.532 .0420610
554.332 .0420384
555.133 .0420132
555.932 .0419855
556.731 .0419552
557.530 .0419224
558.328 .0418874
559.125 .0418503
559.922 .0418113
560.719 .0417709
561.515 .0417289
562.310 .0416856
563.105 .0416410
563.899 .0415952
564.693 .0415485
565.487 .0415012
566.280 .0414536
567.072 .0414058
567.864 .0413579
568.655 .0413100
569.446 .0412621
570.236 .0412146
571.026 .0411676
571.816 .0411211
572.605 .0410752
573.393 .0410299
574.181 .0409854
574.969 .0409418
575.756 .0408994
576.543 .0408584
577.329 .0408188
578.115 .0407807
578.900 .0407442
579.685 .0407093
580.469 .0406761
581.253 .0406446
582.036 .0406146
582.820 .0405862
583.602 .0405592
584.384 .0405333
585.166 .0405085
585.947 .0404845
586.728 .0404609
587.509 .0404374
588.289 .0404137
589.069 .0403893
589.848 .0403642
590.627 .0403383
591.405 .0403117
592.183 .0402845
592.961 .0402567
593.738 .0402285
594.515 .0402000
595.291 .0401712
596.067 .0401419
596.843 .0401120
597.618 .0400817
598.393 .0400345
599.167 .0400029
599.941 .0399711
600.715 .0399392
601.488 .0399074
602.261 .0398758
603.034 .0398445
603.806 .0398137
604.578 .0397834
605.349 .0397537
606.121 .0397246
606.891 .0397113
607.662 .0396831
608.432 .0396556
609.201 .0396287
609.971 .0396024
610.740 .0395766
611.508 .0395513
612.277 .0395266
613.045 .0395024
613.812 .0394786
614.579 .0394554
615.346 .0394326
616.113 .0394101
616.879 .0393879
617.645 .0393658
618.411 .0393437
619.176 .0393214
619.941 .0392990
620.705 .0392764
621.470 .0392536
622.233 .0392305
622.997 .0392074
623.760 .0391840
624.523 .0391606
625.286 .0391369
626.048 .0391130
626.810 .0390888
627.572 .0390644
628.333 .0390396
629.095 .0390146
629.855 .0389892
630.616 .0389636
631.376 .0389377
632.136 .0389116
632.895 .0388852
633.655 .0388586
634.414 .0388318
635.172 .0388046
635.931 .0387772
636.689 .0387495
637.447 .0387216
638.204 .0386935
638.962 .0386652
639.718 .0386368
640.475 .0386084
641.231 .0385801
641.988 .0385520
642.743 .0385243
643.499 .0384968
644.254 .0384698
645.009 .0384431
645.764 .0384169
646.518 .0383911
647.272 .0383657
648.026 .0383409
648.780 .0383167
649.533 .0382931
650.286 .0382704
651.039 .0382484
651.792 .0382273
652.544 .0382070
653.296 .0381876
654.048 .0381691
654.799 .0381513
655.550 .0381343
656.301 .0381180
657.052 .0381022
657.802 .0380868
658.552 .0380718
659.302 .0380571
660.052 .0380425
660.801 .0380280
661.550 .0380137
662.299 .0379995
663.048 .0379855
663.796 .0379716
664.544 .0379579
665.292 .0379442
666.040 .0379305
666.787 .0379168
667.534 .0379028
668.281 .0378886
669.028 .0378742
669.774 .0378596
670.521 .0378448
671.266 .0378300
672.012 .0378150
672.758 .0378000
673.503 .0377849
674.248 .0377697
674.992 .0377544
675.737 .0377389
676.481 .0377231
677.225 .0377069
677.969 .0376903
678.712 .0376732
679.455 .0376556
680.199 .0376375
680.941 .0376188
681.684 .0375997
682.426 .0375801
683.168 .0375602
683.910 .0375399
684.652 .0375194
685.393 .0374986
686.134 .0374775
686.875 .0374562
687.616 .0374347
688.356 .0374130
689.097 .0373912
689.837 .0373694
690.576 .0373478
691.316 .0373263
692.055 .0373051
692.794 .0372841
693.533 .0372636
694.272 .0372434
695.010 .0372237
695.748 .0372045
696.486 .0371857
697.224 .0371676
697.962 .0371501
698.699 .0371333
699.436 .0371172
700.173 .0371017
700.909 .0370868
701.646 .0370724
702.382 .0370587
703.118 .0370455
703.853 .0370329
704.589 .0370208
705.324 .0370092
706.059 .0369981
706.794 .0369874
707.529 .0369769
708.263 .0369668
708.997 .0369567
709.731 .0369468
710.465 .0369368
711.198 .0369268
711.931 .0369168
712.664 .0369067
713.397 .0368965
714.130 .0368861
714.862 .0368756
715.594 .0368649
716.326 .0368540
717.058 .0368428
717.789 .0368313
718.520 .0368196
719.251 .0368076
719.982 .0367952
720.713 .0367826
721.443 .0367697
722.173 .0367565
722.903 .0367430
723.633 .0367292
724.362 .0367152
725.091 .0367010
725.820 .0366866
726.549 .0366721
727.278 .0366574
728.006 .0366427
728.734 .0366279
729.462 .0366129
730.190 .0365977
730.917 .0365823
731.644 .0365668
732.371 .0365511
733.098 .0365354
733.825 .0365195
734.551 .0365036
735.277 .0364877
736.003 .0364719
736.728 .0364561
737.454 .0364403
738.179 .0364245
738.904 .0364087
739.629 .0363929
740.353 .0363771
741.077 .0363613
741.801 .0363454
742.525 .0363295
743.249 .0363136
743.972 .0362976
744.695 .0362816
745.418 .0362655
746.141 .0362493
746.863 .0362331
747.585 .0362168
748.307 .0362003
749.029 .0361837
749.750 .0361669
750.472 .0361500
751.193 .0361329
751.913 .0361156
752.634 .0360981
753.354 .0360806
754.074 .0360630
754.794 .0360456
755.514 .0360282
756.233 .0360110
756.952 .0359940
757.671 .0359773
758.390 .0359609
759.108 .0359449
759.826 .0359293
760.544 .0359142
761.262 .0358997
761.979 .0358858
762.697 .0358725
763.414 .0358599
764.130 .0358482
764.847 .0358371
765.563 .0358270
766.279 .0358176
766.995 .0358090
767.710 .0358012
768.426 .0357942
769.141 .0357879
769.855 .0357821
770.570 .0357769
771.284 .0357722
771.998 .0357677
772.712 .0357636
773.426 .0357597
774.139 .0357559
774.852 .0357523
775.565 .0357487
776.277 .0357451
776.990 .0357414
777.702 .0357376
778.414 .0357336
779.125 .0357294
779.836 .0357249
780.547 .0357202
781.258 .0357152
781.969 .0357100
782.679 .0357044
783.389 .0356948
784.099 .0356886
784.808 .0356819
785.517 .0356749
786.226 .0356676
786.935 .0356598
787.643 .0356517
788.352 .0356434
789.060 .0356347
789.767 .0356258
790.475 .0356167
791.182 .0356072
791.889 .0356020
792.595 .0355921
793.301 .0355819
794.008 .0355715
794.713 .0355607
795.419 .0355496
796.124 .0355382
796.829 .0355264
797.534 .0355142
798.238 .0355015
798.942 .0354882
799.646 .0354745
800.350 .0354602
801.053 .0354454
801.756 .0354301
802.459 .0354144
803.162 .0353984
803.864 .0353819
804.566 .0353652
805.267 .0353482
805.969 .0353309
806.670 .0353133
807.371 .0352956
808.071 .0352776
808.772 .0352595
809.472 .0352414
810.171 .0352233
810.871 .0352052
811.570 .0351872
812.269 .0351692
812.967 .0351512
813.666 .0351333
814.364 .0351154
815.061 .0350976
815.759 .0350798
816.456 .0350621
817.153 .0350444
817.849 .0350269
818.545 .0350095
819.241 .0349921
819.937 .0349748
820.632 .0349575
821.327 .0349403
822.022 .0349232
822.717 .0349061
823.411 .0348892
824.105 .0348724
824.798 .0348557
825.491 .0348391
826.184 .0348225
826.877 .0348061
827.569 .0347897
828.261 .0347735
828.953 .0347575
829.645 .0347419
830.336 .0347266
831.027 .0347119
831.717 .0346978
832.407 .0346842
833.097 .0346713
833.787 .0346589
834.476 .0346472
835.165 .0346359
835.854 .0346253
836.542 .0346151
837.230 .0346054
837.918 .0345963
838.605 .0345875
839.292 .0345791
839.979 .0345710
840.665 .0345632
841.352 .0345555
842.037 .0345480
842.723 .0345405
843.408 .0345331
844.093 .0345258
844.777 .0345185
845.462 .0345113
846.145 .0345039
846.829 .0344965
847.512 .0344890
848.195 .0344813
848.878 .0344733
849.560 .0344651
850.242 .0344566
850.923 .0344479
851.605 .0344390
852.286 .0344299
852.966 .0344207
853.646 .0344112
854.326 .0344017
855.006 .0343919
855.685 .0343820
856.364 .0343720
857.043 .0343619
857.721 .0343517
858.399 .0343415
859.077 .0343313
859.754 .0343211
860.431 .0343109
861.107 .0343008
861.784 .0342907
862.459 .0342805
863.135 .0342702
863.810 .0342596
864.485 .0342488
865.160 .0342376
865.834 .0342260
866.508 .0342139
867.181 .0342013
867.854 .0341881
868.527 .0341744
869.199 .0341601
869.872 .0341451
870.543 .0341295
871.215 .0341131
871.886 .0340960
872.557 .0340781
873.227 .0340595
873.897 .0340402
874.567 .0340203
875.236 .0339997
875.905 .0339786
876.573 .0339571
877.242 .0339352
877.909 .0339128
878.577 .0338900
879.244 .0338668
879.911 .0338432
880.577 .0338192
881.243 .0337949
881.909 .0337705
882.575 .0337460
883.240 .0337215
883.904 .0336972
884.569 .0336732
885.232 .0336493
885.896 .0336257
886.559 .0336024
887.222 .0335793
887.885 .0335566
888.547 .0335342
889.208 .0335123
889.870 .0334909
890.531 .0334701
891.192 .0334499
891.852 .0334302
892.512 .0334112
893.171 .0333926
893.830 .0333745
894.489 .0333568
895.148 .0333394
895.806 .0333225
896.464 .0333059
897.121 .0332898
897.778 .0332740
898.434 .0332587
899.091 .0332372
899.747 .0332227
900.402 .0332085
901.057 .0331943
901.712 .0331802
902.366 .0331662
903.020 .0331523
903.674 .0331384
904.327 .0331246
904.980 .0331108
905.633 .0330971
906.285 .0330833
906.936 .0330693
907.588 .0330615
908.239 .0330472
908.889 .0330327
909.540 .0330179
910.190 .0330028
910.839 .0329876
911.488 .0329722
912.137 .0329568
912.785 .0329414
913.433 .0329260
914.081 .0329106
914.728 .0328953
915.375 .0328800
916.021 .0328647
916.668 .0328495
917.313 .0328344
917.959 .0328195
918.604 .0328049
919.248 .0327906
919.892 .0327767
920.536 .0327632
921.180 .0327501
921.823 .0327373
922.465 .0327249
923.108 .0327128
923.750 .0327011
924.391 .0326897
925.032 .0326786
925.673 .0326679
926.313 .0326575
926.953 .0326474
927.593 .0326374
928.232 .0326276
928.871 .0326177
929.510 .0326078
930.148 .0325978
930.786 .0325877
931.423 .0325774
932.060 .0325670
932.697 .0325563
933.333 .0325454
933.969 .0325342
934.604 .0325227
935.239 .0325106
935.874 .0324980
936.508 .0324848
937.142 .0324710
937.776 .0324566
938.409 .0324417
939.042 .0324264
939.674 .0324106
940.306 .0323943
940.938 .0323777
941.569 .0323606
942.200 .0323430
942.830 .0323249
943.460 .0323064
944.090 .0322875
944.720 .0322681
945.349 .0322486
945.977 .0322289
946.606 .0322090
947.233 .0321891
947.861 .0321691
948.488 .0321491
949.115 .0321289
949.741 .0321087
950.367 .0320885
950.993 .0320682
951.618 .0320479
952.243 .0320276
952.868 .0320074
953.492 .0319874
954.115 .0319675
954.739 .0319477
955.362 .0319280
955.984 .0319083
956.607 .0318888
957.229 .0318692
957.850 .0318497
958.471 .0318303
959.092 .0318111
959.713 .0317919
960.333 .0317729
960.952 .0317540
961.572 .0317352
962.191 .0317163
962.809 .0316975
963.428 .0316786
964.045 .0316597
964.663 .0316406
965.280 .0316215
965.897 .0316023
966.513 .0315829
967.129 .0315635
967.745 .0315440
968.361 .0315243
968.976 .0315045
969.590 .0314846
970.205 .0314648
970.818 .0314450
971.432 .0314252
972.045 .0314056
972.658 .0313860
973.271 .0313665
973.883 .0313471
974.495 .0313276
975.106 .0313081
975.717 .0312886
976.328 .0312689
976.938 .0312492
977.548 .0312294
978.158 .0312095
978.768 .0311795
979.377 .0311592
979.985 .0311387
980.594 .0311180
981.202 .0310971
981.809 .0310761
982.417 .0310550
983.024 .0310339
983.631 .0310128
984.237 .0309919
984.843 .0309711
985.449 .0309506
986.054 .0309303
986.659 .0309103
987.264 .0309006
987.868 .0308813
988.472 .0308623
989.076 .0308439
989.679 .0308260
990.282 .0308086
990.885 .0307919
991.487 .0307759
992.090 .0307605
992.691 .0307457
993.293 .0307316
993.894 .0307182
994.495 .0307053
995.095 .0306932
995.696 .0306817
996.296 .0306709
996.895 .0306608
997.494 .0306516
998.093 .0306432
998.692 .0306356
999.291 .0306287
999.889 .0306225
1000.487 .0306170
1001.084 .0306121
1001.681 .0306077
1002.278 .0306038
1002.875 .0306004
1003.471 .0305974
1004.067 .0305949
1004.663 .0305927
1005.258 .0305907
1005.854 .0305891
1006.449 .0305877
1007.043 .0305864
1007.638 .0305853
1008.232 .0305843
1008.826 .0305835
1009.419 .0305828
1010.012 .0305823
1010.605 .0305819
1011.198 .0305817
1011.791 .0305818
1012.383 .0305820
1012.975 .0305826
1013.566 .0305835
1014.158 .0305848
1014.749 .0305865
1015.340 .0305887
1015.931 .0305913
1016.521 .0305943
1017.111 .0305977
1017.701 .0306015
1018.291 .0306056
1018.880 .0306101
1019.470 .0306150
1020.059 .0306202
1020.647 .0306259
1021.236 .0306320
1021.824 .0306385
1022.412 .0306454
1023.000 .0306525
1023.588 .0306598
1024.175 .0306672
1024.762 .0306746
1025.349 .0306822
1025.936 .0306898
1026.523 .0306975
1027.109 .0307054
1027.695 .0307136
1028.281 .0307222
1028.867 .0307310
1029.452 .0307401
1030.038 .0307493
1030.623 .0307584
1031.208 .0307673
1031.792 .0307760
1032.377 .0307843
1032.961 .0307923
1033.546 .0308000
1034.130 .0308075
1034.714 .0308148
1035.297 .0308219
1035.881 .0308288
1036.464 .0308355
1037.047 .0308417
1037.630 .0308475
1038.213 .0308527
1038.796 .0308574
1039.378 .0308616
1039.961 .0308654
1040.543 .0308690
1041.125 .0308724
1041.707 .0308757
1042.289 .0308790
1042.871 .0308820
1043.452 .0308847
1044.034 .0308868
1044.615 .0308883
1045.196 .0308889
1045.777 .0308888
1046.358 .0308879
1046.939 .0308863
1047.520 .0308843
1048.101 .0308820
1048.681 .0308794
1049.262 .0308767
1049.842 .0308739
1050.422 .0308709
1051.002 .0308678
1051.582 .0308647
1052.162 .0308616
1052.742 .0308586
1053.322 .0308559
1053.902 .0308536
1054.482 .0308517
1055.061 .0308502
1055.641 .0308492
1056.220 .0308484
1056.800 .0308478
1057.379 .0308470
1057.958 .0308460
1058.538 .0308447
1059.117 .0308428
1059.696 .0308405
1060.275 .0308378
1060.854 .0308347
1061.433 .0308313
1062.012 .0308276
1062.592 .0308237
1063.171 .0308195
1063.750 .0308151
1064.329 .0308103
1064.908 .0308052
1065.487 .0307996
1066.066 .0307936
1066.645 .0307871
1067.224 .0307801
1067.803 .0307725
1068.382 .0307645
1068.961 .0307558
1069.540 .0307467
1070.119 .0307369
1070.698 .0307265
1071.278 .0307153
1071.857 .0307034
1072.436 .0306907
1073.016 .0306771
1073.595 .0306627
1074.175 .0306477
1074.754 .0306322
1075.334 .0306164
1075.913 .0306004
1076.493 .0305846
1077.073 .0305689
1077.653 .0305534
1078.233 .0305381
1078.813 .0305230
1079.393 .0305081
1079.974 .0304933
1080.554 .0304787
1081.135 .0304641
1081.716 .0304498
1082.296 .0304358
1082.877 .0304221
1083.458 .0304088
1084.040 .0303959
1084.621 .0303832
1085.202 .0303709
1085.784 .0303586
1086.366 .0303463
1086.948 .0303339
1087.530 .0303213
1088.112 .0303086
1088.695 .0302959
1089.277 .0302833
1089.860 .0302709
1090.443 .0302589
1091.026 .0302474
1091.610 .0302364
1092.193 .0302258
1092.777 .0302156
1093.361 .0302057
1093.946 .0301960
1094.530 .0301864
1095.115 .0301769
1095.700 .0301676
1096.285 .0301583
1096.871 .0301492
1097.456 .0301406
1098.042 .0301323
1098.628 .0301244
1099.215 .0301172
1099.802 .0301105
1100.389 .0301044
1100.976 .0300988
1101.564 .0300936
1102.152 .0300889
1102.740 .0300845
1103.329 .0300806
1103.917 .0300771
1104.507 .0300741
1105.096 .0300715
1105.686 .0300695
1106.276 .0300680
1106.867 .0300671
1107.457 .0300664
1108.049 .0300661
1108.640 .0300659
1109.232 .0300658
1109.825 .0300656
1110.417 .0300653
1111.010 .0300651
1111.604 .0300651
1112.198 .0300656
1112.792 .0300669
1113.387 .0300691
1113.982 .0300726
1114.577 .0300773
1115.173 .0300831
1115.769 .0300901
1116.366 .0300980
1116.963 .0301067
1117.561 .0301162
1118.159 .0301265
1118.758 .0301377
1119.357 .0301501
1119.957 .0301638
1120.557 .0301789
1121.157 .0301956
1121.758 .0302138
1122.360 .0302334
1122.962 .0302542
1123.564 .0302759
1124.167 .0302828
1124.771 .0303061
1125.375 .0303303
1125.980 .0303558
1126.585 .0303829
1127.191 .0304118
1127.797 .0304431
1128.404 .0304767
1129.012 .0305128
1129.620 .0305513
1130.229 .0305919
1130.838 .0306343
1131.448 .0306783
1132.058 .0307239
1132.669 .0307912
1133.281 .0308412
1133.894 .0308937
1134.507 .0309478
1135.120 .0310091
1135.735 .0310733
1136.350 .0311356
1136.965 .0310800
1137.582 .0311518
1138.199 .0312245
1138.816 .0312930
1139.435 .0313628
1140.054 .0314408
1140.674 .0315250
1141.294 .0316160
1141.916 .0317177
1142.538 .0317920
1143.160 .0320218
1143.784 .0321324
1144.408 .0321181
1145.033 .0323072
