Measurement Sequence started on: 14-45-04-498
Integration time: 36
Scans to Average: 2 
>>>>>Begin Spectral Data<<<<<
433.946 .0341209
434.870 .0399949
435.793 .0409007
436.715 .0389631
437.635 .0389897
438.555 .0390487
439.473 .0391659
440.389 .0391102
441.305 .0390693
442.219 .0390919
443.132 .0393876
444.044 .0393702
444.954 .0393042
445.863 .0393389
446.771 .0393706
447.678 .0393971
448.584 .0394150
449.488 .0394338
450.391 .0394521
451.293 .0394663
452.194 .0394761
453.094 .0394806
453.992 .0394792
454.890 .0394713
455.786 .0394564
456.681 .0394342
457.575 .0394045
458.468 .0393678
459.360 .0393247
460.250 .0392765
461.140 .0392237
462.028 .0391675
462.915 .0391081
463.801 .0390460
464.687 .0389813
465.571 .0389148
466.454 .0388462
467.335 .0387760
468.216 .0387045
469.096 .0386317
469.975 .0385577
470.853 .0384830
471.729 .0384077
472.605 .0383323
473.479 .0382572
474.353 .0381826
475.226 .0381090
476.097 .0380371
476.968 .0379670
477.838 .0378989
478.706 .0378335
479.574 .0377706
480.441 .0377103
481.306 .0376529
482.171 .0375980
483.035 .0375455
483.898 .0374953
484.760 .0374471
485.621 .0374005
486.481 .0373552
487.340 .0373111
488.198 .0372680
489.055 .0372257
489.912 .0371843
490.767 .0371439
491.622 .0370854
492.476 .0370482
493.329 .0370117
494.180 .0369759
495.032 .0369406
495.882 .0369054
496.731 .0368703
497.580 .0368354
498.427 .0368010
499.274 .0367676
500.120 .0367544
500.965 .0367239
501.809 .0366955
502.653 .0366694
503.495 .0366455
504.337 .0366235
505.178 .0366031
506.018 .0365837
506.858 .0365648
507.696 .0365457
508.534 .0365264
509.371 .0365066
510.208 .0364865
511.043 .0364665
511.878 .0364468
512.712 .0364279
513.545 .0364096
514.377 .0363917
515.209 .0363741
516.040 .0363559
516.870 .0363363
517.699 .0363145
518.528 .0362900
519.356 .0362624
520.183 .0362313
521.010 .0361973
521.836 .0361608
522.661 .0361218
523.485 .0360807
524.309 .0360372
525.132 .0359910
525.954 .0359416
526.776 .0358883
527.597 .0358307
528.417 .0357683
529.237 .0357008
530.056 .0356288
530.874 .0355534
531.692 .0354759
532.508 .0353970
533.325 .0353183
534.140 .0352412
534.955 .0351664
535.770 .0350944
536.583 .0350260
537.397 .0349611
538.209 .0348999
539.021 .0348420
539.832 .0347877
540.643 .0347372
541.453 .0346907
542.262 .0346486
543.071 .0346108
543.879 .0345774
544.687 .0345480
545.494 .0345220
546.300 .0344989
547.106 .0344778
547.911 .0344574
548.716 .0344366
549.520 .0344146
550.323 .0343906
551.126 .0343640
551.929 .0343346
552.731 .0343024
553.532 .0342672
554.332 .0342291
555.133 .0341884
555.932 .0341455
556.731 .0341005
557.530 .0340534
558.328 .0340045
559.125 .0339543
559.922 .0339033
560.719 .0338517
561.515 .0338003
562.310 .0337497
563.105 .0337002
563.899 .0336520
564.693 .0336051
565.487 .0335597
566.280 .0335157
567.072 .0334730
567.864 .0334313
568.655 .0333905
569.446 .0333505
570.236 .0333110
571.026 .0332721
571.816 .0332335
572.605 .0331951
573.393 .0331566
574.181 .0331183
574.969 .0330800
575.756 .0330419
576.543 .0330040
577.329 .0329667
578.115 .0329301
578.900 .0328945
579.685 .0328598
580.469 .0328266
581.253 .0327950
582.036 .0327650
582.820 .0327365
583.602 .0327095
584.384 .0326839
585.166 .0326595
585.947 .0326362
586.728 .0326138
587.509 .0325923
588.289 .0325715
589.069 .0325514
589.848 .0325316
590.627 .0325120
591.405 .0324924
592.183 .0324725
592.961 .0324519
593.738 .0324306
594.515 .0324084
595.291 .0323851
596.067 .0323609
596.843 .0323357
597.618 .0323094
598.393 .0322664
599.167 .0322381
599.941 .0322090
600.715 .0321791
601.488 .0321485
602.261 .0321174
603.034 .0320857
603.806 .0320535
604.578 .0320211
605.349 .0319885
606.121 .0319558
606.891 .0319399
607.662 .0319075
608.432 .0318752
609.201 .0318433
609.971 .0318116
610.740 .0317803
611.508 .0317495
612.277 .0317192
613.045 .0316895
613.812 .0316602
614.579 .0316315
615.346 .0316031
616.113 .0315752
616.879 .0315476
617.645 .0315205
618.411 .0314938
619.176 .0314675
619.941 .0314417
620.705 .0314165
621.470 .0313919
622.233 .0313681
622.997 .0313451
623.760 .0313228
624.523 .0313014
625.286 .0312808
626.048 .0312611
626.810 .0312422
627.572 .0312242
628.333 .0312071
629.095 .0311909
629.855 .0311754
630.616 .0311608
631.376 .0311469
632.136 .0311337
632.895 .0311210
633.655 .0311087
634.414 .0310967
635.172 .0310850
635.931 .0310732
636.689 .0310613
637.447 .0310491
638.204 .0310365
638.962 .0310234
639.718 .0310096
640.475 .0309950
641.231 .0309796
641.988 .0309635
642.743 .0309465
643.499 .0309288
644.254 .0309102
645.009 .0308908
645.764 .0308705
646.518 .0308493
647.272 .0308271
648.026 .0308041
648.780 .0307801
649.533 .0307553
650.286 .0307298
651.039 .0307036
651.792 .0306770
652.544 .0306500
653.296 .0306229
654.048 .0305956
654.799 .0305682
655.550 .0305408
656.301 .0305134
657.052 .0304861
657.802 .0304588
658.552 .0304317
659.302 .0304047
660.052 .0303779
660.801 .0303513
661.550 .0303249
662.299 .0302987
663.048 .0302729
663.796 .0302473
664.544 .0302223
665.292 .0301977
666.040 .0301737
666.787 .0301504
667.534 .0301278
668.281 .0301058
669.028 .0300846
669.774 .0300641
670.521 .0300443
671.266 .0300253
672.012 .0300070
672.758 .0299896
673.503 .0299730
674.248 .0299573
674.992 .0299426
675.737 .0299289
676.481 .0299162
677.225 .0299043
677.969 .0298932
678.712 .0298829
679.455 .0298733
680.199 .0298643
680.941 .0298560
681.684 .0298482
682.426 .0298410
683.168 .0298342
683.910 .0298280
684.652 .0298222
685.393 .0298168
686.134 .0298117
686.875 .0298069
687.616 .0298023
688.356 .0297978
689.097 .0297936
689.837 .0297894
690.576 .0297853
691.316 .0297810
692.055 .0297767
692.794 .0297721
693.533 .0297673
694.272 .0297621
695.010 .0297567
695.748 .0297509
696.486 .0297448
697.224 .0297385
697.962 .0297319
698.699 .0297251
699.436 .0297180
700.173 .0297107
700.909 .0297031
701.646 .0296953
702.382 .0296872
703.118 .0296789
703.853 .0296704
704.589 .0296616
705.324 .0296526
706.059 .0296434
706.794 .0296338
707.529 .0296239
708.263 .0296137
708.997 .0296031
709.731 .0295921
710.465 .0295807
711.198 .0295689
711.931 .0295566
712.664 .0295440
713.397 .0295309
714.130 .0295173
714.862 .0295031
715.594 .0294882
716.326 .0294727
717.058 .0294565
717.789 .0294396
718.520 .0294222
719.251 .0294043
719.982 .0293860
720.713 .0293674
721.443 .0293485
722.173 .0293294
722.903 .0293102
723.633 .0292909
724.362 .0292717
725.091 .0292525
725.820 .0292334
726.549 .0292146
727.278 .0291960
728.006 .0291778
728.734 .0291600
729.462 .0291428
730.190 .0291261
730.917 .0291099
731.644 .0290945
732.371 .0290796
733.098 .0290654
733.825 .0290518
734.551 .0290387
735.277 .0290262
736.003 .0290143
736.728 .0290028
737.454 .0289918
738.179 .0289814
738.904 .0289715
739.629 .0289621
740.353 .0289533
741.077 .0289451
741.801 .0289373
742.525 .0289301
743.249 .0289232
743.972 .0289168
744.695 .0289106
745.418 .0289047
746.141 .0288991
746.863 .0288937
747.585 .0288886
748.307 .0288837
749.029 .0288791
749.750 .0288746
750.472 .0288704
751.193 .0288664
751.913 .0288626
752.634 .0288589
753.354 .0288553
754.074 .0288519
754.794 .0288487
755.514 .0288457
756.233 .0288429
756.952 .0288403
757.671 .0288379
758.390 .0288358
759.108 .0288340
759.826 .0288324
760.544 .0288310
761.262 .0288300
761.979 .0288291
762.697 .0288285
763.414 .0288279
764.130 .0288276
764.847 .0288273
765.563 .0288272
766.279 .0288272
766.995 .0288274
767.710 .0288277
768.426 .0288281
769.141 .0288286
769.855 .0288292
770.570 .0288298
771.284 .0288303
771.998 .0288306
772.712 .0288307
773.426 .0288306
774.139 .0288301
774.852 .0288292
775.565 .0288281
776.277 .0288265
776.990 .0288245
777.702 .0288222
778.414 .0288194
779.125 .0288161
779.836 .0288125
780.547 .0288084
781.258 .0288040
781.969 .0287991
782.679 .0287937
783.389 .0287837
784.099 .0287770
784.808 .0287698
785.517 .0287619
786.226 .0287535
786.935 .0287444
787.643 .0287348
788.352 .0287247
789.060 .0287141
789.767 .0287030
790.475 .0286914
791.182 .0286794
791.889 .0286721
792.595 .0286595
793.301 .0286465
794.008 .0286331
794.713 .0286194
795.419 .0286055
796.124 .0285912
796.829 .0285768
797.534 .0285620
798.238 .0285470
798.942 .0285318
799.646 .0285165
800.350 .0285010
801.053 .0284855
801.756 .0284700
802.459 .0284545
803.162 .0284392
803.864 .0284239
804.566 .0284087
805.267 .0283936
805.969 .0283786
806.670 .0283638
807.371 .0283492
808.071 .0283348
808.772 .0283207
809.472 .0283068
810.171 .0282931
810.871 .0282795
811.570 .0282661
812.269 .0282528
812.967 .0282396
813.666 .0282265
814.364 .0282137
815.061 .0282010
815.759 .0281886
816.456 .0281764
817.153 .0281643
817.849 .0281525
818.545 .0281408
819.241 .0281292
819.937 .0281178
820.632 .0281065
821.327 .0280955
822.022 .0280848
822.717 .0280744
823.411 .0280643
824.105 .0280545
824.798 .0280451
825.491 .0280359
826.184 .0280271
826.877 .0280187
827.569 .0280106
828.261 .0280030
828.953 .0279959
829.645 .0279893
830.336 .0279833
831.027 .0279779
831.717 .0279730
832.407 .0279688
833.097 .0279652
833.787 .0279621
834.476 .0279596
835.165 .0279577
835.854 .0279563
836.542 .0279554
837.230 .0279549
837.918 .0279547
838.605 .0279549
839.292 .0279553
839.979 .0279559
840.665 .0279565
841.352 .0279572
842.037 .0279578
842.723 .0279584
843.408 .0279590
844.093 .0279593
844.777 .0279595
845.462 .0279594
846.145 .0279591
846.829 .0279585
847.512 .0279575
848.195 .0279563
848.878 .0279547
849.560 .0279528
850.242 .0279507
850.923 .0279482
851.605 .0279454
852.286 .0279423
852.966 .0279388
853.646 .0279351
854.326 .0279309
855.006 .0279265
855.685 .0279218
856.364 .0279167
857.043 .0279115
857.721 .0279061
858.399 .0279005
859.077 .0278948
859.754 .0278889
860.431 .0278830
861.107 .0278769
861.784 .0278705
862.459 .0278639
863.135 .0278571
863.810 .0278499
864.485 .0278423
865.160 .0278345
865.834 .0278264
866.508 .0278180
867.181 .0278092
867.854 .0278002
868.527 .0277909
869.199 .0277813
869.872 .0277713
870.543 .0277610
871.215 .0277504
871.886 .0277395
872.557 .0277283
873.227 .0277168
873.897 .0277050
874.567 .0276928
875.236 .0276803
875.905 .0276674
876.573 .0276541
877.242 .0276404
877.909 .0276263
878.577 .0276119
879.244 .0275972
879.911 .0275822
880.577 .0275671
881.243 .0275517
881.909 .0275360
882.575 .0275202
883.240 .0275042
883.904 .0274879
884.569 .0274715
885.232 .0274550
885.896 .0274385
886.559 .0274221
887.222 .0274056
887.885 .0273894
888.547 .0273732
889.208 .0273572
889.870 .0273414
890.531 .0273257
891.192 .0273102
891.852 .0272949
892.512 .0272798
893.171 .0272648
893.830 .0272500
894.489 .0272355
895.148 .0272211
895.806 .0272069
896.464 .0271929
897.121 .0271791
897.778 .0271654
898.434 .0271519
899.091 .0271315
899.747 .0271180
900.402 .0271046
901.057 .0270911
901.712 .0270776
902.366 .0270640
903.020 .0270504
903.674 .0270366
904.327 .0270228
904.980 .0270088
905.633 .0269947
906.285 .0269805
906.936 .0269661
907.588 .0269586
908.239 .0269440
908.889 .0269292
909.540 .0269143
910.190 .0268992
910.839 .0268841
911.488 .0268689
912.137 .0268537
912.785 .0268386
913.433 .0268235
914.081 .0268086
914.728 .0267939
915.375 .0267793
916.021 .0267648
916.668 .0267505
917.313 .0267364
917.959 .0267223
918.604 .0267084
919.248 .0266945
919.892 .0266808
920.536 .0266672
921.180 .0266537
921.823 .0266403
922.465 .0266270
923.108 .0266137
923.750 .0266005
924.391 .0265873
925.032 .0265742
925.673 .0265610
926.313 .0265479
926.953 .0265347
927.593 .0265216
928.232 .0265086
928.871 .0264955
929.510 .0264825
930.148 .0264696
930.786 .0264567
931.423 .0264437
932.060 .0264309
932.697 .0264180
933.333 .0264052
933.969 .0263925
934.604 .0263799
935.239 .0263674
935.874 .0263550
936.508 .0263427
937.142 .0263305
937.776 .0263184
938.409 .0263065
939.042 .0262947
939.674 .0262831
940.306 .0262718
940.938 .0262607
941.569 .0262500
942.200 .0262397
942.830 .0262299
943.460 .0262204
944.090 .0262115
944.720 .0262030
945.349 .0261951
945.977 .0261877
946.606 .0261809
947.233 .0261746
947.861 .0261688
948.488 .0261634
949.115 .0261585
949.741 .0261539
950.367 .0261497
950.993 .0261457
951.618 .0261420
952.243 .0261385
952.868 .0261353
953.492 .0261322
954.115 .0261294
954.739 .0261269
955.362 .0261245
955.984 .0261223
956.607 .0261202
957.229 .0261182
957.850 .0261163
958.471 .0261146
959.092 .0261130
959.713 .0261115
960.333 .0261103
960.952 .0261091
961.572 .0261081
962.191 .0261072
962.809 .0261064
963.428 .0261055
964.045 .0261046
964.663 .0261036
965.280 .0261025
965.897 .0261012
966.513 .0260998
967.129 .0260983
967.745 .0260966
968.361 .0260947
968.976 .0260926
969.590 .0260903
970.205 .0260879
970.818 .0260852
971.432 .0260824
972.045 .0260793
972.658 .0260759
973.271 .0260724
973.883 .0260685
974.495 .0260644
975.106 .0260599
975.717 .0260551
976.328 .0260500
976.938 .0260445
977.548 .0260385
978.158 .0260321
978.768 .0260206
979.377 .0260130
979.985 .0260049
980.594 .0259963
981.202 .0259872
981.809 .0259778
982.417 .0259682
983.024 .0259584
983.631 .0259486
984.237 .0259388
984.843 .0259290
985.449 .0259192
986.054 .0259094
986.659 .0258997
987.264 .0258950
987.868 .0258853
988.472 .0258757
989.076 .0258661
989.679 .0258566
990.282 .0258473
990.885 .0258381
991.487 .0258291
992.090 .0258202
992.691 .0258114
993.293 .0258025
993.894 .0257936
994.495 .0257845
995.095 .0257754
995.696 .0257663
996.296 .0257571
996.895 .0257479
997.494 .0257389
998.093 .0257299
998.692 .0257209
999.291 .0257120
999.889 .0257030
1000.487 .0256938
1001.084 .0256844
1001.681 .0256748
1002.278 .0256649
1002.875 .0256547
1003.471 .0256444
1004.067 .0256338
1004.663 .0256231
1005.258 .0256122
1005.854 .0256011
1006.449 .0255898
1007.043 .0255782
1007.638 .0255664
1008.232 .0255543
1008.826 .0255421
1009.419 .0255298
1010.012 .0255174
1010.605 .0255051
1011.198 .0254930
1011.791 .0254810
1012.383 .0254693
1012.975 .0254577
1013.566 .0254464
1014.158 .0254353
1014.749 .0254244
1015.340 .0254137
1015.931 .0254032
1016.521 .0253930
1017.111 .0253831
1017.701 .0253734
1018.291 .0253641
1018.880 .0253551
1019.470 .0253464
1020.059 .0253379
1020.647 .0253297
1021.236 .0253217
1021.824 .0253139
1022.412 .0253063
1023.000 .0252990
1023.588 .0252920
1024.175 .0252852
1024.762 .0252787
1025.349 .0252725
1025.936 .0252664
1026.523 .0252606
1027.109 .0252548
1027.695 .0252492
1028.281 .0252437
1028.867 .0252382
1029.452 .0252328
1030.038 .0252275
1030.623 .0252222
1031.208 .0252169
1031.792 .0252116
1032.377 .0252062
1032.961 .0252006
1033.546 .0251950
1034.130 .0251892
1034.714 .0251833
1035.297 .0251774
1035.881 .0251715
1036.464 .0251657
1037.047 .0251600
1037.630 .0251545
1038.213 .0251491
1038.796 .0251438
1039.378 .0251387
1039.961 .0251337
1040.543 .0251289
1041.125 .0251243
1041.707 .0251198
1042.289 .0251155
1042.871 .0251113
1043.452 .0251072
1044.034 .0251032
1044.615 .0250991
1045.196 .0250950
1045.777 .0250907
1046.358 .0250864
1046.939 .0250819
1047.520 .0250775
1048.101 .0250730
1048.681 .0250688
1049.262 .0250647
1049.842 .0250610
1050.422 .0250575
1051.002 .0250544
1051.582 .0250515
1052.162 .0250488
1052.742 .0250463
1053.322 .0250439
1053.902 .0250418
1054.482 .0250400
1055.061 .0250385
1055.641 .0250373
1056.220 .0250366
1056.800 .0250363
1057.379 .0250362
1057.958 .0250363
1058.538 .0250366
1059.117 .0250370
1059.696 .0250376
1060.275 .0250384
1060.854 .0250396
1061.433 .0250412
1062.012 .0250434
1062.592 .0250462
1063.171 .0250498
1063.750 .0250540
1064.329 .0250586
1064.908 .0250637
1065.487 .0250691
1066.066 .0250746
1066.645 .0250803
1067.224 .0250861
1067.803 .0250920
1068.382 .0250981
1068.961 .0251044
1069.540 .0251108
1070.119 .0251174
1070.698 .0251241
1071.278 .0251308
1071.857 .0251374
1072.436 .0251439
1073.016 .0251501
1073.595 .0251563
1074.175 .0251623
1074.754 .0251682
1075.334 .0251739
1075.913 .0251794
1076.493 .0251845
1077.073 .0251893
1077.653 .0251937
1078.233 .0251975
1078.813 .0252009
1079.393 .0252037
1079.974 .0252061
1080.554 .0252082
1081.135 .0252101
1081.716 .0252118
1082.296 .0252135
1082.877 .0252150
1083.458 .0252164
1084.040 .0252178
1084.621 .0252191
1085.202 .0252205
1085.784 .0252222
1086.366 .0252241
1086.948 .0252263
1087.530 .0252288
1088.112 .0252316
1088.695 .0252346
1089.277 .0252378
1089.860 .0252410
1090.443 .0252442
1091.026 .0252473
1091.610 .0252504
1092.193 .0252535
1092.777 .0252569
1093.361 .0252605
1093.946 .0252644
1094.530 .0252685
1095.115 .0252728
1095.700 .0252773
1096.285 .0252819
1096.871 .0252866
1097.456 .0252915
1098.042 .0252964
1098.628 .0253015
1099.215 .0253067
1099.802 .0253121
1100.389 .0253176
1100.976 .0253230
1101.564 .0253283
1102.152 .0253334
1102.740 .0253381
1103.329 .0253427
1103.917 .0253472
1104.507 .0253519
1105.096 .0253569
1105.686 .0253625
1106.276 .0253688
1106.867 .0253761
1107.457 .0253845
1108.049 .0253940
1108.640 .0254047
1109.232 .0254164
1109.825 .0254291
1110.417 .0254427
1111.010 .0254571
1111.604 .0254722
1112.198 .0254880
1112.792 .0255045
1113.387 .0255215
1113.982 .0255389
1114.577 .0255568
1115.173 .0255749
1115.769 .0255932
1116.366 .0256114
1116.963 .0256294
1117.561 .0256471
1118.159 .0256644
1118.758 .0256814
1119.357 .0256982
1119.957 .0257149
1120.557 .0257316
1121.157 .0257484
1121.758 .0257654
1122.360 .0257827
1122.962 .0258001
1123.564 .0258177
1124.167 .0258276
1124.771 .0258442
1125.375 .0258605
1125.980 .0258764
1126.585 .0258919
1127.191 .0259073
1127.797 .0259229
1128.404 .0259389
1129.012 .0259556
1129.620 .0259733
1130.229 .0259918
1130.838 .0260110
1131.448 .0260309
1132.058 .0260513
1132.669 .0260791
1133.281 .0261013
1133.894 .0261245
1134.507 .0261485
1135.120 .0261754
1135.735 .0262109
1136.350 .0262379
1136.965 .0262446
1137.582 .0262895
1138.199 .0263325
1138.816 .0263695
1139.435 .0264046
1140.054 .0264340
1140.674 .0264660
1141.294 .0264927
1141.916 .0265184
1142.538 .0265358
1143.160 .0266063
1143.784 .0268285
1144.408 .0265946
1145.033 .0265502
