Measurement Sequence started on: 14-45-04-498
Integration time: 36
Scans to Average: 2 
>>>>>Begin Spectral Data<<<<<
433.946 .0735648
434.870 .0601698
435.793 .0580928
436.715 .0565970
437.635 .0560230
438.555 .0564774
439.473 .0554576
440.389 .0549991
441.305 .0546267
442.219 .0542828
443.132 .0543247
444.044 .0538598
444.954 .0534946
445.863 .0531980
446.771 .0529210
447.678 .0526095
448.584 .0523419
449.488 .0520905
450.391 .0518520
451.293 .0516268
452.194 .0514163
453.094 .0512209
453.992 .0510413
454.890 .0508760
455.786 .0507227
456.681 .0505779
457.575 .0504379
458.468 .0503010
459.360 .0501661
460.250 .0500330
461.140 .0499026
462.028 .0497768
462.915 .0496566
463.801 .0495425
464.687 .0494344
465.571 .0493313
466.454 .0492310
467.335 .0491320
468.216 .0490328
469.096 .0489321
469.975 .0488303
470.853 .0487281
471.729 .0486272
472.605 .0485295
473.479 .0484365
474.353 .0483491
475.226 .0482676
476.097 .0481922
476.968 .0481221
477.838 .0480565
478.706 .0479948
479.574 .0479361
480.441 .0478799
481.306 .0478264
482.171 .0477754
483.035 .0477273
483.898 .0476827
484.760 .0476413
485.621 .0476031
486.481 .0475677
487.340 .0475342
488.198 .0475014
489.055 .0474682
489.912 .0474336
490.767 .0473964
491.622 .0473298
492.476 .0472844
493.329 .0472364
494.180 .0471861
495.032 .0471337
495.882 .0470798
496.731 .0470244
497.580 .0469674
498.427 .0469084
499.274 .0468476
500.120 .0468124
500.965 .0467485
501.809 .0466827
502.653 .0466152
503.495 .0465462
504.337 .0464765
505.178 .0464071
506.018 .0463390
506.858 .0462732
507.696 .0462109
508.534 .0461530
509.371 .0460998
510.208 .0460511
511.043 .0460060
511.878 .0459640
512.712 .0459246
513.545 .0458870
514.377 .0458510
515.209 .0458170
516.040 .0457854
516.870 .0457564
517.699 .0457302
518.528 .0457069
519.356 .0456861
520.183 .0456670
521.010 .0456488
521.836 .0456305
522.661 .0456117
523.485 .0455924
524.309 .0455728
525.132 .0455532
525.954 .0455336
526.776 .0455144
527.597 .0454959
528.417 .0454786
529.237 .0454628
530.056 .0454487
530.874 .0454366
531.692 .0454263
532.508 .0454174
533.325 .0454093
534.140 .0454010
534.955 .0453918
535.770 .0453806
536.583 .0453668
537.397 .0453501
538.209 .0453303
539.021 .0453075
539.832 .0452821
540.643 .0452539
541.453 .0452224
542.262 .0451869
543.071 .0451474
543.879 .0451034
544.687 .0450545
545.494 .0450005
546.300 .0449417
547.106 .0448785
547.911 .0448117
548.716 .0447425
549.520 .0446721
550.323 .0446019
551.126 .0445333
551.929 .0444674
552.731 .0444048
553.532 .0443461
554.332 .0442911
555.133 .0442397
555.932 .0441918
556.731 .0441464
557.530 .0441028
558.328 .0440610
559.125 .0440206
559.922 .0439812
560.719 .0439425
561.515 .0439045
562.310 .0438668
563.105 .0438287
563.899 .0437892
564.693 .0437475
565.487 .0437026
566.280 .0436540
567.072 .0436013
567.864 .0435444
568.655 .0434839
569.446 .0434205
570.236 .0433552
571.026 .0432892
571.816 .0432231
572.605 .0431573
573.393 .0430922
574.181 .0430284
574.969 .0429657
575.756 .0429045
576.543 .0428448
577.329 .0427874
578.115 .0427324
578.900 .0426806
579.685 .0426320
580.469 .0425875
581.253 .0425474
582.036 .0425115
582.820 .0424798
583.602 .0424517
584.384 .0424266
585.166 .0424039
585.947 .0423828
586.728 .0423629
587.509 .0423437
588.289 .0423252
589.069 .0423070
589.848 .0422893
590.627 .0422720
591.405 .0422552
592.183 .0422385
592.961 .0422218
593.738 .0422050
594.515 .0421879
595.291 .0421703
596.067 .0421524
596.843 .0421342
597.618 .0421158
598.393 .0420880
599.167 .0420697
599.941 .0420517
600.715 .0420341
601.488 .0420169
602.261 .0420003
603.034 .0419841
603.806 .0419684
604.578 .0419534
605.349 .0419392
606.121 .0419258
606.891 .0419212
607.662 .0419089
608.432 .0418974
609.201 .0418868
609.971 .0418770
610.740 .0418679
611.508 .0418595
612.277 .0418518
613.045 .0418448
613.812 .0418383
614.579 .0418324
615.346 .0418270
616.113 .0418219
616.879 .0418169
617.645 .0418118
618.411 .0418065
619.176 .0418006
619.941 .0417940
620.705 .0417868
621.470 .0417787
622.233 .0417699
622.997 .0417605
623.760 .0417505
624.523 .0417400
625.286 .0417290
626.048 .0417175
626.810 .0417055
627.572 .0416928
628.333 .0416794
629.095 .0416654
629.855 .0416507
630.616 .0416352
631.376 .0416193
632.136 .0416030
632.895 .0415864
633.655 .0415697
634.414 .0415531
635.172 .0415367
635.931 .0415204
636.689 .0415042
637.447 .0414881
638.204 .0414721
638.962 .0414561
639.718 .0414401
640.475 .0414242
641.231 .0414083
641.988 .0413924
642.743 .0413767
643.499 .0413612
644.254 .0413459
645.009 .0413306
645.764 .0413155
646.518 .0413005
647.272 .0412855
648.026 .0412706
648.780 .0412558
649.533 .0412412
650.286 .0412266
651.039 .0412120
651.792 .0411974
652.544 .0411829
653.296 .0411683
654.048 .0411538
654.799 .0411393
655.550 .0411249
656.301 .0411108
657.052 .0410969
657.802 .0410834
658.552 .0410703
659.302 .0410575
660.052 .0410449
660.801 .0410323
661.550 .0410197
662.299 .0410068
663.048 .0409938
663.796 .0409804
664.544 .0409667
665.292 .0409528
666.040 .0409387
666.787 .0409244
667.534 .0409099
668.281 .0408953
669.028 .0408805
669.774 .0408654
670.521 .0408501
671.266 .0408344
672.012 .0408183
672.758 .0408016
673.503 .0407845
674.248 .0407667
674.992 .0407483
675.737 .0407294
676.481 .0407098
677.225 .0406897
677.969 .0406691
678.712 .0406481
679.455 .0406269
680.199 .0406055
680.941 .0405842
681.684 .0405630
682.426 .0405418
683.168 .0405208
683.910 .0405001
684.652 .0404795
685.393 .0404592
686.134 .0404391
686.875 .0404194
687.616 .0404001
688.356 .0403812
689.097 .0403631
689.837 .0403456
690.576 .0403290
691.316 .0403133
692.055 .0402984
692.794 .0402844
693.533 .0402710
694.272 .0402582
695.010 .0402458
695.748 .0402337
696.486 .0402218
697.224 .0402100
697.962 .0401983
698.699 .0401866
699.436 .0401748
700.173 .0401629
700.909 .0401508
701.646 .0401384
702.382 .0401256
703.118 .0401123
703.853 .0400984
704.589 .0400839
705.324 .0400688
706.059 .0400529
706.794 .0400363
707.529 .0400189
708.263 .0400007
708.997 .0399818
709.731 .0399623
710.465 .0399422
711.198 .0399217
711.931 .0399010
712.664 .0398801
713.397 .0398592
714.130 .0398382
714.862 .0398172
715.594 .0397960
716.326 .0397747
717.058 .0397532
717.789 .0397315
718.520 .0397097
719.251 .0396878
719.982 .0396660
720.713 .0396445
721.443 .0396233
722.173 .0396024
722.903 .0395820
723.633 .0395621
724.362 .0395426
725.091 .0395235
725.820 .0395049
726.549 .0394868
727.278 .0394691
728.006 .0394518
728.734 .0394350
729.462 .0394187
730.190 .0394029
730.917 .0393875
731.644 .0393727
732.371 .0393584
733.098 .0393447
733.825 .0393316
734.551 .0393191
735.277 .0393072
736.003 .0392957
736.728 .0392847
737.454 .0392741
738.179 .0392638
738.904 .0392538
739.629 .0392441
740.353 .0392347
741.077 .0392255
741.801 .0392166
742.525 .0392077
743.249 .0391989
743.972 .0391900
744.695 .0391811
745.418 .0391720
746.141 .0391627
746.863 .0391532
747.585 .0391433
748.307 .0391331
749.029 .0391226
749.750 .0391116
750.472 .0391001
751.193 .0390882
751.913 .0390759
752.634 .0390631
753.354 .0390501
754.074 .0390367
754.794 .0390230
755.514 .0390092
756.233 .0389950
756.952 .0389805
757.671 .0389658
758.390 .0389508
759.108 .0389355
759.826 .0389200
760.544 .0389041
761.262 .0388881
761.979 .0388718
762.697 .0388554
763.414 .0388388
764.130 .0388222
764.847 .0388056
765.563 .0387890
766.279 .0387725
766.995 .0387561
767.710 .0387398
768.426 .0387237
769.141 .0387076
769.855 .0386916
770.570 .0386757
771.284 .0386597
771.998 .0386438
772.712 .0386280
773.426 .0386122
774.139 .0385964
774.852 .0385807
775.565 .0385651
776.277 .0385494
776.990 .0385337
777.702 .0385179
778.414 .0385020
779.125 .0384860
779.836 .0384698
780.547 .0384535
781.258 .0384371
781.969 .0384207
782.679 .0384041
783.389 .0383785
784.099 .0383618
784.808 .0383451
785.517 .0383285
786.226 .0383120
786.935 .0382956
787.643 .0382795
788.352 .0382637
789.060 .0382482
789.767 .0382331
790.475 .0382182
791.182 .0382036
791.889 .0381978
792.595 .0381838
793.301 .0381702
794.008 .0381569
794.713 .0381439
795.419 .0381313
796.124 .0381191
796.829 .0381072
797.534 .0380956
798.238 .0380843
798.942 .0380731
799.646 .0380622
800.350 .0380514
801.053 .0380409
801.756 .0380305
802.459 .0380202
803.162 .0380101
803.864 .0380001
804.566 .0379902
805.267 .0379802
805.969 .0379701
806.670 .0379600
807.371 .0379498
808.071 .0379395
808.772 .0379291
809.472 .0379187
810.171 .0379082
810.871 .0378976
811.570 .0378868
812.269 .0378758
812.967 .0378644
813.666 .0378526
814.364 .0378404
815.061 .0378278
815.759 .0378148
816.456 .0378015
817.153 .0377878
817.849 .0377738
818.545 .0377593
819.241 .0377444
819.937 .0377290
820.632 .0377131
821.327 .0376967
822.022 .0376796
822.717 .0376621
823.411 .0376440
824.105 .0376254
824.798 .0376063
825.491 .0375868
826.184 .0375669
826.877 .0375466
827.569 .0375260
828.261 .0375052
828.953 .0374842
829.645 .0374631
830.336 .0374420
831.027 .0374210
831.717 .0374000
832.407 .0373793
833.097 .0373587
833.787 .0373383
834.476 .0373183
835.165 .0372985
835.854 .0372792
836.542 .0372601
837.230 .0372414
837.918 .0372230
838.605 .0372049
839.292 .0371871
839.979 .0371694
840.665 .0371520
841.352 .0371347
842.037 .0371175
842.723 .0371003
843.408 .0370830
844.093 .0370655
844.777 .0370479
845.462 .0370299
846.145 .0370116
846.829 .0369929
847.512 .0369741
848.195 .0369550
848.878 .0369357
849.560 .0369164
850.242 .0368969
850.923 .0368772
851.605 .0368573
852.286 .0368371
852.966 .0368167
853.646 .0367960
854.326 .0367751
855.006 .0367542
855.685 .0367334
856.364 .0367127
857.043 .0366922
857.721 .0366720
858.399 .0366520
859.077 .0366321
859.754 .0366125
860.431 .0365931
861.107 .0365740
861.784 .0365553
862.459 .0365370
863.135 .0365194
863.810 .0365024
864.485 .0364861
865.160 .0364704
865.834 .0364553
866.508 .0364409
867.181 .0364270
867.854 .0364137
868.527 .0364011
869.199 .0363890
869.872 .0363775
870.543 .0363665
871.215 .0363559
871.886 .0363457
872.557 .0363357
873.227 .0363259
873.897 .0363161
874.567 .0363062
875.236 .0362962
875.905 .0362860
876.573 .0362757
877.242 .0362651
877.909 .0362542
878.577 .0362431
879.244 .0362317
879.911 .0362200
880.577 .0362080
881.243 .0361956
881.909 .0361828
882.575 .0361697
883.240 .0361561
883.904 .0361422
884.569 .0361278
885.232 .0361130
885.896 .0360979
886.559 .0360825
887.222 .0360668
887.885 .0360509
888.547 .0360348
889.208 .0360186
889.870 .0360022
890.531 .0359858
891.192 .0359693
891.852 .0359529
892.512 .0359365
893.171 .0359203
893.830 .0359043
894.489 .0358885
895.148 .0358729
895.806 .0358575
896.464 .0358422
897.121 .0358269
897.778 .0358115
898.434 .0357960
899.091 .0357719
899.747 .0357557
900.402 .0357393
901.057 .0357226
901.712 .0357056
902.366 .0356882
903.020 .0356703
903.674 .0356517
904.327 .0356325
904.980 .0356126
905.633 .0355920
906.285 .0355707
906.936 .0355489
907.588 .0355362
908.239 .0355136
908.889 .0354906
909.540 .0354673
910.190 .0354435
910.839 .0354195
911.488 .0353953
912.137 .0353708
912.785 .0353462
913.433 .0353217
914.081 .0352972
914.728 .0352729
915.375 .0352489
916.021 .0352253
916.668 .0352019
917.313 .0351789
917.959 .0351563
918.604 .0351339
919.248 .0351117
919.892 .0350899
920.536 .0350683
921.180 .0350470
921.823 .0350259
922.465 .0350051
923.108 .0349845
923.750 .0349641
924.391 .0349438
925.032 .0349237
925.673 .0349037
926.313 .0348837
926.953 .0348639
927.593 .0348441
928.232 .0348245
928.871 .0348050
929.510 .0347858
930.148 .0347668
930.786 .0347481
931.423 .0347298
932.060 .0347118
932.697 .0346942
933.333 .0346771
933.969 .0346604
934.604 .0346441
935.239 .0346284
935.874 .0346133
936.508 .0345988
937.142 .0345849
937.776 .0345717
938.409 .0345591
939.042 .0345472
939.674 .0345359
940.306 .0345253
940.938 .0345151
941.569 .0345055
942.200 .0344963
942.830 .0344875
943.460 .0344789
944.090 .0344707
944.720 .0344626
945.349 .0344546
945.977 .0344465
946.606 .0344383
947.233 .0344297
947.861 .0344208
948.488 .0344113
949.115 .0344012
949.741 .0343905
950.367 .0343792
950.993 .0343673
951.618 .0343547
952.243 .0343414
952.868 .0343275
953.492 .0343131
954.115 .0342982
954.739 .0342829
955.362 .0342673
955.984 .0342515
956.607 .0342356
957.229 .0342197
957.850 .0342037
958.471 .0341878
959.092 .0341720
959.713 .0341563
960.333 .0341406
960.952 .0341251
961.572 .0341097
962.191 .0340946
962.809 .0340798
963.428 .0340653
964.045 .0340510
964.663 .0340371
965.280 .0340234
965.897 .0340098
966.513 .0339962
967.129 .0339825
967.745 .0339688
968.361 .0339550
968.976 .0339413
969.590 .0339275
970.205 .0339138
970.818 .0339003
971.432 .0338869
972.045 .0338735
972.658 .0338602
973.271 .0338468
973.883 .0338332
974.495 .0338196
975.106 .0338058
975.717 .0337920
976.328 .0337782
976.938 .0337645
977.548 .0337509
978.158 .0337375
978.768 .0337181
979.377 .0337049
979.985 .0336915
980.594 .0336779
981.202 .0336641
981.809 .0336502
982.417 .0336362
983.024 .0336222
983.631 .0336083
984.237 .0335946
984.843 .0335809
985.449 .0335672
986.054 .0335533
986.659 .0335392
987.264 .0335310
987.868 .0335161
988.472 .0335009
989.076 .0334852
989.679 .0334692
990.282 .0334529
990.885 .0334365
991.487 .0334199
992.090 .0334033
992.691 .0333867
993.293 .0333699
993.894 .0333530
994.495 .0333359
995.095 .0333187
995.696 .0333014
996.296 .0332842
996.895 .0332673
997.494 .0332507
998.093 .0332345
998.692 .0332189
999.291 .0332037
999.889 .0331891
1000.487 .0331749
1001.084 .0331611
1001.681 .0331479
1002.278 .0331353
1002.875 .0331233
1003.471 .0331121
1004.067 .0331016
1004.663 .0330921
1005.258 .0330833
1005.854 .0330752
1006.449 .0330678
1007.043 .0330609
1007.638 .0330545
1008.232 .0330485
1008.826 .0330427
1009.419 .0330373
1010.012 .0330323
1010.605 .0330275
1011.198 .0330230
1011.791 .0330186
1012.383 .0330144
1012.975 .0330102
1013.566 .0330059
1014.158 .0330014
1014.749 .0329967
1015.340 .0329920
1015.931 .0329872
1016.521 .0329825
1017.111 .0329780
1017.701 .0329737
1018.291 .0329697
1018.880 .0329658
1019.470 .0329621
1020.059 .0329584
1020.647 .0329547
1021.236 .0329509
1021.824 .0329472
1022.412 .0329435
1023.000 .0329399
1023.588 .0329366
1024.175 .0329335
1024.762 .0329308
1025.349 .0329283
1025.936 .0329261
1026.523 .0329242
1027.109 .0329225
1027.695 .0329211
1028.281 .0329200
1028.867 .0329193
1029.452 .0329190
1030.038 .0329193
1030.623 .0329202
1031.208 .0329217
1031.792 .0329240
1032.377 .0329267
1032.961 .0329300
1033.546 .0329336
1034.130 .0329375
1034.714 .0329414
1035.297 .0329453
1035.881 .0329491
1036.464 .0329526
1037.047 .0329559
1037.630 .0329588
1038.213 .0329614
1038.796 .0329637
1039.378 .0329657
1039.961 .0329673
1040.543 .0329686
1041.125 .0329696
1041.707 .0329703
1042.289 .0329709
1042.871 .0329713
1043.452 .0329716
1044.034 .0329719
1044.615 .0329723
1045.196 .0329729
1045.777 .0329737
1046.358 .0329748
1046.939 .0329762
1047.520 .0329780
1048.101 .0329800
1048.681 .0329822
1049.262 .0329845
1049.842 .0329867
1050.422 .0329888
1051.002 .0329908
1051.582 .0329926
1052.162 .0329944
1052.742 .0329961
1053.322 .0329978
1053.902 .0329996
1054.482 .0330014
1055.061 .0330032
1055.641 .0330049
1056.220 .0330065
1056.800 .0330079
1057.379 .0330091
1057.958 .0330101
1058.538 .0330109
1059.117 .0330114
1059.696 .0330116
1060.275 .0330114
1060.854 .0330107
1061.433 .0330095
1062.012 .0330075
1062.592 .0330048
1063.171 .0330011
1063.750 .0329965
1064.329 .0329906
1064.908 .0329836
1065.487 .0329751
1066.066 .0329652
1066.645 .0329538
1067.224 .0329409
1067.803 .0329269
1068.382 .0329116
1068.961 .0328956
1069.540 .0328789
1070.119 .0328620
1070.698 .0328450
1071.278 .0328281
1071.857 .0328114
1072.436 .0327949
1073.016 .0327788
1073.595 .0327630
1074.175 .0327478
1074.754 .0327333
1075.334 .0327195
1075.913 .0327068
1076.493 .0326951
1077.073 .0326844
1077.653 .0326749
1078.233 .0326663
1078.813 .0326586
1079.393 .0326516
1079.974 .0326453
1080.554 .0326396
1081.135 .0326345
1081.716 .0326302
1082.296 .0326266
1082.877 .0326240
1083.458 .0326224
1084.040 .0326217
1084.621 .0326218
1085.202 .0326223
1085.784 .0326231
1086.366 .0326236
1086.948 .0326236
1087.530 .0326227
1088.112 .0326209
1088.695 .0326182
1089.277 .0326144
1089.860 .0326097
1090.443 .0326040
1091.026 .0325975
1091.610 .0325899
1092.193 .0325812
1092.777 .0325713
1093.361 .0325601
1093.946 .0325476
1094.530 .0325339
1095.115 .0325190
1095.700 .0325032
1096.285 .0324868
1096.871 .0324699
1097.456 .0324528
1098.042 .0324355
1098.628 .0324183
1099.215 .0324012
1099.802 .0323843
1100.389 .0323676
1100.976 .0323513
1101.564 .0323356
1102.152 .0323206
1102.740 .0323064
1103.329 .0322932
1103.917 .0322812
1104.507 .0322704
1105.096 .0322609
1105.686 .0322529
1106.276 .0322463
1106.867 .0322412
1107.457 .0322376
1108.049 .0322356
1108.640 .0322350
1109.232 .0322356
1109.825 .0322371
1110.417 .0322392
1111.010 .0322416
1111.604 .0322438
1112.198 .0322456
1112.792 .0322468
1113.387 .0322472
1113.982 .0322468
1114.577 .0322454
1115.173 .0322430
1115.769 .0322396
1116.366 .0322349
1116.963 .0322289
1117.561 .0322217
1118.159 .0322132
1118.758 .0322037
1119.357 .0321938
1119.957 .0321838
1120.557 .0321744
1121.157 .0321660
1121.758 .0321593
1122.360 .0321544
1122.962 .0321515
1123.564 .0321509
1124.167 .0321467
1124.771 .0321479
1125.375 .0321517
1125.980 .0321585
1126.585 .0321687
1127.191 .0321828
1127.797 .0322014
1128.404 .0322248
1129.012 .0322534
1129.620 .0322869
1130.229 .0323254
1130.838 .0323686
1131.448 .0324162
1132.058 .0324680
1132.669 .0325400
1133.281 .0326039
1133.894 .0326736
1134.507 .0327434
1135.120 .0328222
1135.735 .0329012
1136.350 .0329974
1136.965 .0331126
1137.582 .0332243
1138.199 .0333269
1138.816 .0334276
1139.435 .0335174
1140.054 .0336046
1140.674 .0336872
1141.294 .0337810
1141.916 .0339026
1142.538 .0338713
1143.160 .0340809
1143.784 .0340628
1144.408 .0345164
1145.033 .0351349
