Measurement Sequence started on: 14-45-04-498
Integration time: 36
Scans to Average: 2 
>>>>>Begin Spectral Data<<<<<
433.946 .0591387
434.870 .0563981
435.793 .0541871
436.715 .0543800
437.635 .0518925
438.555 .0519770
439.473 .0511737
440.389 .0505756
441.305 .0501297
442.219 .0497497
443.132 .0504634
444.044 .0500521
444.954 .0497567
445.863 .0494497
446.771 .0492704
447.678 .0490822
448.584 .0489314
449.488 .0488066
450.391 .0486999
451.293 .0486080
452.194 .0485257
453.094 .0484507
453.992 .0483810
454.890 .0483143
455.786 .0482480
456.681 .0481792
457.575 .0481046
458.468 .0480215
459.360 .0479288
460.250 .0478265
461.140 .0477155
462.028 .0475977
462.915 .0474756
463.801 .0473514
464.687 .0472266
465.571 .0471018
466.454 .0469773
467.335 .0468526
468.216 .0467274
469.096 .0466014
469.975 .0464753
470.853 .0463500
471.729 .0462272
472.605 .0461088
473.479 .0459965
474.353 .0458915
475.226 .0457943
476.097 .0457046
476.968 .0456216
477.838 .0455439
478.706 .0454704
479.574 .0453997
480.441 .0453316
481.306 .0452658
482.171 .0452026
483.035 .0451424
483.898 .0450858
484.760 .0450328
485.621 .0449832
486.481 .0449363
487.340 .0448913
488.198 .0448472
489.055 .0448032
489.912 .0447586
490.767 .0447130
491.622 .0446434
492.476 .0445961
493.329 .0445485
494.180 .0445006
495.032 .0444526
495.882 .0444041
496.731 .0443548
497.580 .0443038
498.427 .0442507
499.274 .0441951
500.120 .0441614
500.965 .0441012
501.809 .0440386
502.653 .0439741
503.495 .0439080
504.337 .0438413
505.178 .0437744
506.018 .0437076
506.858 .0436415
507.696 .0435765
508.534 .0435131
509.371 .0434521
510.208 .0433943
511.043 .0433407
511.878 .0432923
512.712 .0432500
513.545 .0432140
514.377 .0431845
515.209 .0431617
516.040 .0431449
516.870 .0431333
517.699 .0431264
518.528 .0431235
519.356 .0431241
520.183 .0431276
521.010 .0431337
521.836 .0431414
522.661 .0431496
523.485 .0431571
524.309 .0431626
525.132 .0431644
525.954 .0431609
526.776 .0431505
527.597 .0431319
528.417 .0431043
529.237 .0430673
530.056 .0430210
530.874 .0429656
531.692 .0429015
532.508 .0428287
533.325 .0427476
534.140 .0426587
534.955 .0425621
535.770 .0424585
536.583 .0423486
537.397 .0422330
538.209 .0421126
539.021 .0419889
539.832 .0418636
540.643 .0417384
541.453 .0416152
542.262 .0414957
543.071 .0413819
543.879 .0412750
544.687 .0411761
545.494 .0410858
546.300 .0410041
547.106 .0409307
547.911 .0408648
548.716 .0408063
549.520 .0407551
550.323 .0407112
551.126 .0406746
551.929 .0406453
552.731 .0406229
553.532 .0406064
554.332 .0405947
555.133 .0405869
555.932 .0405811
556.731 .0405760
557.530 .0405700
558.328 .0405623
559.125 .0405519
559.922 .0405382
560.719 .0405206
561.515 .0404989
562.310 .0404724
563.105 .0404409
563.899 .0404043
564.693 .0403629
565.487 .0403171
566.280 .0402673
567.072 .0402141
567.864 .0401581
568.655 .0400998
569.446 .0400402
570.236 .0399795
571.026 .0399186
571.816 .0398576
572.605 .0397970
573.393 .0397372
574.181 .0396786
574.969 .0396213
575.756 .0395655
576.543 .0395112
577.329 .0394581
578.115 .0394061
578.900 .0393553
579.685 .0393056
580.469 .0392572
581.253 .0392101
582.036 .0391645
582.820 .0391206
583.602 .0390783
584.384 .0390377
585.166 .0389986
585.947 .0389608
586.728 .0389241
587.509 .0388887
588.289 .0388545
589.069 .0388218
589.848 .0387907
590.627 .0387615
591.405 .0387343
592.183 .0387090
592.961 .0386858
593.738 .0386644
594.515 .0386446
595.291 .0386261
596.067 .0386087
596.843 .0385919
597.618 .0385756
598.393 .0385511
599.167 .0385351
599.941 .0385192
600.715 .0385033
601.488 .0384875
602.261 .0384719
603.034 .0384564
603.806 .0384411
604.578 .0384261
605.349 .0384112
606.121 .0383964
606.891 .0383896
607.662 .0383753
608.432 .0383610
609.201 .0383468
609.971 .0383327
610.740 .0383189
611.508 .0383055
612.277 .0382927
613.045 .0382805
613.812 .0382691
614.579 .0382582
615.346 .0382478
616.113 .0382378
616.879 .0382280
617.645 .0382183
618.411 .0382086
619.176 .0381989
619.941 .0381891
620.705 .0381791
621.470 .0381690
622.233 .0381586
622.997 .0381480
623.760 .0381371
624.523 .0381260
625.286 .0381146
626.048 .0381030
626.810 .0380911
627.572 .0380791
628.333 .0380670
629.095 .0380546
629.855 .0380421
630.616 .0380292
631.376 .0380161
632.136 .0380027
632.895 .0379892
633.655 .0379754
634.414 .0379617
635.172 .0379479
635.931 .0379343
636.689 .0379208
637.447 .0379075
638.204 .0378943
638.962 .0378813
639.718 .0378684
640.475 .0378555
641.231 .0378424
641.988 .0378291
642.743 .0378156
643.499 .0378018
644.254 .0377878
645.009 .0377737
645.764 .0377593
646.518 .0377448
647.272 .0377302
648.026 .0377154
648.780 .0377003
649.533 .0376849
650.286 .0376690
651.039 .0376526
651.792 .0376356
652.544 .0376182
653.296 .0376002
654.048 .0375818
654.799 .0375631
655.550 .0375441
656.301 .0375249
657.052 .0375057
657.802 .0374863
658.552 .0374670
659.302 .0374476
660.052 .0374283
660.801 .0374089
661.550 .0373895
662.299 .0373701
663.048 .0373505
663.796 .0373309
664.544 .0373112
665.292 .0372916
666.040 .0372722
666.787 .0372529
667.534 .0372341
668.281 .0372155
669.028 .0371974
669.774 .0371796
670.521 .0371622
671.266 .0371450
672.012 .0371279
672.758 .0371109
673.503 .0370940
674.248 .0370771
674.992 .0370601
675.737 .0370431
676.481 .0370260
677.225 .0370087
677.969 .0369913
678.712 .0369738
679.455 .0369561
680.199 .0369382
680.941 .0369201
681.684 .0369017
682.426 .0368830
683.168 .0368640
683.910 .0368446
684.652 .0368249
685.393 .0368049
686.134 .0367846
686.875 .0367641
687.616 .0367434
688.356 .0367226
689.097 .0367018
689.837 .0366808
690.576 .0366597
691.316 .0366384
692.055 .0366170
692.794 .0365955
693.533 .0365739
694.272 .0365523
695.010 .0365306
695.748 .0365090
696.486 .0364875
697.224 .0364662
697.962 .0364452
698.699 .0364245
699.436 .0364041
700.173 .0363842
700.909 .0363648
701.646 .0363457
702.382 .0363270
703.118 .0363087
703.853 .0362906
704.589 .0362728
705.324 .0362552
706.059 .0362378
706.794 .0362205
707.529 .0362035
708.263 .0361867
708.997 .0361701
709.731 .0361538
710.465 .0361378
711.198 .0361219
711.931 .0361062
712.664 .0360907
713.397 .0360752
714.130 .0360597
714.862 .0360442
715.594 .0360288
716.326 .0360134
717.058 .0359979
717.789 .0359825
718.520 .0359670
719.251 .0359517
719.982 .0359363
720.713 .0359209
721.443 .0359056
722.173 .0358901
722.903 .0358746
723.633 .0358590
724.362 .0358432
725.091 .0358273
725.820 .0358113
726.549 .0357952
727.278 .0357791
728.006 .0357629
728.734 .0357467
729.462 .0357307
730.190 .0357149
730.917 .0356992
731.644 .0356838
732.371 .0356687
733.098 .0356538
733.825 .0356391
734.551 .0356247
735.277 .0356104
736.003 .0355961
736.728 .0355820
737.454 .0355680
738.179 .0355540
738.904 .0355402
739.629 .0355265
740.353 .0355130
741.077 .0354996
741.801 .0354862
742.525 .0354728
743.249 .0354592
743.972 .0354455
744.695 .0354315
745.418 .0354172
746.141 .0354025
746.863 .0353875
747.585 .0353722
748.307 .0353566
749.029 .0353408
749.750 .0353247
750.472 .0353083
751.193 .0352918
751.913 .0352751
752.634 .0352584
753.354 .0352416
754.074 .0352248
754.794 .0352081
755.514 .0351914
756.233 .0351748
756.952 .0351582
757.671 .0351418
758.390 .0351254
759.108 .0351093
759.826 .0350934
760.544 .0350779
761.262 .0350629
761.979 .0350483
762.697 .0350342
763.414 .0350206
764.130 .0350074
764.847 .0349945
765.563 .0349820
766.279 .0349697
766.995 .0349578
767.710 .0349461
768.426 .0349347
769.141 .0349236
769.855 .0349127
770.570 .0349020
771.284 .0348915
771.998 .0348812
772.712 .0348710
773.426 .0348610
774.139 .0348511
774.852 .0348414
775.565 .0348319
776.277 .0348226
776.990 .0348134
777.702 .0348043
778.414 .0347952
779.125 .0347862
779.836 .0347771
780.547 .0347680
781.258 .0347590
781.969 .0347501
782.679 .0347411
783.389 .0347277
784.099 .0347186
784.808 .0347093
785.517 .0346998
786.226 .0346899
786.935 .0346797
787.643 .0346691
788.352 .0346582
789.060 .0346470
789.767 .0346354
790.475 .0346236
791.182 .0346115
791.889 .0346044
792.595 .0345917
793.301 .0345785
794.008 .0345650
794.713 .0345509
795.419 .0345365
796.124 .0345216
796.829 .0345063
797.534 .0344906
798.238 .0344744
798.942 .0344579
799.646 .0344409
800.350 .0344236
801.053 .0344059
801.756 .0343879
802.459 .0343697
803.162 .0343512
803.864 .0343327
804.566 .0343142
805.267 .0342957
805.969 .0342772
806.670 .0342588
807.371 .0342404
808.071 .0342221
808.772 .0342039
809.472 .0341857
810.171 .0341677
810.871 .0341497
811.570 .0341320
812.269 .0341143
812.967 .0340969
813.666 .0340795
814.364 .0340623
815.061 .0340450
815.759 .0340278
816.456 .0340106
817.153 .0339933
817.849 .0339761
818.545 .0339589
819.241 .0339417
819.937 .0339245
820.632 .0339073
821.327 .0338901
822.022 .0338729
822.717 .0338555
823.411 .0338379
824.105 .0338202
824.798 .0338024
825.491 .0337845
826.184 .0337666
826.877 .0337486
827.569 .0337307
828.261 .0337129
828.953 .0336952
829.645 .0336778
830.336 .0336606
831.027 .0336438
831.717 .0336274
832.407 .0336115
833.097 .0335963
833.787 .0335818
834.476 .0335679
835.165 .0335548
835.854 .0335423
836.542 .0335305
837.230 .0335192
837.918 .0335085
838.605 .0334984
839.292 .0334888
839.979 .0334796
840.665 .0334708
841.352 .0334623
842.037 .0334539
842.723 .0334457
843.408 .0334374
844.093 .0334290
844.777 .0334203
845.462 .0334114
846.145 .0334022
846.829 .0333926
847.512 .0333825
848.195 .0333720
848.878 .0333609
849.560 .0333492
850.242 .0333368
850.923 .0333235
851.605 .0333094
852.286 .0332943
852.966 .0332784
853.646 .0332615
854.326 .0332438
855.006 .0332253
855.685 .0332062
856.364 .0331864
857.043 .0331661
857.721 .0331454
858.399 .0331243
859.077 .0331031
859.754 .0330818
860.431 .0330606
861.107 .0330395
861.784 .0330185
862.459 .0329978
863.135 .0329774
863.810 .0329572
864.485 .0329372
865.160 .0329175
865.834 .0328981
866.508 .0328789
867.181 .0328600
867.854 .0328414
868.527 .0328231
869.199 .0328050
869.872 .0327872
870.543 .0327696
871.215 .0327521
871.886 .0327347
872.557 .0327173
873.227 .0326999
873.897 .0326824
874.567 .0326648
875.236 .0326471
875.905 .0326292
876.573 .0326112
877.242 .0325929
877.909 .0325744
878.577 .0325556
879.244 .0325364
879.911 .0325169
880.577 .0324970
881.243 .0324768
881.909 .0324564
882.575 .0324357
883.240 .0324148
883.904 .0323938
884.569 .0323727
885.232 .0323516
885.896 .0323306
886.559 .0323097
887.222 .0322891
887.885 .0322688
888.547 .0322489
889.208 .0322296
889.870 .0322108
890.531 .0321927
891.192 .0321751
891.852 .0321582
892.512 .0321418
893.171 .0321260
893.830 .0321107
894.489 .0320960
895.148 .0320817
895.806 .0320681
896.464 .0320550
897.121 .0320425
897.778 .0320305
898.434 .0320190
899.091 .0320034
899.747 .0319928
900.402 .0319825
901.057 .0319725
901.712 .0319627
902.366 .0319531
903.020 .0319437
903.674 .0319343
904.327 .0319251
904.980 .0319158
905.633 .0319064
906.285 .0318970
906.936 .0318875
907.588 .0318823
908.239 .0318726
908.889 .0318627
909.540 .0318526
910.190 .0318422
910.839 .0318317
911.488 .0318209
912.137 .0318099
912.785 .0317987
913.433 .0317874
914.081 .0317758
914.728 .0317642
915.375 .0317523
916.021 .0317403
916.668 .0317282
917.313 .0317160
917.959 .0317036
918.604 .0316911
919.248 .0316785
919.892 .0316658
920.536 .0316531
921.180 .0316403
921.823 .0316274
922.465 .0316144
923.108 .0316014
923.750 .0315882
924.391 .0315748
925.032 .0315612
925.673 .0315474
926.313 .0315335
926.953 .0315193
927.593 .0315050
928.232 .0314905
928.871 .0314759
929.510 .0314611
930.148 .0314463
930.786 .0314313
931.423 .0314163
932.060 .0314011
932.697 .0313858
933.333 .0313703
933.969 .0313547
934.604 .0313389
935.239 .0313229
935.874 .0313068
936.508 .0312904
937.142 .0312739
937.776 .0312572
938.409 .0312403
939.042 .0312232
939.674 .0312059
940.306 .0311884
940.938 .0311705
941.569 .0311523
942.200 .0311339
942.830 .0311152
943.460 .0310963
944.090 .0310773
944.720 .0310582
945.349 .0310390
945.977 .0310198
946.606 .0310004
947.233 .0309809
947.861 .0309611
948.488 .0309410
949.115 .0309207
949.741 .0309001
950.367 .0308792
950.993 .0308581
951.618 .0308368
952.243 .0308153
952.868 .0307934
953.492 .0307713
954.115 .0307488
954.739 .0307261
955.362 .0307030
955.984 .0306798
956.607 .0306564
957.229 .0306330
957.850 .0306097
958.471 .0305865
959.092 .0305635
959.713 .0305406
960.333 .0305179
960.952 .0304953
961.572 .0304729
962.191 .0304508
962.809 .0304289
963.428 .0304074
964.045 .0303863
964.663 .0303656
965.280 .0303453
965.897 .0303255
966.513 .0303061
967.129 .0302870
967.745 .0302682
968.361 .0302498
968.976 .0302318
969.590 .0302142
970.205 .0301969
970.818 .0301802
971.432 .0301638
972.045 .0301479
972.658 .0301324
973.271 .0301171
973.883 .0301021
974.495 .0300874
975.106 .0300727
975.717 .0300583
976.328 .0300440
976.938 .0300299
977.548 .0300160
978.158 .0300022
978.768 .0299821
979.377 .0299689
979.985 .0299560
980.594 .0299434
981.202 .0299310
981.809 .0299190
982.417 .0299074
983.024 .0298963
983.631 .0298857
984.237 .0298757
984.843 .0298663
985.449 .0298576
986.054 .0298495
986.659 .0298420
987.264 .0298403
987.868 .0298337
988.472 .0298275
989.076 .0298218
989.679 .0298166
990.282 .0298118
990.885 .0298075
991.487 .0298038
992.090 .0298006
992.691 .0297980
993.293 .0297958
993.894 .0297942
994.495 .0297929
995.095 .0297919
995.696 .0297913
996.296 .0297908
996.895 .0297906
997.494 .0297906
998.093 .0297907
998.692 .0297911
999.291 .0297916
999.889 .0297923
1000.487 .0297932
1001.084 .0297942
1001.681 .0297954
1002.278 .0297967
1002.875 .0297982
1003.471 .0297998
1004.067 .0298017
1004.663 .0298037
1005.258 .0298059
1005.854 .0298082
1006.449 .0298108
1007.043 .0298136
1007.638 .0298166
1008.232 .0298197
1008.826 .0298229
1009.419 .0298262
1010.012 .0298295
1010.605 .0298329
1011.198 .0298361
1011.791 .0298394
1012.383 .0298425
1012.975 .0298456
1013.566 .0298486
1014.158 .0298515
1014.749 .0298545
1015.340 .0298574
1015.931 .0298604
1016.521 .0298635
1017.111 .0298666
1017.701 .0298697
1018.291 .0298728
1018.880 .0298759
1019.470 .0298788
1020.059 .0298817
1020.647 .0298844
1021.236 .0298870
1021.824 .0298896
1022.412 .0298922
1023.000 .0298950
1023.588 .0298979
1024.175 .0299010
1024.762 .0299041
1025.349 .0299073
1025.936 .0299106
1026.523 .0299138
1027.109 .0299171
1027.695 .0299204
1028.281 .0299239
1028.867 .0299276
1029.452 .0299314
1030.038 .0299356
1030.623 .0299399
1031.208 .0299443
1031.792 .0299485
1032.377 .0299526
1032.961 .0299563
1033.546 .0299595
1034.130 .0299620
1034.714 .0299640
1035.297 .0299653
1035.881 .0299660
1036.464 .0299660
1037.047 .0299653
1037.630 .0299640
1038.213 .0299620
1038.796 .0299591
1039.378 .0299555
1039.961 .0299510
1040.543 .0299455
1041.125 .0299392
1041.707 .0299320
1042.289 .0299239
1042.871 .0299151
1043.452 .0299055
1044.034 .0298952
1044.615 .0298842
1045.196 .0298724
1045.777 .0298597
1046.358 .0298463
1046.939 .0298321
1047.520 .0298171
1048.101 .0298014
1048.681 .0297852
1049.262 .0297687
1049.842 .0297519
1050.422 .0297351
1051.002 .0297183
1051.582 .0297018
1052.162 .0296855
1052.742 .0296694
1053.322 .0296536
1053.902 .0296382
1054.482 .0296230
1055.061 .0296083
1055.641 .0295940
1056.220 .0295802
1056.800 .0295671
1057.379 .0295546
1057.958 .0295427
1058.538 .0295313
1059.117 .0295204
1059.696 .0295097
1060.275 .0294992
1060.854 .0294887
1061.433 .0294783
1062.012 .0294680
1062.592 .0294577
1063.171 .0294476
1063.750 .0294375
1064.329 .0294274
1064.908 .0294172
1065.487 .0294068
1066.066 .0293961
1066.645 .0293848
1067.224 .0293730
1067.803 .0293607
1068.382 .0293478
1068.961 .0293345
1069.540 .0293208
1070.119 .0293068
1070.698 .0292924
1071.278 .0292775
1071.857 .0292620
1072.436 .0292459
1073.016 .0292290
1073.595 .0292116
1074.175 .0291939
1074.754 .0291760
1075.334 .0291584
1075.913 .0291412
1076.493 .0291248
1077.073 .0291092
1077.653 .0290945
1078.233 .0290808
1078.813 .0290681
1079.393 .0290564
1079.974 .0290457
1080.554 .0290362
1081.135 .0290279
1081.716 .0290210
1082.296 .0290154
1082.877 .0290112
1083.458 .0290082
1084.040 .0290063
1084.621 .0290054
1085.202 .0290053
1085.784 .0290061
1086.366 .0290075
1086.948 .0290096
1087.530 .0290123
1088.112 .0290156
1088.695 .0290195
1089.277 .0290239
1089.860 .0290288
1090.443 .0290341
1091.026 .0290397
1091.610 .0290456
1092.193 .0290518
1092.777 .0290584
1093.361 .0290652
1093.946 .0290723
1094.530 .0290796
1095.115 .0290867
1095.700 .0290934
1096.285 .0290996
1096.871 .0291051
1097.456 .0291098
1098.042 .0291138
1098.628 .0291172
1099.215 .0291201
1099.802 .0291226
1100.389 .0291250
1100.976 .0291271
1101.564 .0291291
1102.152 .0291308
1102.740 .0291322
1103.329 .0291335
1103.917 .0291348
1104.507 .0291365
1105.096 .0291389
1105.686 .0291424
1106.276 .0291473
1106.867 .0291538
1107.457 .0291617
1108.049 .0291711
1108.640 .0291817
1109.232 .0291930
1109.825 .0292051
1110.417 .0292175
1111.010 .0292302
1111.604 .0292432
1112.198 .0292568
1112.792 .0292708
1113.387 .0292854
1113.982 .0293006
1114.577 .0293164
1115.173 .0293326
1115.769 .0293492
1116.366 .0293659
1116.963 .0293827
1117.561 .0293996
1118.159 .0294166
1118.758 .0294339
1119.357 .0294518
1119.957 .0294703
1120.557 .0294895
1121.157 .0295094
1121.758 .0295300
1122.360 .0295511
1122.962 .0295726
1123.564 .0295941
1124.167 .0296056
1124.771 .0296263
1125.375 .0296469
1125.980 .0296675
1126.585 .0296884
1127.191 .0297099
1127.797 .0297323
1128.404 .0297560
1129.012 .0297809
1129.620 .0298072
1130.229 .0298352
1130.838 .0298649
1131.448 .0298961
1132.058 .0299290
1132.669 .0299760
1133.281 .0300134
1133.894 .0300527
1134.507 .0300936
1135.120 .0301434
1135.735 .0301911
1136.350 .0302267
1136.965 .0302445
1137.582 .0303060
1138.199 .0303675
1138.816 .0304252
1139.435 .0304789
1140.054 .0305369
1140.674 .0305951
1141.294 .0306435
1141.916 .0307006
1142.538 .0307472
1143.160 .0309918
1143.784 .0309440
1144.408 .0306265
1145.033 .0310253
