Measurement Sequence started on: 14-45-04-498
Integration time: 36
Scans to Average: 2 
>>>>>Begin Spectral Data<<<<<
433.946 .0418399
434.870 .0476009
435.793 .0442624
436.715 .0425737
437.635 .0423135
438.555 .0416942
439.473 .0411010
440.389 .0404107
441.305 .0398922
442.219 .0394764
443.132 .0402516
444.044 .0397576
444.954 .0394371
445.863 .0392032
446.771 .0389811
447.678 .0387893
448.584 .0386261
449.488 .0384967
450.391 .0383914
451.293 .0383045
452.194 .0382322
453.094 .0381699
453.992 .0381142
454.890 .0380624
455.786 .0380118
456.681 .0379616
457.575 .0379109
458.468 .0378593
459.360 .0378067
460.250 .0377527
461.140 .0376974
462.028 .0376405
462.915 .0375821
463.801 .0375222
464.687 .0374612
465.571 .0373997
466.454 .0373376
467.335 .0372755
468.216 .0372138
469.096 .0371522
469.975 .0370907
470.853 .0370292
471.729 .0369673
472.605 .0369054
473.479 .0368437
474.353 .0367826
475.226 .0367226
476.097 .0366642
476.968 .0366078
477.838 .0365532
478.706 .0365007
479.574 .0364502
480.441 .0364016
481.306 .0363552
482.171 .0363108
483.035 .0362690
483.898 .0362297
484.760 .0361932
485.621 .0361595
486.481 .0361288
487.340 .0361006
488.198 .0360750
489.055 .0360515
489.912 .0360299
490.767 .0360101
491.622 .0359868
492.476 .0359714
493.329 .0359576
494.180 .0359450
495.032 .0359332
495.882 .0359217
496.731 .0359096
497.580 .0358963
498.427 .0358812
499.274 .0358638
500.120 .0358496
500.965 .0358276
501.809 .0358030
502.653 .0357762
503.495 .0357475
504.337 .0357173
505.178 .0356856
506.018 .0356531
506.858 .0356195
507.696 .0355850
508.534 .0355496
509.371 .0355133
510.208 .0354759
511.043 .0354377
511.878 .0353985
512.712 .0353591
513.545 .0353195
514.377 .0352806
515.209 .0352423
516.040 .0352048
516.870 .0351681
517.699 .0351318
518.528 .0350953
519.356 .0350581
520.183 .0350190
521.010 .0349775
521.836 .0349329
522.661 .0348850
523.485 .0348333
524.309 .0347786
525.132 .0347215
525.954 .0346627
526.776 .0346030
527.597 .0345434
528.417 .0344841
529.237 .0344259
530.056 .0343684
530.874 .0343113
531.692 .0342545
532.508 .0341978
533.325 .0341413
534.140 .0340854
534.955 .0340306
535.770 .0339773
536.583 .0339263
537.397 .0338782
538.209 .0338329
539.021 .0337905
539.832 .0337506
540.643 .0337123
541.453 .0336747
542.262 .0336369
543.071 .0335979
543.879 .0335573
544.687 .0335150
545.494 .0334711
546.300 .0334257
547.106 .0333798
547.911 .0333339
548.716 .0332885
549.520 .0332441
550.323 .0332008
551.126 .0331588
551.929 .0331182
552.731 .0330791
553.532 .0330416
554.332 .0330058
555.133 .0329725
555.932 .0329421
556.731 .0329151
557.530 .0328917
558.328 .0328720
559.125 .0328560
559.922 .0328431
560.719 .0328324
561.515 .0328229
562.310 .0328138
563.105 .0328040
563.899 .0327929
564.693 .0327802
565.487 .0327656
566.280 .0327491
567.072 .0327308
567.864 .0327104
568.655 .0326878
569.446 .0326629
570.236 .0326353
571.026 .0326047
571.816 .0325711
572.605 .0325344
573.393 .0324949
574.181 .0324529
574.969 .0324091
575.756 .0323641
576.543 .0323187
577.329 .0322733
578.115 .0322284
578.900 .0321843
579.685 .0321411
580.469 .0320988
581.253 .0320575
582.036 .0320170
582.820 .0319772
583.602 .0319382
584.384 .0318999
585.166 .0318625
585.947 .0318260
586.728 .0317906
587.509 .0317563
588.289 .0317230
589.069 .0316907
589.848 .0316588
590.627 .0316273
591.405 .0315957
592.183 .0315637
592.961 .0315311
593.738 .0314979
594.515 .0314642
595.291 .0314303
596.067 .0313965
596.843 .0313630
597.618 .0313299
598.393 .0312830
599.167 .0312522
599.941 .0312224
600.715 .0311935
601.488 .0311654
602.261 .0311383
603.034 .0311122
603.806 .0310872
604.578 .0310635
605.349 .0310411
606.121 .0310201
606.891 .0310133
607.662 .0309943
608.432 .0309768
609.201 .0309607
609.971 .0309458
610.740 .0309321
611.508 .0309194
612.277 .0309076
613.045 .0308963
613.812 .0308853
614.579 .0308746
615.346 .0308637
616.113 .0308526
616.879 .0308411
617.645 .0308291
618.411 .0308165
619.176 .0308031
619.941 .0307890
620.705 .0307739
621.470 .0307579
622.233 .0307409
622.997 .0307229
623.760 .0307040
624.523 .0306841
625.286 .0306633
626.048 .0306417
626.810 .0306194
627.572 .0305964
628.333 .0305730
629.095 .0305490
629.855 .0305248
630.616 .0305002
631.376 .0304756
632.136 .0304509
632.895 .0304263
633.655 .0304017
634.414 .0303771
635.172 .0303525
635.931 .0303280
636.689 .0303034
637.447 .0302788
638.204 .0302542
638.962 .0302297
639.718 .0302053
640.475 .0301812
641.231 .0301572
641.988 .0301334
642.743 .0301098
643.499 .0300863
644.254 .0300627
645.009 .0300392
645.764 .0300156
646.518 .0299919
647.272 .0299684
648.026 .0299449
648.780 .0299215
649.533 .0298984
650.286 .0298757
651.039 .0298533
651.792 .0298314
652.544 .0298101
653.296 .0297893
654.048 .0297691
654.799 .0297495
655.550 .0297304
656.301 .0297119
657.052 .0296940
657.802 .0296766
658.552 .0296598
659.302 .0296436
660.052 .0296280
660.801 .0296131
661.550 .0295989
662.299 .0295854
663.048 .0295725
663.796 .0295602
664.544 .0295484
665.292 .0295371
666.040 .0295261
666.787 .0295155
667.534 .0295052
668.281 .0294952
669.028 .0294855
669.774 .0294762
670.521 .0294671
671.266 .0294584
672.012 .0294499
672.758 .0294418
673.503 .0294340
674.248 .0294263
674.992 .0294188
675.737 .0294113
676.481 .0294037
677.225 .0293960
677.969 .0293880
678.712 .0293797
679.455 .0293712
680.199 .0293623
680.941 .0293532
681.684 .0293438
682.426 .0293340
683.168 .0293240
683.910 .0293136
684.652 .0293028
685.393 .0292915
686.134 .0292798
686.875 .0292678
687.616 .0292553
688.356 .0292424
689.097 .0292291
689.837 .0292156
690.576 .0292017
691.316 .0291876
692.055 .0291733
692.794 .0291588
693.533 .0291441
694.272 .0291294
695.010 .0291147
695.748 .0291002
696.486 .0290857
697.224 .0290713
697.962 .0290570
698.699 .0290428
699.436 .0290286
700.173 .0290144
700.909 .0290003
701.646 .0289862
702.382 .0289723
703.118 .0289584
703.853 .0289447
704.589 .0289310
705.324 .0289175
706.059 .0289040
706.794 .0288904
707.529 .0288767
708.263 .0288629
708.997 .0288490
709.731 .0288350
710.465 .0288209
711.198 .0288067
711.931 .0287924
712.664 .0287780
713.397 .0287636
714.130 .0287491
714.862 .0287346
715.594 .0287201
716.326 .0287057
717.058 .0286914
717.789 .0286773
718.520 .0286635
719.251 .0286501
719.982 .0286371
720.713 .0286246
721.443 .0286126
722.173 .0286012
722.903 .0285904
723.633 .0285804
724.362 .0285712
725.091 .0285628
725.820 .0285554
726.549 .0285488
727.278 .0285431
728.006 .0285383
728.734 .0285342
729.462 .0285308
730.190 .0285281
730.917 .0285259
731.644 .0285244
732.371 .0285234
733.098 .0285230
733.825 .0285230
734.551 .0285233
735.277 .0285240
736.003 .0285249
736.728 .0285258
737.454 .0285267
738.179 .0285275
738.904 .0285282
739.629 .0285286
740.353 .0285288
741.077 .0285288
741.801 .0285284
742.525 .0285276
743.249 .0285264
743.972 .0285248
744.695 .0285227
745.418 .0285201
746.141 .0285170
746.863 .0285133
747.585 .0285092
748.307 .0285044
749.029 .0284992
749.750 .0284934
750.472 .0284870
751.193 .0284801
751.913 .0284726
752.634 .0284646
753.354 .0284562
754.074 .0284475
754.794 .0284384
755.514 .0284291
756.233 .0284196
756.952 .0284098
757.671 .0283999
758.390 .0283898
759.108 .0283795
759.826 .0283691
760.544 .0283586
761.262 .0283481
761.979 .0283375
762.697 .0283269
763.414 .0283163
764.130 .0283057
764.847 .0282952
765.563 .0282846
766.279 .0282740
766.995 .0282634
767.710 .0282528
768.426 .0282423
769.141 .0282319
769.855 .0282214
770.570 .0282110
771.284 .0282007
771.998 .0281902
772.712 .0281798
773.426 .0281693
774.139 .0281589
774.852 .0281485
775.565 .0281382
776.277 .0281280
776.990 .0281180
777.702 .0281081
778.414 .0280984
779.125 .0280888
779.836 .0280794
780.547 .0280702
781.258 .0280612
781.969 .0280525
782.679 .0280439
783.389 .0280317
784.099 .0280233
784.808 .0280149
785.517 .0280066
786.226 .0279983
786.935 .0279900
787.643 .0279817
788.352 .0279736
789.060 .0279654
789.767 .0279574
790.475 .0279494
791.182 .0279415
791.889 .0279371
792.595 .0279292
793.301 .0279213
794.008 .0279135
794.713 .0279057
795.419 .0278980
796.124 .0278905
796.829 .0278831
797.534 .0278758
798.238 .0278687
798.942 .0278619
799.646 .0278552
800.350 .0278489
801.053 .0278429
801.756 .0278373
802.459 .0278321
803.162 .0278274
803.864 .0278232
804.566 .0278193
805.267 .0278159
805.969 .0278129
806.670 .0278101
807.371 .0278076
808.071 .0278054
808.772 .0278034
809.472 .0278016
810.171 .0278000
810.871 .0277985
811.570 .0277971
812.269 .0277957
812.967 .0277942
813.666 .0277926
814.364 .0277909
815.061 .0277891
815.759 .0277872
816.456 .0277850
817.153 .0277827
817.849 .0277802
818.545 .0277775
819.241 .0277745
819.937 .0277714
820.632 .0277680
821.327 .0277643
822.022 .0277605
822.717 .0277564
823.411 .0277522
824.105 .0277478
824.798 .0277434
825.491 .0277388
826.184 .0277342
826.877 .0277295
827.569 .0277247
828.261 .0277198
828.953 .0277149
829.645 .0277099
830.336 .0277049
831.027 .0276999
831.717 .0276949
832.407 .0276900
833.097 .0276851
833.787 .0276804
834.476 .0276758
835.165 .0276712
835.854 .0276665
836.542 .0276619
837.230 .0276572
837.918 .0276523
838.605 .0276473
839.292 .0276421
839.979 .0276367
840.665 .0276309
841.352 .0276248
842.037 .0276184
842.723 .0276115
843.408 .0276043
844.093 .0275966
844.777 .0275885
845.462 .0275798
846.145 .0275706
846.829 .0275610
847.512 .0275507
848.195 .0275398
848.878 .0275284
849.560 .0275163
850.242 .0275036
850.923 .0274903
851.605 .0274765
852.286 .0274623
852.966 .0274477
853.646 .0274329
854.326 .0274178
855.006 .0274026
855.685 .0273873
856.364 .0273720
857.043 .0273567
857.721 .0273413
858.399 .0273260
859.077 .0273107
859.754 .0272955
860.431 .0272805
861.107 .0272655
861.784 .0272508
862.459 .0272363
863.135 .0272219
863.810 .0272078
864.485 .0271938
865.160 .0271800
865.834 .0271664
866.508 .0271527
867.181 .0271391
867.854 .0271253
868.527 .0271115
869.199 .0270975
869.872 .0270833
870.543 .0270689
871.215 .0270543
871.886 .0270395
872.557 .0270244
873.227 .0270091
873.897 .0269936
874.567 .0269777
875.236 .0269616
875.905 .0269452
876.573 .0269285
877.242 .0269116
877.909 .0268945
878.577 .0268774
879.244 .0268601
879.911 .0268429
880.577 .0268258
881.243 .0268088
881.909 .0267921
882.575 .0267756
883.240 .0267595
883.904 .0267439
884.569 .0267288
885.232 .0267143
885.896 .0267005
886.559 .0266875
887.222 .0266752
887.885 .0266636
888.547 .0266527
889.208 .0266425
889.870 .0266329
890.531 .0266241
891.192 .0266159
891.852 .0266084
892.512 .0266016
893.171 .0265954
893.830 .0265899
894.489 .0265849
895.148 .0265805
895.806 .0265765
896.464 .0265729
897.121 .0265697
897.778 .0265667
898.434 .0265639
899.091 .0265601
899.747 .0265577
900.402 .0265555
901.057 .0265535
901.712 .0265516
902.366 .0265498
903.020 .0265481
903.674 .0265463
904.327 .0265444
904.980 .0265424
905.633 .0265402
906.285 .0265377
906.936 .0265350
907.588 .0265334
908.239 .0265303
908.889 .0265269
909.540 .0265235
910.190 .0265199
910.839 .0265161
911.488 .0265122
912.137 .0265082
912.785 .0265040
913.433 .0264996
914.081 .0264951
914.728 .0264904
915.375 .0264855
916.021 .0264804
916.668 .0264751
917.313 .0264695
917.959 .0264637
918.604 .0264575
919.248 .0264509
919.892 .0264440
920.536 .0264366
921.180 .0264289
921.823 .0264207
922.465 .0264123
923.108 .0264035
923.750 .0263945
924.391 .0263852
925.032 .0263757
925.673 .0263660
926.313 .0263561
926.953 .0263459
927.593 .0263355
928.232 .0263249
928.871 .0263141
929.510 .0263032
930.148 .0262921
930.786 .0262809
931.423 .0262695
932.060 .0262580
932.697 .0262464
933.333 .0262346
933.969 .0262226
934.604 .0262105
935.239 .0261982
935.874 .0261857
936.508 .0261732
937.142 .0261605
937.776 .0261478
938.409 .0261350
939.042 .0261222
939.674 .0261094
940.306 .0260965
940.938 .0260836
941.569 .0260706
942.200 .0260575
942.830 .0260442
943.460 .0260308
944.090 .0260173
944.720 .0260036
945.349 .0259897
945.977 .0259757
946.606 .0259615
947.233 .0259472
947.861 .0259329
948.488 .0259185
949.115 .0259040
949.741 .0258897
950.367 .0258753
950.993 .0258611
951.618 .0258469
952.243 .0258328
952.868 .0258189
953.492 .0258051
954.115 .0257914
954.739 .0257779
955.362 .0257644
955.984 .0257511
956.607 .0257379
957.229 .0257248
957.850 .0257119
958.471 .0256992
959.092 .0256868
959.713 .0256746
960.333 .0256628
960.952 .0256512
961.572 .0256400
962.191 .0256290
962.809 .0256181
963.428 .0256075
964.045 .0255970
964.663 .0255866
965.280 .0255763
965.897 .0255662
966.513 .0255561
967.129 .0255462
967.745 .0255362
968.361 .0255261
968.976 .0255160
969.590 .0255057
970.205 .0254951
970.818 .0254844
971.432 .0254735
972.045 .0254624
972.658 .0254511
973.271 .0254398
973.883 .0254283
974.495 .0254167
975.106 .0254050
975.717 .0253931
976.328 .0253810
976.938 .0253688
977.548 .0253564
978.158 .0253438
978.768 .0253242
979.377 .0253113
979.985 .0252981
980.594 .0252848
981.202 .0252712
981.809 .0252573
982.417 .0252433
983.024 .0252290
983.631 .0252147
984.237 .0252003
984.843 .0251860
985.449 .0251717
986.054 .0251576
986.659 .0251436
987.264 .0251369
987.868 .0251234
988.472 .0251100
989.076 .0250968
989.679 .0250838
990.282 .0250710
990.885 .0250584
991.487 .0250461
992.090 .0250341
992.691 .0250226
993.293 .0250115
993.894 .0250008
994.495 .0249906
995.095 .0249808
995.696 .0249714
996.296 .0249624
996.895 .0249537
997.494 .0249455
998.093 .0249377
998.692 .0249304
999.291 .0249235
999.889 .0249170
1000.487 .0249110
1001.084 .0249053
1001.681 .0248999
1002.278 .0248948
1002.875 .0248900
1003.471 .0248852
1004.067 .0248806
1004.663 .0248760
1005.258 .0248714
1005.854 .0248669
1006.449 .0248625
1007.043 .0248581
1007.638 .0248539
1008.232 .0248498
1008.826 .0248459
1009.419 .0248421
1010.012 .0248385
1010.605 .0248351
1011.198 .0248319
1011.791 .0248288
1012.383 .0248258
1012.975 .0248231
1013.566 .0248207
1014.158 .0248185
1014.749 .0248167
1015.340 .0248153
1015.931 .0248142
1016.521 .0248136
1017.111 .0248134
1017.701 .0248135
1018.291 .0248140
1018.880 .0248149
1019.470 .0248162
1020.059 .0248178
1020.647 .0248198
1021.236 .0248222
1021.824 .0248249
1022.412 .0248279
1023.000 .0248312
1023.588 .0248349
1024.175 .0248387
1024.762 .0248429
1025.349 .0248472
1025.936 .0248517
1026.523 .0248562
1027.109 .0248608
1027.695 .0248654
1028.281 .0248698
1028.867 .0248742
1029.452 .0248784
1030.038 .0248824
1030.623 .0248862
1031.208 .0248900
1031.792 .0248937
1032.377 .0248974
1032.961 .0249011
1033.546 .0249047
1034.130 .0249082
1034.714 .0249115
1035.297 .0249145
1035.881 .0249174
1036.464 .0249202
1037.047 .0249228
1037.630 .0249254
1038.213 .0249282
1038.796 .0249312
1039.378 .0249346
1039.961 .0249383
1040.543 .0249423
1041.125 .0249465
1041.707 .0249509
1042.289 .0249553
1042.871 .0249598
1043.452 .0249643
1044.034 .0249688
1044.615 .0249734
1045.196 .0249782
1045.777 .0249832
1046.358 .0249883
1046.939 .0249935
1047.520 .0249988
1048.101 .0250039
1048.681 .0250089
1049.262 .0250137
1049.842 .0250182
1050.422 .0250226
1051.002 .0250269
1051.582 .0250314
1052.162 .0250361
1052.742 .0250410
1053.322 .0250462
1053.902 .0250517
1054.482 .0250573
1055.061 .0250629
1055.641 .0250686
1056.220 .0250742
1056.800 .0250796
1057.379 .0250849
1057.958 .0250900
1058.538 .0250949
1059.117 .0250997
1059.696 .0251043
1060.275 .0251086
1060.854 .0251126
1061.433 .0251160
1062.012 .0251190
1062.592 .0251216
1063.171 .0251237
1063.750 .0251255
1064.329 .0251271
1064.908 .0251285
1065.487 .0251300
1066.066 .0251315
1066.645 .0251330
1067.224 .0251345
1067.803 .0251360
1068.382 .0251371
1068.961 .0251381
1069.540 .0251387
1070.119 .0251391
1070.698 .0251394
1071.278 .0251397
1071.857 .0251400
1072.436 .0251404
1073.016 .0251407
1073.595 .0251410
1074.175 .0251412
1074.754 .0251411
1075.334 .0251408
1075.913 .0251402
1076.493 .0251393
1077.073 .0251383
1077.653 .0251373
1078.233 .0251365
1078.813 .0251359
1079.393 .0251356
1079.974 .0251355
1080.554 .0251356
1081.135 .0251356
1081.716 .0251355
1082.296 .0251351
1082.877 .0251342
1083.458 .0251328
1084.040 .0251310
1084.621 .0251289
1085.202 .0251265
1085.784 .0251239
1086.366 .0251212
1086.948 .0251181
1087.530 .0251147
1088.112 .0251109
1088.695 .0251065
1089.277 .0251017
1089.860 .0250965
1090.443 .0250911
1091.026 .0250855
1091.610 .0250801
1092.193 .0250751
1092.777 .0250705
1093.361 .0250663
1093.946 .0250625
1094.530 .0250589
1095.115 .0250554
1095.700 .0250520
1096.285 .0250486
1096.871 .0250451
1097.456 .0250416
1098.042 .0250381
1098.628 .0250347
1099.215 .0250315
1099.802 .0250286
1100.389 .0250259
1100.976 .0250234
1101.564 .0250208
1102.152 .0250182
1102.740 .0250155
1103.329 .0250127
1103.917 .0250100
1104.507 .0250073
1105.096 .0250049
1105.686 .0250028
1106.276 .0250013
1106.867 .0250006
1107.457 .0250006
1108.049 .0250014
1108.640 .0250029
1109.232 .0250048
1109.825 .0250071
1110.417 .0250097
1111.010 .0250125
1111.604 .0250153
1112.198 .0250184
1112.792 .0250217
1113.387 .0250254
1113.982 .0250298
1114.577 .0250349
1115.173 .0250408
1115.769 .0250473
1116.366 .0250545
1116.963 .0250623
1117.561 .0250705
1118.159 .0250792
1118.758 .0250884
1119.357 .0250981
1119.957 .0251082
1120.557 .0251190
1121.157 .0251305
1121.758 .0251425
1122.360 .0251550
1122.962 .0251676
1123.564 .0251801
1124.167 .0251868
1124.771 .0251983
1125.375 .0252091
1125.980 .0252191
1126.585 .0252283
1127.191 .0252370
1127.797 .0252456
1128.404 .0252541
1129.012 .0252630
1129.620 .0252724
1130.229 .0252823
1130.838 .0252924
1131.448 .0253027
1132.058 .0253131
1132.669 .0253282
1133.281 .0253390
1133.894 .0253503
1134.507 .0253617
1135.120 .0253771
1135.735 .0253900
1136.350 .0254052
1136.965 .0253626
1137.582 .0253815
1138.199 .0254023
1138.816 .0254203
1139.435 .0254407
1140.054 .0254635
1140.674 .0254851
1141.294 .0255098
1141.916 .0255352
1142.538 .0255439
1143.160 .0256614
1143.784 .0255966
1144.408 .0256664
1145.033 .0256674
