Measurement Sequence started on: 14-45-04-498
Integration time: 36
Scans to Average: 2 
>>>>>Begin Spectral Data<<<<<
433.946 .0381632
434.870 .0444444
435.793 .0428672
436.715 .0418162
437.635 .0408413
438.555 .0411453
439.473 .0409486
440.389 .0405809
441.305 .0402891
442.219 .0400432
443.132 .0403425
444.044 .0400467
444.954 .0398258
445.863 .0396522
446.771 .0395222
447.678 .0393685
448.584 .0392176
449.488 .0390795
450.391 .0389502
451.293 .0388272
452.194 .0387081
453.094 .0385915
453.992 .0384756
454.890 .0383582
455.786 .0382374
456.681 .0381133
457.575 .0379865
458.468 .0378586
459.360 .0377319
460.250 .0376083
461.140 .0374898
462.028 .0373777
462.915 .0372726
463.801 .0371747
464.687 .0370836
465.571 .0369990
466.454 .0369199
467.335 .0368457
468.216 .0367761
469.096 .0367110
469.975 .0366502
470.853 .0365941
471.729 .0365426
472.605 .0364960
473.479 .0364540
474.353 .0364160
475.226 .0363812
476.097 .0363485
476.968 .0363169
477.838 .0362854
478.706 .0362531
479.574 .0362194
480.441 .0361839
481.306 .0361472
482.171 .0361096
483.035 .0360718
483.898 .0360346
484.760 .0359989
485.621 .0359653
486.481 .0359340
487.340 .0359048
488.198 .0358777
489.055 .0358521
489.912 .0358277
490.767 .0358040
491.622 .0357725
492.476 .0357497
493.329 .0357272
494.180 .0357049
495.032 .0356829
495.882 .0356610
496.731 .0356387
497.580 .0356157
498.427 .0355913
499.274 .0355647
500.120 .0355440
500.965 .0355125
501.809 .0354774
502.653 .0354385
503.495 .0353956
504.337 .0353488
505.178 .0352983
506.018 .0352444
506.858 .0351876
507.696 .0351284
508.534 .0350677
509.371 .0350058
510.208 .0349431
511.043 .0348802
511.878 .0348170
512.712 .0347537
513.545 .0346903
514.377 .0346270
515.209 .0345637
516.040 .0345009
516.870 .0344389
517.699 .0343783
518.528 .0343196
519.356 .0342636
520.183 .0342104
521.010 .0341602
521.836 .0341125
522.661 .0340668
523.485 .0340225
524.309 .0339789
525.132 .0339353
525.954 .0338912
526.776 .0338464
527.597 .0338009
528.417 .0337546
529.237 .0337084
530.056 .0336625
530.874 .0336172
531.692 .0335731
532.508 .0335298
533.325 .0334874
534.140 .0334457
534.955 .0334040
535.770 .0333620
536.583 .0333197
537.397 .0332769
538.209 .0332341
539.021 .0331923
539.832 .0331522
540.643 .0331145
541.453 .0330796
542.262 .0330477
543.071 .0330187
543.879 .0329921
544.687 .0329677
545.494 .0329445
546.300 .0329223
547.106 .0329006
547.911 .0328792
548.716 .0328582
549.520 .0328383
550.323 .0328195
551.126 .0328023
551.929 .0327871
552.731 .0327738
553.532 .0327621
554.332 .0327518
555.133 .0327419
555.932 .0327317
556.731 .0327204
557.530 .0327074
558.328 .0326924
559.125 .0326757
559.922 .0326572
560.719 .0326371
561.515 .0326156
562.310 .0325932
563.105 .0325695
563.899 .0325447
564.693 .0325186
565.487 .0324911
566.280 .0324621
567.072 .0324316
567.864 .0323995
568.655 .0323661
569.446 .0323316
570.236 .0322959
571.026 .0322595
571.816 .0322225
572.605 .0321852
573.393 .0321477
574.181 .0321104
574.969 .0320736
575.756 .0320371
576.543 .0320013
577.329 .0319662
578.115 .0319318
578.900 .0318983
579.685 .0318655
580.469 .0318336
581.253 .0318027
582.036 .0317727
582.820 .0317436
583.602 .0317153
584.384 .0316877
585.166 .0316606
585.947 .0316338
586.728 .0316073
587.509 .0315811
588.289 .0315553
589.069 .0315299
589.848 .0315050
590.627 .0314807
591.405 .0314569
592.183 .0314338
592.961 .0314113
593.738 .0313894
594.515 .0313682
595.291 .0313477
596.067 .0313280
596.843 .0313092
597.618 .0312911
598.393 .0312660
599.167 .0312490
599.941 .0312325
600.715 .0312162
601.488 .0312000
602.261 .0311838
603.034 .0311676
603.806 .0311514
604.578 .0311351
605.349 .0311188
606.121 .0311023
606.891 .0310935
607.662 .0310767
608.432 .0310597
609.201 .0310425
609.971 .0310250
610.740 .0310073
611.508 .0309893
612.277 .0309712
613.045 .0309529
613.812 .0309344
614.579 .0309159
615.346 .0308974
616.113 .0308790
616.879 .0308605
617.645 .0308422
618.411 .0308238
619.176 .0308054
619.941 .0307869
620.705 .0307684
621.470 .0307497
622.233 .0307308
622.997 .0307119
623.760 .0306928
624.523 .0306737
625.286 .0306547
626.048 .0306357
626.810 .0306169
627.572 .0305981
628.333 .0305794
629.095 .0305608
629.855 .0305422
630.616 .0305236
631.376 .0305051
632.136 .0304867
632.895 .0304685
633.655 .0304505
634.414 .0304327
635.172 .0304151
635.931 .0303977
636.689 .0303805
637.447 .0303635
638.204 .0303467
638.962 .0303302
639.718 .0303139
640.475 .0302980
641.231 .0302825
641.988 .0302674
642.743 .0302526
643.499 .0302381
644.254 .0302238
645.009 .0302097
645.764 .0301956
646.518 .0301815
647.272 .0301674
648.026 .0301533
648.780 .0301391
649.533 .0301248
650.286 .0301104
651.039 .0300959
651.792 .0300813
652.544 .0300666
653.296 .0300518
654.048 .0300369
654.799 .0300221
655.550 .0300074
656.301 .0299929
657.052 .0299784
657.802 .0299641
658.552 .0299498
659.302 .0299355
660.052 .0299214
660.801 .0299074
661.550 .0298937
662.299 .0298802
663.048 .0298671
663.796 .0298543
664.544 .0298419
665.292 .0298299
666.040 .0298181
666.787 .0298065
667.534 .0297950
668.281 .0297836
669.028 .0297722
669.774 .0297609
670.521 .0297496
671.266 .0297384
672.012 .0297274
672.758 .0297164
673.503 .0297056
674.248 .0296950
674.992 .0296845
675.737 .0296741
676.481 .0296638
677.225 .0296535
677.969 .0296432
678.712 .0296328
679.455 .0296223
680.199 .0296117
680.941 .0296011
681.684 .0295903
682.426 .0295794
683.168 .0295686
683.910 .0295578
684.652 .0295471
685.393 .0295365
686.134 .0295260
686.875 .0295155
687.616 .0295052
688.356 .0294948
689.097 .0294844
689.837 .0294739
690.576 .0294633
691.316 .0294525
692.055 .0294415
692.794 .0294304
693.533 .0294192
694.272 .0294079
695.010 .0293966
695.748 .0293852
696.486 .0293738
697.224 .0293623
697.962 .0293508
698.699 .0293391
699.436 .0293273
700.173 .0293154
700.909 .0293034
701.646 .0292912
702.382 .0292789
703.118 .0292666
703.853 .0292542
704.589 .0292417
705.324 .0292292
706.059 .0292167
706.794 .0292042
707.529 .0291916
708.263 .0291790
708.997 .0291662
709.731 .0291535
710.465 .0291406
711.198 .0291277
711.931 .0291147
712.664 .0291017
713.397 .0290887
714.130 .0290757
714.862 .0290626
715.594 .0290496
716.326 .0290365
717.058 .0290235
717.789 .0290104
718.520 .0289973
719.251 .0289843
719.982 .0289713
720.713 .0289584
721.443 .0289455
722.173 .0289326
722.903 .0289198
723.633 .0289069
724.362 .0288941
725.091 .0288813
725.820 .0288685
726.549 .0288558
727.278 .0288432
728.006 .0288307
728.734 .0288184
729.462 .0288062
730.190 .0287942
730.917 .0287823
731.644 .0287705
732.371 .0287588
733.098 .0287472
733.825 .0287358
734.551 .0287245
735.277 .0287135
736.003 .0287025
736.728 .0286917
737.454 .0286811
738.179 .0286705
738.904 .0286601
739.629 .0286498
740.353 .0286398
741.077 .0286299
741.801 .0286202
742.525 .0286107
743.249 .0286014
743.972 .0285921
744.695 .0285828
745.418 .0285736
746.141 .0285643
746.863 .0285550
747.585 .0285457
748.307 .0285366
749.029 .0285275
749.750 .0285186
750.472 .0285099
751.193 .0285012
751.913 .0284927
752.634 .0284841
753.354 .0284757
754.074 .0284672
754.794 .0284588
755.514 .0284504
756.233 .0284420
756.952 .0284338
757.671 .0284256
758.390 .0284176
759.108 .0284097
759.826 .0284018
760.544 .0283941
761.262 .0283864
761.979 .0283787
762.697 .0283710
763.414 .0283633
764.130 .0283554
764.847 .0283473
765.563 .0283390
766.279 .0283305
766.995 .0283217
767.710 .0283127
768.426 .0283036
769.141 .0282943
769.855 .0282848
770.570 .0282753
771.284 .0282657
771.998 .0282561
772.712 .0282464
773.426 .0282367
774.139 .0282268
774.852 .0282169
775.565 .0282070
776.277 .0281970
776.990 .0281870
777.702 .0281771
778.414 .0281673
779.125 .0281576
779.836 .0281481
780.547 .0281388
781.258 .0281298
781.969 .0281210
782.679 .0281124
783.389 .0280997
784.099 .0280909
784.808 .0280820
785.517 .0280730
786.226 .0280639
786.935 .0280546
787.643 .0280452
788.352 .0280357
789.060 .0280262
789.767 .0280166
790.475 .0280069
791.182 .0279972
791.889 .0279917
792.595 .0279817
793.301 .0279716
794.008 .0279613
794.713 .0279510
795.419 .0279406
796.124 .0279302
796.829 .0279198
797.534 .0279095
798.238 .0278992
798.942 .0278891
799.646 .0278790
800.350 .0278691
801.053 .0278594
801.756 .0278500
802.459 .0278409
803.162 .0278321
803.864 .0278237
804.566 .0278155
805.267 .0278076
805.969 .0277999
806.670 .0277923
807.371 .0277848
808.071 .0277774
808.772 .0277701
809.472 .0277630
810.171 .0277560
810.871 .0277492
811.570 .0277425
812.269 .0277358
812.967 .0277290
813.666 .0277221
814.364 .0277150
815.061 .0277076
815.759 .0277001
816.456 .0276924
817.153 .0276847
817.849 .0276768
818.545 .0276689
819.241 .0276610
819.937 .0276531
820.632 .0276450
821.327 .0276367
822.022 .0276283
822.717 .0276197
823.411 .0276109
824.105 .0276020
824.798 .0275930
825.491 .0275840
826.184 .0275749
826.877 .0275657
827.569 .0275563
828.261 .0275469
828.953 .0275374
829.645 .0275279
830.336 .0275183
831.027 .0275087
831.717 .0274992
832.407 .0274898
833.097 .0274805
833.787 .0274713
834.476 .0274622
835.165 .0274531
835.854 .0274439
836.542 .0274347
837.230 .0274255
837.918 .0274162
838.605 .0274070
839.292 .0273977
839.979 .0273884
840.665 .0273792
841.352 .0273699
842.037 .0273606
842.723 .0273512
843.408 .0273418
844.093 .0273322
844.777 .0273225
845.462 .0273126
846.145 .0273026
846.829 .0272924
847.512 .0272822
848.195 .0272718
848.878 .0272612
849.560 .0272504
850.242 .0272393
850.923 .0272280
851.605 .0272164
852.286 .0272044
852.966 .0271919
853.646 .0271791
854.326 .0271659
855.006 .0271523
855.685 .0271384
856.364 .0271241
857.043 .0271096
857.721 .0270949
858.399 .0270799
859.077 .0270648
859.754 .0270495
860.431 .0270341
861.107 .0270186
861.784 .0270031
862.459 .0269876
863.135 .0269722
863.810 .0269569
864.485 .0269417
865.160 .0269266
865.834 .0269116
866.508 .0268968
867.181 .0268821
867.854 .0268675
868.527 .0268531
869.199 .0268390
869.872 .0268251
870.543 .0268116
871.215 .0267985
871.886 .0267857
872.557 .0267733
873.227 .0267612
873.897 .0267494
874.567 .0267379
875.236 .0267265
875.905 .0267153
876.573 .0267043
877.242 .0266933
877.909 .0266825
878.577 .0266719
879.244 .0266613
879.911 .0266509
880.577 .0266407
881.243 .0266306
881.909 .0266207
882.575 .0266110
883.240 .0266016
883.904 .0265924
884.569 .0265836
885.232 .0265749
885.896 .0265666
886.559 .0265584
887.222 .0265505
887.885 .0265428
888.547 .0265353
889.208 .0265280
889.870 .0265210
890.531 .0265142
891.192 .0265077
891.852 .0265014
892.512 .0264952
893.171 .0264892
893.830 .0264834
894.489 .0264776
895.148 .0264720
895.806 .0264665
896.464 .0264613
897.121 .0264563
897.778 .0264516
898.434 .0264471
899.091 .0264412
899.747 .0264375
900.402 .0264339
901.057 .0264305
901.712 .0264271
902.366 .0264239
903.020 .0264207
903.674 .0264175
904.327 .0264144
904.980 .0264114
905.633 .0264083
906.285 .0264051
906.936 .0264019
907.588 .0264005
908.239 .0263969
908.889 .0263931
909.540 .0263892
910.190 .0263850
910.839 .0263808
911.488 .0263763
912.137 .0263718
912.785 .0263670
913.433 .0263620
914.081 .0263566
914.728 .0263509
915.375 .0263447
916.021 .0263379
916.668 .0263306
917.313 .0263228
917.959 .0263144
918.604 .0263055
919.248 .0262960
919.892 .0262861
920.536 .0262757
921.180 .0262647
921.823 .0262532
922.465 .0262411
923.108 .0262285
923.750 .0262153
924.391 .0262016
925.032 .0261874
925.673 .0261728
926.313 .0261579
926.953 .0261426
927.593 .0261269
928.232 .0261109
928.871 .0260945
929.510 .0260778
930.148 .0260606
930.786 .0260431
931.423 .0260252
932.060 .0260070
932.697 .0259885
933.333 .0259698
933.969 .0259509
934.604 .0259317
935.239 .0259124
935.874 .0258928
936.508 .0258731
937.142 .0258532
937.776 .0258332
938.409 .0258131
939.042 .0257930
939.674 .0257729
940.306 .0257527
940.938 .0257326
941.569 .0257126
942.200 .0256925
942.830 .0256725
943.460 .0256525
944.090 .0256325
944.720 .0256126
945.349 .0255927
945.977 .0255729
946.606 .0255533
947.233 .0255338
947.861 .0255145
948.488 .0254953
949.115 .0254762
949.741 .0254573
950.367 .0254386
950.993 .0254200
951.618 .0254016
952.243 .0253835
952.868 .0253656
953.492 .0253480
954.115 .0253308
954.739 .0253140
955.362 .0252976
955.984 .0252817
956.607 .0252661
957.229 .0252510
957.850 .0252362
958.471 .0252218
959.092 .0252078
959.713 .0251941
960.333 .0251808
960.952 .0251679
961.572 .0251553
962.191 .0251431
962.809 .0251313
963.428 .0251197
964.045 .0251084
964.663 .0250972
965.280 .0250863
965.897 .0250755
966.513 .0250648
967.129 .0250542
967.745 .0250438
968.361 .0250334
968.976 .0250231
969.590 .0250129
970.205 .0250028
970.818 .0249929
971.432 .0249830
972.045 .0249733
972.658 .0249637
973.271 .0249542
973.883 .0249449
974.495 .0249359
975.106 .0249271
975.717 .0249187
976.328 .0249106
976.938 .0249030
977.548 .0248958
978.158 .0248891
978.768 .0248813
979.377 .0248759
979.985 .0248708
980.594 .0248661
981.202 .0248618
981.809 .0248579
982.417 .0248543
983.024 .0248510
983.631 .0248480
984.237 .0248455
984.843 .0248432
985.449 .0248414
986.054 .0248399
986.659 .0248386
987.264 .0248383
987.868 .0248373
988.472 .0248366
989.076 .0248360
989.679 .0248355
990.282 .0248352
990.885 .0248350
991.487 .0248349
992.090 .0248349
992.691 .0248350
993.293 .0248351
993.894 .0248351
994.495 .0248351
995.095 .0248350
995.696 .0248349
996.296 .0248346
996.895 .0248344
997.494 .0248343
998.093 .0248342
998.692 .0248342
999.291 .0248345
999.889 .0248349
1000.487 .0248354
1001.084 .0248362
1001.681 .0248372
1002.278 .0248385
1002.875 .0248400
1003.471 .0248419
1004.067 .0248442
1004.663 .0248468
1005.258 .0248497
1005.854 .0248528
1006.449 .0248561
1007.043 .0248596
1007.638 .0248631
1008.232 .0248668
1008.826 .0248705
1009.419 .0248744
1010.012 .0248783
1010.605 .0248823
1011.198 .0248863
1011.791 .0248902
1012.383 .0248941
1012.975 .0248979
1013.566 .0249015
1014.158 .0249050
1014.749 .0249082
1015.340 .0249114
1015.931 .0249144
1016.521 .0249173
1017.111 .0249202
1017.701 .0249229
1018.291 .0249256
1018.880 .0249281
1019.470 .0249304
1020.059 .0249324
1020.647 .0249343
1021.236 .0249358
1021.824 .0249370
1022.412 .0249380
1023.000 .0249387
1023.588 .0249392
1024.175 .0249395
1024.762 .0249396
1025.349 .0249395
1025.936 .0249393
1026.523 .0249389
1027.109 .0249383
1027.695 .0249376
1028.281 .0249368
1028.867 .0249359
1029.452 .0249349
1030.038 .0249338
1030.623 .0249326
1031.208 .0249313
1031.792 .0249300
1032.377 .0249286
1032.961 .0249272
1033.546 .0249257
1034.130 .0249241
1034.714 .0249225
1035.297 .0249207
1035.881 .0249187
1036.464 .0249165
1037.047 .0249141
1037.630 .0249114
1038.213 .0249084
1038.796 .0249053
1039.378 .0249021
1039.961 .0248988
1040.543 .0248956
1041.125 .0248923
1041.707 .0248890
1042.289 .0248856
1042.871 .0248822
1043.452 .0248786
1044.034 .0248748
1044.615 .0248709
1045.196 .0248668
1045.777 .0248625
1046.358 .0248581
1046.939 .0248537
1047.520 .0248491
1048.101 .0248443
1048.681 .0248393
1049.262 .0248340
1049.842 .0248283
1050.422 .0248222
1051.002 .0248157
1051.582 .0248089
1052.162 .0248018
1052.742 .0247945
1053.322 .0247870
1053.902 .0247793
1054.482 .0247714
1055.061 .0247634
1055.641 .0247552
1056.220 .0247468
1056.800 .0247379
1057.379 .0247287
1057.958 .0247190
1058.538 .0247090
1059.117 .0246985
1059.696 .0246876
1060.275 .0246763
1060.854 .0246647
1061.433 .0246527
1062.012 .0246405
1062.592 .0246281
1063.171 .0246157
1063.750 .0246031
1064.329 .0245905
1064.908 .0245779
1065.487 .0245653
1066.066 .0245529
1066.645 .0245406
1067.224 .0245285
1067.803 .0245167
1068.382 .0245051
1068.961 .0244939
1069.540 .0244830
1070.119 .0244725
1070.698 .0244623
1071.278 .0244526
1071.857 .0244431
1072.436 .0244339
1073.016 .0244250
1073.595 .0244162
1074.175 .0244077
1074.754 .0243994
1075.334 .0243914
1075.913 .0243835
1076.493 .0243759
1077.073 .0243686
1077.653 .0243616
1078.233 .0243549
1078.813 .0243486
1079.393 .0243426
1079.974 .0243370
1080.554 .0243317
1081.135 .0243269
1081.716 .0243225
1082.296 .0243186
1082.877 .0243150
1083.458 .0243116
1084.040 .0243085
1084.621 .0243055
1085.202 .0243026
1085.784 .0242996
1086.366 .0242965
1086.948 .0242932
1087.530 .0242898
1088.112 .0242861
1088.695 .0242822
1089.277 .0242780
1089.860 .0242736
1090.443 .0242691
1091.026 .0242645
1091.610 .0242601
1092.193 .0242557
1092.777 .0242517
1093.361 .0242481
1093.946 .0242451
1094.530 .0242425
1095.115 .0242404
1095.700 .0242389
1096.285 .0242378
1096.871 .0242373
1097.456 .0242374
1098.042 .0242379
1098.628 .0242390
1099.215 .0242406
1099.802 .0242426
1100.389 .0242451
1100.976 .0242479
1101.564 .0242512
1102.152 .0242550
1102.740 .0242593
1103.329 .0242643
1103.917 .0242700
1104.507 .0242768
1105.096 .0242847
1105.686 .0242938
1106.276 .0243042
1106.867 .0243158
1107.457 .0243288
1108.049 .0243429
1108.640 .0243582
1109.232 .0243746
1109.825 .0243921
1110.417 .0244105
1111.010 .0244299
1111.604 .0244501
1112.198 .0244710
1112.792 .0244922
1113.387 .0245135
1113.982 .0245348
1114.577 .0245557
1115.173 .0245761
1115.769 .0245960
1116.366 .0246154
1116.963 .0246345
1117.561 .0246533
1118.159 .0246720
1118.758 .0246906
1119.357 .0247089
1119.957 .0247268
1120.557 .0247442
1121.157 .0247608
1121.758 .0247767
1122.360 .0247919
1122.962 .0248066
1123.564 .0248210
1124.167 .0248305
1124.771 .0248443
1125.375 .0248582
1125.980 .0248721
1126.585 .0248860
1127.191 .0248997
1127.797 .0249131
1128.404 .0249261
1129.012 .0249390
1129.620 .0249520
1130.229 .0249656
1130.838 .0249802
1131.448 .0249962
1132.058 .0250140
1132.669 .0250397
1133.281 .0250621
1133.894 .0250869
1134.507 .0251105
1135.120 .0251417
1135.735 .0251722
1136.350 .0252015
1136.965 .0251540
1137.582 .0251845
1138.199 .0252218
1138.816 .0252654
1139.435 .0253151
1140.054 .0253710
1140.674 .0254296
1141.294 .0254853
1141.916 .0255542
1142.538 .0255299
1143.160 .0257384
1143.784 .0257288
1144.408 .0256980
1145.033 .0261362
