Measurement Sequence started on: 14-45-04-498
Integration time: 36
Scans to Average: 2 
>>>>>Begin Spectral Data<<<<<
433.946 .0526425
434.870 .0575208
435.793 .0554650
436.715 .0514278
437.635 .0494302
438.555 .0506257
439.473 .0499502
440.389 .0492587
441.305 .0487459
442.219 .0483931
443.132 .0490412
444.044 .0484492
444.954 .0479602
445.863 .0476781
446.771 .0474942
447.678 .0472400
448.584 .0470130
449.488 .0468137
450.391 .0466324
451.293 .0464611
452.194 .0462975
453.094 .0461423
453.992 .0459951
454.890 .0458542
455.786 .0457178
456.681 .0455842
457.575 .0454511
458.468 .0453163
459.360 .0451786
460.250 .0450370
461.140 .0448914
462.028 .0447431
462.915 .0445935
463.801 .0444447
464.687 .0442983
465.571 .0441555
466.454 .0440169
467.335 .0438826
468.216 .0437520
469.096 .0436240
469.975 .0434980
470.853 .0433737
471.729 .0432516
472.605 .0431327
473.479 .0430186
474.353 .0429106
475.226 .0428102
476.097 .0427184
476.968 .0426350
477.838 .0425596
478.706 .0424911
479.574 .0424284
480.441 .0423705
481.306 .0423164
482.171 .0422656
483.035 .0422182
483.898 .0421743
484.760 .0421339
485.621 .0420971
486.481 .0420639
487.340 .0420338
488.198 .0420064
489.055 .0419807
489.912 .0419559
490.767 .0419309
491.622 .0418899
492.476 .0418610
493.329 .0418299
494.180 .0417960
495.032 .0417594
495.882 .0417199
496.731 .0416776
497.580 .0416326
498.427 .0415851
499.274 .0415352
500.120 .0415036
500.965 .0414507
501.809 .0413956
502.653 .0413385
503.495 .0412794
504.337 .0412182
505.178 .0411549
506.018 .0410897
506.858 .0410229
507.696 .0409549
508.534 .0408864
509.371 .0408182
510.208 .0407509
511.043 .0406853
511.878 .0406219
512.712 .0405611
513.545 .0405029
514.377 .0404474
515.209 .0403943
516.040 .0403431
516.870 .0402938
517.699 .0402463
518.528 .0402003
519.356 .0401561
520.183 .0401137
521.010 .0400730
521.836 .0400339
522.661 .0399963
523.485 .0399600
524.309 .0399244
525.132 .0398895
525.954 .0398546
526.776 .0398193
527.597 .0397830
528.417 .0397449
529.237 .0397044
530.056 .0396614
530.874 .0396151
531.692 .0395655
532.508 .0395127
533.325 .0394572
534.140 .0393989
534.955 .0393386
535.770 .0392768
536.583 .0392136
537.397 .0391494
538.209 .0390844
539.021 .0390185
539.832 .0389523
540.643 .0388859
541.453 .0388196
542.262 .0387538
543.071 .0386891
543.879 .0386260
544.687 .0385651
545.494 .0385075
546.300 .0384537
547.106 .0384039
547.911 .0383591
548.716 .0383193
549.520 .0382844
550.323 .0382541
551.126 .0382283
551.929 .0382068
552.731 .0381889
553.532 .0381744
554.332 .0381630
555.133 .0381548
555.932 .0381497
556.731 .0381474
557.530 .0381473
558.328 .0381490
559.125 .0381517
559.922 .0381545
560.719 .0381567
561.515 .0381572
562.310 .0381555
563.105 .0381511
563.899 .0381439
564.693 .0381335
565.487 .0381202
566.280 .0381042
567.072 .0380853
567.864 .0380633
568.655 .0380379
569.446 .0380091
570.236 .0379767
571.026 .0379407
571.816 .0379012
572.605 .0378586
573.393 .0378135
574.181 .0377668
574.969 .0377193
575.756 .0376718
576.543 .0376248
577.329 .0375789
578.115 .0375346
578.900 .0374919
579.685 .0374510
580.469 .0374117
581.253 .0373741
582.036 .0373381
582.820 .0373037
583.602 .0372709
584.384 .0372400
585.166 .0372112
585.947 .0371846
586.728 .0371600
587.509 .0371374
588.289 .0371164
589.069 .0370967
589.848 .0370778
590.627 .0370591
591.405 .0370402
592.183 .0370209
592.961 .0370009
593.738 .0369801
594.515 .0369586
595.291 .0369363
596.067 .0369133
596.843 .0368898
597.618 .0368658
598.393 .0368277
599.167 .0368026
599.941 .0367771
600.715 .0367511
601.488 .0367246
602.261 .0366977
603.034 .0366704
603.806 .0366429
604.578 .0366155
605.349 .0365883
606.121 .0365614
606.891 .0365489
607.662 .0365229
608.432 .0364976
609.201 .0364728
609.971 .0364487
610.740 .0364252
611.508 .0364024
612.277 .0363802
613.045 .0363587
613.812 .0363379
614.579 .0363177
615.346 .0362980
616.113 .0362788
616.879 .0362601
617.645 .0362417
618.411 .0362236
619.176 .0362056
619.941 .0361879
620.705 .0361702
621.470 .0361526
622.233 .0361347
622.997 .0361166
623.760 .0360981
624.523 .0360791
625.286 .0360595
626.048 .0360391
626.810 .0360181
627.572 .0359962
628.333 .0359737
629.095 .0359504
629.855 .0359264
630.616 .0359018
631.376 .0358765
632.136 .0358506
632.895 .0358242
633.655 .0357973
634.414 .0357701
635.172 .0357427
635.931 .0357151
636.689 .0356873
637.447 .0356595
638.204 .0356317
638.962 .0356041
639.718 .0355768
640.475 .0355498
641.231 .0355234
641.988 .0354975
642.743 .0354723
643.499 .0354479
644.254 .0354243
645.009 .0354015
645.764 .0353795
646.518 .0353584
647.272 .0353380
648.026 .0353184
648.780 .0352995
649.533 .0352813
650.286 .0352639
651.039 .0352471
651.792 .0352309
652.544 .0352154
653.296 .0352006
654.048 .0351863
654.799 .0351726
655.550 .0351594
656.301 .0351464
657.052 .0351336
657.802 .0351208
658.552 .0351080
659.302 .0350949
660.052 .0350816
660.801 .0350680
661.550 .0350540
662.299 .0350397
663.048 .0350250
663.796 .0350100
664.544 .0349946
665.292 .0349789
666.040 .0349627
666.787 .0349462
667.534 .0349293
668.281 .0349120
669.028 .0348943
669.774 .0348762
670.521 .0348577
671.266 .0348388
672.012 .0348196
672.758 .0348001
673.503 .0347805
674.248 .0347608
674.992 .0347411
675.737 .0347215
676.481 .0347020
677.225 .0346826
677.969 .0346633
678.712 .0346441
679.455 .0346250
680.199 .0346060
680.941 .0345872
681.684 .0345686
682.426 .0345502
683.168 .0345322
683.910 .0345145
684.652 .0344971
685.393 .0344801
686.134 .0344634
686.875 .0344472
687.616 .0344315
688.356 .0344162
689.097 .0344016
689.837 .0343876
690.576 .0343742
691.316 .0343614
692.055 .0343491
692.794 .0343374
693.533 .0343261
694.272 .0343153
695.010 .0343049
695.748 .0342949
696.486 .0342852
697.224 .0342758
697.962 .0342666
698.699 .0342576
699.436 .0342485
700.173 .0342394
700.909 .0342301
701.646 .0342205
702.382 .0342106
703.118 .0342003
703.853 .0341895
704.589 .0341781
705.324 .0341661
706.059 .0341535
706.794 .0341402
707.529 .0341262
708.263 .0341114
708.997 .0340959
709.731 .0340798
710.465 .0340629
711.198 .0340455
711.931 .0340274
712.664 .0340088
713.397 .0339896
714.130 .0339698
714.862 .0339495
715.594 .0339287
716.326 .0339076
717.058 .0338861
717.789 .0338644
718.520 .0338426
719.251 .0338206
719.982 .0337986
720.713 .0337766
721.443 .0337545
722.173 .0337325
722.903 .0337106
723.633 .0336887
724.362 .0336669
725.091 .0336453
725.820 .0336240
726.549 .0336030
727.278 .0335823
728.006 .0335619
728.734 .0335420
729.462 .0335225
730.190 .0335034
730.917 .0334848
731.644 .0334666
732.371 .0334489
733.098 .0334318
733.825 .0334153
734.551 .0333994
735.277 .0333842
736.003 .0333698
736.728 .0333562
737.454 .0333432
738.179 .0333310
738.904 .0333194
739.629 .0333083
740.353 .0332978
741.077 .0332877
741.801 .0332780
742.525 .0332686
743.249 .0332595
743.972 .0332505
744.695 .0332417
745.418 .0332330
746.141 .0332244
746.863 .0332157
747.585 .0332069
748.307 .0331978
749.029 .0331885
749.750 .0331787
750.472 .0331683
751.193 .0331572
751.913 .0331454
752.634 .0331328
753.354 .0331194
754.074 .0331053
754.794 .0330906
755.514 .0330752
756.233 .0330593
756.952 .0330428
757.671 .0330257
758.390 .0330081
759.108 .0329898
759.826 .0329710
760.544 .0329515
761.262 .0329316
761.979 .0329114
762.697 .0328909
763.414 .0328703
764.130 .0328495
764.847 .0328287
765.563 .0328079
766.279 .0327871
766.995 .0327664
767.710 .0327458
768.426 .0327253
769.141 .0327049
769.855 .0326846
770.570 .0326645
771.284 .0326445
771.998 .0326247
772.712 .0326049
773.426 .0325851
774.139 .0325655
774.852 .0325459
775.565 .0325266
776.277 .0325074
776.990 .0324886
777.702 .0324701
778.414 .0324519
779.125 .0324340
779.836 .0324165
780.547 .0323994
781.258 .0323826
781.969 .0323663
782.679 .0323505
783.389 .0323291
784.099 .0323147
784.808 .0323009
785.517 .0322876
786.226 .0322750
786.935 .0322629
787.643 .0322513
788.352 .0322402
789.060 .0322297
789.767 .0322196
790.475 .0322100
791.182 .0322008
791.889 .0321971
792.595 .0321883
793.301 .0321797
794.008 .0321714
794.713 .0321632
795.419 .0321550
796.124 .0321467
796.829 .0321382
797.534 .0321296
798.238 .0321208
798.942 .0321117
799.646 .0321024
800.350 .0320930
801.053 .0320833
801.756 .0320734
802.459 .0320633
803.162 .0320528
803.864 .0320419
804.566 .0320307
805.267 .0320191
805.969 .0320071
806.670 .0319947
807.371 .0319821
808.071 .0319692
808.772 .0319561
809.472 .0319427
810.171 .0319290
810.871 .0319150
811.570 .0319006
812.269 .0318859
812.967 .0318706
813.666 .0318549
814.364 .0318387
815.061 .0318220
815.759 .0318047
816.456 .0317869
817.153 .0317686
817.849 .0317496
818.545 .0317301
819.241 .0317099
819.937 .0316891
820.632 .0316675
821.327 .0316454
822.022 .0316226
822.717 .0315991
823.411 .0315752
824.105 .0315506
824.798 .0315257
825.491 .0315003
826.184 .0314745
826.877 .0314485
827.569 .0314223
828.261 .0313961
828.953 .0313700
829.645 .0313440
830.336 .0313183
831.027 .0312931
831.717 .0312684
832.407 .0312444
833.097 .0312211
833.787 .0311985
834.476 .0311767
835.165 .0311557
835.854 .0311354
836.542 .0311159
837.230 .0310971
837.918 .0310791
838.605 .0310618
839.292 .0310453
839.979 .0310293
840.665 .0310140
841.352 .0309993
842.037 .0309850
842.723 .0309712
843.408 .0309578
844.093 .0309448
844.777 .0309322
845.462 .0309200
846.145 .0309081
846.829 .0308966
847.512 .0308852
848.195 .0308741
848.878 .0308630
849.560 .0308520
850.242 .0308410
850.923 .0308300
851.605 .0308190
852.286 .0308081
852.966 .0307973
853.646 .0307865
854.326 .0307759
855.006 .0307653
855.685 .0307549
856.364 .0307446
857.043 .0307345
857.721 .0307246
858.399 .0307151
859.077 .0307059
859.754 .0306971
860.431 .0306888
861.107 .0306809
861.784 .0306733
862.459 .0306660
863.135 .0306590
863.810 .0306520
864.485 .0306451
865.160 .0306383
865.834 .0306315
866.508 .0306245
867.181 .0306175
867.854 .0306102
868.527 .0306027
869.199 .0305947
869.872 .0305863
870.543 .0305774
871.215 .0305678
871.886 .0305575
872.557 .0305466
873.227 .0305350
873.897 .0305226
874.567 .0305095
875.236 .0304956
875.905 .0304808
876.573 .0304652
877.242 .0304485
877.909 .0304309
878.577 .0304123
879.244 .0303928
879.911 .0303725
880.577 .0303513
881.243 .0303294
881.909 .0303068
882.575 .0302838
883.240 .0302603
883.904 .0302365
884.569 .0302125
885.232 .0301884
885.896 .0301644
886.559 .0301406
887.222 .0301171
887.885 .0300940
888.547 .0300713
889.208 .0300491
889.870 .0300273
890.531 .0300060
891.192 .0299851
891.852 .0299647
892.512 .0299447
893.171 .0299251
893.830 .0299059
894.489 .0298871
895.148 .0298685
895.806 .0298503
896.464 .0298323
897.121 .0298146
897.778 .0297970
898.434 .0297797
899.091 .0297539
899.747 .0297370
900.402 .0297203
901.057 .0297038
901.712 .0296874
902.366 .0296712
903.020 .0296550
903.674 .0296390
904.327 .0296230
904.980 .0296072
905.633 .0295914
906.285 .0295759
906.936 .0295604
907.588 .0295534
908.239 .0295382
908.889 .0295232
909.540 .0295084
910.190 .0294936
910.839 .0294791
911.488 .0294648
912.137 .0294507
912.785 .0294369
913.433 .0294234
914.081 .0294103
914.728 .0293977
915.375 .0293855
916.021 .0293737
916.668 .0293622
917.313 .0293512
917.959 .0293404
918.604 .0293299
919.248 .0293196
919.892 .0293095
920.536 .0292996
921.180 .0292899
921.823 .0292802
922.465 .0292707
923.108 .0292614
923.750 .0292521
924.391 .0292431
925.032 .0292342
925.673 .0292254
926.313 .0292169
926.953 .0292085
927.593 .0292003
928.232 .0291922
928.871 .0291842
929.510 .0291763
930.148 .0291686
930.786 .0291609
931.423 .0291534
932.060 .0291459
932.697 .0291384
933.333 .0291309
933.969 .0291234
934.604 .0291156
935.239 .0291077
935.874 .0290995
936.508 .0290909
937.142 .0290820
937.776 .0290728
938.409 .0290632
939.042 .0290533
939.674 .0290430
940.306 .0290324
940.938 .0290213
941.569 .0290098
942.200 .0289978
942.830 .0289852
943.460 .0289720
944.090 .0289583
944.720 .0289441
945.349 .0289293
945.977 .0289141
946.606 .0288983
947.233 .0288819
947.861 .0288650
948.488 .0288475
949.115 .0288295
949.741 .0288108
950.367 .0287916
950.993 .0287719
951.618 .0287517
952.243 .0287312
952.868 .0287104
953.492 .0286893
954.115 .0286680
954.739 .0286466
955.362 .0286250
955.984 .0286032
956.607 .0285813
957.229 .0285593
957.850 .0285372
958.471 .0285151
959.092 .0284929
959.713 .0284708
960.333 .0284488
960.952 .0284268
961.572 .0284048
962.191 .0283828
962.809 .0283609
963.428 .0283390
964.045 .0283171
964.663 .0282953
965.280 .0282736
965.897 .0282521
966.513 .0282309
967.129 .0282100
967.745 .0281895
968.361 .0281694
968.976 .0281497
969.590 .0281306
970.205 .0281119
970.818 .0280936
971.432 .0280759
972.045 .0280586
972.658 .0280418
973.271 .0280255
973.883 .0280095
974.495 .0279940
975.106 .0279788
975.717 .0279640
976.328 .0279494
976.938 .0279351
977.548 .0279211
978.158 .0279074
978.768 .0278877
979.377 .0278744
979.985 .0278613
980.594 .0278485
981.202 .0278359
981.809 .0278235
982.417 .0278114
983.024 .0277996
983.631 .0277881
984.237 .0277769
984.843 .0277659
985.449 .0277552
986.054 .0277447
986.659 .0277344
987.264 .0277300
987.868 .0277202
988.472 .0277105
989.076 .0277010
989.679 .0276916
990.282 .0276823
990.885 .0276732
991.487 .0276643
992.090 .0276557
992.691 .0276473
993.293 .0276392
993.894 .0276314
994.495 .0276239
995.095 .0276168
995.696 .0276102
996.296 .0276041
996.895 .0275984
997.494 .0275934
998.093 .0275889
998.692 .0275850
999.291 .0275818
999.889 .0275791
1000.487 .0275769
1001.084 .0275752
1001.681 .0275741
1002.278 .0275734
1002.875 .0275732
1003.471 .0275734
1004.067 .0275741
1004.663 .0275753
1005.258 .0275769
1005.854 .0275789
1006.449 .0275813
1007.043 .0275841
1007.638 .0275872
1008.232 .0275907
1008.826 .0275945
1009.419 .0275985
1010.012 .0276029
1010.605 .0276075
1011.198 .0276122
1011.791 .0276172
1012.383 .0276223
1012.975 .0276275
1013.566 .0276327
1014.158 .0276380
1014.749 .0276434
1015.340 .0276487
1015.931 .0276540
1016.521 .0276593
1017.111 .0276645
1017.701 .0276698
1018.291 .0276749
1018.880 .0276798
1019.470 .0276846
1020.059 .0276891
1020.647 .0276933
1021.236 .0276973
1021.824 .0277008
1022.412 .0277041
1023.000 .0277070
1023.588 .0277097
1024.175 .0277121
1024.762 .0277141
1025.349 .0277158
1025.936 .0277172
1026.523 .0277181
1027.109 .0277186
1027.695 .0277188
1028.281 .0277185
1028.867 .0277180
1029.452 .0277173
1030.038 .0277165
1030.623 .0277157
1031.208 .0277148
1031.792 .0277139
1032.377 .0277130
1032.961 .0277121
1033.546 .0277110
1034.130 .0277098
1034.714 .0277083
1035.297 .0277066
1035.881 .0277045
1036.464 .0277023
1037.047 .0276997
1037.630 .0276969
1038.213 .0276938
1038.796 .0276903
1039.378 .0276863
1039.961 .0276819
1040.543 .0276770
1041.125 .0276715
1041.707 .0276656
1042.289 .0276593
1042.871 .0276527
1043.452 .0276459
1044.034 .0276391
1044.615 .0276322
1045.196 .0276253
1045.777 .0276183
1046.358 .0276110
1046.939 .0276034
1047.520 .0275953
1048.101 .0275867
1048.681 .0275776
1049.262 .0275679
1049.842 .0275577
1050.422 .0275470
1051.002 .0275360
1051.582 .0275247
1052.162 .0275132
1052.742 .0275013
1053.322 .0274892
1053.902 .0274767
1054.482 .0274640
1055.061 .0274511
1055.641 .0274383
1056.220 .0274255
1056.800 .0274130
1057.379 .0274008
1057.958 .0273890
1058.538 .0273775
1059.117 .0273664
1059.696 .0273554
1060.275 .0273446
1060.854 .0273338
1061.433 .0273230
1062.012 .0273124
1062.592 .0273018
1063.171 .0272914
1063.750 .0272813
1064.329 .0272714
1064.908 .0272618
1065.487 .0272524
1066.066 .0272432
1066.645 .0272341
1067.224 .0272251
1067.803 .0272161
1068.382 .0272070
1068.961 .0271980
1069.540 .0271888
1070.119 .0271796
1070.698 .0271705
1071.278 .0271613
1071.857 .0271520
1072.436 .0271426
1073.016 .0271332
1073.595 .0271236
1074.175 .0271139
1074.754 .0271041
1075.334 .0270943
1075.913 .0270845
1076.493 .0270746
1077.073 .0270649
1077.653 .0270554
1078.233 .0270461
1078.813 .0270369
1079.393 .0270279
1079.974 .0270190
1080.554 .0270102
1081.135 .0270013
1081.716 .0269924
1082.296 .0269834
1082.877 .0269743
1083.458 .0269650
1084.040 .0269557
1084.621 .0269464
1085.202 .0269374
1085.784 .0269286
1086.366 .0269203
1086.948 .0269126
1087.530 .0269055
1088.112 .0268990
1088.695 .0268934
1089.277 .0268886
1089.860 .0268846
1090.443 .0268813
1091.026 .0268789
1091.610 .0268774
1092.193 .0268767
1092.777 .0268768
1093.361 .0268777
1093.946 .0268792
1094.530 .0268811
1095.115 .0268832
1095.700 .0268854
1096.285 .0268876
1096.871 .0268897
1097.456 .0268920
1098.042 .0268945
1098.628 .0268974
1099.215 .0269008
1099.802 .0269051
1100.389 .0269101
1100.976 .0269158
1101.564 .0269223
1102.152 .0269292
1102.740 .0269367
1103.329 .0269447
1103.917 .0269532
1104.507 .0269625
1105.096 .0269726
1105.686 .0269836
1106.276 .0269957
1106.867 .0270089
1107.457 .0270230
1108.049 .0270381
1108.640 .0270540
1109.232 .0270707
1109.825 .0270882
1110.417 .0271065
1111.010 .0271256
1111.604 .0271457
1112.198 .0271669
1112.792 .0271894
1113.387 .0272133
1113.982 .0272385
1114.577 .0272651
1115.173 .0272929
1115.769 .0273217
1116.366 .0273514
1116.963 .0273816
1117.561 .0274125
1118.159 .0274439
1118.758 .0274758
1119.357 .0275083
1119.957 .0275414
1120.557 .0275751
1121.157 .0276096
1121.758 .0276447
1122.360 .0276801
1122.962 .0277157
1123.564 .0277512
1124.167 .0277692
1124.771 .0278040
1125.375 .0278385
1125.980 .0278727
1126.585 .0279066
1127.191 .0279406
1127.797 .0279749
1128.404 .0280097
1129.012 .0280451
1129.620 .0280812
1130.229 .0281180
1130.838 .0281552
1131.448 .0281928
1132.058 .0282309
1132.669 .0282869
1133.281 .0283274
1133.894 .0283697
1134.507 .0284131
1135.120 .0284596
1135.735 .0285106
1136.350 .0285680
1136.965 .0285463
1137.582 .0286020
1138.199 .0286558
1138.816 .0287040
1139.435 .0287536
1140.054 .0288039
1140.674 .0288600
1141.294 .0289293
1141.916 .0290061
1142.538 .0290623
1143.160 .0291732
1143.784 .0293209
1144.408 .0295200
1145.033 .0295063
