Measurement Sequence started on: 14-45-04-498
Integration time: 36
Scans to Average: 2 
>>>>>Begin Spectral Data<<<<<
433.946 .0562789
434.870 .0601027
435.793 .0480314
436.715 .0505630
437.635 .0488824
438.555 .0482883
439.473 .0471494
440.389 .0461156
441.305 .0455574
442.219 .0450066
443.132 .0463132
444.044 .0454531
444.954 .0452272
445.863 .0448666
446.771 .0445935
447.678 .0443497
448.584 .0441638
449.488 .0440300
450.391 .0439226
451.293 .0438405
452.194 .0437752
453.094 .0437192
453.992 .0436679
454.890 .0436164
455.786 .0435620
456.681 .0435026
457.575 .0434373
458.468 .0433652
459.360 .0432864
460.250 .0432021
461.140 .0431113
462.028 .0430145
462.915 .0429123
463.801 .0428044
464.687 .0426917
465.571 .0425746
466.454 .0424530
467.335 .0423278
468.216 .0421998
469.096 .0420701
469.975 .0419401
470.853 .0418112
471.729 .0416847
472.605 .0415619
473.479 .0414443
474.353 .0413324
475.226 .0412261
476.097 .0411259
476.968 .0410316
477.838 .0409430
478.706 .0408598
479.574 .0407818
480.441 .0407087
481.306 .0406411
482.171 .0405788
483.035 .0405221
483.898 .0404709
484.760 .0404251
485.621 .0403840
486.481 .0403473
487.340 .0403142
488.198 .0402840
489.055 .0402562
489.912 .0402307
490.767 .0402072
491.622 .0401793
492.476 .0401610
493.329 .0401447
494.180 .0401300
495.032 .0401165
495.882 .0401036
496.731 .0400908
497.580 .0400776
498.427 .0400632
499.274 .0400468
500.120 .0400343
500.965 .0400118
501.809 .0399856
502.653 .0399556
503.495 .0399212
504.337 .0398818
505.178 .0398375
506.018 .0397883
506.858 .0397340
507.696 .0396754
508.534 .0396130
509.371 .0395480
510.208 .0394807
511.043 .0394120
511.878 .0393423
512.712 .0392726
513.545 .0392034
514.377 .0391349
515.209 .0390673
516.040 .0390007
516.870 .0389351
517.699 .0388706
518.528 .0388074
519.356 .0387456
520.183 .0386849
521.010 .0386253
521.836 .0385666
522.661 .0385085
523.485 .0384504
524.309 .0383919
525.132 .0383318
525.954 .0382694
526.776 .0382038
527.597 .0381347
528.417 .0380623
529.237 .0379874
530.056 .0379105
530.874 .0378324
531.692 .0377537
532.508 .0376751
533.325 .0375968
534.140 .0375194
534.955 .0374429
535.770 .0373679
536.583 .0372946
537.397 .0372243
538.209 .0371575
539.021 .0370958
539.832 .0370396
540.643 .0369900
541.453 .0369473
542.262 .0369121
543.071 .0368840
543.879 .0368628
544.687 .0368475
545.494 .0368371
546.300 .0368301
547.106 .0368256
547.911 .0368221
548.716 .0368198
549.520 .0368182
550.323 .0368179
551.126 .0368189
551.929 .0368216
552.731 .0368261
553.532 .0368322
554.332 .0368395
555.133 .0368472
555.932 .0368540
556.731 .0368595
557.530 .0368631
558.328 .0368644
559.125 .0368632
559.922 .0368598
560.719 .0368545
561.515 .0368475
562.310 .0368390
563.105 .0368287
563.899 .0368166
564.693 .0368025
565.487 .0367856
566.280 .0367656
567.072 .0367419
567.864 .0367143
568.655 .0366831
569.446 .0366483
570.236 .0366103
571.026 .0365692
571.816 .0365258
572.605 .0364805
573.393 .0364337
574.181 .0363858
574.969 .0363370
575.756 .0362877
576.543 .0362379
577.329 .0361878
578.115 .0361376
578.900 .0360877
579.685 .0360384
580.469 .0359903
581.253 .0359436
582.036 .0358990
582.820 .0358567
583.602 .0358172
584.384 .0357806
585.166 .0357468
585.947 .0357157
586.728 .0356872
587.509 .0356609
588.289 .0356365
589.069 .0356138
589.848 .0355924
590.627 .0355721
591.405 .0355527
592.183 .0355338
592.961 .0355153
593.738 .0354969
594.515 .0354787
595.291 .0354604
596.067 .0354420
596.843 .0354236
597.618 .0354052
598.393 .0353764
599.167 .0353578
599.941 .0353390
600.715 .0353200
601.488 .0353007
602.261 .0352808
603.034 .0352603
603.806 .0352393
604.578 .0352175
605.349 .0351951
606.121 .0351721
606.891 .0351594
607.662 .0351353
608.432 .0351107
609.201 .0350856
609.971 .0350601
610.740 .0350343
611.508 .0350082
612.277 .0349820
613.045 .0349556
613.812 .0349292
614.579 .0349029
615.346 .0348767
616.113 .0348507
616.879 .0348251
617.645 .0347998
618.411 .0347751
619.176 .0347510
619.941 .0347278
620.705 .0347055
621.470 .0346842
622.233 .0346641
622.997 .0346452
623.760 .0346274
624.523 .0346107
625.286 .0345952
626.048 .0345806
626.810 .0345669
627.572 .0345539
628.333 .0345417
629.095 .0345299
629.855 .0345187
630.616 .0345077
631.376 .0344971
632.136 .0344865
632.895 .0344758
633.655 .0344648
634.414 .0344534
635.172 .0344413
635.931 .0344284
636.689 .0344145
637.447 .0343994
638.204 .0343832
638.962 .0343657
639.718 .0343472
640.475 .0343276
641.231 .0343071
641.988 .0342857
642.743 .0342636
643.499 .0342409
644.254 .0342178
645.009 .0341943
645.764 .0341705
646.518 .0341465
647.272 .0341223
648.026 .0340979
648.780 .0340734
649.533 .0340488
650.286 .0340243
651.039 .0339998
651.792 .0339756
652.544 .0339515
653.296 .0339278
654.048 .0339046
654.799 .0338818
655.550 .0338597
656.301 .0338380
657.052 .0338167
657.802 .0337959
658.552 .0337754
659.302 .0337551
660.052 .0337350
660.801 .0337151
661.550 .0336954
662.299 .0336760
663.048 .0336569
663.796 .0336382
664.544 .0336200
665.292 .0336024
666.040 .0335853
666.787 .0335688
667.534 .0335529
668.281 .0335375
669.028 .0335227
669.774 .0335085
670.521 .0334950
671.266 .0334821
672.012 .0334701
672.758 .0334588
673.503 .0334483
674.248 .0334386
674.992 .0334296
675.737 .0334214
676.481 .0334139
677.225 .0334071
677.969 .0334008
678.712 .0333949
679.455 .0333895
680.199 .0333843
680.941 .0333792
681.684 .0333740
682.426 .0333688
683.168 .0333633
683.910 .0333574
684.652 .0333511
685.393 .0333444
686.134 .0333371
686.875 .0333293
687.616 .0333209
688.356 .0333119
689.097 .0333023
689.837 .0332921
690.576 .0332813
691.316 .0332699
692.055 .0332579
692.794 .0332454
693.533 .0332323
694.272 .0332187
695.010 .0332045
695.748 .0331898
696.486 .0331746
697.224 .0331590
697.962 .0331429
698.699 .0331264
699.436 .0331096
700.173 .0330924
700.909 .0330749
701.646 .0330570
702.382 .0330389
703.118 .0330204
703.853 .0330017
704.589 .0329828
705.324 .0329636
706.059 .0329442
706.794 .0329247
707.529 .0329051
708.263 .0328853
708.997 .0328654
709.731 .0328455
710.465 .0328255
711.198 .0328054
711.931 .0327854
712.664 .0327654
713.397 .0327454
714.130 .0327256
714.862 .0327058
715.594 .0326861
716.326 .0326666
717.058 .0326473
717.789 .0326281
718.520 .0326092
719.251 .0325907
719.982 .0325725
720.713 .0325547
721.443 .0325374
722.173 .0325207
722.903 .0325046
723.633 .0324891
724.362 .0324741
725.091 .0324598
725.820 .0324460
726.549 .0324327
727.278 .0324200
728.006 .0324077
728.734 .0323959
729.462 .0323845
730.190 .0323735
730.917 .0323630
731.644 .0323529
732.371 .0323432
733.098 .0323339
733.825 .0323249
734.551 .0323163
735.277 .0323078
736.003 .0322995
736.728 .0322914
737.454 .0322835
738.179 .0322757
738.904 .0322679
739.629 .0322602
740.353 .0322525
741.077 .0322449
741.801 .0322371
742.525 .0322293
743.249 .0322214
743.972 .0322133
744.695 .0322051
745.418 .0321966
746.141 .0321879
746.863 .0321788
747.585 .0321693
748.307 .0321593
749.029 .0321487
749.750 .0321375
750.472 .0321257
751.193 .0321135
751.913 .0321007
752.634 .0320875
753.354 .0320739
754.074 .0320598
754.794 .0320452
755.514 .0320301
756.233 .0320144
756.952 .0319982
757.671 .0319815
758.390 .0319643
759.108 .0319467
759.826 .0319290
760.544 .0319111
761.262 .0318931
761.979 .0318751
762.697 .0318571
763.414 .0318392
764.130 .0318213
764.847 .0318036
765.563 .0317861
766.279 .0317687
766.995 .0317516
767.710 .0317347
768.426 .0317180
769.141 .0317015
769.855 .0316851
770.570 .0316690
771.284 .0316531
771.998 .0316374
772.712 .0316221
773.426 .0316069
774.139 .0315920
774.852 .0315773
775.565 .0315626
776.277 .0315480
776.990 .0315333
777.702 .0315184
778.414 .0315035
779.125 .0314885
779.836 .0314735
780.547 .0314586
781.258 .0314439
781.969 .0314294
782.679 .0314150
783.389 .0313939
784.099 .0313799
784.808 .0313662
785.517 .0313526
786.226 .0313391
786.935 .0313259
787.643 .0313128
788.352 .0312998
789.060 .0312869
789.767 .0312741
790.475 .0312615
791.182 .0312490
791.889 .0312435
792.595 .0312314
793.301 .0312195
794.008 .0312080
794.713 .0311966
795.419 .0311855
796.124 .0311745
796.829 .0311636
797.534 .0311526
798.238 .0311415
798.942 .0311303
799.646 .0311191
800.350 .0311080
801.053 .0310970
801.756 .0310862
802.459 .0310756
803.162 .0310652
803.864 .0310549
804.566 .0310447
805.267 .0310345
805.969 .0310243
806.670 .0310140
807.371 .0310038
808.071 .0309937
808.772 .0309836
809.472 .0309738
810.171 .0309640
810.871 .0309543
811.570 .0309444
812.269 .0309345
812.967 .0309243
813.666 .0309139
814.364 .0309032
815.061 .0308924
815.759 .0308814
816.456 .0308702
817.153 .0308589
817.849 .0308473
818.545 .0308355
819.241 .0308234
819.937 .0308109
820.632 .0307980
821.327 .0307848
822.022 .0307712
822.717 .0307574
823.411 .0307434
824.105 .0307293
824.798 .0307149
825.491 .0307003
826.184 .0306852
826.877 .0306698
827.569 .0306539
828.261 .0306376
828.953 .0306208
829.645 .0306037
830.336 .0305864
831.027 .0305689
831.717 .0305514
832.407 .0305338
833.097 .0305163
833.787 .0304987
834.476 .0304812
835.165 .0304637
835.854 .0304462
836.542 .0304289
837.230 .0304118
837.918 .0303950
838.605 .0303785
839.292 .0303623
839.979 .0303464
840.665 .0303307
841.352 .0303151
842.037 .0302997
842.723 .0302843
843.408 .0302690
844.093 .0302537
844.777 .0302385
845.462 .0302233
846.145 .0302081
846.829 .0301930
847.512 .0301779
848.195 .0301627
848.878 .0301474
849.560 .0301321
850.242 .0301165
850.923 .0301006
851.605 .0300845
852.286 .0300680
852.966 .0300512
853.646 .0300340
854.326 .0300163
855.006 .0299983
855.685 .0299800
856.364 .0299615
857.043 .0299428
857.721 .0299241
858.399 .0299054
859.077 .0298868
859.754 .0298684
860.431 .0298501
861.107 .0298321
861.784 .0298143
862.459 .0297968
863.135 .0297798
863.810 .0297633
864.485 .0297473
865.160 .0297321
865.834 .0297175
866.508 .0297034
867.181 .0296900
867.854 .0296770
868.527 .0296645
869.199 .0296524
869.872 .0296407
870.543 .0296294
871.215 .0296185
871.886 .0296080
872.557 .0295978
873.227 .0295879
873.897 .0295781
874.567 .0295685
875.236 .0295589
875.905 .0295494
876.573 .0295398
877.242 .0295304
877.909 .0295211
878.577 .0295119
879.244 .0295029
879.911 .0294940
880.577 .0294851
881.243 .0294763
881.909 .0294674
882.575 .0294585
883.240 .0294495
883.904 .0294404
884.569 .0294315
885.232 .0294228
885.896 .0294145
886.559 .0294065
887.222 .0293988
887.885 .0293916
888.547 .0293847
889.208 .0293781
889.870 .0293718
890.531 .0293657
891.192 .0293599
891.852 .0293543
892.512 .0293490
893.171 .0293439
893.830 .0293390
894.489 .0293344
895.148 .0293298
895.806 .0293253
896.464 .0293209
897.121 .0293163
897.778 .0293117
898.434 .0293069
899.091 .0292990
899.747 .0292936
900.402 .0292879
901.057 .0292821
901.712 .0292761
902.366 .0292698
903.020 .0292631
903.674 .0292559
904.327 .0292482
904.980 .0292399
905.633 .0292309
906.285 .0292212
906.936 .0292110
907.588 .0292039
908.239 .0291928
908.889 .0291811
909.540 .0291689
910.190 .0291561
910.839 .0291426
911.488 .0291286
912.137 .0291139
912.785 .0290986
913.433 .0290828
914.081 .0290666
914.728 .0290500
915.375 .0290331
916.021 .0290160
916.668 .0289987
917.313 .0289813
917.959 .0289636
918.604 .0289458
919.248 .0289276
919.892 .0289093
920.536 .0288907
921.180 .0288719
921.823 .0288528
922.465 .0288334
923.108 .0288137
923.750 .0287937
924.391 .0287734
925.032 .0287528
925.673 .0287319
926.313 .0287106
926.953 .0286891
927.593 .0286672
928.232 .0286451
928.871 .0286228
929.510 .0286002
930.148 .0285775
930.786 .0285546
931.423 .0285316
932.060 .0285085
932.697 .0284854
933.333 .0284623
933.969 .0284392
934.604 .0284162
935.239 .0283932
935.874 .0283703
936.508 .0283474
937.142 .0283245
937.776 .0283016
938.409 .0282787
939.042 .0282560
939.674 .0282334
940.306 .0282111
940.938 .0281890
941.569 .0281671
942.200 .0281455
942.830 .0281241
943.460 .0281028
944.090 .0280818
944.720 .0280609
945.349 .0280403
945.977 .0280199
946.606 .0279998
947.233 .0279801
947.861 .0279607
948.488 .0279415
949.115 .0279227
949.741 .0279040
950.367 .0278856
950.993 .0278673
951.618 .0278492
952.243 .0278312
952.868 .0278135
953.492 .0277961
954.115 .0277790
954.739 .0277622
955.362 .0277457
955.984 .0277295
956.607 .0277135
957.229 .0276977
957.850 .0276821
958.471 .0276667
959.092 .0276515
959.713 .0276367
960.333 .0276224
960.952 .0276086
961.572 .0275954
962.191 .0275828
962.809 .0275708
963.428 .0275592
964.045 .0275482
964.663 .0275375
965.280 .0275272
965.897 .0275172
966.513 .0275075
967.129 .0274982
967.745 .0274893
968.361 .0274808
968.976 .0274727
969.590 .0274651
970.205 .0274580
970.818 .0274513
971.432 .0274449
972.045 .0274389
972.658 .0274332
973.271 .0274278
973.883 .0274229
974.495 .0274183
975.106 .0274142
975.717 .0274106
976.328 .0274074
976.938 .0274047
977.548 .0274024
978.158 .0274003
978.768 .0273983
979.377 .0273968
979.985 .0273955
980.594 .0273943
981.202 .0273934
981.809 .0273927
982.417 .0273922
983.024 .0273919
983.631 .0273917
984.237 .0273916
984.843 .0273916
985.449 .0273914
986.054 .0273913
986.659 .0273910
987.264 .0273909
987.868 .0273904
988.472 .0273897
989.076 .0273890
989.679 .0273883
990.282 .0273874
990.885 .0273865
991.487 .0273855
992.090 .0273844
992.691 .0273833
993.293 .0273821
993.894 .0273808
994.495 .0273795
995.095 .0273782
995.696 .0273770
996.296 .0273758
996.895 .0273748
997.494 .0273740
998.093 .0273735
998.692 .0273732
999.291 .0273731
999.889 .0273733
1000.487 .0273738
1001.084 .0273745
1001.681 .0273755
1002.278 .0273767
1002.875 .0273780
1003.471 .0273795
1004.067 .0273810
1004.663 .0273825
1005.258 .0273841
1005.854 .0273857
1006.449 .0273873
1007.043 .0273888
1007.638 .0273903
1008.232 .0273918
1008.826 .0273931
1009.419 .0273942
1010.012 .0273950
1010.605 .0273954
1011.198 .0273953
1011.791 .0273946
1012.383 .0273932
1012.975 .0273911
1013.566 .0273881
1014.158 .0273844
1014.749 .0273798
1015.340 .0273743
1015.931 .0273680
1016.521 .0273609
1017.111 .0273531
1017.701 .0273447
1018.291 .0273357
1018.880 .0273263
1019.470 .0273165
1020.059 .0273065
1020.647 .0272963
1021.236 .0272861
1021.824 .0272759
1022.412 .0272659
1023.000 .0272562
1023.588 .0272468
1024.175 .0272379
1024.762 .0272296
1025.349 .0272218
1025.936 .0272145
1026.523 .0272079
1027.109 .0272018
1027.695 .0271962
1028.281 .0271911
1028.867 .0271865
1029.452 .0271823
1030.038 .0271784
1030.623 .0271750
1031.208 .0271718
1031.792 .0271690
1032.377 .0271665
1032.961 .0271642
1033.546 .0271619
1034.130 .0271597
1034.714 .0271573
1035.297 .0271547
1035.881 .0271517
1036.464 .0271483
1037.047 .0271442
1037.630 .0271396
1038.213 .0271343
1038.796 .0271283
1039.378 .0271216
1039.961 .0271140
1040.543 .0271057
1041.125 .0270964
1041.707 .0270863
1042.289 .0270753
1042.871 .0270637
1043.452 .0270515
1044.034 .0270388
1044.615 .0270257
1045.196 .0270125
1045.777 .0269991
1046.358 .0269856
1046.939 .0269722
1047.520 .0269588
1048.101 .0269455
1048.681 .0269325
1049.262 .0269200
1049.842 .0269079
1050.422 .0268963
1051.002 .0268854
1051.582 .0268749
1052.162 .0268650
1052.742 .0268556
1053.322 .0268464
1053.902 .0268375
1054.482 .0268287
1055.061 .0268202
1055.641 .0268118
1056.220 .0268036
1056.800 .0267958
1057.379 .0267882
1057.958 .0267810
1058.538 .0267741
1059.117 .0267674
1059.696 .0267609
1060.275 .0267543
1060.854 .0267477
1061.433 .0267408
1062.012 .0267337
1062.592 .0267264
1063.171 .0267188
1063.750 .0267110
1064.329 .0267031
1064.908 .0266950
1065.487 .0266868
1066.066 .0266783
1066.645 .0266696
1067.224 .0266606
1067.803 .0266512
1068.382 .0266415
1068.961 .0266316
1069.540 .0266216
1070.119 .0266117
1070.698 .0266020
1071.278 .0265927
1071.857 .0265839
1072.436 .0265758
1073.016 .0265681
1073.595 .0265609
1074.175 .0265542
1074.754 .0265478
1075.334 .0265417
1075.913 .0265357
1076.493 .0265299
1077.073 .0265243
1077.653 .0265189
1078.233 .0265138
1078.813 .0265090
1079.393 .0265047
1079.974 .0265008
1080.554 .0264974
1081.135 .0264944
1081.716 .0264919
1082.296 .0264898
1082.877 .0264879
1083.458 .0264864
1084.040 .0264852
1084.621 .0264845
1085.202 .0264844
1085.784 .0264850
1086.366 .0264866
1086.948 .0264890
1087.530 .0264923
1088.112 .0264964
1088.695 .0265011
1089.277 .0265062
1089.860 .0265117
1090.443 .0265174
1091.026 .0265233
1091.610 .0265293
1092.193 .0265357
1092.777 .0265424
1093.361 .0265493
1093.946 .0265565
1094.530 .0265635
1095.115 .0265703
1095.700 .0265766
1096.285 .0265821
1096.871 .0265867
1097.456 .0265901
1098.042 .0265925
1098.628 .0265940
1099.215 .0265948
1099.802 .0265951
1100.389 .0265951
1100.976 .0265949
1101.564 .0265948
1102.152 .0265948
1102.740 .0265949
1103.329 .0265954
1103.917 .0265964
1104.507 .0265981
1105.096 .0266006
1105.686 .0266042
1106.276 .0266091
1106.867 .0266156
1107.457 .0266235
1108.049 .0266328
1108.640 .0266437
1109.232 .0266561
1109.825 .0266699
1110.417 .0266853
1111.010 .0267023
1111.604 .0267211
1112.198 .0267418
1112.792 .0267645
1113.387 .0267893
1113.982 .0268163
1114.577 .0268455
1115.173 .0268766
1115.769 .0269097
1116.366 .0269446
1116.963 .0269812
1117.561 .0270192
1118.159 .0270586
1118.758 .0270989
1119.357 .0271399
1119.957 .0271811
1120.557 .0272220
1121.157 .0272624
1121.758 .0273017
1122.360 .0273397
1122.962 .0273762
1123.564 .0274110
1124.167 .0274319
1124.771 .0274642
1125.375 .0274950
1125.980 .0275241
1126.585 .0275516
1127.191 .0275776
1127.797 .0276023
1128.404 .0276260
1129.012 .0276488
1129.620 .0276706
1130.229 .0276916
1130.838 .0277117
1131.448 .0277311
1132.058 .0277499
1132.669 .0277788
1133.281 .0277957
1133.894 .0278110
1134.507 .0278285
1135.120 .0278471
1135.735 .0278623
1136.350 .0278737
1136.965 .0278553
1137.582 .0278744
1138.199 .0278899
1138.816 .0279048
1139.435 .0279202
1140.054 .0279361
1140.674 .0279565
1141.294 .0279743
1141.916 .0279704
1142.538 .0280692
1143.160 .0281379
1143.784 .0280829
1144.408 .0280117
1145.033 .0274212
