Measurement Sequence started on: 14-45-04-498
Integration time: 36
Scans to Average: 2 
>>>>>Begin Spectral Data<<<<<
433.946 .0520518
434.870 .0426733
435.793 .0380683
436.715 .0384126
437.635 .0384169
438.555 .0390716
439.473 .0383813
440.389 .0380925
441.305 .0379530
442.219 .0378139
443.132 .0381896
444.044 .0379225
444.954 .0378956
445.863 .0378487
446.771 .0378000
447.678 .0377159
448.584 .0376669
449.488 .0376320
450.391 .0376025
451.293 .0375777
452.194 .0375551
453.094 .0375318
453.992 .0375047
454.890 .0374706
455.786 .0374284
456.681 .0373782
457.575 .0373214
458.468 .0372597
459.360 .0371951
460.250 .0371287
461.140 .0370615
462.028 .0369936
462.915 .0369248
463.801 .0368547
464.687 .0367825
465.571 .0367083
466.454 .0366317
467.335 .0365535
468.216 .0364744
469.096 .0363957
469.975 .0363185
470.853 .0362440
471.729 .0361731
472.605 .0361064
473.479 .0360443
474.353 .0359864
475.226 .0359320
476.097 .0358805
476.968 .0358309
477.838 .0357825
478.706 .0357350
479.574 .0356883
480.441 .0356424
481.306 .0355978
482.171 .0355547
483.035 .0355136
483.898 .0354745
484.760 .0354373
485.621 .0354020
486.481 .0353679
487.340 .0353346
488.198 .0353014
489.055 .0352679
489.912 .0352337
490.767 .0351988
491.622 .0351437
492.476 .0351061
493.329 .0350678
494.180 .0350289
495.032 .0349895
495.882 .0349495
496.731 .0349088
497.580 .0348672
498.427 .0348246
499.274 .0347808
500.120 .0347561
500.965 .0347105
501.809 .0346638
502.653 .0346160
503.495 .0345674
504.337 .0345184
505.178 .0344695
506.018 .0344211
506.858 .0343734
507.696 .0343266
508.534 .0342809
509.371 .0342366
510.208 .0341936
511.043 .0341518
511.878 .0341114
512.712 .0340724
513.545 .0340352
514.377 .0339999
515.209 .0339667
516.040 .0339357
516.870 .0339068
517.699 .0338797
518.528 .0338542
519.356 .0338296
520.183 .0338055
521.010 .0337814
521.836 .0337566
522.661 .0337310
523.485 .0337042
524.309 .0336763
525.132 .0336475
525.954 .0336179
526.776 .0335875
527.597 .0335564
528.417 .0335247
529.237 .0334925
530.056 .0334596
530.874 .0334259
531.692 .0333912
532.508 .0333556
533.325 .0333192
534.140 .0332821
534.955 .0332445
535.770 .0332068
536.583 .0331694
537.397 .0331327
538.209 .0330970
539.021 .0330628
539.832 .0330302
540.643 .0329993
541.453 .0329697
542.262 .0329412
543.071 .0329133
543.879 .0328855
544.687 .0328574
545.494 .0328288
546.300 .0327993
547.106 .0327689
547.911 .0327376
548.716 .0327057
549.520 .0326732
550.323 .0326403
551.126 .0326070
551.929 .0325738
552.731 .0325405
553.532 .0325072
554.332 .0324739
555.133 .0324405
555.932 .0324069
556.731 .0323730
557.530 .0323390
558.328 .0323048
559.125 .0322708
559.922 .0322373
560.719 .0322046
561.515 .0321733
562.310 .0321438
563.105 .0321161
563.899 .0320903
564.693 .0320661
565.487 .0320431
566.280 .0320211
567.072 .0319997
567.864 .0319787
568.655 .0319579
569.446 .0319374
570.236 .0319170
571.026 .0318969
571.816 .0318772
572.605 .0318579
573.393 .0318388
574.181 .0318199
574.969 .0318010
575.756 .0317820
576.543 .0317627
577.329 .0317431
578.115 .0317232
578.900 .0317029
579.685 .0316822
580.469 .0316610
581.253 .0316396
582.036 .0316182
582.820 .0315969
583.602 .0315755
584.384 .0315543
585.166 .0315334
585.947 .0315125
586.728 .0314918
587.509 .0314712
588.289 .0314507
589.069 .0314304
589.848 .0314100
590.627 .0313898
591.405 .0313698
592.183 .0313501
592.961 .0313307
593.738 .0313116
594.515 .0312927
595.291 .0312743
596.067 .0312561
596.843 .0312384
597.618 .0312208
598.393 .0311955
599.167 .0311786
599.941 .0311620
600.715 .0311457
601.488 .0311296
602.261 .0311138
603.034 .0310982
603.806 .0310828
604.578 .0310675
605.349 .0310522
606.121 .0310370
606.891 .0310295
607.662 .0310142
608.432 .0309988
609.201 .0309835
609.971 .0309681
610.740 .0309527
611.508 .0309372
612.277 .0309216
613.045 .0309058
613.812 .0308897
614.579 .0308734
615.346 .0308568
616.113 .0308401
616.879 .0308230
617.645 .0308057
618.411 .0307882
619.176 .0307703
619.941 .0307522
620.705 .0307340
621.470 .0307156
622.233 .0306972
622.997 .0306789
623.760 .0306606
624.523 .0306424
625.286 .0306245
626.048 .0306069
626.810 .0305895
627.572 .0305724
628.333 .0305556
629.095 .0305392
629.855 .0305232
630.616 .0305077
631.376 .0304927
632.136 .0304782
632.895 .0304640
633.655 .0304502
634.414 .0304366
635.172 .0304232
635.931 .0304100
636.689 .0303969
637.447 .0303839
638.204 .0303711
638.962 .0303585
639.718 .0303461
640.475 .0303339
641.231 .0303218
641.988 .0303097
642.743 .0302976
643.499 .0302854
644.254 .0302731
645.009 .0302606
645.764 .0302480
646.518 .0302353
647.272 .0302224
648.026 .0302095
648.780 .0301965
649.533 .0301834
650.286 .0301703
651.039 .0301573
651.792 .0301442
652.544 .0301311
653.296 .0301181
654.048 .0301052
654.799 .0300923
655.550 .0300796
656.301 .0300669
657.052 .0300543
657.802 .0300419
658.552 .0300295
659.302 .0300173
660.052 .0300051
660.801 .0299930
661.550 .0299809
662.299 .0299688
663.048 .0299566
663.796 .0299443
664.544 .0299318
665.292 .0299192
666.040 .0299066
666.787 .0298938
667.534 .0298812
668.281 .0298686
669.028 .0298562
669.774 .0298440
670.521 .0298320
671.266 .0298202
672.012 .0298085
672.758 .0297970
673.503 .0297856
674.248 .0297742
674.992 .0297630
675.737 .0297519
676.481 .0297409
677.225 .0297300
677.969 .0297194
678.712 .0297089
679.455 .0296986
680.199 .0296886
680.941 .0296787
681.684 .0296689
682.426 .0296593
683.168 .0296497
683.910 .0296401
684.652 .0296304
685.393 .0296206
686.134 .0296108
686.875 .0296008
687.616 .0295909
688.356 .0295809
689.097 .0295710
689.837 .0295610
690.576 .0295511
691.316 .0295411
692.055 .0295309
692.794 .0295206
693.533 .0295102
694.272 .0294995
695.010 .0294886
695.748 .0294776
696.486 .0294666
697.224 .0294555
697.962 .0294445
698.699 .0294335
699.436 .0294226
700.173 .0294118
700.909 .0294010
701.646 .0293902
702.382 .0293794
703.118 .0293687
703.853 .0293579
704.589 .0293470
705.324 .0293361
706.059 .0293250
706.794 .0293138
707.529 .0293024
708.263 .0292908
708.997 .0292790
709.731 .0292672
710.465 .0292551
711.198 .0292430
711.931 .0292308
712.664 .0292185
713.397 .0292060
714.130 .0291934
714.862 .0291806
715.594 .0291677
716.326 .0291546
717.058 .0291414
717.789 .0291282
718.520 .0291149
719.251 .0291017
719.982 .0290886
720.713 .0290755
721.443 .0290625
722.173 .0290496
722.903 .0290367
723.633 .0290239
724.362 .0290112
725.091 .0289985
725.820 .0289860
726.549 .0289735
727.278 .0289611
728.006 .0289488
728.734 .0289365
729.462 .0289242
730.190 .0289118
730.917 .0288993
731.644 .0288868
732.371 .0288742
733.098 .0288616
733.825 .0288490
734.551 .0288364
735.277 .0288237
736.003 .0288110
736.728 .0287984
737.454 .0287858
738.179 .0287732
738.904 .0287607
739.629 .0287482
740.353 .0287357
741.077 .0287234
741.801 .0287110
742.525 .0286988
743.249 .0286866
743.972 .0286746
744.695 .0286626
745.418 .0286509
746.141 .0286392
746.863 .0286278
747.585 .0286164
748.307 .0286052
749.029 .0285941
749.750 .0285830
750.472 .0285720
751.193 .0285610
751.913 .0285501
752.634 .0285392
753.354 .0285284
754.074 .0285177
754.794 .0285071
755.514 .0284967
756.233 .0284865
756.952 .0284764
757.671 .0284665
758.390 .0284568
759.108 .0284472
759.826 .0284378
760.544 .0284286
761.262 .0284196
761.979 .0284108
762.697 .0284023
763.414 .0283940
764.130 .0283860
764.847 .0283783
765.563 .0283709
766.279 .0283638
766.995 .0283570
767.710 .0283503
768.426 .0283438
769.141 .0283374
769.855 .0283310
770.570 .0283246
771.284 .0283182
771.998 .0283117
772.712 .0283052
773.426 .0282986
774.139 .0282919
774.852 .0282851
775.565 .0282782
776.277 .0282712
776.990 .0282641
777.702 .0282569
778.414 .0282495
779.125 .0282420
779.836 .0282344
780.547 .0282267
781.258 .0282189
781.969 .0282110
782.679 .0282030
783.389 .0281905
784.099 .0281823
784.808 .0281739
785.517 .0281654
786.226 .0281568
786.935 .0281480
787.643 .0281391
788.352 .0281302
789.060 .0281211
789.767 .0281119
790.475 .0281027
791.182 .0280935
791.889 .0280888
792.595 .0280794
793.301 .0280699
794.008 .0280603
794.713 .0280506
795.419 .0280407
796.124 .0280307
796.829 .0280205
797.534 .0280101
798.238 .0279995
798.942 .0279887
799.646 .0279777
800.350 .0279664
801.053 .0279550
801.756 .0279433
802.459 .0279315
803.162 .0279194
803.864 .0279072
804.566 .0278947
805.267 .0278821
805.969 .0278693
806.670 .0278563
807.371 .0278432
808.071 .0278299
808.772 .0278167
809.472 .0278034
810.171 .0277901
810.871 .0277768
811.570 .0277635
812.269 .0277501
812.967 .0277367
813.666 .0277231
814.364 .0277093
815.061 .0276953
815.759 .0276811
816.456 .0276668
817.153 .0276525
817.849 .0276382
818.545 .0276239
819.241 .0276097
819.937 .0275956
820.632 .0275816
821.327 .0275677
822.022 .0275539
822.717 .0275402
823.411 .0275266
824.105 .0275133
824.798 .0275001
825.491 .0274873
826.184 .0274748
826.877 .0274625
827.569 .0274507
828.261 .0274392
828.953 .0274281
829.645 .0274175
830.336 .0274074
831.027 .0273978
831.717 .0273888
832.407 .0273804
833.097 .0273725
833.787 .0273651
834.476 .0273581
835.165 .0273515
835.854 .0273451
836.542 .0273391
837.230 .0273333
837.918 .0273278
838.605 .0273226
839.292 .0273177
839.979 .0273130
840.665 .0273085
841.352 .0273041
842.037 .0272998
842.723 .0272953
843.408 .0272907
844.093 .0272859
844.777 .0272808
845.462 .0272755
846.145 .0272699
846.829 .0272642
847.512 .0272583
848.195 .0272522
848.878 .0272458
849.560 .0272392
850.242 .0272322
850.923 .0272250
851.605 .0272174
852.286 .0272094
852.966 .0272011
853.646 .0271926
854.326 .0271837
855.006 .0271747
855.685 .0271653
856.364 .0271557
857.043 .0271458
857.721 .0271357
858.399 .0271253
859.077 .0271146
859.754 .0271038
860.431 .0270929
861.107 .0270818
861.784 .0270706
862.459 .0270593
863.135 .0270478
863.810 .0270361
864.485 .0270241
865.160 .0270119
865.834 .0269994
866.508 .0269867
867.181 .0269737
867.854 .0269606
868.527 .0269473
869.199 .0269338
869.872 .0269201
870.543 .0269063
871.215 .0268923
871.886 .0268781
872.557 .0268637
873.227 .0268491
873.897 .0268343
874.567 .0268195
875.236 .0268047
875.905 .0267898
876.573 .0267750
877.242 .0267602
877.909 .0267455
878.577 .0267308
879.244 .0267161
879.911 .0267015
880.577 .0266870
881.243 .0266727
881.909 .0266586
882.575 .0266448
883.240 .0266313
883.904 .0266182
884.569 .0266056
885.232 .0265934
885.896 .0265816
886.559 .0265701
887.222 .0265590
887.885 .0265482
888.547 .0265377
889.208 .0265276
889.870 .0265178
890.531 .0265082
891.192 .0264990
891.852 .0264901
892.512 .0264814
893.171 .0264728
893.830 .0264643
894.489 .0264558
895.148 .0264473
895.806 .0264388
896.464 .0264302
897.121 .0264215
897.778 .0264129
898.434 .0264041
899.091 .0263905
899.747 .0263816
900.402 .0263726
901.057 .0263636
901.712 .0263544
902.366 .0263451
903.020 .0263359
903.674 .0263266
904.327 .0263174
904.980 .0263082
905.633 .0262989
906.285 .0262897
906.936 .0262804
907.588 .0262757
908.239 .0262664
908.889 .0262571
909.540 .0262479
910.190 .0262386
910.839 .0262295
911.488 .0262204
912.137 .0262114
912.785 .0262025
913.433 .0261937
914.081 .0261849
914.728 .0261761
915.375 .0261675
916.021 .0261589
916.668 .0261505
917.313 .0261422
917.959 .0261340
918.604 .0261259
919.248 .0261178
919.892 .0261097
920.536 .0261014
921.180 .0260930
921.823 .0260845
922.465 .0260758
923.108 .0260669
923.750 .0260580
924.391 .0260489
925.032 .0260397
925.673 .0260304
926.313 .0260208
926.953 .0260110
927.593 .0260009
928.232 .0259905
928.871 .0259799
929.510 .0259691
930.148 .0259581
930.786 .0259470
931.423 .0259359
932.060 .0259247
932.697 .0259134
933.333 .0259019
933.969 .0258901
934.604 .0258781
935.239 .0258658
935.874 .0258531
936.508 .0258402
937.142 .0258271
937.776 .0258139
938.409 .0258006
939.042 .0257872
939.674 .0257737
940.306 .0257600
940.938 .0257463
941.569 .0257323
942.200 .0257181
942.830 .0257038
943.460 .0256893
944.090 .0256747
944.720 .0256600
945.349 .0256453
945.977 .0256306
946.606 .0256159
947.233 .0256011
947.861 .0255863
948.488 .0255715
949.115 .0255566
949.741 .0255416
950.367 .0255265
950.993 .0255113
951.618 .0254961
952.243 .0254809
952.868 .0254656
953.492 .0254503
954.115 .0254351
954.739 .0254199
955.362 .0254048
955.984 .0253897
956.607 .0253746
957.229 .0253594
957.850 .0253442
958.471 .0253291
959.092 .0253139
959.713 .0252988
960.333 .0252838
960.952 .0252689
961.572 .0252540
962.191 .0252393
962.809 .0252248
963.428 .0252104
964.045 .0251960
964.663 .0251818
965.280 .0251677
965.897 .0251538
966.513 .0251399
967.129 .0251263
967.745 .0251127
968.361 .0250994
968.976 .0250862
969.590 .0250732
970.205 .0250604
970.818 .0250477
971.432 .0250352
972.045 .0250228
972.658 .0250106
973.271 .0249985
973.883 .0249867
974.495 .0249750
975.106 .0249636
975.717 .0249524
976.328 .0249415
976.938 .0249308
977.548 .0249203
978.158 .0249099
978.768 .0248948
979.377 .0248846
979.985 .0248746
980.594 .0248645
981.202 .0248546
981.809 .0248447
982.417 .0248349
983.024 .0248251
983.631 .0248155
984.237 .0248059
984.843 .0247963
985.449 .0247868
986.054 .0247773
986.659 .0247680
987.264 .0247636
987.868 .0247547
988.472 .0247460
989.076 .0247377
989.679 .0247299
990.282 .0247225
990.885 .0247156
991.487 .0247091
992.090 .0247030
992.691 .0246974
993.293 .0246922
993.894 .0246875
994.495 .0246832
995.095 .0246795
995.696 .0246763
996.296 .0246737
996.895 .0246715
997.494 .0246699
998.093 .0246687
998.692 .0246678
999.291 .0246673
999.889 .0246671
1000.487 .0246671
1001.084 .0246673
1001.681 .0246677
1002.278 .0246683
1002.875 .0246692
1003.471 .0246701
1004.067 .0246712
1004.663 .0246723
1005.258 .0246733
1005.854 .0246743
1006.449 .0246752
1007.043 .0246759
1007.638 .0246765
1008.232 .0246770
1008.826 .0246774
1009.419 .0246779
1010.012 .0246783
1010.605 .0246787
1011.198 .0246791
1011.791 .0246794
1012.383 .0246797
1012.975 .0246800
1013.566 .0246802
1014.158 .0246803
1014.749 .0246805
1015.340 .0246808
1015.931 .0246812
1016.521 .0246818
1017.111 .0246824
1017.701 .0246832
1018.291 .0246840
1018.880 .0246849
1019.470 .0246859
1020.059 .0246868
1020.647 .0246878
1021.236 .0246888
1021.824 .0246898
1022.412 .0246908
1023.000 .0246918
1023.588 .0246929
1024.175 .0246940
1024.762 .0246951
1025.349 .0246963
1025.936 .0246975
1026.523 .0246988
1027.109 .0247001
1027.695 .0247016
1028.281 .0247033
1028.867 .0247051
1029.452 .0247070
1030.038 .0247092
1030.623 .0247117
1031.208 .0247145
1031.792 .0247176
1032.377 .0247211
1032.961 .0247249
1033.546 .0247290
1034.130 .0247333
1034.714 .0247377
1035.297 .0247421
1035.881 .0247466
1036.464 .0247511
1037.047 .0247556
1037.630 .0247600
1038.213 .0247646
1038.796 .0247691
1039.378 .0247737
1039.961 .0247783
1040.543 .0247829
1041.125 .0247873
1041.707 .0247914
1042.289 .0247953
1042.871 .0247988
1043.452 .0248021
1044.034 .0248050
1044.615 .0248077
1045.196 .0248102
1045.777 .0248122
1046.358 .0248139
1046.939 .0248150
1047.520 .0248155
1048.101 .0248151
1048.681 .0248138
1049.262 .0248116
1049.842 .0248084
1050.422 .0248043
1051.002 .0247995
1051.582 .0247941
1052.162 .0247882
1052.742 .0247819
1053.322 .0247752
1053.902 .0247682
1054.482 .0247609
1055.061 .0247533
1055.641 .0247455
1056.220 .0247376
1056.800 .0247297
1057.379 .0247218
1057.958 .0247142
1058.538 .0247068
1059.117 .0246997
1059.696 .0246927
1060.275 .0246859
1060.854 .0246790
1061.433 .0246721
1062.012 .0246650
1062.592 .0246579
1063.171 .0246507
1063.750 .0246436
1064.329 .0246366
1064.908 .0246298
1065.487 .0246232
1066.066 .0246169
1066.645 .0246109
1067.224 .0246051
1067.803 .0245997
1068.382 .0245945
1068.961 .0245896
1069.540 .0245849
1070.119 .0245803
1070.698 .0245758
1071.278 .0245713
1071.857 .0245668
1072.436 .0245619
1073.016 .0245568
1073.595 .0245514
1074.175 .0245456
1074.754 .0245394
1075.334 .0245328
1075.913 .0245259
1076.493 .0245185
1077.073 .0245108
1077.653 .0245028
1078.233 .0244945
1078.813 .0244861
1079.393 .0244777
1079.974 .0244694
1080.554 .0244613
1081.135 .0244536
1081.716 .0244461
1082.296 .0244391
1082.877 .0244324
1083.458 .0244260
1084.040 .0244199
1084.621 .0244139
1085.202 .0244081
1085.784 .0244025
1086.366 .0243971
1086.948 .0243920
1087.530 .0243871
1088.112 .0243825
1088.695 .0243780
1089.277 .0243738
1089.860 .0243697
1090.443 .0243657
1091.026 .0243619
1091.610 .0243582
1092.193 .0243547
1092.777 .0243514
1093.361 .0243483
1093.946 .0243452
1094.530 .0243421
1095.115 .0243389
1095.700 .0243354
1096.285 .0243313
1096.871 .0243266
1097.456 .0243212
1098.042 .0243150
1098.628 .0243081
1099.215 .0243004
1099.802 .0242920
1100.389 .0242830
1100.976 .0242733
1101.564 .0242631
1102.152 .0242523
1102.740 .0242411
1103.329 .0242295
1103.917 .0242179
1104.507 .0242065
1105.096 .0241957
1105.686 .0241859
1106.276 .0241774
1106.867 .0241706
1107.457 .0241654
1108.049 .0241619
1108.640 .0241602
1109.232 .0241602
1109.825 .0241619
1110.417 .0241653
1111.010 .0241706
1111.604 .0241777
1112.198 .0241868
1112.792 .0241979
1113.387 .0242110
1113.982 .0242259
1114.577 .0242421
1115.173 .0242596
1115.769 .0242778
1116.366 .0242967
1116.963 .0243161
1117.561 .0243360
1118.159 .0243564
1118.758 .0243772
1119.357 .0243987
1119.957 .0244208
1120.557 .0244435
1121.157 .0244668
1121.758 .0244905
1122.360 .0245147
1122.962 .0245389
1123.564 .0245633
1124.167 .0245786
1124.771 .0246025
1125.375 .0246267
1125.980 .0246512
1126.585 .0246761
1127.191 .0247016
1127.797 .0247277
1128.404 .0247542
1129.012 .0247812
1129.620 .0248086
1130.229 .0248362
1130.838 .0248642
1131.448 .0248925
1132.058 .0249216
1132.669 .0249615
1133.281 .0249935
1133.894 .0250275
1134.507 .0250614
1135.120 .0251032
1135.735 .0251401
1136.350 .0251727
1136.965 .0252310
1137.582 .0252838
1138.199 .0253349
1138.816 .0253807
1139.435 .0254232
1140.054 .0254700
1140.674 .0255140
1141.294 .0255506
1141.916 .0256027
1142.538 .0256007
1143.160 .0258136
1143.784 .0256782
1144.408 .0255660
1145.033 .0261702
