Measurement Sequence started on: 14-45-04-498
Integration time: 36
Scans to Average: 2 
>>>>>Begin Spectral Data<<<<<
433.946 .0591387
434.870 .0567173
435.793 .0514997
436.715 .0510393
437.635 .0501193
438.555 .0503075
439.473 .0495173
440.389 .0489741
441.305 .0486826
442.219 .0484514
443.132 .0492343
444.044 .0487559
444.954 .0485450
445.863 .0483504
446.771 .0481956
447.678 .0480219
448.584 .0478808
449.488 .0477594
450.391 .0476451
451.293 .0475352
452.194 .0474261
453.094 .0473156
453.992 .0472025
454.890 .0470856
455.786 .0469648
456.681 .0468398
457.575 .0467108
458.468 .0465788
459.360 .0464451
460.250 .0463111
461.140 .0461778
462.028 .0460475
462.915 .0459213
463.801 .0458002
464.687 .0456847
465.571 .0455749
466.454 .0454700
467.335 .0453695
468.216 .0452725
469.096 .0451784
469.975 .0450867
470.853 .0449969
471.729 .0449087
472.605 .0448223
473.479 .0447375
474.353 .0446543
475.226 .0445728
476.097 .0444930
476.968 .0444147
477.838 .0443375
478.706 .0442611
479.574 .0441852
480.441 .0441093
481.306 .0440334
482.171 .0439571
483.035 .0438806
483.898 .0438037
484.760 .0437267
485.621 .0436500
486.481 .0435738
487.340 .0434987
488.198 .0434250
489.055 .0433530
489.912 .0432828
490.767 .0432142
491.622 .0431147
492.476 .0430480
493.329 .0429813
494.180 .0429146
495.032 .0428484
495.882 .0427828
496.731 .0427183
497.580 .0426554
498.427 .0425944
499.274 .0425357
500.120 .0425108
500.965 .0424555
501.809 .0424023
502.653 .0423512
503.495 .0423019
504.337 .0422546
505.178 .0422093
506.018 .0421659
506.858 .0421242
507.696 .0420845
508.534 .0420468
509.371 .0420113
510.208 .0419780
511.043 .0419470
511.878 .0419179
512.712 .0418906
513.545 .0418647
514.377 .0418401
515.209 .0418166
516.040 .0417943
516.870 .0417736
517.699 .0417544
518.528 .0417369
519.356 .0417212
520.183 .0417067
521.010 .0416932
521.836 .0416800
522.661 .0416662
523.485 .0416510
524.309 .0416346
525.132 .0416169
525.954 .0415983
526.776 .0415792
527.597 .0415601
528.417 .0415409
529.237 .0415222
530.056 .0415032
530.874 .0414829
531.692 .0414603
532.508 .0414342
533.325 .0414031
534.140 .0413663
534.955 .0413232
535.770 .0412738
536.583 .0412182
537.397 .0411571
538.209 .0410910
539.021 .0410208
539.832 .0409473
540.643 .0408709
541.453 .0407915
542.262 .0407089
543.071 .0406223
543.879 .0405317
544.687 .0404369
545.494 .0403379
546.300 .0402350
547.106 .0401293
547.911 .0400221
548.716 .0399150
549.520 .0398096
550.323 .0397076
551.126 .0396100
551.929 .0395175
552.731 .0394303
553.532 .0393485
554.332 .0392719
555.133 .0391999
555.932 .0391321
556.731 .0390684
557.530 .0390084
558.328 .0389523
559.125 .0389001
559.922 .0388522
560.719 .0388083
561.515 .0387680
562.310 .0387311
563.105 .0386969
563.899 .0386648
564.693 .0386338
565.487 .0386033
566.280 .0385729
567.072 .0385420
567.864 .0385102
568.655 .0384775
569.446 .0384438
570.236 .0384088
571.026 .0383725
571.816 .0383349
572.605 .0382961
573.393 .0382562
574.181 .0382154
574.969 .0381740
575.756 .0381324
576.543 .0380909
577.329 .0380498
578.115 .0380096
578.900 .0379702
579.685 .0379317
580.469 .0378941
581.253 .0378575
582.036 .0378219
582.820 .0377871
583.602 .0377533
584.384 .0377206
585.166 .0376889
585.947 .0376584
586.728 .0376292
587.509 .0376012
588.289 .0375744
589.069 .0375488
589.848 .0375240
590.627 .0374998
591.405 .0374759
592.183 .0374521
592.961 .0374282
593.738 .0374044
594.515 .0373806
595.291 .0373572
596.067 .0373344
596.843 .0373126
597.618 .0372919
598.393 .0372647
599.167 .0372470
599.941 .0372303
600.715 .0372143
601.488 .0371988
602.261 .0371837
603.034 .0371688
603.806 .0371542
604.578 .0371400
605.349 .0371263
606.121 .0371132
606.891 .0371079
607.662 .0370955
608.432 .0370839
609.201 .0370730
609.971 .0370627
610.740 .0370530
611.508 .0370435
612.277 .0370342
613.045 .0370249
613.812 .0370155
614.579 .0370061
615.346 .0369965
616.113 .0369867
616.879 .0369768
617.645 .0369668
618.411 .0369565
619.176 .0369460
619.941 .0369352
620.705 .0369240
621.470 .0369124
622.233 .0369003
622.997 .0368878
623.760 .0368748
624.523 .0368615
625.286 .0368479
626.048 .0368342
626.810 .0368204
627.572 .0368065
628.333 .0367925
629.095 .0367783
629.855 .0367639
630.616 .0367493
631.376 .0367344
632.136 .0367192
632.895 .0367037
633.655 .0366879
634.414 .0366717
635.172 .0366553
635.931 .0366386
636.689 .0366216
637.447 .0366044
638.204 .0365869
638.962 .0365692
639.718 .0365512
640.475 .0365329
641.231 .0365144
641.988 .0364957
642.743 .0364768
643.499 .0364577
644.254 .0364385
645.009 .0364192
645.764 .0364000
646.518 .0363808
647.272 .0363619
648.026 .0363431
648.780 .0363245
649.533 .0363061
650.286 .0362877
651.039 .0362695
651.792 .0362513
652.544 .0362333
653.296 .0362154
654.048 .0361978
654.799 .0361806
655.550 .0361638
656.301 .0361476
657.052 .0361319
657.802 .0361167
658.552 .0361019
659.302 .0360873
660.052 .0360728
660.801 .0360583
661.550 .0360435
662.299 .0360284
663.048 .0360129
663.796 .0359969
664.544 .0359805
665.292 .0359636
666.040 .0359464
666.787 .0359289
667.534 .0359112
668.281 .0358933
669.028 .0358753
669.774 .0358570
670.521 .0358385
671.266 .0358198
672.012 .0358008
672.758 .0357815
673.503 .0357620
674.248 .0357422
674.992 .0357222
675.737 .0357020
676.481 .0356818
677.225 .0356616
677.969 .0356415
678.712 .0356214
679.455 .0356014
680.199 .0355815
680.941 .0355617
681.684 .0355418
682.426 .0355220
683.168 .0355022
683.910 .0354824
684.652 .0354626
685.393 .0354428
686.134 .0354232
686.875 .0354038
687.616 .0353848
688.356 .0353662
689.097 .0353482
689.837 .0353306
690.576 .0353135
691.316 .0352967
692.055 .0352803
692.794 .0352640
693.533 .0352479
694.272 .0352318
695.010 .0352157
695.748 .0351997
696.486 .0351837
697.224 .0351678
697.962 .0351521
698.699 .0351366
699.436 .0351212
700.173 .0351060
700.909 .0350909
701.646 .0350758
702.382 .0350606
703.118 .0350453
703.853 .0350296
704.589 .0350136
705.324 .0349972
706.059 .0349805
706.794 .0349634
707.529 .0349461
708.263 .0349286
708.997 .0349110
709.731 .0348932
710.465 .0348755
711.198 .0348576
711.931 .0348396
712.664 .0348214
713.397 .0348031
714.130 .0347846
714.862 .0347658
715.594 .0347469
716.326 .0347279
717.058 .0347088
717.789 .0346898
718.520 .0346707
719.251 .0346518
719.982 .0346330
720.713 .0346142
721.443 .0345955
722.173 .0345768
722.903 .0345582
723.633 .0345396
724.362 .0345211
725.091 .0345026
725.820 .0344844
726.549 .0344663
727.278 .0344486
728.006 .0344312
728.734 .0344143
729.462 .0343977
730.190 .0343816
730.917 .0343659
731.644 .0343507
732.371 .0343360
733.098 .0343218
733.825 .0343081
734.551 .0342949
735.277 .0342821
736.003 .0342698
736.728 .0342578
737.454 .0342463
738.179 .0342352
738.904 .0342244
739.629 .0342140
740.353 .0342037
741.077 .0341937
741.801 .0341837
742.525 .0341739
743.249 .0341639
743.972 .0341540
744.695 .0341439
745.418 .0341337
746.141 .0341233
746.863 .0341129
747.585 .0341023
748.307 .0340916
749.029 .0340806
749.750 .0340694
750.472 .0340578
751.193 .0340460
751.913 .0340339
752.634 .0340215
753.354 .0340091
754.074 .0339966
754.794 .0339841
755.514 .0339716
756.233 .0339593
756.952 .0339471
757.671 .0339350
758.390 .0339230
759.108 .0339111
759.826 .0338993
760.544 .0338876
761.262 .0338760
761.979 .0338646
762.697 .0338533
763.414 .0338421
764.130 .0338308
764.847 .0338196
765.563 .0338083
766.279 .0337970
766.995 .0337857
767.710 .0337743
768.426 .0337630
769.141 .0337516
769.855 .0337401
770.570 .0337284
771.284 .0337165
771.998 .0337044
772.712 .0336921
773.426 .0336795
774.139 .0336668
774.852 .0336541
775.565 .0336414
776.277 .0336287
776.990 .0336161
777.702 .0336035
778.414 .0335911
779.125 .0335787
779.836 .0335663
780.547 .0335540
781.258 .0335417
781.969 .0335295
782.679 .0335174
783.389 .0334995
784.099 .0334874
784.808 .0334753
785.517 .0334632
786.226 .0334510
786.935 .0334388
787.643 .0334265
788.352 .0334141
789.060 .0334016
789.767 .0333890
790.475 .0333763
791.182 .0333635
791.889 .0333562
792.595 .0333429
793.301 .0333293
794.008 .0333154
794.713 .0333009
795.419 .0332861
796.124 .0332708
796.829 .0332551
797.534 .0332390
798.238 .0332225
798.942 .0332057
799.646 .0331886
800.350 .0331712
801.053 .0331536
801.756 .0331358
802.459 .0331178
803.162 .0330999
803.864 .0330821
804.566 .0330643
805.267 .0330468
805.969 .0330296
806.670 .0330127
807.371 .0329962
808.071 .0329802
808.772 .0329647
809.472 .0329498
810.171 .0329355
810.871 .0329218
811.570 .0329087
812.269 .0328962
812.967 .0328842
813.666 .0328728
814.364 .0328617
815.061 .0328510
815.759 .0328407
816.456 .0328305
817.153 .0328206
817.849 .0328109
818.545 .0328011
819.241 .0327914
819.937 .0327816
820.632 .0327715
821.327 .0327611
822.022 .0327503
822.717 .0327389
823.411 .0327269
824.105 .0327143
824.798 .0327010
825.491 .0326871
826.184 .0326725
826.877 .0326574
827.569 .0326418
828.261 .0326257
828.953 .0326093
829.645 .0325925
830.336 .0325756
831.027 .0325587
831.717 .0325418
832.407 .0325250
833.097 .0325085
833.787 .0324924
834.476 .0324766
835.165 .0324613
835.854 .0324464
836.542 .0324319
837.230 .0324178
837.918 .0324042
838.605 .0323909
839.292 .0323780
839.979 .0323655
840.665 .0323534
841.352 .0323417
842.037 .0323303
842.723 .0323192
843.408 .0323081
844.093 .0322971
844.777 .0322859
845.462 .0322744
846.145 .0322627
846.829 .0322505
847.512 .0322380
848.195 .0322251
848.878 .0322118
849.560 .0321981
850.242 .0321837
850.923 .0321688
851.605 .0321531
852.286 .0321366
852.966 .0321193
853.646 .0321011
854.326 .0320822
855.006 .0320625
855.685 .0320422
856.364 .0320212
857.043 .0319998
857.721 .0319780
858.399 .0319558
859.077 .0319334
859.754 .0319107
860.431 .0318879
861.107 .0318650
861.784 .0318422
862.459 .0318197
863.135 .0317973
863.810 .0317753
864.485 .0317537
865.160 .0317324
865.834 .0317116
866.508 .0316912
867.181 .0316712
867.854 .0316517
868.527 .0316328
869.199 .0316144
869.872 .0315965
870.543 .0315793
871.215 .0315627
871.886 .0315467
872.557 .0315313
873.227 .0315164
873.897 .0315019
874.567 .0314878
875.236 .0314741
875.905 .0314605
876.573 .0314472
877.242 .0314341
877.909 .0314210
878.577 .0314080
879.244 .0313952
879.911 .0313824
880.577 .0313696
881.243 .0313569
881.909 .0313441
882.575 .0313313
883.240 .0313184
883.904 .0313054
884.569 .0312924
885.232 .0312794
885.896 .0312665
886.559 .0312538
887.222 .0312412
887.885 .0312289
888.547 .0312168
889.208 .0312052
889.870 .0311939
890.531 .0311831
891.192 .0311728
891.852 .0311630
892.512 .0311537
893.171 .0311449
893.830 .0311366
894.489 .0311288
895.148 .0311213
895.806 .0311142
896.464 .0311073
897.121 .0311007
897.778 .0310943
898.434 .0310882
899.091 .0310800
899.747 .0310743
900.402 .0310687
901.057 .0310632
901.712 .0310576
902.366 .0310520
903.020 .0310462
903.674 .0310402
904.327 .0310340
904.980 .0310275
905.633 .0310207
906.285 .0310136
906.936 .0310061
907.588 .0310010
908.239 .0309927
908.889 .0309840
909.540 .0309746
910.190 .0309646
910.839 .0309540
911.488 .0309427
912.137 .0309309
912.785 .0309184
913.433 .0309054
914.081 .0308918
914.728 .0308777
915.375 .0308631
916.021 .0308479
916.668 .0308323
917.313 .0308163
917.959 .0307998
918.604 .0307830
919.248 .0307659
919.892 .0307485
920.536 .0307310
921.180 .0307132
921.823 .0306952
922.465 .0306769
923.108 .0306585
923.750 .0306397
924.391 .0306206
925.032 .0306012
925.673 .0305814
926.313 .0305613
926.953 .0305409
927.593 .0305201
928.232 .0304991
928.871 .0304777
929.510 .0304561
930.148 .0304343
930.786 .0304121
931.423 .0303897
932.060 .0303670
932.697 .0303440
933.333 .0303208
933.969 .0302974
934.604 .0302738
935.239 .0302501
935.874 .0302264
936.508 .0302026
937.142 .0301788
937.776 .0301551
938.409 .0301316
939.042 .0301081
939.674 .0300848
940.306 .0300616
940.938 .0300385
941.569 .0300156
942.200 .0299929
942.830 .0299703
943.460 .0299480
944.090 .0299259
944.720 .0299041
945.349 .0298826
945.977 .0298614
946.606 .0298405
947.233 .0298198
947.861 .0297993
948.488 .0297790
949.115 .0297588
949.741 .0297388
950.367 .0297190
950.993 .0296993
951.618 .0296798
952.243 .0296604
952.868 .0296411
953.492 .0296220
954.115 .0296030
954.739 .0295842
955.362 .0295655
955.984 .0295468
956.607 .0295283
957.229 .0295098
957.850 .0294915
958.471 .0294733
959.092 .0294554
959.713 .0294377
960.333 .0294205
960.952 .0294037
961.572 .0293875
962.191 .0293717
962.809 .0293565
963.428 .0293417
964.045 .0293275
964.663 .0293138
965.280 .0293005
965.897 .0292877
966.513 .0292754
967.129 .0292636
967.745 .0292523
968.361 .0292414
968.976 .0292309
969.590 .0292209
970.205 .0292111
970.818 .0292017
971.432 .0291926
972.045 .0291838
972.658 .0291754
973.271 .0291673
973.883 .0291595
974.495 .0291521
975.106 .0291452
975.717 .0291387
976.328 .0291326
976.938 .0291270
977.548 .0291218
978.158 .0291169
978.768 .0291114
979.377 .0291074
979.985 .0291037
980.594 .0291002
981.202 .0290971
981.809 .0290943
982.417 .0290920
983.024 .0290901
983.631 .0290887
984.237 .0290878
984.843 .0290873
985.449 .0290872
986.054 .0290875
986.659 .0290883
987.264 .0290897
987.868 .0290909
988.472 .0290926
989.076 .0290946
989.679 .0290970
990.282 .0290998
990.885 .0291029
991.487 .0291064
992.090 .0291100
992.691 .0291137
993.293 .0291174
993.894 .0291209
994.495 .0291241
995.095 .0291271
995.696 .0291297
996.296 .0291319
996.895 .0291338
997.494 .0291353
998.093 .0291365
998.692 .0291374
999.291 .0291378
999.889 .0291379
1000.487 .0291375
1001.084 .0291367
1001.681 .0291355
1002.278 .0291339
1002.875 .0291320
1003.471 .0291297
1004.067 .0291272
1004.663 .0291244
1005.258 .0291214
1005.854 .0291181
1006.449 .0291146
1007.043 .0291108
1007.638 .0291067
1008.232 .0291024
1008.826 .0290979
1009.419 .0290931
1010.012 .0290882
1010.605 .0290832
1011.198 .0290781
1011.791 .0290730
1012.383 .0290679
1012.975 .0290628
1013.566 .0290579
1014.158 .0290531
1014.749 .0290486
1015.340 .0290443
1015.931 .0290403
1016.521 .0290364
1017.111 .0290328
1017.701 .0290292
1018.291 .0290258
1018.880 .0290223
1019.470 .0290188
1020.059 .0290152
1020.647 .0290115
1021.236 .0290076
1021.824 .0290034
1022.412 .0289989
1023.000 .0289941
1023.588 .0289889
1024.175 .0289833
1024.762 .0289773
1025.349 .0289709
1025.936 .0289643
1026.523 .0289574
1027.109 .0289503
1027.695 .0289431
1028.281 .0289359
1028.867 .0289286
1029.452 .0289214
1030.038 .0289142
1030.623 .0289071
1031.208 .0288999
1031.792 .0288928
1032.377 .0288857
1032.961 .0288786
1033.546 .0288715
1034.130 .0288644
1034.714 .0288574
1035.297 .0288504
1035.881 .0288434
1036.464 .0288363
1037.047 .0288292
1037.630 .0288219
1038.213 .0288147
1038.796 .0288073
1039.378 .0287999
1039.961 .0287924
1040.543 .0287850
1041.125 .0287775
1041.707 .0287701
1042.289 .0287625
1042.871 .0287548
1043.452 .0287469
1044.034 .0287388
1044.615 .0287302
1045.196 .0287213
1045.777 .0287118
1046.358 .0287020
1046.939 .0286916
1047.520 .0286808
1048.101 .0286695
1048.681 .0286579
1049.262 .0286458
1049.842 .0286334
1050.422 .0286206
1051.002 .0286076
1051.582 .0285946
1052.162 .0285814
1052.742 .0285684
1053.322 .0285556
1053.902 .0285431
1054.482 .0285310
1055.061 .0285195
1055.641 .0285086
1056.220 .0284983
1056.800 .0284886
1057.379 .0284795
1057.958 .0284710
1058.538 .0284630
1059.117 .0284555
1059.696 .0284484
1060.275 .0284417
1060.854 .0284352
1061.433 .0284292
1062.012 .0284234
1062.592 .0284180
1063.171 .0284128
1063.750 .0284080
1064.329 .0284033
1064.908 .0283990
1065.487 .0283949
1066.066 .0283911
1066.645 .0283876
1067.224 .0283845
1067.803 .0283818
1068.382 .0283795
1068.961 .0283775
1069.540 .0283758
1070.119 .0283745
1070.698 .0283733
1071.278 .0283722
1071.857 .0283709
1072.436 .0283696
1073.016 .0283679
1073.595 .0283658
1074.175 .0283633
1074.754 .0283604
1075.334 .0283571
1075.913 .0283533
1076.493 .0283493
1077.073 .0283451
1077.653 .0283408
1078.233 .0283366
1078.813 .0283326
1079.393 .0283288
1079.974 .0283255
1080.554 .0283224
1081.135 .0283197
1081.716 .0283174
1082.296 .0283154
1082.877 .0283135
1083.458 .0283120
1084.040 .0283108
1084.621 .0283099
1085.202 .0283095
1085.784 .0283094
1086.366 .0283098
1086.948 .0283105
1087.530 .0283113
1088.112 .0283123
1088.695 .0283133
1089.277 .0283143
1089.860 .0283154
1090.443 .0283165
1091.026 .0283179
1091.610 .0283196
1092.193 .0283217
1092.777 .0283243
1093.361 .0283274
1093.946 .0283307
1094.530 .0283341
1095.115 .0283373
1095.700 .0283402
1096.285 .0283426
1096.871 .0283445
1097.456 .0283460
1098.042 .0283474
1098.628 .0283487
1099.215 .0283501
1099.802 .0283520
1100.389 .0283542
1100.976 .0283566
1101.564 .0283592
1102.152 .0283618
1102.740 .0283643
1103.329 .0283665
1103.917 .0283684
1104.507 .0283702
1105.096 .0283721
1105.686 .0283741
1106.276 .0283765
1106.867 .0283794
1107.457 .0283830
1108.049 .0283871
1108.640 .0283918
1109.232 .0283970
1109.825 .0284027
1110.417 .0284091
1111.010 .0284162
1111.604 .0284241
1112.198 .0284332
1112.792 .0284437
1113.387 .0284560
1113.982 .0284702
1114.577 .0284864
1115.173 .0285045
1115.769 .0285246
1116.366 .0285465
1116.963 .0285698
1117.561 .0285945
1118.159 .0286206
1118.758 .0286478
1119.357 .0286760
1119.957 .0287053
1120.557 .0287356
1121.157 .0287672
1121.758 .0287999
1122.360 .0288337
1122.962 .0288685
1123.564 .0289041
1124.167 .0289196
1124.771 .0289565
1125.375 .0289938
1125.980 .0290314
1126.585 .0290692
1127.191 .0291071
1127.797 .0291451
1128.404 .0291833
1129.012 .0292215
1129.620 .0292597
1130.229 .0292980
1130.838 .0293359
1131.448 .0293734
1132.058 .0294104
1132.669 .0294674
1133.281 .0295030
1133.894 .0295391
1134.507 .0295736
1135.120 .0296099
1135.735 .0296432
1136.350 .0296897
1136.965 .0296805
1137.582 .0297061
1138.199 .0297331
1138.816 .0297586
1139.435 .0297880
1140.054 .0298218
1140.674 .0298593
1141.294 .0299126
1141.916 .0299825
1142.538 .0299942
1143.160 .0300967
1143.784 .0300614
1144.408 .0304643
1145.033 .0307302
