Measurement Sequence started on: 14-45-04-498
Integration time: 36
Scans to Average: 2 
>>>>>Begin Spectral Data<<<<<
433.946 .0441279
434.870 .0426151
435.793 .0404424
436.715 .0396223
437.635 .0395943
438.555 .0395941
439.473 .0391388
440.389 .0387920
441.305 .0385510
442.219 .0383573
443.132 .0387223
444.044 .0384559
444.954 .0383009
445.863 .0381865
446.771 .0380714
447.678 .0379542
448.584 .0378588
449.488 .0377793
450.391 .0377098
451.293 .0376474
452.194 .0375902
453.094 .0375361
453.992 .0374836
454.890 .0374310
455.786 .0373787
456.681 .0373268
457.575 .0372765
458.468 .0372283
459.360 .0371826
460.250 .0371392
461.140 .0370980
462.028 .0370581
462.915 .0370190
463.801 .0369804
464.687 .0369421
465.571 .0369043
466.454 .0368671
467.335 .0368307
468.216 .0367955
469.096 .0367614
469.975 .0367282
470.853 .0366951
471.729 .0366624
472.605 .0366296
473.479 .0365968
474.353 .0365641
475.226 .0365316
476.097 .0364999
476.968 .0364691
477.838 .0364392
478.706 .0364102
479.574 .0363822
480.441 .0363550
481.306 .0363284
482.171 .0363025
483.035 .0362772
483.898 .0362527
484.760 .0362291
485.621 .0362066
486.481 .0361852
487.340 .0361650
488.198 .0361458
489.055 .0361272
489.912 .0361091
490.767 .0360910
491.622 .0360624
492.476 .0360432
493.329 .0360236
494.180 .0360035
495.032 .0359830
495.882 .0359622
496.731 .0359411
497.580 .0359197
498.427 .0358977
499.274 .0358750
500.120 .0358619
500.965 .0358371
501.809 .0358109
502.653 .0357831
503.495 .0357535
504.337 .0357225
505.178 .0356901
506.018 .0356570
506.858 .0356233
507.696 .0355894
508.534 .0355559
509.371 .0355230
510.208 .0354907
511.043 .0354592
511.878 .0354281
512.712 .0353974
513.545 .0353667
514.377 .0353355
515.209 .0353036
516.040 .0352709
516.870 .0352376
517.699 .0352033
518.528 .0351680
519.356 .0351317
520.183 .0350940
521.010 .0350551
521.836 .0350141
522.661 .0349708
523.485 .0349246
524.309 .0348753
525.132 .0348229
525.954 .0347672
526.776 .0347088
527.597 .0346482
528.417 .0345858
529.237 .0345225
530.056 .0344585
530.874 .0343947
531.692 .0343316
532.508 .0342696
533.325 .0342092
534.140 .0341506
534.955 .0340942
535.770 .0340409
536.583 .0339910
537.397 .0339453
538.209 .0339043
539.021 .0338689
539.832 .0338398
540.643 .0338170
541.453 .0338008
542.262 .0337909
543.071 .0337870
543.879 .0337883
544.687 .0337934
545.494 .0338015
546.300 .0338115
547.106 .0338228
547.911 .0338346
548.716 .0338465
549.520 .0338581
550.323 .0338691
551.126 .0338791
551.929 .0338879
552.731 .0338949
553.532 .0338999
554.332 .0339023
555.133 .0339020
555.932 .0338988
556.731 .0338924
557.530 .0338826
558.328 .0338695
559.125 .0338531
559.922 .0338333
560.719 .0338101
561.515 .0337842
562.310 .0337560
563.105 .0337261
563.899 .0336946
564.693 .0336622
565.487 .0336291
566.280 .0335958
567.072 .0335625
567.864 .0335294
568.655 .0334965
569.446 .0334643
570.236 .0334329
571.026 .0334025
571.816 .0333732
572.605 .0333451
573.393 .0333182
574.181 .0332928
574.969 .0332686
575.756 .0332457
576.543 .0332242
577.329 .0332042
578.115 .0331856
578.900 .0331684
579.685 .0331526
580.469 .0331382
581.253 .0331254
582.036 .0331142
582.820 .0331044
583.602 .0330960
584.384 .0330888
585.166 .0330828
585.947 .0330778
586.728 .0330735
587.509 .0330697
588.289 .0330662
589.069 .0330629
589.848 .0330595
590.627 .0330558
591.405 .0330517
592.183 .0330472
592.961 .0330422
593.738 .0330365
594.515 .0330303
595.291 .0330234
596.067 .0330158
596.843 .0330075
597.618 .0329985
598.393 .0329828
599.167 .0329725
599.941 .0329617
600.715 .0329506
601.488 .0329393
602.261 .0329278
603.034 .0329162
603.806 .0329047
604.578 .0328932
605.349 .0328818
606.121 .0328704
606.891 .0328652
607.662 .0328542
608.432 .0328433
609.201 .0328325
609.971 .0328219
610.740 .0328116
611.508 .0328015
612.277 .0327919
613.045 .0327826
613.812 .0327736
614.579 .0327650
615.346 .0327567
616.113 .0327486
616.879 .0327407
617.645 .0327330
618.411 .0327253
619.176 .0327177
619.941 .0327099
620.705 .0327021
621.470 .0326940
622.233 .0326857
622.997 .0326771
623.760 .0326683
624.523 .0326592
625.286 .0326499
626.048 .0326403
626.810 .0326307
627.572 .0326208
628.333 .0326108
629.095 .0326007
629.855 .0325904
630.616 .0325799
631.376 .0325693
632.136 .0325585
632.895 .0325478
633.655 .0325371
634.414 .0325266
635.172 .0325164
635.931 .0325065
636.689 .0324969
637.447 .0324876
638.204 .0324786
638.962 .0324698
639.718 .0324612
640.475 .0324526
641.231 .0324442
641.988 .0324358
642.743 .0324275
643.499 .0324193
644.254 .0324111
645.009 .0324030
645.764 .0323948
646.518 .0323867
647.272 .0323785
648.026 .0323703
648.780 .0323619
649.533 .0323535
650.286 .0323448
651.039 .0323360
651.792 .0323270
652.544 .0323179
653.296 .0323087
654.048 .0322995
654.799 .0322903
655.550 .0322811
656.301 .0322721
657.052 .0322632
657.802 .0322544
658.552 .0322457
659.302 .0322370
660.052 .0322283
660.801 .0322195
661.550 .0322106
662.299 .0322015
663.048 .0321924
663.796 .0321832
664.544 .0321741
665.292 .0321649
666.040 .0321558
666.787 .0321467
667.534 .0321376
668.281 .0321285
669.028 .0321193
669.774 .0321100
670.521 .0321007
671.266 .0320913
672.012 .0320820
672.758 .0320726
673.503 .0320632
674.248 .0320538
674.992 .0320444
675.737 .0320350
676.481 .0320255
677.225 .0320159
677.969 .0320062
678.712 .0319964
679.455 .0319864
680.199 .0319763
680.941 .0319661
681.684 .0319557
682.426 .0319452
683.168 .0319345
683.910 .0319235
684.652 .0319123
685.393 .0319009
686.134 .0318892
686.875 .0318773
687.616 .0318652
688.356 .0318529
689.097 .0318405
689.837 .0318280
690.576 .0318153
691.316 .0318025
692.055 .0317895
692.794 .0317765
693.533 .0317634
694.272 .0317504
695.010 .0317375
695.748 .0317248
696.486 .0317124
697.224 .0317001
697.962 .0316881
698.699 .0316763
699.436 .0316647
700.173 .0316532
700.909 .0316420
701.646 .0316308
702.382 .0316198
703.118 .0316088
703.853 .0315979
704.589 .0315868
705.324 .0315756
706.059 .0315642
706.794 .0315526
707.529 .0315406
708.263 .0315284
708.997 .0315159
709.731 .0315031
710.465 .0314901
711.198 .0314769
711.931 .0314634
712.664 .0314496
713.397 .0314355
714.130 .0314212
714.862 .0314066
715.594 .0313919
716.326 .0313769
717.058 .0313618
717.789 .0313466
718.520 .0313312
719.251 .0313158
719.982 .0313002
720.713 .0312844
721.443 .0312685
722.173 .0312524
722.903 .0312362
723.633 .0312198
724.362 .0312034
725.091 .0311870
725.820 .0311705
726.549 .0311540
727.278 .0311374
728.006 .0311206
728.734 .0311037
729.462 .0310867
730.190 .0310695
730.917 .0310522
731.644 .0310347
732.371 .0310171
733.098 .0309995
733.825 .0309819
734.551 .0309644
735.277 .0309471
736.003 .0309299
736.728 .0309129
737.454 .0308960
738.179 .0308793
738.904 .0308628
739.629 .0308465
740.353 .0308305
741.077 .0308147
741.801 .0307991
742.525 .0307838
743.249 .0307687
743.972 .0307537
744.695 .0307390
745.418 .0307243
746.141 .0307097
746.863 .0306951
747.585 .0306804
748.307 .0306655
749.029 .0306503
749.750 .0306348
750.472 .0306188
751.193 .0306024
751.913 .0305856
752.634 .0305684
753.354 .0305508
754.074 .0305331
754.794 .0305152
755.514 .0304972
756.233 .0304791
756.952 .0304610
757.671 .0304427
758.390 .0304245
759.108 .0304061
759.826 .0303877
760.544 .0303694
761.262 .0303512
761.979 .0303331
762.697 .0303154
763.414 .0302979
764.130 .0302807
764.847 .0302637
765.563 .0302468
766.279 .0302300
766.995 .0302134
767.710 .0301967
768.426 .0301802
769.141 .0301636
769.855 .0301470
770.570 .0301303
771.284 .0301135
771.998 .0300966
772.712 .0300795
773.426 .0300622
774.139 .0300447
774.852 .0300271
775.565 .0300095
776.277 .0299918
776.990 .0299740
777.702 .0299562
778.414 .0299383
779.125 .0299203
779.836 .0299023
780.547 .0298842
781.258 .0298661
781.969 .0298481
782.679 .0298303
783.389 .0298038
784.099 .0297861
784.808 .0297684
785.517 .0297507
786.226 .0297329
786.935 .0297150
787.643 .0296969
788.352 .0296787
789.060 .0296604
789.767 .0296419
790.475 .0296234
791.182 .0296047
791.889 .0295947
792.595 .0295757
793.301 .0295564
794.008 .0295368
794.713 .0295169
795.419 .0294966
796.124 .0294760
796.829 .0294551
797.534 .0294338
798.238 .0294123
798.942 .0293905
799.646 .0293685
800.350 .0293462
801.053 .0293239
801.756 .0293014
802.459 .0292789
803.162 .0292563
803.864 .0292337
804.566 .0292111
805.267 .0291884
805.969 .0291657
806.670 .0291429
807.371 .0291201
808.071 .0290974
808.772 .0290747
809.472 .0290521
810.171 .0290297
810.871 .0290073
811.570 .0289851
812.269 .0289629
812.967 .0289409
813.666 .0289188
814.364 .0288969
815.061 .0288749
815.759 .0288530
816.456 .0288311
817.153 .0288091
817.849 .0287869
818.545 .0287646
819.241 .0287420
819.937 .0287192
820.632 .0286961
821.327 .0286728
822.022 .0286493
822.717 .0286256
823.411 .0286017
824.105 .0285777
824.798 .0285535
825.491 .0285293
826.184 .0285049
826.877 .0284805
827.569 .0284560
828.261 .0284316
828.953 .0284074
829.645 .0283835
830.336 .0283599
831.027 .0283366
831.717 .0283138
832.407 .0282915
833.097 .0282697
833.787 .0282484
834.476 .0282276
835.165 .0282074
835.854 .0281877
836.542 .0281684
837.230 .0281496
837.918 .0281311
838.605 .0281130
839.292 .0280950
839.979 .0280773
840.665 .0280596
841.352 .0280421
842.037 .0280246
842.723 .0280071
843.408 .0279896
844.093 .0279719
844.777 .0279540
845.462 .0279358
846.145 .0279173
846.829 .0278983
847.512 .0278790
848.195 .0278592
848.878 .0278391
849.560 .0278186
850.242 .0277978
850.923 .0277767
851.605 .0277555
852.286 .0277341
852.966 .0277125
853.646 .0276909
854.326 .0276692
855.006 .0276474
855.685 .0276257
856.364 .0276040
857.043 .0275825
857.721 .0275613
858.399 .0275403
859.077 .0275197
859.754 .0274995
860.431 .0274796
861.107 .0274602
861.784 .0274411
862.459 .0274225
863.135 .0274042
863.810 .0273863
864.485 .0273687
865.160 .0273513
865.834 .0273342
866.508 .0273173
867.181 .0273006
867.854 .0272839
868.527 .0272673
869.199 .0272507
869.872 .0272342
870.543 .0272176
871.215 .0272011
871.886 .0271847
872.557 .0271682
873.227 .0271518
873.897 .0271354
874.567 .0271189
875.236 .0271023
875.905 .0270856
876.573 .0270687
877.242 .0270516
877.909 .0270344
878.577 .0270171
879.244 .0269998
879.911 .0269826
880.577 .0269653
881.243 .0269482
881.909 .0269311
882.575 .0269140
883.240 .0268970
883.904 .0268800
884.569 .0268631
885.232 .0268462
885.896 .0268294
886.559 .0268127
887.222 .0267962
887.885 .0267800
888.547 .0267639
889.208 .0267481
889.870 .0267325
890.531 .0267171
891.192 .0267020
891.852 .0266870
892.512 .0266723
893.171 .0266576
893.830 .0266431
894.489 .0266287
895.148 .0266144
895.806 .0266000
896.464 .0265856
897.121 .0265712
897.778 .0265568
898.434 .0265424
899.091 .0265204
899.747 .0265059
900.402 .0264913
901.057 .0264767
901.712 .0264620
902.366 .0264472
903.020 .0264322
903.674 .0264171
904.327 .0264018
904.980 .0263863
905.633 .0263705
906.285 .0263544
906.936 .0263379
907.588 .0263290
908.239 .0263120
908.889 .0262948
909.540 .0262773
910.190 .0262595
910.839 .0262416
911.488 .0262235
912.137 .0262053
912.785 .0261870
913.433 .0261685
914.081 .0261500
914.728 .0261313
915.375 .0261126
916.021 .0260938
916.668 .0260750
917.313 .0260563
917.959 .0260376
918.604 .0260190
919.248 .0260006
919.892 .0259823
920.536 .0259642
921.180 .0259462
921.823 .0259284
922.465 .0259108
923.108 .0258933
923.750 .0258759
924.391 .0258587
925.032 .0258416
925.673 .0258247
926.313 .0258080
926.953 .0257914
927.593 .0257749
928.232 .0257586
928.871 .0257424
929.510 .0257263
930.148 .0257103
930.786 .0256944
931.423 .0256785
932.060 .0256625
932.697 .0256466
933.333 .0256306
933.969 .0256146
934.604 .0255985
935.239 .0255823
935.874 .0255659
936.508 .0255494
937.142 .0255326
937.776 .0255155
938.409 .0254981
939.042 .0254805
939.674 .0254626
940.306 .0254445
940.938 .0254261
941.569 .0254075
942.200 .0253888
942.830 .0253698
943.460 .0253507
944.090 .0253315
944.720 .0253122
945.349 .0252928
945.977 .0252735
946.606 .0252542
947.233 .0252350
947.861 .0252160
948.488 .0251972
949.115 .0251786
949.741 .0251603
950.367 .0251422
950.993 .0251243
951.618 .0251068
952.243 .0250894
952.868 .0250724
953.492 .0250556
954.115 .0250392
954.739 .0250231
955.362 .0250073
955.984 .0249920
956.607 .0249770
957.229 .0249623
957.850 .0249481
958.471 .0249343
959.092 .0249209
959.713 .0249078
960.333 .0248952
960.952 .0248828
961.572 .0248709
962.191 .0248592
962.809 .0248479
963.428 .0248368
964.045 .0248259
964.663 .0248152
965.280 .0248047
965.897 .0247944
966.513 .0247842
967.129 .0247741
967.745 .0247642
968.361 .0247543
968.976 .0247446
969.590 .0247351
970.205 .0247258
970.818 .0247167
971.432 .0247079
972.045 .0246993
972.658 .0246910
973.271 .0246830
973.883 .0246753
974.495 .0246679
975.106 .0246610
975.717 .0246544
976.328 .0246483
976.938 .0246427
977.548 .0246375
978.158 .0246326
978.768 .0246264
979.377 .0246219
979.985 .0246175
980.594 .0246131
981.202 .0246088
981.809 .0246047
982.417 .0246008
983.024 .0245970
983.631 .0245935
984.237 .0245901
984.843 .0245869
985.449 .0245836
986.054 .0245802
986.659 .0245766
987.264 .0245743
987.868 .0245704
988.472 .0245663
989.076 .0245621
989.679 .0245579
990.282 .0245537
990.885 .0245495
991.487 .0245452
992.090 .0245408
992.691 .0245363
993.293 .0245317
993.894 .0245269
994.495 .0245220
995.095 .0245169
995.696 .0245118
996.296 .0245067
996.895 .0245016
997.494 .0244966
998.093 .0244917
998.692 .0244869
999.291 .0244821
999.889 .0244773
1000.487 .0244724
1001.084 .0244675
1001.681 .0244627
1002.278 .0244578
1002.875 .0244530
1003.471 .0244482
1004.067 .0244434
1004.663 .0244386
1005.258 .0244337
1005.854 .0244287
1006.449 .0244236
1007.043 .0244183
1007.638 .0244129
1008.232 .0244072
1008.826 .0244014
1009.419 .0243954
1010.012 .0243892
1010.605 .0243827
1011.198 .0243760
1011.791 .0243691
1012.383 .0243618
1012.975 .0243543
1013.566 .0243466
1014.158 .0243386
1014.749 .0243305
1015.340 .0243222
1015.931 .0243138
1016.521 .0243053
1017.111 .0242967
1017.701 .0242880
1018.291 .0242793
1018.880 .0242705
1019.470 .0242618
1020.059 .0242533
1020.647 .0242451
1021.236 .0242372
1021.824 .0242297
1022.412 .0242225
1023.000 .0242158
1023.588 .0242094
1024.175 .0242033
1024.762 .0241975
1025.349 .0241921
1025.936 .0241869
1026.523 .0241820
1027.109 .0241776
1027.695 .0241735
1028.281 .0241698
1028.867 .0241665
1029.452 .0241635
1030.038 .0241607
1030.623 .0241580
1031.208 .0241554
1031.792 .0241529
1032.377 .0241504
1032.961 .0241480
1033.546 .0241456
1034.130 .0241434
1034.714 .0241414
1035.297 .0241395
1035.881 .0241378
1036.464 .0241363
1037.047 .0241348
1037.630 .0241334
1038.213 .0241321
1038.796 .0241307
1039.378 .0241293
1039.961 .0241279
1040.543 .0241264
1041.125 .0241248
1041.707 .0241230
1042.289 .0241211
1042.871 .0241190
1043.452 .0241166
1044.034 .0241139
1044.615 .0241110
1045.196 .0241080
1045.777 .0241048
1046.358 .0241015
1046.939 .0240984
1047.520 .0240953
1048.101 .0240924
1048.681 .0240898
1049.262 .0240874
1049.842 .0240853
1050.422 .0240834
1051.002 .0240816
1051.582 .0240799
1052.162 .0240783
1052.742 .0240766
1053.322 .0240750
1053.902 .0240732
1054.482 .0240714
1055.061 .0240695
1055.641 .0240675
1056.220 .0240655
1056.800 .0240634
1057.379 .0240612
1057.958 .0240589
1058.538 .0240565
1059.117 .0240539
1059.696 .0240512
1060.275 .0240485
1060.854 .0240457
1061.433 .0240430
1062.012 .0240403
1062.592 .0240377
1063.171 .0240353
1063.750 .0240329
1064.329 .0240305
1064.908 .0240281
1065.487 .0240256
1066.066 .0240228
1066.645 .0240199
1067.224 .0240167
1067.803 .0240133
1068.382 .0240097
1068.961 .0240058
1069.540 .0240016
1070.119 .0239972
1070.698 .0239926
1071.278 .0239879
1071.857 .0239830
1072.436 .0239781
1073.016 .0239731
1073.595 .0239681
1074.175 .0239631
1074.754 .0239582
1075.334 .0239534
1075.913 .0239486
1076.493 .0239439
1077.073 .0239393
1077.653 .0239346
1078.233 .0239299
1078.813 .0239254
1079.393 .0239209
1079.974 .0239165
1080.554 .0239122
1081.135 .0239081
1081.716 .0239042
1082.296 .0239006
1082.877 .0238971
1083.458 .0238938
1084.040 .0238907
1084.621 .0238879
1085.202 .0238855
1085.784 .0238836
1086.366 .0238824
1086.948 .0238819
1087.530 .0238823
1088.112 .0238835
1088.695 .0238856
1089.277 .0238885
1089.860 .0238921
1090.443 .0238966
1091.026 .0239017
1091.610 .0239075
1092.193 .0239138
1092.777 .0239207
1093.361 .0239281
1093.946 .0239359
1094.530 .0239439
1095.115 .0239520
1095.700 .0239599
1096.285 .0239673
1096.871 .0239742
1097.456 .0239804
1098.042 .0239861
1098.628 .0239912
1099.215 .0239959
1099.802 .0240005
1100.389 .0240049
1100.976 .0240094
1101.564 .0240139
1102.152 .0240183
1102.740 .0240225
1103.329 .0240262
1103.917 .0240294
1104.507 .0240322
1105.096 .0240345
1105.686 .0240365
1106.276 .0240384
1106.867 .0240405
1107.457 .0240428
1108.049 .0240452
1108.640 .0240480
1109.232 .0240509
1109.825 .0240538
1110.417 .0240568
1111.010 .0240598
1111.604 .0240630
1112.198 .0240666
1112.792 .0240708
1113.387 .0240761
1113.982 .0240827
1114.577 .0240906
1115.173 .0240999
1115.769 .0241105
1116.366 .0241220
1116.963 .0241343
1117.561 .0241473
1118.159 .0241610
1118.758 .0241753
1119.357 .0241905
1119.957 .0242068
1120.557 .0242243
1121.157 .0242433
1121.758 .0242637
1122.360 .0242855
1122.962 .0243086
1123.564 .0243327
1124.167 .0243418
1124.771 .0243667
1125.375 .0243924
1125.980 .0244190
1126.585 .0244465
1127.191 .0244752
1127.797 .0245052
1128.404 .0245366
1129.012 .0245693
1129.620 .0246033
1130.229 .0246384
1130.838 .0246744
1131.448 .0247109
1132.058 .0247477
1132.669 .0248021
1133.281 .0248398
1133.894 .0248776
1134.507 .0249152
1135.120 .0249523
1135.735 .0249901
1136.350 .0250273
1136.965 .0251003
1137.582 .0251444
1138.199 .0251879
1138.816 .0252295
1139.435 .0252684
1140.054 .0253005
1140.674 .0253288
1141.294 .0253532
1141.916 .0253739
1142.538 .0253880
1143.160 .0253979
1143.784 .0254391
1144.408 .0254511
1145.033 .0254628
