Measurement Sequence started on: 14-45-04-498
Integration time: 36
Scans to Average: 2 
>>>>>Begin Spectral Data<<<<<
433.946 .0537138
434.870 .0477221
435.793 .0425131
436.715 .0437288
437.635 .0443560
438.555 .0445100
439.473 .0440588
440.389 .0438691
441.305 .0438095
442.219 .0436883
443.132 .0437662
444.044 .0435269
444.954 .0435589
445.863 .0435233
446.771 .0434511
447.678 .0433667
448.584 .0433016
449.488 .0432422
450.391 .0431817
451.293 .0431236
452.194 .0430683
453.094 .0430144
453.992 .0429600
454.890 .0429032
455.786 .0428427
456.681 .0427770
457.575 .0427057
458.468 .0426293
459.360 .0425485
460.250 .0424644
461.140 .0423779
462.028 .0422902
462.915 .0422024
463.801 .0421149
464.687 .0420282
465.571 .0419422
466.454 .0418565
467.335 .0417708
468.216 .0416849
469.096 .0415989
469.975 .0415132
470.853 .0414288
471.729 .0413465
472.605 .0412674
473.479 .0411920
474.353 .0411208
475.226 .0410538
476.097 .0409910
476.968 .0409317
477.838 .0408755
478.706 .0408217
479.574 .0407700
480.441 .0407202
481.306 .0406724
482.171 .0406270
483.035 .0405843
483.898 .0405445
484.760 .0405075
485.621 .0404728
486.481 .0404402
487.340 .0404086
488.198 .0403774
489.055 .0403458
489.912 .0403133
490.767 .0402796
491.622 .0402240
492.476 .0401878
493.329 .0401513
494.180 .0401149
495.032 .0400790
495.882 .0400439
496.731 .0400094
497.580 .0399754
498.427 .0399416
499.274 .0399077
500.120 .0398928
500.965 .0398590
501.809 .0398252
502.653 .0397918
503.495 .0397592
504.337 .0397277
505.178 .0396979
506.018 .0396700
506.858 .0396438
507.696 .0396193
508.534 .0395965
509.371 .0395747
510.208 .0395534
511.043 .0395322
511.878 .0395109
512.712 .0394891
513.545 .0394667
514.377 .0394434
515.209 .0394192
516.040 .0393942
516.870 .0393683
517.699 .0393413
518.528 .0393129
519.356 .0392829
520.183 .0392504
521.010 .0392150
521.836 .0391765
522.661 .0391342
523.485 .0390884
524.309 .0390394
525.132 .0389878
525.954 .0389341
526.776 .0388794
527.597 .0388245
528.417 .0387700
529.237 .0387166
530.056 .0386645
530.874 .0386141
531.692 .0385653
532.508 .0385181
533.325 .0384724
534.140 .0384287
534.955 .0383874
535.770 .0383486
536.583 .0383126
537.397 .0382799
538.209 .0382504
539.021 .0382241
539.832 .0382011
540.643 .0381812
541.453 .0381641
542.262 .0381492
543.071 .0381362
543.879 .0381242
544.687 .0381126
545.494 .0381007
546.300 .0380878
547.106 .0380731
547.911 .0380559
548.716 .0380356
549.520 .0380121
550.323 .0379852
551.126 .0379546
551.929 .0379206
552.731 .0378836
553.532 .0378440
554.332 .0378021
555.133 .0377586
555.932 .0377142
556.731 .0376696
557.530 .0376248
558.328 .0375800
559.125 .0375354
559.922 .0374912
560.719 .0374475
561.515 .0374045
562.310 .0373625
563.105 .0373219
563.899 .0372831
564.693 .0372465
565.487 .0372127
566.280 .0371819
567.072 .0371543
567.864 .0371297
568.655 .0371074
569.446 .0370871
570.236 .0370679
571.026 .0370493
571.816 .0370306
572.605 .0370114
573.393 .0369914
574.181 .0369704
574.969 .0369487
575.756 .0369261
576.543 .0369028
577.329 .0368787
578.115 .0368538
578.900 .0368277
579.685 .0368005
580.469 .0367720
581.253 .0367423
582.036 .0367115
582.820 .0366797
583.602 .0366469
584.384 .0366137
585.166 .0365805
585.947 .0365476
586.728 .0365153
587.509 .0364839
588.289 .0364535
589.069 .0364244
589.848 .0363964
590.627 .0363693
591.405 .0363430
592.183 .0363174
592.961 .0362920
593.738 .0362668
594.515 .0362419
595.291 .0362175
596.067 .0361935
596.843 .0361703
597.618 .0361480
598.393 .0361179
599.167 .0360984
599.941 .0360800
600.715 .0360626
601.488 .0360462
602.261 .0360306
603.034 .0360159
603.806 .0360022
604.578 .0359893
605.349 .0359774
606.121 .0359664
606.891 .0359635
607.662 .0359536
608.432 .0359445
609.201 .0359359
609.971 .0359279
610.740 .0359204
611.508 .0359131
612.277 .0359059
613.045 .0358986
613.812 .0358910
614.579 .0358830
615.346 .0358744
616.113 .0358650
616.879 .0358549
617.645 .0358439
618.411 .0358320
619.176 .0358190
619.941 .0358050
620.705 .0357898
621.470 .0357735
622.233 .0357560
622.997 .0357373
623.760 .0357174
624.523 .0356965
625.286 .0356747
626.048 .0356521
626.810 .0356288
627.572 .0356050
628.333 .0355806
629.095 .0355558
629.855 .0355306
630.616 .0355051
631.376 .0354794
632.136 .0354536
632.895 .0354279
633.655 .0354024
634.414 .0353772
635.172 .0353523
635.931 .0353278
636.689 .0353037
637.447 .0352799
638.204 .0352567
638.962 .0352339
639.718 .0352116
640.475 .0351899
641.231 .0351689
641.988 .0351485
642.743 .0351288
643.499 .0351097
644.254 .0350912
645.009 .0350733
645.764 .0350560
646.518 .0350392
647.272 .0350231
648.026 .0350075
648.780 .0349924
649.533 .0349778
650.286 .0349637
651.039 .0349500
651.792 .0349367
652.544 .0349238
653.296 .0349112
654.048 .0348990
654.799 .0348872
655.550 .0348758
656.301 .0348647
657.052 .0348540
657.802 .0348436
658.552 .0348334
659.302 .0348233
660.052 .0348133
660.801 .0348033
661.550 .0347931
662.299 .0347829
663.048 .0347723
663.796 .0347615
664.544 .0347504
665.292 .0347390
666.040 .0347271
666.787 .0347148
667.534 .0347019
668.281 .0346886
669.028 .0346748
669.774 .0346605
670.521 .0346457
671.266 .0346305
672.012 .0346150
672.758 .0345990
673.503 .0345827
674.248 .0345661
674.992 .0345492
675.737 .0345320
676.481 .0345144
677.225 .0344966
677.969 .0344785
678.712 .0344602
679.455 .0344418
680.199 .0344233
680.941 .0344049
681.684 .0343864
682.426 .0343680
683.168 .0343498
683.910 .0343317
684.652 .0343139
685.393 .0342963
686.134 .0342789
686.875 .0342619
687.616 .0342453
688.356 .0342291
689.097 .0342134
689.837 .0341984
690.576 .0341838
691.316 .0341699
692.055 .0341565
692.794 .0341437
693.533 .0341314
694.272 .0341196
695.010 .0341084
695.748 .0340976
696.486 .0340874
697.224 .0340776
697.962 .0340683
698.699 .0340594
699.436 .0340508
700.173 .0340426
700.909 .0340346
701.646 .0340268
702.382 .0340190
703.118 .0340112
703.853 .0340033
704.589 .0339951
705.324 .0339866
706.059 .0339778
706.794 .0339684
707.529 .0339586
708.263 .0339481
708.997 .0339371
709.731 .0339256
710.465 .0339135
711.198 .0339009
711.931 .0338878
712.664 .0338742
713.397 .0338601
714.130 .0338454
714.862 .0338302
715.594 .0338145
716.326 .0337983
717.058 .0337817
717.789 .0337646
718.520 .0337473
719.251 .0337296
719.982 .0337117
720.713 .0336935
721.443 .0336749
722.173 .0336561
722.903 .0336370
723.633 .0336176
724.362 .0335981
725.091 .0335784
725.820 .0335588
726.549 .0335391
727.278 .0335196
728.006 .0335001
728.734 .0334808
729.462 .0334617
730.190 .0334428
730.917 .0334242
731.644 .0334059
732.371 .0333880
733.098 .0333704
733.825 .0333533
734.551 .0333365
735.277 .0333200
736.003 .0333039
736.728 .0332882
737.454 .0332727
738.179 .0332576
738.904 .0332429
739.629 .0332285
740.353 .0332146
741.077 .0332010
741.801 .0331878
742.525 .0331748
743.249 .0331620
743.972 .0331495
744.695 .0331373
745.418 .0331254
746.141 .0331138
746.863 .0331026
747.585 .0330917
748.307 .0330812
749.029 .0330710
749.750 .0330611
750.472 .0330514
751.193 .0330420
751.913 .0330327
752.634 .0330238
753.354 .0330152
754.074 .0330070
754.794 .0329991
755.514 .0329916
756.233 .0329844
756.952 .0329774
757.671 .0329707
758.390 .0329641
759.108 .0329576
759.826 .0329511
760.544 .0329446
761.262 .0329382
761.979 .0329316
762.697 .0329250
763.414 .0329181
764.130 .0329111
764.847 .0329037
765.563 .0328960
766.279 .0328880
766.995 .0328797
767.710 .0328709
768.426 .0328618
769.141 .0328522
769.855 .0328423
770.570 .0328318
771.284 .0328210
771.998 .0328097
772.712 .0327981
773.426 .0327862
774.139 .0327740
774.852 .0327616
775.565 .0327491
776.277 .0327364
776.990 .0327235
777.702 .0327104
778.414 .0326972
779.125 .0326838
779.836 .0326704
780.547 .0326569
781.258 .0326435
781.969 .0326302
782.679 .0326172
783.389 .0325984
784.099 .0325858
784.808 .0325732
785.517 .0325607
786.226 .0325482
786.935 .0325357
787.643 .0325231
788.352 .0325107
789.060 .0324982
789.767 .0324859
790.475 .0324736
791.182 .0324613
791.889 .0324551
792.595 .0324428
793.301 .0324304
794.008 .0324179
794.713 .0324053
795.419 .0323925
796.124 .0323796
796.829 .0323665
797.534 .0323531
798.238 .0323396
798.942 .0323259
799.646 .0323121
800.350 .0322981
801.053 .0322840
801.756 .0322698
802.459 .0322556
803.162 .0322413
803.864 .0322270
804.566 .0322127
805.267 .0321984
805.969 .0321839
806.670 .0321694
807.371 .0321548
808.071 .0321401
808.772 .0321255
809.472 .0321110
810.171 .0320965
810.871 .0320823
811.570 .0320684
812.269 .0320547
812.967 .0320413
813.666 .0320281
814.364 .0320151
815.061 .0320023
815.759 .0319897
816.456 .0319772
817.153 .0319649
817.849 .0319528
818.545 .0319409
819.241 .0319293
819.937 .0319179
820.632 .0319069
821.327 .0318962
822.022 .0318859
822.717 .0318758
823.411 .0318661
824.105 .0318567
824.798 .0318476
825.491 .0318387
826.184 .0318301
826.877 .0318216
827.569 .0318134
828.261 .0318055
828.953 .0317977
829.645 .0317902
830.336 .0317829
831.027 .0317758
831.717 .0317689
832.407 .0317621
833.097 .0317554
833.787 .0317488
834.476 .0317421
835.165 .0317354
835.854 .0317286
836.542 .0317218
837.230 .0317148
837.918 .0317076
838.605 .0317003
839.292 .0316927
839.979 .0316850
840.665 .0316770
841.352 .0316687
842.037 .0316602
842.723 .0316513
843.408 .0316421
844.093 .0316324
844.777 .0316221
845.462 .0316113
846.145 .0315999
846.829 .0315879
847.512 .0315752
848.195 .0315619
848.878 .0315480
849.560 .0315336
850.242 .0315186
850.923 .0315032
851.605 .0314872
852.286 .0314709
852.966 .0314540
853.646 .0314366
854.326 .0314188
855.006 .0314005
855.685 .0313819
856.364 .0313629
857.043 .0313436
857.721 .0313240
858.399 .0313041
859.077 .0312840
859.754 .0312637
860.431 .0312432
861.107 .0312225
861.784 .0312018
862.459 .0311810
863.135 .0311602
863.810 .0311396
864.485 .0311190
865.160 .0310986
865.834 .0310784
866.508 .0310582
867.181 .0310383
867.854 .0310185
868.527 .0309989
869.199 .0309796
869.872 .0309606
870.543 .0309419
871.215 .0309235
871.886 .0309054
872.557 .0308874
873.227 .0308697
873.897 .0308521
874.567 .0308347
875.236 .0308174
875.905 .0308002
876.573 .0307833
877.242 .0307665
877.909 .0307500
878.577 .0307337
879.244 .0307176
879.911 .0307017
880.577 .0306861
881.243 .0306706
881.909 .0306553
882.575 .0306402
883.240 .0306255
883.904 .0306110
884.569 .0305969
885.232 .0305832
885.896 .0305699
886.559 .0305571
887.222 .0305448
887.885 .0305330
888.547 .0305217
889.208 .0305110
889.870 .0305010
890.531 .0304915
891.192 .0304828
891.852 .0304746
892.512 .0304672
893.171 .0304603
893.830 .0304541
894.489 .0304484
895.148 .0304432
895.806 .0304386
896.464 .0304344
897.121 .0304307
897.778 .0304273
898.434 .0304243
899.091 .0304203
899.747 .0304175
900.402 .0304147
901.057 .0304119
901.712 .0304089
902.366 .0304057
903.020 .0304023
903.674 .0303985
904.327 .0303944
904.980 .0303899
905.633 .0303850
906.285 .0303798
906.936 .0303743
907.588 .0303702
908.239 .0303640
908.889 .0303574
909.540 .0303504
910.190 .0303431
910.839 .0303355
911.488 .0303276
912.137 .0303195
912.785 .0303112
913.433 .0303029
914.081 .0302945
914.728 .0302861
915.375 .0302775
916.021 .0302689
916.668 .0302601
917.313 .0302513
917.959 .0302424
918.604 .0302334
919.248 .0302244
919.892 .0302154
920.536 .0302063
921.180 .0301971
921.823 .0301878
922.465 .0301783
923.108 .0301686
923.750 .0301585
924.391 .0301482
925.032 .0301376
925.673 .0301268
926.313 .0301155
926.953 .0301040
927.593 .0300920
928.232 .0300796
928.871 .0300667
929.510 .0300531
930.148 .0300389
930.786 .0300239
931.423 .0300082
932.060 .0299917
932.697 .0299744
933.333 .0299564
933.969 .0299377
934.604 .0299182
935.239 .0298981
935.874 .0298772
936.508 .0298556
937.142 .0298334
937.776 .0298107
938.409 .0297876
939.042 .0297641
939.674 .0297403
940.306 .0297162
940.938 .0296918
941.569 .0296673
942.200 .0296425
942.830 .0296174
943.460 .0295921
944.090 .0295666
944.720 .0295410
945.349 .0295152
945.977 .0294894
946.606 .0294635
947.233 .0294376
947.861 .0294117
948.488 .0293858
949.115 .0293600
949.741 .0293343
950.367 .0293088
950.993 .0292834
951.618 .0292582
952.243 .0292331
952.868 .0292082
953.492 .0291835
954.115 .0291590
954.739 .0291346
955.362 .0291104
955.984 .0290864
956.607 .0290625
957.229 .0290388
957.850 .0290152
958.471 .0289919
959.092 .0289687
959.713 .0289458
960.333 .0289230
960.952 .0289005
961.572 .0288784
962.191 .0288565
962.809 .0288351
963.428 .0288141
964.045 .0287936
964.663 .0287736
965.280 .0287541
965.897 .0287350
966.513 .0287164
967.129 .0286983
967.745 .0286807
968.361 .0286636
968.976 .0286470
969.590 .0286309
970.205 .0286153
970.818 .0286002
971.432 .0285856
972.045 .0285714
972.658 .0285576
973.271 .0285443
973.883 .0285314
974.495 .0285189
975.106 .0285069
975.717 .0284955
976.328 .0284846
976.938 .0284745
977.548 .0284649
978.158 .0284558
978.768 .0284440
979.377 .0284359
979.985 .0284281
980.594 .0284206
981.202 .0284133
981.809 .0284062
982.417 .0283995
983.024 .0283933
983.631 .0283874
984.237 .0283821
984.843 .0283771
985.449 .0283726
986.054 .0283684
986.659 .0283646
987.264 .0283636
987.868 .0283602
988.472 .0283570
989.076 .0283542
989.679 .0283518
990.282 .0283499
990.885 .0283483
991.487 .0283472
992.090 .0283464
992.691 .0283459
993.293 .0283455
993.894 .0283452
994.495 .0283450
995.095 .0283449
995.696 .0283448
996.296 .0283449
996.895 .0283451
997.494 .0283457
998.093 .0283467
998.692 .0283480
999.291 .0283497
999.889 .0283516
1000.487 .0283537
1001.084 .0283559
1001.681 .0283581
1002.278 .0283605
1002.875 .0283630
1003.471 .0283657
1004.067 .0283686
1004.663 .0283718
1005.258 .0283753
1005.854 .0283790
1006.449 .0283830
1007.043 .0283871
1007.638 .0283913
1008.232 .0283956
1008.826 .0284001
1009.419 .0284046
1010.012 .0284094
1010.605 .0284145
1011.198 .0284200
1011.791 .0284257
1012.383 .0284319
1012.975 .0284383
1013.566 .0284450
1014.158 .0284518
1014.749 .0284588
1015.340 .0284657
1015.931 .0284727
1016.521 .0284796
1017.111 .0284865
1017.701 .0284932
1018.291 .0284999
1018.880 .0285063
1019.470 .0285125
1020.059 .0285184
1020.647 .0285239
1021.236 .0285291
1021.824 .0285339
1022.412 .0285382
1023.000 .0285422
1023.588 .0285458
1024.175 .0285492
1024.762 .0285522
1025.349 .0285551
1025.936 .0285578
1026.523 .0285603
1027.109 .0285627
1027.695 .0285648
1028.281 .0285667
1028.867 .0285684
1029.452 .0285700
1030.038 .0285714
1030.623 .0285727
1031.208 .0285739
1031.792 .0285750
1032.377 .0285760
1032.961 .0285768
1033.546 .0285775
1034.130 .0285779
1034.714 .0285781
1035.297 .0285780
1035.881 .0285775
1036.464 .0285768
1037.047 .0285757
1037.630 .0285743
1038.213 .0285726
1038.796 .0285706
1039.378 .0285683
1039.961 .0285657
1040.543 .0285627
1041.125 .0285592
1041.707 .0285553
1042.289 .0285509
1042.871 .0285460
1043.452 .0285405
1044.034 .0285346
1044.615 .0285283
1045.196 .0285216
1045.777 .0285146
1046.358 .0285074
1046.939 .0284999
1047.520 .0284923
1048.101 .0284843
1048.681 .0284761
1049.262 .0284675
1049.842 .0284585
1050.422 .0284493
1051.002 .0284398
1051.582 .0284301
1052.162 .0284204
1052.742 .0284108
1053.322 .0284013
1053.902 .0283920
1054.482 .0283827
1055.061 .0283736
1055.641 .0283644
1056.220 .0283551
1056.800 .0283457
1057.379 .0283361
1057.958 .0283263
1058.538 .0283164
1059.117 .0283063
1059.696 .0282960
1060.275 .0282856
1060.854 .0282750
1061.433 .0282640
1062.012 .0282525
1062.592 .0282405
1063.171 .0282276
1063.750 .0282140
1064.329 .0281996
1064.908 .0281846
1065.487 .0281690
1066.066 .0281530
1066.645 .0281369
1067.224 .0281207
1067.803 .0281044
1068.382 .0280881
1068.961 .0280717
1069.540 .0280553
1070.119 .0280387
1070.698 .0280219
1071.278 .0280051
1071.857 .0279884
1072.436 .0279718
1073.016 .0279556
1073.595 .0279397
1074.175 .0279243
1074.754 .0279093
1075.334 .0278947
1075.913 .0278803
1076.493 .0278661
1077.073 .0278521
1077.653 .0278383
1078.233 .0278247
1078.813 .0278116
1079.393 .0277990
1079.974 .0277871
1080.554 .0277760
1081.135 .0277658
1081.716 .0277565
1082.296 .0277479
1082.877 .0277401
1083.458 .0277330
1084.040 .0277264
1084.621 .0277204
1085.202 .0277150
1085.784 .0277100
1086.366 .0277057
1086.948 .0277018
1087.530 .0276983
1088.112 .0276951
1088.695 .0276919
1089.277 .0276887
1089.860 .0276852
1090.443 .0276812
1091.026 .0276764
1091.610 .0276708
1092.193 .0276643
1092.777 .0276569
1093.361 .0276487
1093.946 .0276397
1094.530 .0276300
1095.115 .0276196
1095.700 .0276086
1096.285 .0275971
1096.871 .0275852
1097.456 .0275732
1098.042 .0275610
1098.628 .0275490
1099.215 .0275374
1099.802 .0275263
1100.389 .0275160
1100.976 .0275067
1101.564 .0274984
1102.152 .0274914
1102.740 .0274856
1103.329 .0274812
1103.917 .0274783
1104.507 .0274768
1105.096 .0274769
1105.686 .0274785
1106.276 .0274818
1106.867 .0274869
1107.457 .0274938
1108.049 .0275025
1108.640 .0275132
1109.232 .0275256
1109.825 .0275398
1110.417 .0275555
1111.010 .0275726
1111.604 .0275910
1112.198 .0276107
1112.792 .0276314
1113.387 .0276530
1113.982 .0276755
1114.577 .0276987
1115.173 .0277224
1115.769 .0277464
1116.366 .0277706
1116.963 .0277948
1117.561 .0278188
1118.159 .0278426
1118.758 .0278659
1119.357 .0278890
1119.957 .0279117
1120.557 .0279341
1121.157 .0279561
1121.758 .0279778
1122.360 .0279992
1122.962 .0280204
1123.564 .0280414
1124.167 .0280500
1124.771 .0280704
1125.375 .0280909
1125.980 .0281116
1126.585 .0281327
1127.191 .0281543
1127.797 .0281765
1128.404 .0281995
1129.012 .0282232
1129.620 .0282478
1130.229 .0282735
1130.838 .0283005
1131.448 .0283288
1132.058 .0283588
1132.669 .0284047
1133.281 .0284384
1133.894 .0284738
1134.507 .0285089
1135.120 .0285485
1135.735 .0285841
1136.350 .0286240
1136.965 .0286010
1137.582 .0286308
1138.199 .0286643
1138.816 .0287085
1139.435 .0287572
1140.054 .0288143
1140.674 .0288729
1141.294 .0289347
1141.916 .0289986
1142.538 .0290153
1143.160 .0291631
1143.784 .0290802
1144.408 .0292277
1145.033 .0293591
