Measurement Sequence started on: 14-45-04-498
Integration time: 36
Scans to Average: 2 
>>>>>Begin Spectral Data<<<<<
433.946 .0474405
434.870 .0483621
435.793 .0449867
436.715 .0444693
437.635 .0413890
438.555 .0427657
439.473 .0421620
440.389 .0416991
441.305 .0414576
442.219 .0413094
443.132 .0423076
444.044 .0419737
444.954 .0418217
445.863 .0417001
446.771 .0417423
447.678 .0417135
448.584 .0417173
449.488 .0417453
450.391 .0417849
451.293 .0418305
452.194 .0418748
453.094 .0419170
453.992 .0419529
454.890 .0419814
455.786 .0420015
456.681 .0420124
457.575 .0420135
458.468 .0420039
459.360 .0419841
460.250 .0419540
461.140 .0419133
462.028 .0418630
462.915 .0418040
463.801 .0417372
464.687 .0416629
465.571 .0415820
466.454 .0414956
467.335 .0414049
468.216 .0413114
469.096 .0412161
469.975 .0411202
470.853 .0410246
471.729 .0409299
472.605 .0408366
473.479 .0407454
474.353 .0406565
475.226 .0405704
476.097 .0404875
476.968 .0404085
477.838 .0403341
478.706 .0402647
479.574 .0402011
480.441 .0401438
481.306 .0400927
482.171 .0400476
483.035 .0400077
483.898 .0399724
484.760 .0399407
485.621 .0399115
486.481 .0398844
487.340 .0398587
488.198 .0398342
489.055 .0398104
489.912 .0397869
490.767 .0397634
491.622 .0397214
492.476 .0396942
493.329 .0396650
494.180 .0396333
495.032 .0395986
495.882 .0395607
496.731 .0395198
497.580 .0394761
498.427 .0394297
499.274 .0393811
500.120 .0393537
500.965 .0393029
501.809 .0392503
502.653 .0391963
503.495 .0391415
504.337 .0390857
505.178 .0390293
506.018 .0389727
506.858 .0389159
507.696 .0388586
508.534 .0388012
509.371 .0387439
510.208 .0386873
511.043 .0386317
511.878 .0385778
512.712 .0385265
513.545 .0384786
514.377 .0384346
515.209 .0383946
516.040 .0383587
516.870 .0383267
517.699 .0382982
518.528 .0382730
519.356 .0382509
520.183 .0382315
521.010 .0382149
521.836 .0382010
522.661 .0381893
523.485 .0381790
524.309 .0381694
525.132 .0381594
525.954 .0381477
526.776 .0381325
527.597 .0381123
528.417 .0380862
529.237 .0380540
530.056 .0380150
530.874 .0379691
531.692 .0379164
532.508 .0378574
533.325 .0377926
534.140 .0377229
534.955 .0376487
535.770 .0375708
536.583 .0374897
537.397 .0374062
538.209 .0373204
539.021 .0372331
539.832 .0371450
540.643 .0370575
541.453 .0369716
542.262 .0368887
543.071 .0368101
543.879 .0367377
544.687 .0366726
545.494 .0366152
546.300 .0365652
547.106 .0365223
547.911 .0364852
548.716 .0364528
549.520 .0364240
550.323 .0363984
551.126 .0363750
551.929 .0363536
552.731 .0363340
553.532 .0363158
554.332 .0362989
555.133 .0362833
555.932 .0362682
556.731 .0362531
557.530 .0362372
558.328 .0362199
559.125 .0362008
559.922 .0361795
560.719 .0361557
561.515 .0361296
562.310 .0361011
563.105 .0360707
563.899 .0360384
564.693 .0360047
565.487 .0359702
566.280 .0359351
567.072 .0358996
567.864 .0358639
568.655 .0358279
569.446 .0357915
570.236 .0357546
571.026 .0357170
571.816 .0356783
572.605 .0356386
573.393 .0355980
574.181 .0355568
574.969 .0355152
575.756 .0354736
576.543 .0354323
577.329 .0353913
578.115 .0353506
578.900 .0353100
579.685 .0352693
580.469 .0352283
581.253 .0351868
582.036 .0351448
582.820 .0351022
583.602 .0350591
584.384 .0350157
585.166 .0349721
585.947 .0349286
586.728 .0348853
587.509 .0348425
588.289 .0348003
589.069 .0347588
589.848 .0347179
590.627 .0346778
591.405 .0346384
592.183 .0345998
592.961 .0345621
593.738 .0345252
594.515 .0344892
595.291 .0344543
596.067 .0344203
596.843 .0343875
597.618 .0343556
598.393 .0343110
599.167 .0342811
599.941 .0342520
600.715 .0342235
601.488 .0341955
602.261 .0341681
603.034 .0341411
603.806 .0341144
604.578 .0340881
605.349 .0340621
606.121 .0340364
606.891 .0340239
607.662 .0339984
608.432 .0339732
609.201 .0339481
609.971 .0339231
610.740 .0338982
611.508 .0338736
612.277 .0338492
613.045 .0338251
613.812 .0338013
614.579 .0337777
615.346 .0337543
616.113 .0337311
616.879 .0337081
617.645 .0336851
618.411 .0336621
619.176 .0336391
619.941 .0336160
620.705 .0335928
621.470 .0335694
622.233 .0335460
622.997 .0335224
623.760 .0334988
624.523 .0334751
625.286 .0334514
626.048 .0334277
626.810 .0334039
627.572 .0333801
628.333 .0333561
629.095 .0333319
629.855 .0333076
630.616 .0332830
631.376 .0332583
632.136 .0332334
632.895 .0332084
633.655 .0331834
634.414 .0331584
635.172 .0331334
635.931 .0331085
636.689 .0330835
637.447 .0330584
638.204 .0330333
638.962 .0330079
639.718 .0329824
640.475 .0329568
641.231 .0329311
641.988 .0329052
642.743 .0328791
643.499 .0328530
644.254 .0328268
645.009 .0328005
645.764 .0327742
646.518 .0327480
647.272 .0327219
648.026 .0326960
648.780 .0326702
649.533 .0326448
650.286 .0326198
651.039 .0325952
651.792 .0325711
652.544 .0325475
653.296 .0325245
654.048 .0325021
654.799 .0324805
655.550 .0324597
656.301 .0324396
657.052 .0324204
657.802 .0324018
658.552 .0323840
659.302 .0323670
660.052 .0323506
660.801 .0323349
661.550 .0323197
662.299 .0323049
663.048 .0322904
663.796 .0322761
664.544 .0322619
665.292 .0322476
666.040 .0322331
666.787 .0322184
667.534 .0322034
668.281 .0321881
669.028 .0321725
669.774 .0321567
670.521 .0321406
671.266 .0321243
672.012 .0321076
672.758 .0320906
673.503 .0320733
674.248 .0320557
674.992 .0320380
675.737 .0320200
676.481 .0320020
677.225 .0319840
677.969 .0319659
678.712 .0319479
679.455 .0319301
680.199 .0319124
680.941 .0318948
681.684 .0318773
682.426 .0318600
683.168 .0318427
683.910 .0318256
684.652 .0318085
685.393 .0317914
686.134 .0317743
686.875 .0317572
687.616 .0317401
688.356 .0317230
689.097 .0317059
689.837 .0316888
690.576 .0316716
691.316 .0316544
692.055 .0316370
692.794 .0316195
693.533 .0316019
694.272 .0315841
695.010 .0315662
695.748 .0315483
696.486 .0315304
697.224 .0315126
697.962 .0314951
698.699 .0314778
699.436 .0314607
700.173 .0314440
700.909 .0314276
701.646 .0314116
702.382 .0313958
703.118 .0313803
703.853 .0313651
704.589 .0313502
705.324 .0313356
706.059 .0313212
706.794 .0313070
707.529 .0312932
708.263 .0312796
708.997 .0312662
709.731 .0312530
710.465 .0312399
711.198 .0312269
711.931 .0312139
712.664 .0312009
713.397 .0311877
714.130 .0311745
714.862 .0311611
715.594 .0311477
716.326 .0311342
717.058 .0311207
717.789 .0311072
718.520 .0310937
719.251 .0310802
719.982 .0310667
720.713 .0310532
721.443 .0310398
722.173 .0310264
722.903 .0310131
723.633 .0310000
724.362 .0309870
725.091 .0309743
725.820 .0309618
726.549 .0309495
727.278 .0309374
728.006 .0309254
728.734 .0309137
729.462 .0309022
730.190 .0308908
730.917 .0308796
731.644 .0308684
732.371 .0308573
733.098 .0308462
733.825 .0308351
734.551 .0308239
735.277 .0308127
736.003 .0308015
736.728 .0307903
737.454 .0307791
738.179 .0307679
738.904 .0307567
739.629 .0307454
740.353 .0307340
741.077 .0307226
741.801 .0307110
742.525 .0306994
743.249 .0306877
743.972 .0306761
744.695 .0306644
745.418 .0306528
746.141 .0306412
746.863 .0306297
747.585 .0306181
748.307 .0306066
749.029 .0305951
749.750 .0305835
750.472 .0305720
751.193 .0305604
751.913 .0305487
752.634 .0305370
753.354 .0305252
754.074 .0305134
754.794 .0305016
755.514 .0304898
756.233 .0304780
756.952 .0304662
757.671 .0304544
758.390 .0304426
759.108 .0304309
759.826 .0304190
760.544 .0304071
761.262 .0303951
761.979 .0303830
762.697 .0303708
763.414 .0303587
764.130 .0303466
764.847 .0303347
765.563 .0303230
766.279 .0303115
766.995 .0303003
767.710 .0302893
768.426 .0302785
769.141 .0302680
769.855 .0302575
770.570 .0302471
771.284 .0302368
771.998 .0302265
772.712 .0302163
773.426 .0302061
774.139 .0301960
774.852 .0301860
775.565 .0301760
776.277 .0301661
776.990 .0301563
777.702 .0301465
778.414 .0301367
779.125 .0301269
779.836 .0301172
780.547 .0301074
781.258 .0300977
781.969 .0300881
782.679 .0300785
783.389 .0300647
784.099 .0300553
784.808 .0300461
785.517 .0300368
786.226 .0300277
786.935 .0300186
787.643 .0300096
788.352 .0300008
789.060 .0299920
789.767 .0299834
790.475 .0299749
791.182 .0299666
791.889 .0299628
792.595 .0299547
793.301 .0299467
794.008 .0299388
794.713 .0299311
795.419 .0299235
796.124 .0299159
796.829 .0299085
797.534 .0299012
798.238 .0298939
798.942 .0298867
799.646 .0298795
800.350 .0298724
801.053 .0298653
801.756 .0298583
802.459 .0298513
803.162 .0298445
803.864 .0298377
804.566 .0298310
805.267 .0298243
805.969 .0298176
806.670 .0298108
807.371 .0298040
808.071 .0297970
808.772 .0297899
809.472 .0297827
810.171 .0297753
810.871 .0297677
811.570 .0297599
812.269 .0297519
812.967 .0297436
813.666 .0297351
814.364 .0297262
815.061 .0297170
815.759 .0297074
816.456 .0296975
817.153 .0296874
817.849 .0296770
818.545 .0296664
819.241 .0296556
819.937 .0296446
820.632 .0296334
821.327 .0296221
822.022 .0296106
822.717 .0295988
823.411 .0295868
824.105 .0295746
824.798 .0295622
825.491 .0295496
826.184 .0295368
826.877 .0295239
827.569 .0295108
828.261 .0294976
828.953 .0294844
829.645 .0294711
830.336 .0294578
831.027 .0294445
831.717 .0294312
832.407 .0294180
833.097 .0294050
833.787 .0293922
834.476 .0293794
835.165 .0293668
835.854 .0293543
836.542 .0293417
837.230 .0293292
837.918 .0293165
838.605 .0293039
839.292 .0292912
839.979 .0292784
840.665 .0292656
841.352 .0292529
842.037 .0292402
842.723 .0292274
843.408 .0292147
844.093 .0292019
844.777 .0291890
845.462 .0291761
846.145 .0291631
846.829 .0291500
847.512 .0291369
848.195 .0291237
848.878 .0291105
849.560 .0290972
850.242 .0290839
850.923 .0290704
851.605 .0290569
852.286 .0290433
852.966 .0290295
853.646 .0290157
854.326 .0290018
855.006 .0289879
855.685 .0289740
856.364 .0289601
857.043 .0289464
857.721 .0289327
858.399 .0289192
859.077 .0289059
859.754 .0288928
860.431 .0288800
861.107 .0288676
861.784 .0288554
862.459 .0288436
863.135 .0288320
863.810 .0288207
864.485 .0288096
865.160 .0287986
865.834 .0287878
866.508 .0287770
867.181 .0287664
867.854 .0287559
868.527 .0287455
869.199 .0287351
869.872 .0287248
870.543 .0287145
871.215 .0287041
871.886 .0286936
872.557 .0286830
873.227 .0286722
873.897 .0286612
874.567 .0286500
875.236 .0286387
875.905 .0286273
876.573 .0286157
877.242 .0286039
877.909 .0285919
878.577 .0285797
879.244 .0285673
879.911 .0285548
880.577 .0285423
881.243 .0285298
881.909 .0285175
882.575 .0285053
883.240 .0284933
883.904 .0284814
884.569 .0284698
885.232 .0284583
885.896 .0284470
886.559 .0284360
887.222 .0284251
887.885 .0284147
888.547 .0284046
889.208 .0283951
889.870 .0283859
890.531 .0283773
891.192 .0283690
891.852 .0283611
892.512 .0283534
893.171 .0283460
893.830 .0283387
894.489 .0283317
895.148 .0283250
895.806 .0283184
896.464 .0283122
897.121 .0283061
897.778 .0283002
898.434 .0282945
899.091 .0282859
899.747 .0282801
900.402 .0282743
901.057 .0282684
901.712 .0282624
902.366 .0282563
903.020 .0282500
903.674 .0282435
904.327 .0282367
904.980 .0282297
905.633 .0282224
906.285 .0282147
906.936 .0282067
907.588 .0282018
908.239 .0281932
908.889 .0281843
909.540 .0281750
910.190 .0281653
910.839 .0281552
911.488 .0281447
912.137 .0281338
912.785 .0281224
913.433 .0281105
914.081 .0280981
914.728 .0280852
915.375 .0280719
916.021 .0280580
916.668 .0280436
917.313 .0280287
917.959 .0280134
918.604 .0279977
919.248 .0279815
919.892 .0279650
920.536 .0279482
921.180 .0279311
921.823 .0279137
922.465 .0278960
923.108 .0278781
923.750 .0278601
924.391 .0278419
925.032 .0278236
925.673 .0278053
926.313 .0277869
926.953 .0277686
927.593 .0277502
928.232 .0277318
928.871 .0277135
929.510 .0276951
930.148 .0276769
930.786 .0276587
931.423 .0276406
932.060 .0276226
932.697 .0276048
933.333 .0275871
933.969 .0275695
934.604 .0275521
935.239 .0275346
935.874 .0275171
936.508 .0274997
937.142 .0274822
937.776 .0274647
938.409 .0274472
939.042 .0274297
939.674 .0274122
940.306 .0273945
940.938 .0273767
941.569 .0273588
942.200 .0273405
942.830 .0273220
943.460 .0273031
944.090 .0272839
944.720 .0272644
945.349 .0272448
945.977 .0272249
946.606 .0272049
947.233 .0271848
947.861 .0271645
948.488 .0271440
949.115 .0271235
949.741 .0271028
950.367 .0270821
950.993 .0270612
951.618 .0270404
952.243 .0270196
952.868 .0269989
953.492 .0269783
954.115 .0269578
954.739 .0269376
955.362 .0269177
955.984 .0268980
956.607 .0268786
957.229 .0268596
957.850 .0268409
958.471 .0268226
959.092 .0268048
959.713 .0267876
960.333 .0267709
960.952 .0267547
961.572 .0267393
962.191 .0267244
962.809 .0267103
963.428 .0266967
964.045 .0266838
964.663 .0266715
965.280 .0266598
965.897 .0266487
966.513 .0266382
967.129 .0266282
967.745 .0266188
968.361 .0266098
968.976 .0266012
969.590 .0265932
970.205 .0265855
970.818 .0265781
971.432 .0265711
972.045 .0265643
972.658 .0265577
973.271 .0265512
973.883 .0265449
974.495 .0265386
975.106 .0265324
975.717 .0265261
976.328 .0265198
976.938 .0265133
977.548 .0265068
978.158 .0265000
978.768 .0264885
979.377 .0264812
979.985 .0264737
980.594 .0264660
981.202 .0264581
981.809 .0264502
982.417 .0264423
983.024 .0264343
983.631 .0264265
984.237 .0264188
984.843 .0264112
985.449 .0264039
986.054 .0263968
986.659 .0263899
987.264 .0263876
987.868 .0263814
988.472 .0263755
989.076 .0263698
989.679 .0263646
990.282 .0263596
990.885 .0263550
991.487 .0263507
992.090 .0263468
992.691 .0263432
993.293 .0263400
993.894 .0263371
994.495 .0263345
995.095 .0263322
995.696 .0263301
996.296 .0263283
996.895 .0263266
997.494 .0263251
998.093 .0263237
998.692 .0263225
999.291 .0263212
999.889 .0263199
1000.487 .0263185
1001.084 .0263169
1001.681 .0263151
1002.278 .0263132
1002.875 .0263109
1003.471 .0263084
1004.067 .0263057
1004.663 .0263027
1005.258 .0262995
1005.854 .0262960
1006.449 .0262922
1007.043 .0262883
1007.638 .0262841
1008.232 .0262797
1008.826 .0262752
1009.419 .0262707
1010.012 .0262661
1010.605 .0262617
1011.198 .0262574
1011.791 .0262533
1012.383 .0262495
1012.975 .0262459
1013.566 .0262426
1014.158 .0262396
1014.749 .0262367
1015.340 .0262340
1015.931 .0262315
1016.521 .0262292
1017.111 .0262271
1017.701 .0262253
1018.291 .0262238
1018.880 .0262226
1019.470 .0262217
1020.059 .0262211
1020.647 .0262207
1021.236 .0262205
1021.824 .0262204
1022.412 .0262204
1023.000 .0262205
1023.588 .0262207
1024.175 .0262210
1024.762 .0262214
1025.349 .0262221
1025.936 .0262229
1026.523 .0262240
1027.109 .0262251
1027.695 .0262262
1028.281 .0262274
1028.867 .0262284
1029.452 .0262294
1030.038 .0262303
1030.623 .0262313
1031.208 .0262323
1031.792 .0262335
1032.377 .0262348
1032.961 .0262362
1033.546 .0262376
1034.130 .0262389
1034.714 .0262401
1035.297 .0262410
1035.881 .0262416
1036.464 .0262419
1037.047 .0262420
1037.630 .0262419
1038.213 .0262418
1038.796 .0262415
1039.378 .0262412
1039.961 .0262407
1040.543 .0262400
1041.125 .0262388
1041.707 .0262371
1042.289 .0262350
1042.871 .0262323
1043.452 .0262292
1044.034 .0262256
1044.615 .0262217
1045.196 .0262175
1045.777 .0262132
1046.358 .0262086
1046.939 .0262038
1047.520 .0261987
1048.101 .0261933
1048.681 .0261874
1049.262 .0261811
1049.842 .0261745
1050.422 .0261676
1051.002 .0261605
1051.582 .0261532
1052.162 .0261458
1052.742 .0261384
1053.322 .0261309
1053.902 .0261234
1054.482 .0261156
1055.061 .0261077
1055.641 .0260996
1056.220 .0260914
1056.800 .0260832
1057.379 .0260751
1057.958 .0260673
1058.538 .0260597
1059.117 .0260526
1059.696 .0260458
1060.275 .0260394
1060.854 .0260334
1061.433 .0260277
1062.012 .0260221
1062.592 .0260168
1063.171 .0260116
1063.750 .0260066
1064.329 .0260018
1064.908 .0259972
1065.487 .0259928
1066.066 .0259886
1066.645 .0259846
1067.224 .0259806
1067.803 .0259766
1068.382 .0259725
1068.961 .0259685
1069.540 .0259644
1070.119 .0259603
1070.698 .0259564
1071.278 .0259525
1071.857 .0259488
1072.436 .0259452
1073.016 .0259417
1073.595 .0259382
1074.175 .0259348
1074.754 .0259313
1075.334 .0259278
1075.913 .0259242
1076.493 .0259204
1077.073 .0259164
1077.653 .0259121
1078.233 .0259075
1078.813 .0259025
1079.393 .0258971
1079.974 .0258913
1080.554 .0258852
1081.135 .0258788
1081.716 .0258722
1082.296 .0258654
1082.877 .0258585
1083.458 .0258515
1084.040 .0258443
1084.621 .0258370
1085.202 .0258297
1085.784 .0258224
1086.366 .0258153
1086.948 .0258083
1087.530 .0258017
1088.112 .0257956
1088.695 .0257900
1089.277 .0257849
1089.860 .0257801
1090.443 .0257757
1091.026 .0257714
1091.610 .0257672
1092.193 .0257629
1092.777 .0257587
1093.361 .0257546
1093.946 .0257507
1094.530 .0257470
1095.115 .0257435
1095.700 .0257404
1096.285 .0257376
1096.871 .0257348
1097.456 .0257320
1098.042 .0257289
1098.628 .0257254
1099.215 .0257217
1099.802 .0257179
1100.389 .0257140
1100.976 .0257104
1101.564 .0257073
1102.152 .0257047
1102.740 .0257027
1103.329 .0257014
1103.917 .0257008
1104.507 .0257009
1105.096 .0257015
1105.686 .0257028
1106.276 .0257051
1106.867 .0257085
1107.457 .0257133
1108.049 .0257196
1108.640 .0257274
1109.232 .0257367
1109.825 .0257471
1110.417 .0257585
1111.010 .0257705
1111.604 .0257828
1112.198 .0257952
1112.792 .0258074
1113.387 .0258195
1113.982 .0258315
1114.577 .0258434
1115.173 .0258552
1115.769 .0258668
1116.366 .0258783
1116.963 .0258895
1117.561 .0259006
1118.159 .0259115
1118.758 .0259225
1119.357 .0259337
1119.957 .0259456
1120.557 .0259584
1121.157 .0259726
1121.758 .0259885
1122.360 .0260064
1122.962 .0260263
1123.564 .0260480
1124.167 .0260552
1124.771 .0260778
1125.375 .0261019
1125.980 .0261273
1126.585 .0261540
1127.191 .0261821
1127.797 .0262115
1128.404 .0262422
1129.012 .0262746
1129.620 .0263089
1130.229 .0263451
1130.838 .0263832
1131.448 .0264232
1132.058 .0264653
1132.669 .0265282
1133.281 .0265773
1133.894 .0266296
1134.507 .0266789
1135.120 .0267382
1135.735 .0268010
1136.350 .0268632
1136.965 .0269886
1137.582 .0270405
1138.199 .0270914
1138.816 .0271359
1139.435 .0271756
1140.054 .0272185
1140.674 .0272652
1141.294 .0273142
1141.916 .0273814
1142.538 .0272863
1143.160 .0275523
1143.784 .0276495
1144.408 .0276513
1145.033 .0280490
