Measurement Sequence started on: 14-45-04-498
Integration time: 36
Scans to Average: 2 
>>>>>Begin Spectral Data<<<<<
433.946 .0481195
434.870 .0521564
435.793 .0507926
436.715 .0487581
437.635 .0475716
438.555 .0481169
439.473 .0478305
440.389 .0475093
441.305 .0473159
442.219 .0472159
443.132 .0477529
444.044 .0474772
444.954 .0472715
445.863 .0471700
446.771 .0471276
447.678 .0470526
448.584 .0469880
449.488 .0469358
450.391 .0468891
451.293 .0468432
452.194 .0467966
453.094 .0467487
453.992 .0466996
454.890 .0466490
455.786 .0465953
456.681 .0465379
457.575 .0464750
458.468 .0464063
459.360 .0463312
460.250 .0462505
461.140 .0461648
462.028 .0460753
462.915 .0459836
463.801 .0458908
464.687 .0457976
465.571 .0457050
466.454 .0456130
467.335 .0455212
468.216 .0454296
469.096 .0453374
469.975 .0452447
470.853 .0451518
471.729 .0450594
472.605 .0449683
473.479 .0448796
474.353 .0447946
475.226 .0447138
476.097 .0446375
476.968 .0445658
477.838 .0444978
478.706 .0444330
479.574 .0443710
480.441 .0443111
481.306 .0442534
482.171 .0441979
483.035 .0441448
483.898 .0440946
484.760 .0440470
485.621 .0440020
486.481 .0439589
487.340 .0439172
488.198 .0438761
489.055 .0438348
489.912 .0437930
490.767 .0437504
491.622 .0436843
492.476 .0436408
493.329 .0435968
494.180 .0435524
495.032 .0435073
495.882 .0434610
496.731 .0434136
497.580 .0433647
498.427 .0433145
499.274 .0432631
500.120 .0432358
500.965 .0431845
501.809 .0431330
502.653 .0430819
503.495 .0430312
504.337 .0429811
505.178 .0429318
506.018 .0428840
506.858 .0428379
507.696 .0427938
508.534 .0427523
509.371 .0427145
510.208 .0426811
511.043 .0426532
511.878 .0426313
512.712 .0426160
513.545 .0426075
514.377 .0426055
515.209 .0426090
516.040 .0426173
516.870 .0426290
517.699 .0426429
518.528 .0426579
519.356 .0426734
520.183 .0426887
521.010 .0427036
521.836 .0427177
522.661 .0427307
523.485 .0427413
524.309 .0427485
525.132 .0427507
525.954 .0427469
526.776 .0427353
527.597 .0427152
528.417 .0426863
529.237 .0426492
530.056 .0426046
530.874 .0425536
531.692 .0424972
532.508 .0424367
533.325 .0423725
534.140 .0423052
534.955 .0422351
535.770 .0421627
536.583 .0420881
537.397 .0420119
538.209 .0419344
539.021 .0418566
539.832 .0417791
540.643 .0417031
541.453 .0416290
542.262 .0415575
543.071 .0414889
543.879 .0414235
544.687 .0413614
545.494 .0413024
546.300 .0412455
547.106 .0411903
547.911 .0411358
548.716 .0410818
549.520 .0410283
550.323 .0409755
551.126 .0409239
551.929 .0408741
552.731 .0408262
553.532 .0407808
554.332 .0407378
555.133 .0406973
555.932 .0406588
556.731 .0406220
557.530 .0405862
558.328 .0405512
559.125 .0405168
559.922 .0404830
560.719 .0404498
561.515 .0404172
562.310 .0403847
563.105 .0403522
563.899 .0403195
564.693 .0402864
565.487 .0402525
566.280 .0402174
567.072 .0401810
567.864 .0401429
568.655 .0401033
569.446 .0400622
570.236 .0400200
571.026 .0399769
571.816 .0399333
572.605 .0398894
573.393 .0398454
574.181 .0398016
574.969 .0397584
575.756 .0397158
576.543 .0396738
577.329 .0396322
578.115 .0395910
578.900 .0395501
579.685 .0395095
580.469 .0394694
581.253 .0394297
582.036 .0393906
582.820 .0393522
583.602 .0393146
584.384 .0392777
585.166 .0392417
585.947 .0392061
586.728 .0391711
587.509 .0391361
588.289 .0391010
589.069 .0390658
589.848 .0390304
590.627 .0389949
591.405 .0389595
592.183 .0389243
592.961 .0388896
593.738 .0388557
594.515 .0388228
595.291 .0387909
596.067 .0387603
596.843 .0387309
597.618 .0387028
598.393 .0386657
599.167 .0386409
599.941 .0386175
600.715 .0385954
601.488 .0385746
602.261 .0385552
603.034 .0385369
603.806 .0385198
604.578 .0385039
605.349 .0384891
606.121 .0384755
606.891 .0384709
607.662 .0384588
608.432 .0384477
609.201 .0384375
609.971 .0384282
610.740 .0384197
611.508 .0384118
612.277 .0384044
613.045 .0383974
613.812 .0383906
614.579 .0383840
615.346 .0383774
616.113 .0383707
616.879 .0383638
617.645 .0383565
618.411 .0383489
619.176 .0383408
619.941 .0383320
620.705 .0383226
621.470 .0383124
622.233 .0383013
622.997 .0382892
623.760 .0382762
624.523 .0382623
625.286 .0382475
626.048 .0382319
626.810 .0382155
627.572 .0381984
628.333 .0381807
629.095 .0381624
629.855 .0381437
630.616 .0381245
631.376 .0381050
632.136 .0380852
632.895 .0380653
633.655 .0380453
634.414 .0380252
635.172 .0380053
635.931 .0379853
636.689 .0379655
637.447 .0379457
638.204 .0379259
638.962 .0379062
639.718 .0378865
640.475 .0378668
641.231 .0378472
641.988 .0378276
642.743 .0378081
643.499 .0377887
644.254 .0377693
645.009 .0377499
645.764 .0377306
646.518 .0377114
647.272 .0376922
648.026 .0376732
648.780 .0376542
649.533 .0376354
650.286 .0376166
651.039 .0375980
651.792 .0375795
652.544 .0375612
653.296 .0375430
654.048 .0375252
654.799 .0375077
655.550 .0374907
656.301 .0374741
657.052 .0374580
657.802 .0374423
658.552 .0374269
659.302 .0374117
660.052 .0373965
660.801 .0373814
661.550 .0373662
662.299 .0373508
663.048 .0373352
663.796 .0373195
664.544 .0373037
665.292 .0372878
666.040 .0372719
666.787 .0372558
667.534 .0372396
668.281 .0372232
669.028 .0372066
669.774 .0371899
670.521 .0371731
671.266 .0371561
672.012 .0371391
672.758 .0371221
673.503 .0371052
674.248 .0370884
674.992 .0370717
675.737 .0370552
676.481 .0370388
677.225 .0370224
677.969 .0370062
678.712 .0369899
679.455 .0369737
680.199 .0369575
680.941 .0369413
681.684 .0369249
682.426 .0369085
683.168 .0368919
683.910 .0368751
684.652 .0368581
685.393 .0368409
686.134 .0368235
686.875 .0368058
687.616 .0367878
688.356 .0367695
689.097 .0367509
689.837 .0367321
690.576 .0367131
691.316 .0366939
692.055 .0366745
692.794 .0366551
693.533 .0366356
694.272 .0366162
695.010 .0365968
695.748 .0365775
696.486 .0365583
697.224 .0365392
697.962 .0365202
698.699 .0365013
699.436 .0364826
700.173 .0364641
700.909 .0364460
701.646 .0364282
702.382 .0364107
703.118 .0363937
703.853 .0363771
704.589 .0363608
705.324 .0363449
706.059 .0363291
706.794 .0363135
707.529 .0362981
708.263 .0362828
708.997 .0362678
709.731 .0362530
710.465 .0362384
711.198 .0362241
711.931 .0362102
712.664 .0361967
713.397 .0361835
714.130 .0361706
714.862 .0361581
715.594 .0361458
716.326 .0361338
717.058 .0361220
717.789 .0361103
718.520 .0360987
719.251 .0360871
719.982 .0360756
720.713 .0360642
721.443 .0360528
722.173 .0360414
722.903 .0360299
723.633 .0360184
724.362 .0360068
725.091 .0359951
725.820 .0359831
726.549 .0359709
727.278 .0359584
728.006 .0359455
728.734 .0359323
729.462 .0359189
730.190 .0359052
730.917 .0358913
731.644 .0358772
732.371 .0358630
733.098 .0358488
733.825 .0358344
734.551 .0358199
735.277 .0358053
736.003 .0357906
736.728 .0357758
737.454 .0357609
738.179 .0357459
738.904 .0357307
739.629 .0357154
740.353 .0357001
741.077 .0356846
741.801 .0356691
742.525 .0356536
743.249 .0356380
743.972 .0356224
744.695 .0356069
745.418 .0355913
746.141 .0355757
746.863 .0355600
747.585 .0355442
748.307 .0355283
749.029 .0355122
749.750 .0354959
750.472 .0354794
751.193 .0354628
751.913 .0354462
752.634 .0354295
753.354 .0354130
754.074 .0353965
754.794 .0353802
755.514 .0353639
756.233 .0353479
756.952 .0353319
757.671 .0353161
758.390 .0353006
759.108 .0352853
759.826 .0352703
760.544 .0352557
761.262 .0352414
761.979 .0352276
762.697 .0352142
763.414 .0352012
764.130 .0351885
764.847 .0351762
765.563 .0351642
766.279 .0351525
766.995 .0351411
767.710 .0351299
768.426 .0351190
769.141 .0351083
769.855 .0350978
770.570 .0350874
771.284 .0350773
771.998 .0350673
772.712 .0350575
773.426 .0350479
774.139 .0350386
774.852 .0350295
775.565 .0350205
776.277 .0350117
776.990 .0350029
777.702 .0349943
778.414 .0349856
779.125 .0349771
779.836 .0349686
780.547 .0349603
781.258 .0349523
781.969 .0349445
782.679 .0349369
783.389 .0349265
784.099 .0349196
784.808 .0349129
785.517 .0349064
786.226 .0349001
786.935 .0348939
787.643 .0348880
788.352 .0348822
789.060 .0348765
789.767 .0348710
790.475 .0348655
791.182 .0348600
791.889 .0348571
792.595 .0348513
793.301 .0348452
794.008 .0348389
794.713 .0348322
795.419 .0348250
796.124 .0348173
796.829 .0348090
797.534 .0348000
798.238 .0347904
798.942 .0347802
799.646 .0347694
800.350 .0347580
801.053 .0347461
801.756 .0347336
802.459 .0347206
803.162 .0347069
803.864 .0346927
804.566 .0346779
805.267 .0346625
805.969 .0346466
806.670 .0346303
807.371 .0346137
808.071 .0345967
808.772 .0345796
809.472 .0345622
810.171 .0345446
810.871 .0345268
811.570 .0345088
812.269 .0344906
812.967 .0344723
813.666 .0344538
814.364 .0344352
815.061 .0344165
815.759 .0343978
816.456 .0343791
817.153 .0343603
817.849 .0343414
818.545 .0343224
819.241 .0343032
819.937 .0342839
820.632 .0342645
821.327 .0342448
822.022 .0342249
822.717 .0342049
823.411 .0341847
824.105 .0341644
824.798 .0341438
825.491 .0341232
826.184 .0341024
826.877 .0340815
827.569 .0340606
828.261 .0340398
828.953 .0340191
829.645 .0339986
830.336 .0339784
831.027 .0339587
831.717 .0339394
832.407 .0339205
833.097 .0339023
833.787 .0338846
834.476 .0338675
835.165 .0338511
835.854 .0338353
836.542 .0338201
837.230 .0338055
837.918 .0337915
838.605 .0337782
839.292 .0337655
839.979 .0337535
840.665 .0337421
841.352 .0337313
842.037 .0337211
842.723 .0337115
843.408 .0337024
844.093 .0336938
844.777 .0336856
845.462 .0336778
846.145 .0336704
846.829 .0336632
847.512 .0336564
848.195 .0336498
848.878 .0336435
849.560 .0336373
850.242 .0336311
850.923 .0336250
851.605 .0336187
852.286 .0336121
852.966 .0336053
853.646 .0335981
854.326 .0335905
855.006 .0335825
855.685 .0335742
856.364 .0335656
857.043 .0335567
857.721 .0335474
858.399 .0335379
859.077 .0335281
859.754 .0335181
860.431 .0335079
861.107 .0334975
861.784 .0334870
862.459 .0334765
863.135 .0334658
863.810 .0334551
864.485 .0334443
865.160 .0334334
865.834 .0334224
866.508 .0334112
867.181 .0334000
867.854 .0333887
868.527 .0333775
869.199 .0333663
869.872 .0333553
870.543 .0333445
871.215 .0333338
871.886 .0333233
872.557 .0333129
873.227 .0333026
873.897 .0332923
874.567 .0332820
875.236 .0332717
875.905 .0332613
876.573 .0332507
877.242 .0332399
877.909 .0332288
878.577 .0332174
879.244 .0332055
879.911 .0331932
880.577 .0331803
881.243 .0331671
881.909 .0331533
882.575 .0331390
883.240 .0331242
883.904 .0331088
884.569 .0330931
885.232 .0330768
885.896 .0330602
886.559 .0330433
887.222 .0330262
887.885 .0330090
888.547 .0329916
889.208 .0329743
889.870 .0329569
890.531 .0329395
891.192 .0329219
891.852 .0329042
892.512 .0328863
893.171 .0328681
893.830 .0328498
894.489 .0328314
895.148 .0328128
895.806 .0327941
896.464 .0327754
897.121 .0327565
897.778 .0327377
898.434 .0327188
899.091 .0326896
899.747 .0326704
900.402 .0326511
901.057 .0326318
901.712 .0326124
902.366 .0325930
903.020 .0325735
903.674 .0325539
904.327 .0325340
904.980 .0325139
905.633 .0324935
906.285 .0324728
906.936 .0324518
907.588 .0324412
908.239 .0324199
908.889 .0323985
909.540 .0323769
910.190 .0323553
910.839 .0323335
911.488 .0323117
912.137 .0322897
912.785 .0322677
913.433 .0322456
914.081 .0322235
914.728 .0322014
915.375 .0321795
916.021 .0321576
916.668 .0321360
917.313 .0321145
917.959 .0320932
918.604 .0320721
919.248 .0320511
919.892 .0320301
920.536 .0320092
921.180 .0319884
921.823 .0319675
922.465 .0319466
923.108 .0319257
923.750 .0319049
924.391 .0318841
925.032 .0318634
925.673 .0318427
926.313 .0318222
926.953 .0318017
927.593 .0317814
928.232 .0317612
928.871 .0317412
929.510 .0317213
930.148 .0317016
930.786 .0316821
931.423 .0316628
932.060 .0316437
932.697 .0316249
933.333 .0316062
933.969 .0315879
934.604 .0315700
935.239 .0315525
935.874 .0315353
936.508 .0315186
937.142 .0315024
937.776 .0314866
938.409 .0314714
939.042 .0314568
939.674 .0314427
940.306 .0314293
940.938 .0314165
941.569 .0314043
942.200 .0313928
942.830 .0313818
943.460 .0313715
944.090 .0313617
944.720 .0313524
945.349 .0313437
945.977 .0313354
946.606 .0313277
947.233 .0313204
947.861 .0313136
948.488 .0313072
949.115 .0313011
949.741 .0312955
950.367 .0312901
950.993 .0312849
951.618 .0312799
952.243 .0312749
952.868 .0312700
953.492 .0312650
954.115 .0312600
954.739 .0312550
955.362 .0312500
955.984 .0312450
956.607 .0312401
957.229 .0312352
957.850 .0312304
958.471 .0312257
959.092 .0312210
959.713 .0312165
960.333 .0312120
960.952 .0312075
961.572 .0312031
962.191 .0311988
962.809 .0311946
963.428 .0311906
964.045 .0311866
964.663 .0311829
965.280 .0311792
965.897 .0311756
966.513 .0311721
967.129 .0311685
967.745 .0311648
968.361 .0311609
968.976 .0311568
969.590 .0311523
970.205 .0311476
970.818 .0311426
971.432 .0311371
972.045 .0311314
972.658 .0311252
973.271 .0311185
973.883 .0311114
974.495 .0311038
975.106 .0310958
975.717 .0310873
976.328 .0310784
976.938 .0310692
977.548 .0310596
978.158 .0310498
978.768 .0310334
979.377 .0310228
979.985 .0310118
980.594 .0310005
981.202 .0309889
981.809 .0309770
982.417 .0309650
983.024 .0309529
983.631 .0309408
984.237 .0309287
984.843 .0309166
985.449 .0309046
986.054 .0308925
986.659 .0308804
987.264 .0308746
987.868 .0308624
988.472 .0308502
989.076 .0308380
989.679 .0308259
990.282 .0308140
990.885 .0308021
991.487 .0307902
992.090 .0307783
992.691 .0307663
993.293 .0307539
993.894 .0307413
994.495 .0307282
995.095 .0307147
995.696 .0307009
996.296 .0306866
996.895 .0306721
997.494 .0306574
998.093 .0306423
998.692 .0306269
999.291 .0306111
999.889 .0305949
1000.487 .0305783
1001.084 .0305613
1001.681 .0305439
1002.278 .0305262
1002.875 .0305084
1003.471 .0304905
1004.067 .0304727
1004.663 .0304550
1005.258 .0304374
1005.854 .0304198
1006.449 .0304023
1007.043 .0303847
1007.638 .0303671
1008.232 .0303495
1008.826 .0303319
1009.419 .0303145
1010.012 .0302973
1010.605 .0302804
1011.198 .0302638
1011.791 .0302477
1012.383 .0302321
1012.975 .0302169
1013.566 .0302022
1014.158 .0301879
1014.749 .0301742
1015.340 .0301611
1015.931 .0301486
1016.521 .0301368
1017.111 .0301257
1017.701 .0301153
1018.291 .0301057
1018.880 .0300968
1019.470 .0300884
1020.059 .0300806
1020.647 .0300731
1021.236 .0300659
1021.824 .0300589
1022.412 .0300520
1023.000 .0300452
1023.588 .0300386
1024.175 .0300320
1024.762 .0300255
1025.349 .0300192
1025.936 .0300130
1026.523 .0300070
1027.109 .0300012
1027.695 .0299955
1028.281 .0299900
1028.867 .0299847
1029.452 .0299795
1030.038 .0299746
1030.623 .0299701
1031.208 .0299658
1031.792 .0299619
1032.377 .0299584
1032.961 .0299551
1033.546 .0299521
1034.130 .0299493
1034.714 .0299466
1035.297 .0299439
1035.881 .0299412
1036.464 .0299385
1037.047 .0299357
1037.630 .0299332
1038.213 .0299308
1038.796 .0299287
1039.378 .0299269
1039.961 .0299255
1040.543 .0299244
1041.125 .0299236
1041.707 .0299230
1042.289 .0299226
1042.871 .0299223
1043.452 .0299221
1044.034 .0299221
1044.615 .0299223
1045.196 .0299227
1045.777 .0299234
1046.358 .0299243
1046.939 .0299253
1047.520 .0299262
1048.101 .0299269
1048.681 .0299273
1049.262 .0299273
1049.842 .0299271
1050.422 .0299266
1051.002 .0299260
1051.582 .0299255
1052.162 .0299253
1052.742 .0299255
1053.322 .0299260
1053.902 .0299268
1054.482 .0299279
1055.061 .0299292
1055.641 .0299306
1056.220 .0299321
1056.800 .0299338
1057.379 .0299358
1057.958 .0299381
1058.538 .0299408
1059.117 .0299440
1059.696 .0299476
1060.275 .0299514
1060.854 .0299554
1061.433 .0299593
1062.012 .0299631
1062.592 .0299668
1063.171 .0299704
1063.750 .0299742
1064.329 .0299783
1064.908 .0299830
1065.487 .0299883
1066.066 .0299944
1066.645 .0300011
1067.224 .0300085
1067.803 .0300162
1068.382 .0300242
1068.961 .0300321
1069.540 .0300399
1070.119 .0300476
1070.698 .0300553
1071.278 .0300631
1071.857 .0300710
1072.436 .0300790
1073.016 .0300870
1073.595 .0300950
1074.175 .0301027
1074.754 .0301099
1075.334 .0301166
1075.913 .0301224
1076.493 .0301276
1077.073 .0301322
1077.653 .0301363
1078.233 .0301401
1078.813 .0301438
1079.393 .0301473
1079.974 .0301507
1080.554 .0301539
1081.135 .0301569
1081.716 .0301594
1082.296 .0301615
1082.877 .0301631
1083.458 .0301642
1084.040 .0301648
1084.621 .0301649
1085.202 .0301648
1085.784 .0301644
1086.366 .0301638
1086.948 .0301631
1087.530 .0301621
1088.112 .0301609
1088.695 .0301594
1089.277 .0301575
1089.860 .0301554
1090.443 .0301530
1091.026 .0301504
1091.610 .0301478
1092.193 .0301451
1092.777 .0301425
1093.361 .0301400
1093.946 .0301375
1094.530 .0301350
1095.115 .0301325
1095.700 .0301300
1096.285 .0301274
1096.871 .0301247
1097.456 .0301221
1098.042 .0301195
1098.628 .0301170
1099.215 .0301145
1099.802 .0301121
1100.389 .0301097
1100.976 .0301074
1101.564 .0301050
1102.152 .0301027
1102.740 .0301006
1103.329 .0300987
1103.917 .0300972
1104.507 .0300963
1105.096 .0300960
1105.686 .0300964
1106.276 .0300975
1106.867 .0300993
1107.457 .0301016
1108.049 .0301045
1108.640 .0301080
1109.232 .0301121
1109.825 .0301168
1110.417 .0301223
1111.010 .0301284
1111.604 .0301353
1112.198 .0301429
1112.792 .0301512
1113.387 .0301600
1113.982 .0301692
1114.577 .0301789
1115.173 .0301889
1115.769 .0301993
1116.366 .0302101
1116.963 .0302214
1117.561 .0302332
1118.159 .0302457
1118.758 .0302588
1119.357 .0302726
1119.957 .0302871
1120.557 .0303022
1121.157 .0303175
1121.758 .0303328
1122.360 .0303480
1122.962 .0303629
1123.564 .0303774
1124.167 .0303836
1124.771 .0303976
1125.375 .0304112
1125.980 .0304243
1126.585 .0304371
1127.191 .0304499
1127.797 .0304629
1128.404 .0304763
1129.012 .0304901
1129.620 .0305046
1130.229 .0305199
1130.838 .0305360
1131.448 .0305531
1132.058 .0305714
1132.669 .0305999
1133.281 .0306212
1133.894 .0306431
1134.507 .0306679
1135.120 .0306953
1135.735 .0307287
1136.350 .0307496
1136.965 .0306684
1137.582 .0306981
1138.199 .0307285
1138.816 .0307616
1139.435 .0308000
1140.054 .0308434
1140.674 .0308955
1141.294 .0309429
1141.916 .0309802
1142.538 .0310762
1143.160 .0311706
1143.784 .0313563
1144.408 .0310423
1145.033 .0307993
