Measurement Sequence started on: 14-45-04-498
Integration time: 36
Scans to Average: 2 
>>>>>Begin Spectral Data<<<<<
433.946 .0574446
434.870 .0530427
435.793 .0505179
436.715 .0491448
437.635 .0483602
438.555 .0499120
439.473 .0495248
440.389 .0493671
441.305 .0493063
442.219 .0492778
443.132 .0494052
444.044 .0491765
444.954 .0490757
445.863 .0490420
446.771 .0490443
447.678 .0489599
448.584 .0488912
449.488 .0488260
450.391 .0487592
451.293 .0486890
452.194 .0486156
453.094 .0485414
453.992 .0484651
454.890 .0483861
455.786 .0483042
456.681 .0482196
457.575 .0481323
458.468 .0480434
459.360 .0479536
460.250 .0478635
461.140 .0477743
462.028 .0476857
462.915 .0475977
463.801 .0475101
464.687 .0474225
465.571 .0473345
466.454 .0472461
467.335 .0471574
468.216 .0470688
469.096 .0469805
469.975 .0468924
470.853 .0468050
471.729 .0467182
472.605 .0466321
473.479 .0465466
474.353 .0464617
475.226 .0463770
476.097 .0462927
476.968 .0462090
477.838 .0461262
478.706 .0460450
479.574 .0459658
480.441 .0458892
481.306 .0458156
482.171 .0457449
483.035 .0456769
483.898 .0456112
484.760 .0455475
485.621 .0454854
486.481 .0454246
487.340 .0453650
488.198 .0453070
489.055 .0452508
489.912 .0451966
490.767 .0451448
491.622 .0450736
492.476 .0450271
493.329 .0449824
494.180 .0449389
495.032 .0448964
495.882 .0448546
496.731 .0448130
497.580 .0447717
498.427 .0447305
499.274 .0446896
500.120 .0446707
500.965 .0446297
501.809 .0445886
502.653 .0445477
503.495 .0445068
504.337 .0444660
505.178 .0444250
506.018 .0443840
506.858 .0443428
507.696 .0443014
508.534 .0442599
509.371 .0442185
510.208 .0441774
511.043 .0441369
511.878 .0440971
512.712 .0440584
513.545 .0440208
514.377 .0439843
515.209 .0439488
516.040 .0439143
516.870 .0438800
517.699 .0438456
518.528 .0438105
519.356 .0437743
520.183 .0437364
521.010 .0436963
521.836 .0436536
522.661 .0436084
523.485 .0435602
524.309 .0435096
525.132 .0434565
525.954 .0434013
526.776 .0433435
527.597 .0432834
528.417 .0432206
529.237 .0431551
530.056 .0430867
530.874 .0430162
531.692 .0429441
532.508 .0428711
533.325 .0427981
534.140 .0427262
534.955 .0426561
535.770 .0425883
536.583 .0425226
537.397 .0424588
538.209 .0423967
539.021 .0423363
539.832 .0422775
540.643 .0422206
541.453 .0421657
542.262 .0421132
543.071 .0420632
543.879 .0420163
544.687 .0419724
545.494 .0419313
546.300 .0418930
547.106 .0418569
547.911 .0418224
548.716 .0417889
549.520 .0417564
550.323 .0417251
551.126 .0416954
551.929 .0416677
552.731 .0416426
553.532 .0416212
554.332 .0416040
555.133 .0415911
555.932 .0415826
556.731 .0415779
557.530 .0415761
558.328 .0415761
559.125 .0415770
559.922 .0415780
560.719 .0415783
561.515 .0415774
562.310 .0415753
563.105 .0415715
563.899 .0415660
564.693 .0415585
565.487 .0415487
566.280 .0415362
567.072 .0415203
567.864 .0415003
568.655 .0414758
569.446 .0414467
570.236 .0414130
571.026 .0413752
571.816 .0413338
572.605 .0412896
573.393 .0412433
574.181 .0411956
574.969 .0411470
575.756 .0410979
576.543 .0410486
577.329 .0409995
578.115 .0409506
578.900 .0409022
579.685 .0408546
580.469 .0408083
581.253 .0407635
582.036 .0407205
582.820 .0406793
583.602 .0406397
584.384 .0406018
585.166 .0405654
585.947 .0405301
586.728 .0404959
587.509 .0404625
588.289 .0404297
589.069 .0403974
589.848 .0403653
590.627 .0403333
591.405 .0403015
592.183 .0402697
592.961 .0402379
593.738 .0402061
594.515 .0401745
595.291 .0401431
596.067 .0401121
596.843 .0400816
597.618 .0400514
598.393 .0400077
599.167 .0399788
599.941 .0399501
600.715 .0399218
601.488 .0398937
602.261 .0398660
603.034 .0398387
603.806 .0398116
604.578 .0397850
605.349 .0397587
606.121 .0397328
606.891 .0397204
607.662 .0396948
608.432 .0396694
609.201 .0396440
609.971 .0396187
610.740 .0395935
611.508 .0395684
612.277 .0395436
613.045 .0395190
613.812 .0394948
614.579 .0394710
615.346 .0394476
616.113 .0394244
616.879 .0394013
617.645 .0393784
618.411 .0393555
619.176 .0393325
619.941 .0393095
620.705 .0392865
621.470 .0392634
622.233 .0392403
622.997 .0392171
623.760 .0391939
624.523 .0391705
625.286 .0391471
626.048 .0391235
626.810 .0390998
627.572 .0390758
628.333 .0390516
629.095 .0390270
629.855 .0390021
630.616 .0389769
631.376 .0389513
632.136 .0389254
632.895 .0388992
633.655 .0388728
634.414 .0388463
635.172 .0388196
635.931 .0387928
636.689 .0387660
637.447 .0387391
638.204 .0387123
638.962 .0386855
639.718 .0386587
640.475 .0386320
641.231 .0386053
641.988 .0385787
642.743 .0385521
643.499 .0385257
644.254 .0384993
645.009 .0384731
645.764 .0384471
646.518 .0384213
647.272 .0383958
648.026 .0383706
648.780 .0383457
649.533 .0383210
650.286 .0382964
651.039 .0382720
651.792 .0382478
652.544 .0382237
653.296 .0381998
654.048 .0381762
654.799 .0381529
655.550 .0381300
656.301 .0381074
657.052 .0380852
657.802 .0380633
658.552 .0380417
659.302 .0380204
660.052 .0379995
660.801 .0379790
661.550 .0379590
662.299 .0379396
663.048 .0379206
663.796 .0379021
664.544 .0378840
665.292 .0378663
666.040 .0378487
666.787 .0378314
667.534 .0378143
668.281 .0377974
669.028 .0377809
669.774 .0377648
670.521 .0377490
671.266 .0377336
672.012 .0377185
672.758 .0377036
673.503 .0376889
674.248 .0376742
674.992 .0376596
675.737 .0376449
676.481 .0376300
677.225 .0376148
677.969 .0375994
678.712 .0375837
679.455 .0375676
680.199 .0375512
680.941 .0375345
681.684 .0375174
682.426 .0375000
683.168 .0374823
683.910 .0374642
684.652 .0374458
685.393 .0374271
686.134 .0374079
686.875 .0373883
687.616 .0373683
688.356 .0373479
689.097 .0373273
689.837 .0373065
690.576 .0372857
691.316 .0372649
692.055 .0372442
692.794 .0372237
693.533 .0372032
694.272 .0371830
695.010 .0371628
695.748 .0371426
696.486 .0371225
697.224 .0371023
697.962 .0370822
698.699 .0370620
699.436 .0370418
700.173 .0370217
700.909 .0370016
701.646 .0369816
702.382 .0369617
703.118 .0369418
703.853 .0369220
704.589 .0369022
705.324 .0368824
706.059 .0368626
706.794 .0368427
707.529 .0368228
708.263 .0368030
708.997 .0367832
709.731 .0367635
710.465 .0367440
711.198 .0367248
711.931 .0367060
712.664 .0366875
713.397 .0366695
714.130 .0366518
714.862 .0366346
715.594 .0366176
716.326 .0366009
717.058 .0365843
717.789 .0365678
718.520 .0365514
719.251 .0365351
719.982 .0365188
720.713 .0365025
721.443 .0364861
722.173 .0364697
722.903 .0364532
723.633 .0364365
724.362 .0364196
725.091 .0364025
725.820 .0363851
726.549 .0363674
727.278 .0363495
728.006 .0363314
728.734 .0363131
729.462 .0362947
730.190 .0362761
730.917 .0362575
731.644 .0362388
732.371 .0362202
733.098 .0362017
733.825 .0361833
734.551 .0361651
735.277 .0361470
736.003 .0361291
736.728 .0361114
737.454 .0360938
738.179 .0360764
738.904 .0360592
739.629 .0360420
740.353 .0360251
741.077 .0360082
741.801 .0359915
742.525 .0359748
743.249 .0359581
743.972 .0359413
744.695 .0359244
745.418 .0359073
746.141 .0358899
746.863 .0358723
747.585 .0358543
748.307 .0358360
749.029 .0358174
749.750 .0357985
750.472 .0357792
751.193 .0357597
751.913 .0357399
752.634 .0357199
753.354 .0356998
754.074 .0356795
754.794 .0356592
755.514 .0356390
756.233 .0356188
756.952 .0355987
757.671 .0355788
758.390 .0355591
759.108 .0355397
759.826 .0355207
760.544 .0355022
761.262 .0354840
761.979 .0354663
762.697 .0354489
763.414 .0354319
764.130 .0354152
764.847 .0353988
765.563 .0353827
766.279 .0353668
766.995 .0353513
767.710 .0353360
768.426 .0353211
769.141 .0353065
769.855 .0352921
770.570 .0352779
771.284 .0352638
771.998 .0352499
772.712 .0352359
773.426 .0352219
774.139 .0352079
774.852 .0351937
775.565 .0351795
776.277 .0351653
776.990 .0351510
777.702 .0351367
778.414 .0351224
779.125 .0351081
779.836 .0350940
780.547 .0350799
781.258 .0350661
781.969 .0350525
782.679 .0350391
783.389 .0350198
784.099 .0350069
784.808 .0349942
785.517 .0349816
786.226 .0349690
786.935 .0349566
787.643 .0349441
788.352 .0349317
789.060 .0349194
789.767 .0349070
790.475 .0348947
791.182 .0348822
791.889 .0348755
792.595 .0348627
793.301 .0348495
794.008 .0348360
794.713 .0348222
795.419 .0348079
796.124 .0347933
796.829 .0347784
797.534 .0347632
798.238 .0347477
798.942 .0347318
799.646 .0347157
800.350 .0346991
801.053 .0346822
801.756 .0346648
802.459 .0346470
803.162 .0346289
803.864 .0346105
804.566 .0345920
805.267 .0345733
805.969 .0345546
806.670 .0345359
807.371 .0345172
808.071 .0344985
808.772 .0344799
809.472 .0344612
810.171 .0344426
810.871 .0344241
811.570 .0344056
812.269 .0343872
812.967 .0343688
813.666 .0343504
814.364 .0343320
815.061 .0343135
815.759 .0342948
816.456 .0342759
817.153 .0342569
817.849 .0342377
818.545 .0342183
819.241 .0341989
819.937 .0341793
820.632 .0341596
821.327 .0341398
822.022 .0341198
822.717 .0340996
823.411 .0340793
824.105 .0340588
824.798 .0340383
825.491 .0340177
826.184 .0339971
826.877 .0339766
827.569 .0339561
828.261 .0339358
828.953 .0339157
829.645 .0338957
830.336 .0338759
831.027 .0338563
831.717 .0338369
832.407 .0338179
833.097 .0337992
833.787 .0337810
834.476 .0337632
835.165 .0337458
835.854 .0337290
836.542 .0337126
837.230 .0336968
837.918 .0336815
838.605 .0336667
839.292 .0336522
839.979 .0336382
840.665 .0336245
841.352 .0336110
842.037 .0335977
842.723 .0335846
843.408 .0335715
844.093 .0335584
844.777 .0335454
845.462 .0335324
846.145 .0335194
846.829 .0335065
847.512 .0334936
848.195 .0334808
848.878 .0334681
849.560 .0334553
850.242 .0334425
850.923 .0334295
851.605 .0334164
852.286 .0334031
852.966 .0333896
853.646 .0333758
854.326 .0333617
855.006 .0333474
855.685 .0333329
856.364 .0333181
857.043 .0333031
857.721 .0332879
858.399 .0332726
859.077 .0332571
859.754 .0332416
860.431 .0332261
861.107 .0332106
861.784 .0331950
862.459 .0331795
863.135 .0331639
863.810 .0331482
864.485 .0331325
865.160 .0331166
865.834 .0331006
866.508 .0330845
867.181 .0330684
867.854 .0330523
868.527 .0330362
869.199 .0330200
869.872 .0330039
870.543 .0329877
871.215 .0329715
871.886 .0329551
872.557 .0329386
873.227 .0329220
873.897 .0329052
874.567 .0328884
875.236 .0328716
875.905 .0328547
876.573 .0328378
877.242 .0328209
877.909 .0328040
878.577 .0327869
879.244 .0327697
879.911 .0327523
880.577 .0327348
881.243 .0327172
881.909 .0326994
882.575 .0326817
883.240 .0326640
883.904 .0326463
884.569 .0326286
885.232 .0326109
885.896 .0325933
886.559 .0325758
887.222 .0325585
887.885 .0325413
888.547 .0325245
889.208 .0325080
889.870 .0324918
890.531 .0324760
891.192 .0324605
891.852 .0324452
892.512 .0324302
893.171 .0324152
893.830 .0324002
894.489 .0323854
895.148 .0323705
895.806 .0323556
896.464 .0323408
897.121 .0323260
897.778 .0323112
898.434 .0322964
899.091 .0322733
899.747 .0322580
900.402 .0322425
901.057 .0322268
901.712 .0322108
902.366 .0321947
903.020 .0321784
903.674 .0321619
904.327 .0321453
904.980 .0321285
905.633 .0321116
906.285 .0320945
906.936 .0320773
907.588 .0320683
908.239 .0320509
908.889 .0320332
909.540 .0320154
910.190 .0319973
910.839 .0319792
911.488 .0319610
912.137 .0319428
912.785 .0319246
913.433 .0319065
914.081 .0318885
914.728 .0318706
915.375 .0318528
916.021 .0318351
916.668 .0318175
917.313 .0318000
917.959 .0317825
918.604 .0317652
919.248 .0317479
919.892 .0317307
920.536 .0317135
921.180 .0316961
921.823 .0316787
922.465 .0316611
923.108 .0316433
923.750 .0316254
924.391 .0316073
925.032 .0315892
925.673 .0315710
926.313 .0315527
926.953 .0315345
927.593 .0315162
928.232 .0314978
928.871 .0314794
929.510 .0314609
930.148 .0314425
930.786 .0314241
931.423 .0314057
932.060 .0313875
932.697 .0313694
933.333 .0313515
933.969 .0313337
934.604 .0313160
935.239 .0312983
935.874 .0312807
936.508 .0312630
937.142 .0312453
937.776 .0312277
938.409 .0312101
939.042 .0311927
939.674 .0311755
940.306 .0311585
940.938 .0311415
941.569 .0311247
942.200 .0311078
942.830 .0310910
943.460 .0310741
944.090 .0310572
944.720 .0310405
945.349 .0310239
945.977 .0310074
946.606 .0309912
947.233 .0309752
947.861 .0309594
948.488 .0309437
949.115 .0309280
949.741 .0309124
950.367 .0308969
950.993 .0308814
951.618 .0308660
952.243 .0308508
952.868 .0308357
953.492 .0308208
954.115 .0308061
954.739 .0307915
955.362 .0307770
955.984 .0307625
956.607 .0307480
957.229 .0307334
957.850 .0307188
958.471 .0307043
959.092 .0306897
959.713 .0306753
960.333 .0306611
960.952 .0306471
961.572 .0306332
962.191 .0306196
962.809 .0306061
963.428 .0305928
964.045 .0305795
964.663 .0305664
965.280 .0305534
965.897 .0305405
966.513 .0305277
967.129 .0305151
967.745 .0305026
968.361 .0304903
968.976 .0304782
969.590 .0304662
970.205 .0304543
970.818 .0304425
971.432 .0304307
972.045 .0304188
972.658 .0304069
973.271 .0303949
973.883 .0303829
974.495 .0303708
975.106 .0303588
975.717 .0303467
976.328 .0303346
976.938 .0303225
977.548 .0303103
978.158 .0302979
978.768 .0302781
979.377 .0302653
979.985 .0302522
980.594 .0302389
981.202 .0302255
981.809 .0302121
982.417 .0301986
983.024 .0301852
983.631 .0301717
984.237 .0301583
984.843 .0301449
985.449 .0301314
986.054 .0301180
986.659 .0301046
987.264 .0300988
987.868 .0300856
988.472 .0300726
989.076 .0300598
989.679 .0300473
990.282 .0300352
990.885 .0300233
991.487 .0300118
992.090 .0300005
992.691 .0299895
993.293 .0299786
993.894 .0299678
994.495 .0299572
995.095 .0299467
995.696 .0299363
996.296 .0299261
996.895 .0299159
997.494 .0299059
998.093 .0298958
998.692 .0298858
999.291 .0298756
999.889 .0298653
1000.487 .0298548
1001.084 .0298441
1001.681 .0298332
1002.278 .0298222
1002.875 .0298111
1003.471 .0298000
1004.067 .0297890
1004.663 .0297782
1005.258 .0297675
1005.854 .0297570
1006.449 .0297467
1007.043 .0297365
1007.638 .0297265
1008.232 .0297166
1008.826 .0297068
1009.419 .0296972
1010.012 .0296877
1010.605 .0296785
1011.198 .0296696
1011.791 .0296609
1012.383 .0296526
1012.975 .0296446
1013.566 .0296370
1014.158 .0296297
1014.749 .0296228
1015.340 .0296163
1015.931 .0296103
1016.521 .0296047
1017.111 .0295997
1017.701 .0295953
1018.291 .0295914
1018.880 .0295882
1019.470 .0295856
1020.059 .0295835
1020.647 .0295818
1021.236 .0295806
1021.824 .0295796
1022.412 .0295789
1023.000 .0295785
1023.588 .0295782
1024.175 .0295782
1024.762 .0295783
1025.349 .0295785
1025.936 .0295790
1026.523 .0295795
1027.109 .0295802
1027.695 .0295808
1028.281 .0295814
1028.867 .0295820
1029.452 .0295825
1030.038 .0295830
1030.623 .0295835
1031.208 .0295840
1031.792 .0295843
1032.377 .0295844
1032.961 .0295843
1033.546 .0295839
1034.130 .0295831
1034.714 .0295818
1035.297 .0295801
1035.881 .0295778
1036.464 .0295752
1037.047 .0295722
1037.630 .0295688
1038.213 .0295650
1038.796 .0295609
1039.378 .0295566
1039.961 .0295520
1040.543 .0295473
1041.125 .0295424
1041.707 .0295375
1042.289 .0295327
1042.871 .0295280
1043.452 .0295234
1044.034 .0295190
1044.615 .0295149
1045.196 .0295109
1045.777 .0295072
1046.358 .0295037
1046.939 .0295004
1047.520 .0294974
1048.101 .0294946
1048.681 .0294922
1049.262 .0294902
1049.842 .0294886
1050.422 .0294874
1051.002 .0294867
1051.582 .0294865
1052.162 .0294867
1052.742 .0294874
1053.322 .0294885
1053.902 .0294899
1054.482 .0294915
1055.061 .0294933
1055.641 .0294953
1056.220 .0294974
1056.800 .0294997
1057.379 .0295019
1057.958 .0295039
1058.538 .0295057
1059.117 .0295070
1059.696 .0295078
1060.275 .0295078
1060.854 .0295070
1061.433 .0295053
1062.012 .0295029
1062.592 .0294998
1063.171 .0294962
1063.750 .0294921
1064.329 .0294876
1064.908 .0294829
1065.487 .0294779
1066.066 .0294726
1066.645 .0294671
1067.224 .0294614
1067.803 .0294554
1068.382 .0294493
1068.961 .0294430
1069.540 .0294367
1070.119 .0294306
1070.698 .0294247
1071.278 .0294191
1071.857 .0294138
1072.436 .0294087
1073.016 .0294039
1073.595 .0293993
1074.175 .0293947
1074.754 .0293903
1075.334 .0293860
1075.913 .0293819
1076.493 .0293780
1077.073 .0293745
1077.653 .0293714
1078.233 .0293687
1078.813 .0293664
1079.393 .0293643
1079.974 .0293625
1080.554 .0293608
1081.135 .0293591
1081.716 .0293574
1082.296 .0293556
1082.877 .0293537
1083.458 .0293516
1084.040 .0293494
1084.621 .0293468
1085.202 .0293438
1085.784 .0293403
1086.366 .0293363
1086.948 .0293316
1087.530 .0293262
1088.112 .0293201
1088.695 .0293134
1089.277 .0293060
1089.860 .0292982
1090.443 .0292898
1091.026 .0292811
1091.610 .0292719
1092.193 .0292625
1092.777 .0292530
1093.361 .0292433
1093.946 .0292338
1094.530 .0292244
1095.115 .0292154
1095.700 .0292068
1096.285 .0291987
1096.871 .0291909
1097.456 .0291834
1098.042 .0291764
1098.628 .0291695
1099.215 .0291630
1099.802 .0291568
1100.389 .0291512
1100.976 .0291463
1101.564 .0291422
1102.152 .0291390
1102.740 .0291369
1103.329 .0291356
1103.917 .0291351
1104.507 .0291353
1105.096 .0291362
1105.686 .0291378
1106.276 .0291401
1106.867 .0291435
1107.457 .0291480
1108.049 .0291537
1108.640 .0291608
1109.232 .0291693
1109.825 .0291789
1110.417 .0291893
1111.010 .0292005
1111.604 .0292122
1112.198 .0292242
1112.792 .0292364
1113.387 .0292488
1113.982 .0292617
1114.577 .0292749
1115.173 .0292884
1115.769 .0293024
1116.366 .0293167
1116.963 .0293310
1117.561 .0293455
1118.159 .0293601
1118.758 .0293748
1119.357 .0293898
1119.957 .0294051
1120.557 .0294211
1121.157 .0294381
1121.758 .0294560
1122.360 .0294752
1122.962 .0294957
1123.564 .0295175
1124.167 .0295266
1124.771 .0295497
1125.375 .0295739
1125.980 .0295994
1126.585 .0296264
1127.191 .0296552
1127.797 .0296861
1128.404 .0297192
1129.012 .0297549
1129.620 .0297934
1130.229 .0298348
1130.838 .0298793
1131.448 .0299268
1132.058 .0299775
1132.669 .0300506
1133.281 .0301098
1133.894 .0301732
1134.507 .0302383
1135.120 .0303103
1135.735 .0303830
1136.350 .0304681
1136.965 .0304233
1137.582 .0305098
1138.199 .0306024
1138.816 .0306993
1139.435 .0307988
1140.054 .0309038
1140.674 .0310098
1141.294 .0311272
1141.916 .0312497
1142.538 .0313074
1143.160 .0315073
1143.784 .0315432
1144.408 .0319021
1145.033 .0320113
