Measurement Sequence started on: 14-45-04-498
Integration time: 36
Scans to Average: 2 
>>>>>Begin Spectral Data<<<<<
433.946 .0486719
434.870 .0511717
435.793 .0477629
436.715 .0469483
437.635 .0474418
438.555 .0468553
439.473 .0464620
440.389 .0460782
441.305 .0458681
442.219 .0457294
443.132 .0463069
444.044 .0459999
444.954 .0458692
445.863 .0457775
446.771 .0456554
447.678 .0455587
448.584 .0454761
449.488 .0454068
450.391 .0453412
451.293 .0452761
452.194 .0452098
453.094 .0451394
453.992 .0450640
454.890 .0449823
455.786 .0448948
456.681 .0448024
457.575 .0447055
458.468 .0446046
459.360 .0445004
460.250 .0443938
461.140 .0442856
462.028 .0441768
462.915 .0440688
463.801 .0439628
464.687 .0438598
465.571 .0437606
466.454 .0436650
467.335 .0435727
468.216 .0434832
469.096 .0433955
469.975 .0433093
470.853 .0432244
471.729 .0431409
472.605 .0430597
473.479 .0429813
474.353 .0429063
475.226 .0428345
476.097 .0427653
476.968 .0426974
477.838 .0426292
478.706 .0425594
479.574 .0424867
480.441 .0424108
481.306 .0423322
482.171 .0422515
483.035 .0421701
483.898 .0420891
484.760 .0420093
485.621 .0419315
486.481 .0418557
487.340 .0417816
488.198 .0417088
489.055 .0416365
489.912 .0415643
490.767 .0414919
491.622 .0413900
492.476 .0413212
493.329 .0412549
494.180 .0411918
495.032 .0411320
495.882 .0410754
496.731 .0410213
497.580 .0409686
498.427 .0409161
499.274 .0408628
500.120 .0408325
500.965 .0407751
501.809 .0407158
502.653 .0406546
503.495 .0405921
504.337 .0405284
505.178 .0404638
506.018 .0403986
506.858 .0403325
507.696 .0402654
508.534 .0401968
509.371 .0401266
510.208 .0400545
511.043 .0399811
511.878 .0399074
512.712 .0398346
513.545 .0397639
514.377 .0396964
515.209 .0396321
516.040 .0395711
516.870 .0395129
517.699 .0394565
518.528 .0394014
519.356 .0393471
520.183 .0392933
521.010 .0392399
521.836 .0391872
522.661 .0391360
523.485 .0390867
524.309 .0390397
525.132 .0389951
525.954 .0389528
526.776 .0389122
527.597 .0388729
528.417 .0388338
529.237 .0387947
530.056 .0387549
530.874 .0387140
531.692 .0386717
532.508 .0386282
533.325 .0385844
534.140 .0385406
534.955 .0384975
535.770 .0384555
536.583 .0384139
537.397 .0383730
538.209 .0383319
539.021 .0382905
539.832 .0382484
540.643 .0382058
541.453 .0381631
542.262 .0381204
543.071 .0380786
543.879 .0380383
544.687 .0379999
545.494 .0379635
546.300 .0379285
547.106 .0378946
547.911 .0378615
548.716 .0378291
549.520 .0377977
550.323 .0377677
551.126 .0377395
551.929 .0377139
552.731 .0376910
553.532 .0376710
554.332 .0376535
555.133 .0376380
555.932 .0376241
556.731 .0376109
557.530 .0375976
558.328 .0375838
559.125 .0375694
559.922 .0375542
560.719 .0375378
561.515 .0375205
562.310 .0375019
563.105 .0374819
563.899 .0374605
564.693 .0374370
565.487 .0374112
566.280 .0373828
567.072 .0373514
567.864 .0373167
568.655 .0372789
569.446 .0372384
570.236 .0371956
571.026 .0371513
571.816 .0371061
572.605 .0370601
573.393 .0370138
574.181 .0369672
574.969 .0369201
575.756 .0368725
576.543 .0368239
577.329 .0367743
578.115 .0367235
578.900 .0366720
579.685 .0366200
580.469 .0365679
581.253 .0365163
582.036 .0364658
582.820 .0364164
583.602 .0363685
584.384 .0363220
585.166 .0362771
585.947 .0362334
586.728 .0361909
587.509 .0361496
588.289 .0361095
589.069 .0360709
589.848 .0360339
590.627 .0359987
591.405 .0359653
592.183 .0359338
592.961 .0359041
593.738 .0358758
594.515 .0358489
595.291 .0358229
596.067 .0357974
596.843 .0357723
597.618 .0357473
598.393 .0357097
599.167 .0356846
599.941 .0356598
600.715 .0356350
601.488 .0356103
602.261 .0355854
603.034 .0355603
603.806 .0355348
604.578 .0355088
605.349 .0354821
606.121 .0354548
606.891 .0354401
607.662 .0354127
608.432 .0353849
609.201 .0353572
609.971 .0353296
610.740 .0353024
611.508 .0352757
612.277 .0352498
613.045 .0352245
613.812 .0351999
614.579 .0351760
615.346 .0351526
616.113 .0351296
616.879 .0351070
617.645 .0350848
618.411 .0350631
619.176 .0350418
619.941 .0350210
620.705 .0350007
621.470 .0349808
622.233 .0349612
622.997 .0349418
623.760 .0349223
624.523 .0349027
625.286 .0348828
626.048 .0348627
626.810 .0348423
627.572 .0348216
628.333 .0348008
629.095 .0347799
629.855 .0347590
630.616 .0347379
631.376 .0347167
632.136 .0346953
632.895 .0346738
633.655 .0346521
634.414 .0346302
635.172 .0346082
635.931 .0345859
636.689 .0345636
637.447 .0345411
638.204 .0345185
638.962 .0344958
639.718 .0344731
640.475 .0344503
641.231 .0344274
641.988 .0344044
642.743 .0343815
643.499 .0343584
644.254 .0343352
645.009 .0343120
645.764 .0342887
646.518 .0342655
647.272 .0342424
648.026 .0342196
648.780 .0341972
649.533 .0341753
650.286 .0341539
651.039 .0341329
651.792 .0341123
652.544 .0340921
653.296 .0340722
654.048 .0340526
654.799 .0340332
655.550 .0340141
656.301 .0339953
657.052 .0339770
657.802 .0339592
658.552 .0339420
659.302 .0339254
660.052 .0339094
660.801 .0338938
661.550 .0338787
662.299 .0338638
663.048 .0338491
663.796 .0338346
664.544 .0338202
665.292 .0338058
666.040 .0337916
666.787 .0337775
667.534 .0337635
668.281 .0337498
669.028 .0337361
669.774 .0337225
670.521 .0337090
671.266 .0336952
672.012 .0336813
672.758 .0336672
673.503 .0336528
674.248 .0336380
674.992 .0336229
675.737 .0336076
676.481 .0335919
677.225 .0335759
677.969 .0335597
678.712 .0335432
679.455 .0335265
680.199 .0335095
680.941 .0334924
681.684 .0334750
682.426 .0334575
683.168 .0334399
683.910 .0334222
684.652 .0334044
685.393 .0333868
686.134 .0333693
686.875 .0333520
687.616 .0333351
688.356 .0333186
689.097 .0333025
689.837 .0332868
690.576 .0332716
691.316 .0332567
692.055 .0332420
692.794 .0332275
693.533 .0332131
694.272 .0331987
695.010 .0331844
695.748 .0331702
696.486 .0331561
697.224 .0331419
697.962 .0331278
698.699 .0331137
699.436 .0330993
700.173 .0330848
700.909 .0330700
701.646 .0330548
702.382 .0330392
703.118 .0330233
703.853 .0330070
704.589 .0329906
705.324 .0329740
706.059 .0329574
706.794 .0329408
707.529 .0329243
708.263 .0329077
708.997 .0328912
709.731 .0328748
710.465 .0328583
711.198 .0328420
711.931 .0328257
712.664 .0328095
713.397 .0327934
714.130 .0327774
714.862 .0327615
715.594 .0327457
716.326 .0327298
717.058 .0327140
717.789 .0326981
718.520 .0326821
719.251 .0326659
719.982 .0326497
720.713 .0326332
721.443 .0326164
722.173 .0325991
722.903 .0325814
723.633 .0325630
724.362 .0325441
725.091 .0325245
725.820 .0325044
726.549 .0324838
727.278 .0324627
728.006 .0324412
728.734 .0324194
729.462 .0323971
730.190 .0323744
730.917 .0323514
731.644 .0323280
732.371 .0323045
733.098 .0322808
733.825 .0322573
734.551 .0322339
735.277 .0322109
736.003 .0321883
736.728 .0321662
737.454 .0321444
738.179 .0321230
738.904 .0321019
739.629 .0320813
740.353 .0320610
741.077 .0320412
741.801 .0320218
742.525 .0320029
743.249 .0319844
743.972 .0319663
744.695 .0319485
745.418 .0319309
746.141 .0319134
746.863 .0318959
747.585 .0318785
748.307 .0318611
749.029 .0318437
749.750 .0318264
750.472 .0318090
751.193 .0317915
751.913 .0317741
752.634 .0317566
753.354 .0317392
754.074 .0317218
754.794 .0317045
755.514 .0316875
756.233 .0316708
756.952 .0316544
757.671 .0316384
758.390 .0316229
759.108 .0316079
759.826 .0315932
760.544 .0315789
761.262 .0315650
761.979 .0315515
762.697 .0315385
763.414 .0315259
764.130 .0315138
764.847 .0315021
765.563 .0314907
766.279 .0314797
766.995 .0314689
767.710 .0314583
768.426 .0314478
769.141 .0314372
769.855 .0314267
770.570 .0314161
771.284 .0314055
771.998 .0313950
772.712 .0313845
773.426 .0313739
774.139 .0313633
774.852 .0313527
775.565 .0313418
776.277 .0313309
776.990 .0313197
777.702 .0313083
778.414 .0312967
779.125 .0312849
779.836 .0312728
780.547 .0312605
781.258 .0312480
781.969 .0312353
782.679 .0312223
783.389 .0312014
784.099 .0311877
784.808 .0311737
785.517 .0311595
786.226 .0311450
786.935 .0311302
787.643 .0311151
788.352 .0310997
789.060 .0310839
789.767 .0310678
790.475 .0310513
791.182 .0310344
791.889 .0310255
792.595 .0310081
793.301 .0309904
794.008 .0309723
794.713 .0309539
795.419 .0309351
796.124 .0309161
796.829 .0308967
797.534 .0308771
798.238 .0308572
798.942 .0308370
799.646 .0308168
800.350 .0307964
801.053 .0307761
801.756 .0307559
802.459 .0307358
803.162 .0307160
803.864 .0306963
804.566 .0306768
805.267 .0306575
805.969 .0306382
806.670 .0306191
807.371 .0306000
808.071 .0305811
808.772 .0305622
809.472 .0305435
810.171 .0305249
810.871 .0305065
811.570 .0304882
812.269 .0304701
812.967 .0304522
813.666 .0304343
814.364 .0304165
815.061 .0303987
815.759 .0303810
816.456 .0303635
817.153 .0303460
817.849 .0303287
818.545 .0303114
819.241 .0302942
819.937 .0302771
820.632 .0302600
821.327 .0302429
822.022 .0302258
822.717 .0302088
823.411 .0301919
824.105 .0301751
824.798 .0301584
825.491 .0301418
826.184 .0301255
826.877 .0301093
827.569 .0300933
828.261 .0300776
828.953 .0300624
829.645 .0300476
830.336 .0300333
831.027 .0300197
831.717 .0300066
832.407 .0299942
833.097 .0299824
833.787 .0299711
834.476 .0299604
835.165 .0299502
835.854 .0299405
836.542 .0299312
837.230 .0299222
837.918 .0299137
838.605 .0299054
839.292 .0298975
839.979 .0298898
840.665 .0298823
841.352 .0298749
842.037 .0298677
842.723 .0298606
843.408 .0298535
844.093 .0298464
844.777 .0298393
845.462 .0298321
846.145 .0298247
846.829 .0298170
847.512 .0298090
848.195 .0298005
848.878 .0297916
849.560 .0297821
850.242 .0297720
850.923 .0297612
851.605 .0297496
852.286 .0297372
852.966 .0297240
853.646 .0297098
854.326 .0296946
855.006 .0296786
855.685 .0296617
856.364 .0296438
857.043 .0296251
857.721 .0296057
858.399 .0295856
859.077 .0295648
859.754 .0295434
860.431 .0295216
861.107 .0294994
861.784 .0294769
862.459 .0294541
863.135 .0294312
863.810 .0294082
864.485 .0293851
865.160 .0293621
865.834 .0293391
866.508 .0293162
867.181 .0292935
867.854 .0292710
868.527 .0292489
869.199 .0292271
869.872 .0292056
870.543 .0291845
871.215 .0291639
871.886 .0291436
872.557 .0291238
873.227 .0291044
873.897 .0290855
874.567 .0290670
875.236 .0290490
875.905 .0290313
876.573 .0290141
877.242 .0289971
877.909 .0289805
878.577 .0289642
879.244 .0289480
879.911 .0289319
880.577 .0289161
881.243 .0289004
881.909 .0288849
882.575 .0288696
883.240 .0288546
883.904 .0288399
884.569 .0288256
885.232 .0288115
885.896 .0287978
886.559 .0287843
887.222 .0287710
887.885 .0287580
888.547 .0287452
889.208 .0287327
889.870 .0287204
890.531 .0287085
891.192 .0286969
891.852 .0286857
892.512 .0286750
893.171 .0286647
893.830 .0286548
894.489 .0286452
895.148 .0286360
895.806 .0286271
896.464 .0286184
897.121 .0286100
897.778 .0286018
898.434 .0285938
899.091 .0285825
899.747 .0285749
900.402 .0285673
901.057 .0285599
901.712 .0285524
902.366 .0285451
903.020 .0285377
903.674 .0285304
904.327 .0285232
904.980 .0285160
905.633 .0285088
906.285 .0285016
906.936 .0284943
907.588 .0284901
908.239 .0284827
908.889 .0284752
909.540 .0284674
910.190 .0284594
910.839 .0284512
911.488 .0284428
912.137 .0284342
912.785 .0284254
913.433 .0284164
914.081 .0284072
914.728 .0283978
915.375 .0283883
916.021 .0283785
916.668 .0283685
917.313 .0283583
917.959 .0283477
918.604 .0283367
919.248 .0283255
919.892 .0283139
920.536 .0283019
921.180 .0282897
921.823 .0282772
922.465 .0282643
923.108 .0282512
923.750 .0282378
924.391 .0282240
925.032 .0282099
925.673 .0281955
926.313 .0281807
926.953 .0281657
927.593 .0281504
928.232 .0281350
928.871 .0281193
929.510 .0281035
930.148 .0280875
930.786 .0280713
931.423 .0280549
932.060 .0280383
932.697 .0280214
933.333 .0280045
933.969 .0279874
934.604 .0279702
935.239 .0279530
935.874 .0279358
936.508 .0279185
937.142 .0279011
937.776 .0278836
938.409 .0278659
939.042 .0278481
939.674 .0278301
940.306 .0278120
940.938 .0277938
941.569 .0277756
942.200 .0277573
942.830 .0277389
943.460 .0277204
944.090 .0277017
944.720 .0276828
945.349 .0276637
945.977 .0276444
946.606 .0276250
947.233 .0276054
947.861 .0275858
948.488 .0275661
949.115 .0275463
949.741 .0275265
950.367 .0275066
950.993 .0274866
951.618 .0274666
952.243 .0274465
952.868 .0274264
953.492 .0274064
954.115 .0273864
954.739 .0273665
955.362 .0273466
955.984 .0273267
956.607 .0273067
957.229 .0272868
957.850 .0272668
958.471 .0272467
959.092 .0272267
959.713 .0272068
960.333 .0271869
960.952 .0271672
961.572 .0271477
962.191 .0271284
962.809 .0271093
963.428 .0270904
964.045 .0270720
964.663 .0270539
965.280 .0270363
965.897 .0270194
966.513 .0270030
967.129 .0269873
967.745 .0269723
968.361 .0269577
968.976 .0269437
969.590 .0269301
970.205 .0269170
970.818 .0269043
971.432 .0268920
972.045 .0268801
972.658 .0268688
973.271 .0268579
973.883 .0268474
974.495 .0268374
975.106 .0268279
975.717 .0268187
976.328 .0268100
976.938 .0268017
977.548 .0267938
978.158 .0267864
978.768 .0267763
979.377 .0267699
979.985 .0267639
980.594 .0267583
981.202 .0267531
981.809 .0267482
982.417 .0267437
983.024 .0267394
983.631 .0267354
984.237 .0267316
984.843 .0267280
985.449 .0267246
986.054 .0267213
986.659 .0267181
987.264 .0267176
987.868 .0267144
988.472 .0267112
989.076 .0267081
989.679 .0267051
990.282 .0267023
990.885 .0266998
991.487 .0266975
992.090 .0266954
992.691 .0266936
993.293 .0266919
993.894 .0266903
994.495 .0266888
995.095 .0266874
995.696 .0266859
996.296 .0266845
996.895 .0266830
997.494 .0266815
998.093 .0266800
998.692 .0266786
999.291 .0266770
999.889 .0266755
1000.487 .0266740
1001.084 .0266724
1001.681 .0266707
1002.278 .0266692
1002.875 .0266677
1003.471 .0266663
1004.067 .0266650
1004.663 .0266639
1005.258 .0266630
1005.854 .0266624
1006.449 .0266619
1007.043 .0266617
1007.638 .0266615
1008.232 .0266614
1008.826 .0266612
1009.419 .0266609
1010.012 .0266605
1010.605 .0266599
1011.198 .0266591
1011.791 .0266581
1012.383 .0266568
1012.975 .0266554
1013.566 .0266539
1014.158 .0266523
1014.749 .0266507
1015.340 .0266491
1015.931 .0266475
1016.521 .0266459
1017.111 .0266443
1017.701 .0266427
1018.291 .0266411
1018.880 .0266396
1019.470 .0266382
1020.059 .0266368
1020.647 .0266356
1021.236 .0266345
1021.824 .0266335
1022.412 .0266326
1023.000 .0266316
1023.588 .0266305
1024.175 .0266292
1024.762 .0266277
1025.349 .0266260
1025.936 .0266242
1026.523 .0266222
1027.109 .0266203
1027.695 .0266184
1028.281 .0266166
1028.867 .0266151
1029.452 .0266137
1030.038 .0266124
1030.623 .0266111
1031.208 .0266098
1031.792 .0266083
1032.377 .0266067
1032.961 .0266048
1033.546 .0266028
1034.130 .0266006
1034.714 .0265980
1035.297 .0265953
1035.881 .0265922
1036.464 .0265887
1037.047 .0265849
1037.630 .0265807
1038.213 .0265760
1038.796 .0265708
1039.378 .0265651
1039.961 .0265589
1040.543 .0265523
1041.125 .0265453
1041.707 .0265380
1042.289 .0265304
1042.871 .0265226
1043.452 .0265144
1044.034 .0265060
1044.615 .0264971
1045.196 .0264878
1045.777 .0264778
1046.358 .0264674
1046.939 .0264564
1047.520 .0264450
1048.101 .0264334
1048.681 .0264217
1049.262 .0264100
1049.842 .0263984
1050.422 .0263868
1051.002 .0263752
1051.582 .0263636
1052.162 .0263518
1052.742 .0263398
1053.322 .0263277
1053.902 .0263155
1054.482 .0263033
1055.061 .0262913
1055.641 .0262796
1056.220 .0262682
1056.800 .0262570
1057.379 .0262460
1057.958 .0262352
1058.538 .0262243
1059.117 .0262133
1059.696 .0262022
1060.275 .0261911
1060.854 .0261802
1061.433 .0261697
1062.012 .0261598
1062.592 .0261506
1063.171 .0261423
1063.750 .0261347
1064.329 .0261279
1064.908 .0261216
1065.487 .0261156
1066.066 .0261098
1066.645 .0261039
1067.224 .0260980
1067.803 .0260919
1068.382 .0260858
1068.961 .0260796
1069.540 .0260734
1070.119 .0260672
1070.698 .0260609
1071.278 .0260544
1071.857 .0260479
1072.436 .0260411
1073.016 .0260340
1073.595 .0260267
1074.175 .0260194
1074.754 .0260120
1075.334 .0260047
1075.913 .0259976
1076.493 .0259908
1077.073 .0259842
1077.653 .0259778
1078.233 .0259716
1078.813 .0259655
1079.393 .0259594
1079.974 .0259534
1080.554 .0259476
1081.135 .0259421
1081.716 .0259370
1082.296 .0259324
1082.877 .0259286
1083.458 .0259256
1084.040 .0259234
1084.621 .0259222
1085.202 .0259219
1085.784 .0259225
1086.366 .0259240
1086.948 .0259263
1087.530 .0259293
1088.112 .0259330
1088.695 .0259371
1089.277 .0259416
1089.860 .0259465
1090.443 .0259517
1091.026 .0259570
1091.610 .0259624
1092.193 .0259677
1092.777 .0259728
1093.361 .0259777
1093.946 .0259822
1094.530 .0259865
1095.115 .0259904
1095.700 .0259941
1096.285 .0259976
1096.871 .0260010
1097.456 .0260047
1098.042 .0260084
1098.628 .0260123
1099.215 .0260164
1099.802 .0260205
1100.389 .0260245
1100.976 .0260282
1101.564 .0260318
1102.152 .0260351
1102.740 .0260382
1103.329 .0260414
1103.917 .0260447
1104.507 .0260487
1105.096 .0260535
1105.686 .0260591
1106.276 .0260658
1106.867 .0260733
1107.457 .0260814
1108.049 .0260902
1108.640 .0260995
1109.232 .0261093
1109.825 .0261199
1110.417 .0261316
1111.010 .0261447
1111.604 .0261594
1112.198 .0261757
1112.792 .0261937
1113.387 .0262129
1113.982 .0262332
1114.577 .0262537
1115.173 .0262744
1115.769 .0262950
1116.366 .0263156
1116.963 .0263362
1117.561 .0263574
1118.159 .0263796
1118.758 .0264032
1119.357 .0264282
1119.957 .0264547
1120.557 .0264825
1121.157 .0265112
1121.758 .0265405
1122.360 .0265698
1122.962 .0265992
1123.564 .0266287
1124.167 .0266404
1124.771 .0266708
1125.375 .0267023
1125.980 .0267354
1126.585 .0267704
1127.191 .0268076
1127.797 .0268470
1128.404 .0268886
1129.012 .0269321
1129.620 .0269776
1130.229 .0270251
1130.838 .0270749
1131.448 .0271275
1132.058 .0271838
1132.669 .0272678
1133.281 .0273347
1133.894 .0274061
1134.507 .0274850
1135.120 .0275683
1135.735 .0276535
1136.350 .0277452
1136.965 .0276173
1137.582 .0277087
1138.199 .0278057
1138.816 .0279069
1139.435 .0280205
1140.054 .0281435
1140.674 .0282791
1141.294 .0284296
1141.916 .0285753
1142.538 .0288116
1143.160 .0289736
1143.784 .0290805
1144.408 .0293086
1145.033 .0290347
