Measurement Sequence started on: 14-45-04-498
Integration time: 36
Scans to Average: 2 
>>>>>Begin Spectral Data<<<<<
433.946 .0568031
434.870 .0493994
435.793 .0471733
436.715 .0471197
437.635 .0464686
438.555 .0463855
439.473 .0456390
440.389 .0452226
441.305 .0449188
442.219 .0446540
443.132 .0450935
444.044 .0447884
444.954 .0445978
445.863 .0444072
446.771 .0442477
447.678 .0440885
448.584 .0439635
449.488 .0438550
450.391 .0437563
451.293 .0436649
452.194 .0435778
453.094 .0434922
453.992 .0434068
454.890 .0433210
455.786 .0432334
456.681 .0431438
457.575 .0430517
458.468 .0429565
459.360 .0428579
460.250 .0427556
461.140 .0426492
462.028 .0425396
462.915 .0424276
463.801 .0423144
464.687 .0422014
465.571 .0420901
466.454 .0419814
467.335 .0418760
468.216 .0417742
469.096 .0416760
469.975 .0415810
470.853 .0414889
471.729 .0413992
472.605 .0413123
473.479 .0412286
474.353 .0411483
475.226 .0410718
476.097 .0409994
476.968 .0409312
477.838 .0408670
478.706 .0408061
479.574 .0407478
480.441 .0406914
481.306 .0406364
482.171 .0405823
483.035 .0405290
483.898 .0404766
484.760 .0404255
485.621 .0403760
486.481 .0403286
487.340 .0402831
488.198 .0402398
489.055 .0401984
489.912 .0401589
490.767 .0401209
491.622 .0400685
492.476 .0400325
493.329 .0399967
494.180 .0399607
495.032 .0399241
495.882 .0398864
496.731 .0398471
497.580 .0398062
498.427 .0397630
499.274 .0397175
500.120 .0396874
500.965 .0396374
501.809 .0395850
502.653 .0395300
503.495 .0394726
504.337 .0394131
505.178 .0393517
506.018 .0392883
506.858 .0392232
507.696 .0391566
508.534 .0390891
509.371 .0390212
510.208 .0389536
511.043 .0388871
511.878 .0388221
512.712 .0387594
513.545 .0386998
514.377 .0386435
515.209 .0385909
516.040 .0385419
516.870 .0384959
517.699 .0384523
518.528 .0384103
519.356 .0383693
520.183 .0383285
521.010 .0382877
521.836 .0382462
522.661 .0382038
523.485 .0381610
524.309 .0381175
525.132 .0380732
525.954 .0380280
526.776 .0379814
527.597 .0379323
528.417 .0378797
529.237 .0378234
530.056 .0377629
530.874 .0376982
531.692 .0376298
532.508 .0375581
533.325 .0374844
534.140 .0374100
534.955 .0373359
535.770 .0372635
536.583 .0371936
537.397 .0371267
538.209 .0370629
539.021 .0370025
539.832 .0369457
540.643 .0368921
541.453 .0368420
542.262 .0367956
543.071 .0367525
543.879 .0367130
544.687 .0366774
545.494 .0366458
546.300 .0366180
547.106 .0365939
547.911 .0365730
548.716 .0365549
549.520 .0365391
550.323 .0365249
551.126 .0365118
551.929 .0364995
552.731 .0364876
553.532 .0364756
554.332 .0364636
555.133 .0364515
555.932 .0364393
556.731 .0364269
557.530 .0364140
558.328 .0364004
559.125 .0363858
559.922 .0363704
560.719 .0363539
561.515 .0363368
562.310 .0363191
563.105 .0363011
563.899 .0362827
564.693 .0362639
565.487 .0362443
566.280 .0362237
567.072 .0362019
567.864 .0361785
568.655 .0361532
569.446 .0361262
570.236 .0360975
571.026 .0360674
571.816 .0360359
572.605 .0360031
573.393 .0359691
574.181 .0359339
574.969 .0358976
575.756 .0358598
576.543 .0358208
577.329 .0357808
578.115 .0357398
578.900 .0356981
579.685 .0356562
580.469 .0356144
581.253 .0355731
582.036 .0355326
582.820 .0354933
583.602 .0354551
584.384 .0354183
585.166 .0353826
585.947 .0353481
586.728 .0353147
587.509 .0352823
588.289 .0352508
589.069 .0352202
589.848 .0351905
590.627 .0351615
591.405 .0351333
592.183 .0351059
592.961 .0350793
593.738 .0350532
594.515 .0350277
595.291 .0350027
596.067 .0349779
596.843 .0349533
597.618 .0349288
598.393 .0348924
599.167 .0348683
599.941 .0348444
600.715 .0348208
601.488 .0347975
602.261 .0347745
603.034 .0347520
603.806 .0347298
604.578 .0347080
605.349 .0346863
606.121 .0346649
606.891 .0346551
607.662 .0346338
608.432 .0346127
609.201 .0345916
609.971 .0345707
610.740 .0345499
611.508 .0345293
612.277 .0345089
613.045 .0344886
613.812 .0344685
614.579 .0344485
615.346 .0344284
616.113 .0344082
616.879 .0343878
617.645 .0343670
618.411 .0343459
619.176 .0343244
619.941 .0343025
620.705 .0342803
621.470 .0342578
622.233 .0342352
622.997 .0342126
623.760 .0341900
624.523 .0341674
625.286 .0341449
626.048 .0341225
626.810 .0341001
627.572 .0340776
628.333 .0340552
629.095 .0340327
629.855 .0340101
630.616 .0339877
631.376 .0339653
632.136 .0339431
632.895 .0339211
633.655 .0338992
634.414 .0338776
635.172 .0338562
635.931 .0338350
636.689 .0338138
637.447 .0337926
638.204 .0337713
638.962 .0337500
639.718 .0337284
640.475 .0337067
641.231 .0336848
641.988 .0336629
642.743 .0336410
643.499 .0336192
644.254 .0335976
645.009 .0335764
645.764 .0335554
646.518 .0335348
647.272 .0335145
648.026 .0334944
648.780 .0334744
649.533 .0334547
650.286 .0334351
651.039 .0334158
651.792 .0333968
652.544 .0333781
653.296 .0333600
654.048 .0333425
654.799 .0333255
655.550 .0333090
656.301 .0332929
657.052 .0332772
657.802 .0332619
658.552 .0332467
659.302 .0332318
660.052 .0332170
660.801 .0332024
661.550 .0331879
662.299 .0331736
663.048 .0331595
663.796 .0331455
664.544 .0331317
665.292 .0331180
666.040 .0331045
666.787 .0330912
667.534 .0330780
668.281 .0330648
669.028 .0330518
669.774 .0330388
670.521 .0330258
671.266 .0330127
672.012 .0329996
672.758 .0329865
673.503 .0329734
674.248 .0329604
674.992 .0329474
675.737 .0329346
676.481 .0329217
677.225 .0329089
677.969 .0328959
678.712 .0328827
679.455 .0328693
680.199 .0328557
680.941 .0328419
681.684 .0328278
682.426 .0328135
683.168 .0327990
683.910 .0327843
684.652 .0327694
685.393 .0327543
686.134 .0327389
686.875 .0327233
687.616 .0327076
688.356 .0326917
689.097 .0326758
689.837 .0326598
690.576 .0326439
691.316 .0326280
692.055 .0326121
692.794 .0325964
693.533 .0325808
694.272 .0325653
695.010 .0325500
695.748 .0325348
696.486 .0325199
697.224 .0325051
697.962 .0324904
698.699 .0324760
699.436 .0324617
700.173 .0324476
700.909 .0324336
701.646 .0324198
702.382 .0324062
703.118 .0323927
703.853 .0323795
704.589 .0323663
705.324 .0323533
706.059 .0323402
706.794 .0323271
707.529 .0323138
708.263 .0323004
708.997 .0322868
709.731 .0322731
710.465 .0322593
711.198 .0322453
711.931 .0322312
712.664 .0322170
713.397 .0322026
714.130 .0321879
714.862 .0321728
715.594 .0321574
716.326 .0321415
717.058 .0321253
717.789 .0321086
718.520 .0320915
719.251 .0320742
719.982 .0320565
720.713 .0320384
721.443 .0320201
722.173 .0320014
722.903 .0319824
723.633 .0319631
724.362 .0319435
725.091 .0319236
725.820 .0319035
726.549 .0318832
727.278 .0318629
728.006 .0318425
728.734 .0318220
729.462 .0318017
730.190 .0317814
730.917 .0317613
731.644 .0317415
732.371 .0317219
733.098 .0317026
733.825 .0316837
734.551 .0316653
735.277 .0316473
736.003 .0316296
736.728 .0316124
737.454 .0315956
738.179 .0315793
738.904 .0315634
739.629 .0315479
740.353 .0315328
741.077 .0315181
741.801 .0315038
742.525 .0314898
743.249 .0314760
743.972 .0314623
744.695 .0314487
745.418 .0314351
746.141 .0314215
746.863 .0314079
747.585 .0313943
748.307 .0313807
749.029 .0313672
749.750 .0313536
750.472 .0313400
751.193 .0313263
751.913 .0313125
752.634 .0312987
753.354 .0312848
754.074 .0312708
754.794 .0312569
755.514 .0312432
756.233 .0312295
756.952 .0312161
757.671 .0312029
758.390 .0311899
759.108 .0311772
759.826 .0311646
760.544 .0311522
761.262 .0311399
761.979 .0311278
762.697 .0311157
763.414 .0311037
764.130 .0310916
764.847 .0310795
765.563 .0310674
766.279 .0310551
766.995 .0310427
767.710 .0310300
768.426 .0310171
769.141 .0310039
769.855 .0309902
770.570 .0309762
771.284 .0309617
771.998 .0309469
772.712 .0309317
773.426 .0309161
774.139 .0309003
774.852 .0308841
775.565 .0308678
776.277 .0308512
776.990 .0308345
777.702 .0308177
778.414 .0308007
779.125 .0307837
779.836 .0307667
780.547 .0307498
781.258 .0307329
781.969 .0307161
782.679 .0306994
783.389 .0306750
784.099 .0306584
784.808 .0306417
785.517 .0306250
786.226 .0306083
786.935 .0305914
787.643 .0305745
788.352 .0305574
789.060 .0305401
789.767 .0305226
790.475 .0305047
791.182 .0304865
791.889 .0304764
792.595 .0304577
793.301 .0304388
794.008 .0304197
794.713 .0304005
795.419 .0303812
796.124 .0303619
796.829 .0303425
797.534 .0303230
798.238 .0303034
798.942 .0302838
799.646 .0302642
800.350 .0302446
801.053 .0302253
801.756 .0302064
802.459 .0301879
803.162 .0301700
803.864 .0301526
804.566 .0301358
805.267 .0301195
805.969 .0301037
806.670 .0300884
807.371 .0300735
808.071 .0300591
808.772 .0300452
809.472 .0300318
810.171 .0300189
810.871 .0300064
811.570 .0299943
812.269 .0299826
812.967 .0299710
813.666 .0299597
814.364 .0299485
815.061 .0299375
815.759 .0299268
816.456 .0299162
817.153 .0299060
817.849 .0298959
818.545 .0298860
819.241 .0298762
819.937 .0298665
820.632 .0298567
821.327 .0298468
822.022 .0298369
822.717 .0298269
823.411 .0298169
824.105 .0298069
824.798 .0297970
825.491 .0297872
826.184 .0297773
826.877 .0297675
827.569 .0297576
828.261 .0297475
828.953 .0297373
829.645 .0297270
830.336 .0297166
831.027 .0297062
831.717 .0296958
832.407 .0296854
833.097 .0296750
833.787 .0296646
834.476 .0296541
835.165 .0296435
835.854 .0296325
836.542 .0296212
837.230 .0296095
837.918 .0295974
838.605 .0295849
839.292 .0295719
839.979 .0295586
840.665 .0295448
841.352 .0295306
842.037 .0295159
842.723 .0295008
843.408 .0294851
844.093 .0294689
844.777 .0294523
845.462 .0294351
846.145 .0294174
846.829 .0293993
847.512 .0293808
848.195 .0293618
848.878 .0293423
849.560 .0293223
850.242 .0293018
850.923 .0292807
851.605 .0292591
852.286 .0292371
852.966 .0292147
853.646 .0291920
854.326 .0291691
855.006 .0291462
855.685 .0291232
856.364 .0291003
857.043 .0290775
857.721 .0290549
858.399 .0290325
859.077 .0290104
859.754 .0289887
860.431 .0289673
861.107 .0289464
861.784 .0289260
862.459 .0289062
863.135 .0288868
863.810 .0288680
864.485 .0288495
865.160 .0288315
865.834 .0288138
866.508 .0287964
867.181 .0287792
867.854 .0287623
868.527 .0287455
869.199 .0287290
869.872 .0287126
870.543 .0286965
871.215 .0286805
871.886 .0286646
872.557 .0286489
873.227 .0286334
873.897 .0286179
874.567 .0286026
875.236 .0285873
875.905 .0285722
876.573 .0285572
877.242 .0285423
877.909 .0285275
878.577 .0285129
879.244 .0284984
879.911 .0284842
880.577 .0284702
881.243 .0284566
881.909 .0284435
882.575 .0284309
883.240 .0284190
883.904 .0284078
884.569 .0283973
885.232 .0283875
885.896 .0283784
886.559 .0283699
887.222 .0283622
887.885 .0283551
888.547 .0283487
889.208 .0283430
889.870 .0283380
890.531 .0283336
891.192 .0283299
891.852 .0283268
892.512 .0283242
893.171 .0283221
893.830 .0283202
894.489 .0283187
895.148 .0283174
895.806 .0283162
896.464 .0283152
897.121 .0283142
897.778 .0283132
898.434 .0283121
899.091 .0283099
899.747 .0283084
900.402 .0283067
901.057 .0283047
901.712 .0283022
902.366 .0282994
903.020 .0282960
903.674 .0282922
904.327 .0282877
904.980 .0282827
905.633 .0282770
906.285 .0282705
906.936 .0282634
907.588 .0282577
908.239 .0282494
908.889 .0282402
909.540 .0282303
910.190 .0282195
910.839 .0282080
911.488 .0281958
912.137 .0281829
912.785 .0281695
913.433 .0281557
914.081 .0281414
914.728 .0281266
915.375 .0281114
916.021 .0280958
916.668 .0280797
917.313 .0280632
917.959 .0280462
918.604 .0280289
919.248 .0280114
919.892 .0279935
920.536 .0279755
921.180 .0279573
921.823 .0279388
922.465 .0279200
923.108 .0279009
923.750 .0278813
924.391 .0278614
925.032 .0278410
925.673 .0278202
926.313 .0277992
926.953 .0277779
927.593 .0277564
928.232 .0277347
928.871 .0277128
929.510 .0276908
930.148 .0276686
930.786 .0276462
931.423 .0276236
932.060 .0276008
932.697 .0275779
933.333 .0275548
933.969 .0275316
934.604 .0275084
935.239 .0274852
935.874 .0274620
936.508 .0274387
937.142 .0274155
937.776 .0273923
938.409 .0273691
939.042 .0273459
939.674 .0273229
940.306 .0272999
940.938 .0272770
941.569 .0272543
942.200 .0272318
942.830 .0272095
943.460 .0271874
944.090 .0271656
944.720 .0271440
945.349 .0271228
945.977 .0271017
946.606 .0270810
947.233 .0270605
947.861 .0270403
948.488 .0270203
949.115 .0270005
949.741 .0269810
950.367 .0269618
950.993 .0269429
951.618 .0269243
952.243 .0269060
952.868 .0268880
953.492 .0268702
954.115 .0268527
954.739 .0268354
955.362 .0268183
955.984 .0268015
956.607 .0267850
957.229 .0267689
957.850 .0267532
958.471 .0267379
959.092 .0267230
959.713 .0267085
960.333 .0266944
960.952 .0266806
961.572 .0266672
962.191 .0266542
962.809 .0266416
963.428 .0266296
964.045 .0266183
964.663 .0266076
965.280 .0265976
965.897 .0265883
966.513 .0265797
967.129 .0265717
967.745 .0265642
968.361 .0265572
968.976 .0265508
969.590 .0265450
970.205 .0265399
970.818 .0265356
971.432 .0265320
972.045 .0265292
972.658 .0265272
973.271 .0265260
973.883 .0265255
974.495 .0265257
975.106 .0265265
975.717 .0265280
976.328 .0265301
976.938 .0265329
977.548 .0265362
978.158 .0265401
978.768 .0265471
979.377 .0265517
979.985 .0265565
980.594 .0265614
981.202 .0265663
981.809 .0265710
982.417 .0265756
983.024 .0265799
983.631 .0265840
984.237 .0265879
984.843 .0265914
985.449 .0265945
986.054 .0265973
986.659 .0265997
987.264 .0265995
987.868 .0266013
988.472 .0266026
989.076 .0266035
989.679 .0266040
990.282 .0266040
990.885 .0266037
991.487 .0266030
992.090 .0266021
992.691 .0266008
993.293 .0265993
993.894 .0265975
994.495 .0265955
995.095 .0265932
995.696 .0265906
996.296 .0265879
996.895 .0265849
997.494 .0265817
998.093 .0265783
998.692 .0265749
999.291 .0265713
999.889 .0265676
1000.487 .0265639
1001.084 .0265601
1001.681 .0265563
1002.278 .0265525
1002.875 .0265487
1003.471 .0265449
1004.067 .0265411
1004.663 .0265372
1005.258 .0265332
1005.854 .0265291
1006.449 .0265249
1007.043 .0265204
1007.638 .0265156
1008.232 .0265107
1008.826 .0265054
1009.419 .0264999
1010.012 .0264943
1010.605 .0264884
1011.198 .0264823
1011.791 .0264760
1012.383 .0264695
1012.975 .0264627
1013.566 .0264557
1014.158 .0264484
1014.749 .0264407
1015.340 .0264328
1015.931 .0264245
1016.521 .0264159
1017.111 .0264070
1017.701 .0263980
1018.291 .0263889
1018.880 .0263796
1019.470 .0263703
1020.059 .0263607
1020.647 .0263510
1021.236 .0263411
1021.824 .0263310
1022.412 .0263207
1023.000 .0263101
1023.588 .0262995
1024.175 .0262888
1024.762 .0262782
1025.349 .0262676
1025.936 .0262570
1026.523 .0262464
1027.109 .0262356
1027.695 .0262246
1028.281 .0262133
1028.867 .0262016
1029.452 .0261895
1030.038 .0261771
1030.623 .0261643
1031.208 .0261515
1031.792 .0261386
1032.377 .0261256
1032.961 .0261128
1033.546 .0261000
1034.130 .0260872
1034.714 .0260743
1035.297 .0260615
1035.881 .0260486
1036.464 .0260357
1037.047 .0260228
1037.630 .0260100
1038.213 .0259976
1038.796 .0259854
1039.378 .0259737
1039.961 .0259624
1040.543 .0259516
1041.125 .0259411
1041.707 .0259309
1042.289 .0259208
1042.871 .0259109
1043.452 .0259012
1044.034 .0258917
1044.615 .0258824
1045.196 .0258735
1045.777 .0258650
1046.358 .0258572
1046.939 .0258500
1047.520 .0258435
1048.101 .0258376
1048.681 .0258323
1049.262 .0258275
1049.842 .0258230
1050.422 .0258189
1051.002 .0258149
1051.582 .0258112
1052.162 .0258076
1052.742 .0258042
1053.322 .0258008
1053.902 .0257976
1054.482 .0257944
1055.061 .0257912
1055.641 .0257879
1056.220 .0257845
1056.800 .0257809
1057.379 .0257770
1057.958 .0257730
1058.538 .0257686
1059.117 .0257640
1059.696 .0257591
1060.275 .0257540
1060.854 .0257486
1061.433 .0257431
1062.012 .0257373
1062.592 .0257312
1063.171 .0257248
1063.750 .0257180
1064.329 .0257108
1064.908 .0257031
1065.487 .0256949
1066.066 .0256864
1066.645 .0256776
1067.224 .0256688
1067.803 .0256601
1068.382 .0256516
1068.961 .0256435
1069.540 .0256358
1070.119 .0256287
1070.698 .0256220
1071.278 .0256160
1071.857 .0256105
1072.436 .0256056
1073.016 .0256014
1073.595 .0255979
1074.175 .0255952
1074.754 .0255933
1075.334 .0255921
1075.913 .0255917
1076.493 .0255918
1077.073 .0255925
1077.653 .0255935
1078.233 .0255949
1078.813 .0255965
1079.393 .0255985
1079.974 .0256010
1080.554 .0256040
1081.135 .0256078
1081.716 .0256123
1082.296 .0256176
1082.877 .0256238
1083.458 .0256308
1084.040 .0256384
1084.621 .0256466
1085.202 .0256553
1085.784 .0256643
1086.366 .0256737
1086.948 .0256833
1087.530 .0256931
1088.112 .0257031
1088.695 .0257131
1089.277 .0257231
1089.860 .0257330
1090.443 .0257427
1091.026 .0257521
1091.610 .0257612
1092.193 .0257700
1092.777 .0257787
1093.361 .0257873
1093.946 .0257961
1094.530 .0258052
1095.115 .0258148
1095.700 .0258250
1096.285 .0258359
1096.871 .0258473
1097.456 .0258592
1098.042 .0258716
1098.628 .0258842
1099.215 .0258970
1099.802 .0259099
1100.389 .0259227
1100.976 .0259354
1101.564 .0259480
1102.152 .0259605
1102.740 .0259729
1103.329 .0259853
1103.917 .0259977
1104.507 .0260102
1105.096 .0260228
1105.686 .0260355
1106.276 .0260483
1106.867 .0260614
1107.457 .0260748
1108.049 .0260884
1108.640 .0261024
1109.232 .0261168
1109.825 .0261316
1110.417 .0261467
1111.010 .0261621
1111.604 .0261776
1112.198 .0261933
1112.792 .0262091
1113.387 .0262249
1113.982 .0262406
1114.577 .0262564
1115.173 .0262721
1115.769 .0262879
1116.366 .0263038
1116.963 .0263199
1117.561 .0263362
1118.159 .0263528
1118.758 .0263698
1119.357 .0263872
1119.957 .0264052
1120.557 .0264240
1121.157 .0264436
1121.758 .0264640
1122.360 .0264851
1122.962 .0265068
1123.564 .0265289
1124.167 .0265377
1124.771 .0265602
1125.375 .0265830
1125.980 .0266056
1126.585 .0266282
1127.191 .0266507
1127.797 .0266732
1128.404 .0266959
1129.012 .0267188
1129.620 .0267420
1130.229 .0267655
1130.838 .0267894
1131.448 .0268135
1132.058 .0268378
1132.669 .0268754
1133.281 .0269001
1133.894 .0269249
1134.507 .0269493
1135.120 .0269732
1135.735 .0269999
1136.350 .0270189
1136.965 .0270318
1137.582 .0270538
1138.199 .0270766
1138.816 .0271011
1139.435 .0271253
1140.054 .0271514
1140.674 .0271791
1141.294 .0271986
1141.916 .0272224
1142.538 .0272347
1143.160 .0272434
1143.784 .0273401
1144.408 .0271626
1145.033 .0274265
