Measurement Sequence started on: 14-45-04-498
Integration time: 36
Scans to Average: 2 
>>>>>Begin Spectral Data<<<<<
433.946 .0634764
434.870 .0540813
435.793 .0549218
436.715 .0525368
437.635 .0503296
438.555 .0500170
439.473 .0486973
440.389 .0478035
441.305 .0470196
442.219 .0464152
443.132 .0474160
444.044 .0468969
444.954 .0463300
445.863 .0458847
446.771 .0455517
447.678 .0452307
448.584 .0449745
449.488 .0447606
450.391 .0445832
451.293 .0444333
452.194 .0443039
453.094 .0441898
453.992 .0440868
454.890 .0439922
455.786 .0439038
456.681 .0438185
457.575 .0437337
458.468 .0436485
459.360 .0435622
460.250 .0434742
461.140 .0433848
462.028 .0432941
462.915 .0432032
463.801 .0431124
464.687 .0430219
465.571 .0429320
466.454 .0428424
467.335 .0427527
468.216 .0426629
469.096 .0425727
469.975 .0424828
470.853 .0423938
471.729 .0423066
472.605 .0422222
473.479 .0421416
474.353 .0420651
475.226 .0419927
476.097 .0419241
476.968 .0418591
477.838 .0417966
478.706 .0417364
479.574 .0416777
480.441 .0416205
481.306 .0415644
482.171 .0415093
483.035 .0414547
483.898 .0414001
484.760 .0413447
485.621 .0412874
486.481 .0412274
487.340 .0411642
488.198 .0410973
489.055 .0410264
489.912 .0409517
490.767 .0408734
491.622 .0407428
492.476 .0406574
493.329 .0405692
494.180 .0404783
495.032 .0403855
495.882 .0402911
496.731 .0401959
497.580 .0401007
498.427 .0400067
499.274 .0399148
500.120 .0398778
500.965 .0397920
501.809 .0397094
502.653 .0396309
503.495 .0395566
504.337 .0394863
505.178 .0394200
506.018 .0393576
506.858 .0392990
507.696 .0392442
508.534 .0391938
509.371 .0391482
510.208 .0391080
511.043 .0390737
511.878 .0390455
512.712 .0390235
513.545 .0390071
514.377 .0389953
515.209 .0389872
516.040 .0389817
516.870 .0389776
517.699 .0389742
518.528 .0389716
519.356 .0389701
520.183 .0389692
521.010 .0389693
521.836 .0389699
522.661 .0389702
523.485 .0389689
524.309 .0389648
525.132 .0389569
525.954 .0389434
526.776 .0389232
527.597 .0388957
528.417 .0388605
529.237 .0388177
530.056 .0387675
530.874 .0387108
531.692 .0386482
532.508 .0385806
533.325 .0385086
534.140 .0384331
534.955 .0383549
535.770 .0382743
536.583 .0381913
537.397 .0381064
538.209 .0380199
539.021 .0379324
539.832 .0378450
540.643 .0377594
541.453 .0376767
542.262 .0375979
543.071 .0375244
543.879 .0374569
544.687 .0373957
545.494 .0373406
546.300 .0372911
547.106 .0372466
547.911 .0372062
548.716 .0371690
549.520 .0371345
550.323 .0371028
551.126 .0370737
551.929 .0370472
552.731 .0370235
553.532 .0370023
554.332 .0369833
555.133 .0369662
555.932 .0369506
556.731 .0369355
557.530 .0369201
558.328 .0369036
559.125 .0368857
559.922 .0368660
560.719 .0368436
561.515 .0368185
562.310 .0367906
563.105 .0367599
563.899 .0367261
564.693 .0366895
565.487 .0366508
566.280 .0366102
567.072 .0365682
567.864 .0365247
568.655 .0364800
569.446 .0364340
570.236 .0363867
571.026 .0363384
571.816 .0362893
572.605 .0362396
573.393 .0361899
574.181 .0361409
574.969 .0360932
575.756 .0360471
576.543 .0360032
577.329 .0359618
578.115 .0359231
578.900 .0358869
579.685 .0358532
580.469 .0358217
581.253 .0357922
582.036 .0357643
582.820 .0357376
583.602 .0357118
584.384 .0356866
585.166 .0356620
585.947 .0356376
586.728 .0356134
587.509 .0355892
588.289 .0355649
589.069 .0355403
589.848 .0355151
590.627 .0354892
591.405 .0354624
592.183 .0354346
592.961 .0354059
593.738 .0353765
594.515 .0353465
595.291 .0353164
596.067 .0352865
596.843 .0352571
597.618 .0352282
598.393 .0351881
599.167 .0351613
599.941 .0351352
600.715 .0351097
601.488 .0350848
602.261 .0350602
603.034 .0350360
603.806 .0350125
604.578 .0349895
605.349 .0349671
606.121 .0349454
606.891 .0349356
607.662 .0349147
608.432 .0348945
609.201 .0348750
609.971 .0348561
610.740 .0348376
611.508 .0348196
612.277 .0348018
613.045 .0347845
613.812 .0347678
614.579 .0347517
615.346 .0347365
616.113 .0347221
616.879 .0347086
617.645 .0346959
618.411 .0346841
619.176 .0346730
619.941 .0346625
620.705 .0346524
621.470 .0346426
622.233 .0346328
622.997 .0346232
623.760 .0346136
624.523 .0346041
625.286 .0345945
626.048 .0345849
626.810 .0345750
627.572 .0345647
628.333 .0345540
629.095 .0345428
629.855 .0345307
630.616 .0345178
631.376 .0345039
632.136 .0344891
632.895 .0344733
633.655 .0344566
634.414 .0344391
635.172 .0344208
635.931 .0344018
636.689 .0343822
637.447 .0343620
638.204 .0343415
638.962 .0343208
639.718 .0343000
640.475 .0342793
641.231 .0342587
641.988 .0342381
642.743 .0342176
643.499 .0341971
644.254 .0341766
645.009 .0341560
645.764 .0341355
646.518 .0341151
647.272 .0340950
648.026 .0340753
648.780 .0340561
649.533 .0340372
650.286 .0340187
651.039 .0340004
651.792 .0339822
652.544 .0339641
653.296 .0339461
654.048 .0339283
654.799 .0339107
655.550 .0338936
656.301 .0338770
657.052 .0338610
657.802 .0338457
658.552 .0338311
659.302 .0338171
660.052 .0338037
660.801 .0337909
661.550 .0337788
662.299 .0337673
663.048 .0337565
663.796 .0337463
664.544 .0337366
665.292 .0337274
666.040 .0337186
666.787 .0337101
667.534 .0337020
668.281 .0336942
669.028 .0336867
669.774 .0336794
670.521 .0336723
671.266 .0336654
672.012 .0336586
672.758 .0336516
673.503 .0336443
674.248 .0336365
674.992 .0336282
675.737 .0336192
676.481 .0336096
677.225 .0335993
677.969 .0335884
678.712 .0335769
679.455 .0335648
680.199 .0335521
680.941 .0335387
681.684 .0335247
682.426 .0335099
683.168 .0334944
683.910 .0334781
684.652 .0334610
685.393 .0334433
686.134 .0334248
686.875 .0334059
687.616 .0333865
688.356 .0333667
689.097 .0333467
689.837 .0333264
690.576 .0333061
691.316 .0332856
692.055 .0332650
692.794 .0332444
693.533 .0332237
694.272 .0332029
695.010 .0331821
695.748 .0331613
696.486 .0331407
697.224 .0331201
697.962 .0330998
698.699 .0330798
699.436 .0330602
700.173 .0330411
700.909 .0330225
701.646 .0330044
702.382 .0329869
703.118 .0329698
703.853 .0329532
704.589 .0329371
705.324 .0329213
706.059 .0329058
706.794 .0328906
707.529 .0328757
708.263 .0328612
708.997 .0328471
709.731 .0328334
710.465 .0328203
711.198 .0328076
711.931 .0327954
712.664 .0327836
713.397 .0327723
714.130 .0327613
714.862 .0327504
715.594 .0327396
716.326 .0327287
717.058 .0327176
717.789 .0327063
718.520 .0326947
719.251 .0326829
719.982 .0326709
720.713 .0326587
721.443 .0326465
722.173 .0326342
722.903 .0326218
723.633 .0326092
724.362 .0325965
725.091 .0325834
725.820 .0325701
726.549 .0325566
727.278 .0325428
728.006 .0325290
728.734 .0325152
729.462 .0325015
730.190 .0324880
730.917 .0324749
731.644 .0324620
732.371 .0324496
733.098 .0324374
733.825 .0324255
734.551 .0324139
735.277 .0324024
736.003 .0323910
736.728 .0323796
737.454 .0323682
738.179 .0323567
738.904 .0323451
739.629 .0323333
740.353 .0323214
741.077 .0323094
741.801 .0322974
742.525 .0322852
743.249 .0322728
743.972 .0322603
744.695 .0322473
745.418 .0322340
746.141 .0322200
746.863 .0322055
747.585 .0321903
748.307 .0321745
749.029 .0321582
749.750 .0321415
750.472 .0321244
751.193 .0321072
751.913 .0320897
752.634 .0320719
753.354 .0320540
754.074 .0320358
754.794 .0320173
755.514 .0319987
756.233 .0319800
756.952 .0319613
757.671 .0319426
758.390 .0319242
759.108 .0319061
759.826 .0318885
760.544 .0318713
761.262 .0318546
761.979 .0318385
762.697 .0318229
763.414 .0318078
764.130 .0317933
764.847 .0317792
765.563 .0317658
766.279 .0317530
766.995 .0317408
767.710 .0317293
768.426 .0317186
769.141 .0317087
769.855 .0316995
770.570 .0316911
771.284 .0316833
771.998 .0316761
772.712 .0316694
773.426 .0316630
774.139 .0316569
774.852 .0316510
775.565 .0316452
776.277 .0316396
776.990 .0316341
777.702 .0316288
778.414 .0316235
779.125 .0316184
779.836 .0316134
780.547 .0316086
781.258 .0316038
781.969 .0315991
782.679 .0315944
783.389 .0315872
784.099 .0315825
784.808 .0315778
785.517 .0315731
786.226 .0315683
786.935 .0315634
787.643 .0315586
788.352 .0315537
789.060 .0315488
789.767 .0315440
790.475 .0315392
791.182 .0315343
791.889 .0315315
792.595 .0315260
793.301 .0315201
794.008 .0315137
794.713 .0315067
795.419 .0314991
796.124 .0314908
796.829 .0314819
797.534 .0314723
798.238 .0314622
798.942 .0314514
799.646 .0314401
800.350 .0314281
801.053 .0314155
801.756 .0314023
802.459 .0313884
803.162 .0313739
803.864 .0313588
804.566 .0313432
805.267 .0313271
805.969 .0313106
806.670 .0312937
807.371 .0312765
808.071 .0312591
808.772 .0312416
809.472 .0312241
810.171 .0312066
810.871 .0311892
811.570 .0311720
812.269 .0311548
812.967 .0311377
813.666 .0311206
814.364 .0311036
815.061 .0310866
815.759 .0310698
816.456 .0310530
817.153 .0310365
817.849 .0310201
818.545 .0310039
819.241 .0309879
819.937 .0309720
820.632 .0309562
821.327 .0309404
822.022 .0309245
822.717 .0309086
823.411 .0308926
824.105 .0308765
824.798 .0308602
825.491 .0308439
826.184 .0308275
826.877 .0308109
827.569 .0307943
828.261 .0307776
828.953 .0307609
829.645 .0307444
830.336 .0307282
831.027 .0307123
831.717 .0306968
832.407 .0306817
833.097 .0306671
833.787 .0306530
834.476 .0306393
835.165 .0306261
835.854 .0306135
836.542 .0306013
837.230 .0305898
837.918 .0305790
838.605 .0305689
839.292 .0305596
839.979 .0305510
840.665 .0305432
841.352 .0305360
842.037 .0305294
842.723 .0305233
843.408 .0305177
844.093 .0305125
844.777 .0305077
845.462 .0305033
846.145 .0304991
846.829 .0304953
847.512 .0304916
848.195 .0304880
848.878 .0304845
849.560 .0304811
850.242 .0304776
850.923 .0304739
851.605 .0304701
852.286 .0304658
852.966 .0304612
853.646 .0304561
854.326 .0304505
855.006 .0304444
855.685 .0304377
856.364 .0304305
857.043 .0304227
857.721 .0304144
858.399 .0304057
859.077 .0303964
859.754 .0303867
860.431 .0303766
861.107 .0303660
861.784 .0303552
862.459 .0303440
863.135 .0303326
863.810 .0303209
864.485 .0303091
865.160 .0302970
865.834 .0302848
866.508 .0302724
867.181 .0302598
867.854 .0302471
868.527 .0302344
869.199 .0302216
869.872 .0302089
870.543 .0301963
871.215 .0301836
871.886 .0301710
872.557 .0301583
873.227 .0301454
873.897 .0301325
874.567 .0301194
875.236 .0301062
875.905 .0300930
876.573 .0300795
877.242 .0300660
877.909 .0300523
878.577 .0300384
879.244 .0300243
879.911 .0300100
880.577 .0299954
881.243 .0299806
881.909 .0299655
882.575 .0299503
883.240 .0299350
883.904 .0299194
884.569 .0299036
885.232 .0298876
885.896 .0298712
886.559 .0298544
887.222 .0298373
887.885 .0298199
888.547 .0298024
889.208 .0297846
889.870 .0297667
890.531 .0297488
891.192 .0297308
891.852 .0297128
892.512 .0296947
893.171 .0296765
893.830 .0296584
894.489 .0296403
895.148 .0296224
895.806 .0296046
896.464 .0295872
897.121 .0295700
897.778 .0295531
898.434 .0295365
899.091 .0295131
899.747 .0294973
900.402 .0294818
901.057 .0294665
901.712 .0294513
902.366 .0294363
903.020 .0294215
903.674 .0294068
904.327 .0293923
904.980 .0293779
905.633 .0293635
906.285 .0293493
906.936 .0293351
907.588 .0293280
908.239 .0293138
908.889 .0292996
909.540 .0292855
910.190 .0292716
910.839 .0292578
911.488 .0292441
912.137 .0292306
912.785 .0292171
913.433 .0292037
914.081 .0291903
914.728 .0291768
915.375 .0291632
916.021 .0291495
916.668 .0291357
917.313 .0291219
917.959 .0291081
918.604 .0290943
919.248 .0290805
919.892 .0290669
920.536 .0290534
921.180 .0290401
921.823 .0290270
922.465 .0290140
923.108 .0290014
923.750 .0289889
924.391 .0289767
925.032 .0289647
925.673 .0289530
926.313 .0289413
926.953 .0289299
927.593 .0289185
928.232 .0289072
928.871 .0288960
929.510 .0288849
930.148 .0288738
930.786 .0288628
931.423 .0288518
932.060 .0288410
932.697 .0288303
933.333 .0288197
933.969 .0288094
934.604 .0287993
935.239 .0287896
935.874 .0287803
936.508 .0287712
937.142 .0287625
937.776 .0287541
938.409 .0287460
939.042 .0287381
939.674 .0287305
940.306 .0287231
940.938 .0287160
941.569 .0287091
942.200 .0287025
942.830 .0286962
943.460 .0286900
944.090 .0286840
944.720 .0286780
945.349 .0286719
945.977 .0286657
946.606 .0286593
947.233 .0286528
947.861 .0286461
948.488 .0286392
949.115 .0286322
949.741 .0286250
950.367 .0286176
950.993 .0286098
951.618 .0286016
952.243 .0285928
952.868 .0285834
953.492 .0285735
954.115 .0285629
954.739 .0285519
955.362 .0285406
955.984 .0285289
956.607 .0285170
957.229 .0285049
957.850 .0284925
958.471 .0284800
959.092 .0284672
959.713 .0284542
960.333 .0284411
960.952 .0284278
961.572 .0284146
962.191 .0284014
962.809 .0283885
963.428 .0283757
964.045 .0283632
964.663 .0283509
965.280 .0283389
965.897 .0283269
966.513 .0283151
967.129 .0283033
967.745 .0282914
968.361 .0282795
968.976 .0282676
969.590 .0282557
970.205 .0282437
970.818 .0282317
971.432 .0282196
972.045 .0282075
972.658 .0281953
973.271 .0281828
973.883 .0281700
974.495 .0281569
975.106 .0281435
975.717 .0281296
976.328 .0281154
976.938 .0281010
977.548 .0280864
978.158 .0280717
978.768 .0280493
979.377 .0280348
979.985 .0280202
980.594 .0280056
981.202 .0279909
981.809 .0279760
982.417 .0279610
983.024 .0279458
983.631 .0279307
984.237 .0279156
984.843 .0279007
985.449 .0278860
986.054 .0278716
986.659 .0278575
987.264 .0278509
987.868 .0278370
988.472 .0278233
989.076 .0278098
989.679 .0277965
990.282 .0277834
990.885 .0277705
991.487 .0277579
992.090 .0277457
992.691 .0277337
993.293 .0277219
993.894 .0277103
994.495 .0276988
995.095 .0276872
995.696 .0276754
996.296 .0276634
996.895 .0276512
997.494 .0276387
998.093 .0276261
998.692 .0276134
999.291 .0276007
999.889 .0275880
1000.487 .0275755
1001.084 .0275632
1001.681 .0275510
1002.278 .0275390
1002.875 .0275272
1003.471 .0275154
1004.067 .0275038
1004.663 .0274922
1005.258 .0274808
1005.854 .0274696
1006.449 .0274586
1007.043 .0274479
1007.638 .0274375
1008.232 .0274275
1008.826 .0274179
1009.419 .0274087
1010.012 .0273999
1010.605 .0273914
1011.198 .0273835
1011.791 .0273761
1012.383 .0273695
1012.975 .0273637
1013.566 .0273589
1014.158 .0273552
1014.749 .0273526
1015.340 .0273512
1015.931 .0273509
1016.521 .0273516
1017.111 .0273530
1017.701 .0273551
1018.291 .0273579
1018.880 .0273612
1019.470 .0273652
1020.059 .0273699
1020.647 .0273754
1021.236 .0273818
1021.824 .0273889
1022.412 .0273968
1023.000 .0274053
1023.588 .0274143
1024.175 .0274234
1024.762 .0274326
1025.349 .0274419
1025.936 .0274513
1026.523 .0274609
1027.109 .0274708
1027.695 .0274811
1028.281 .0274918
1028.867 .0275028
1029.452 .0275141
1030.038 .0275255
1030.623 .0275366
1031.208 .0275475
1031.792 .0275581
1032.377 .0275682
1032.961 .0275781
1033.546 .0275878
1034.130 .0275975
1034.714 .0276071
1035.297 .0276169
1035.881 .0276266
1036.464 .0276362
1037.047 .0276455
1037.630 .0276546
1038.213 .0276632
1038.796 .0276713
1039.378 .0276790
1039.961 .0276862
1040.543 .0276930
1041.125 .0276996
1041.707 .0277060
1042.289 .0277121
1042.871 .0277180
1043.452 .0277236
1044.034 .0277289
1044.615 .0277339
1045.196 .0277384
1045.777 .0277425
1046.358 .0277461
1046.939 .0277492
1047.520 .0277518
1048.101 .0277540
1048.681 .0277556
1049.262 .0277566
1049.842 .0277570
1050.422 .0277567
1051.002 .0277556
1051.582 .0277537
1052.162 .0277510
1052.742 .0277475
1053.322 .0277434
1053.902 .0277386
1054.482 .0277334
1055.061 .0277277
1055.641 .0277217
1056.220 .0277156
1056.800 .0277095
1057.379 .0277033
1057.958 .0276971
1058.538 .0276910
1059.117 .0276851
1059.696 .0276792
1060.275 .0276736
1060.854 .0276682
1061.433 .0276630
1062.012 .0276580
1062.592 .0276532
1063.171 .0276486
1063.750 .0276442
1064.329 .0276400
1064.908 .0276359
1065.487 .0276321
1066.066 .0276287
1066.645 .0276256
1067.224 .0276231
1067.803 .0276211
1068.382 .0276200
1068.961 .0276196
1069.540 .0276201
1070.119 .0276211
1070.698 .0276226
1071.278 .0276244
1071.857 .0276264
1072.436 .0276285
1073.016 .0276305
1073.595 .0276324
1074.175 .0276343
1074.754 .0276362
1075.334 .0276380
1075.913 .0276397
1076.493 .0276412
1077.073 .0276425
1077.653 .0276433
1078.233 .0276436
1078.813 .0276433
1079.393 .0276425
1079.974 .0276413
1080.554 .0276396
1081.135 .0276377
1081.716 .0276357
1082.296 .0276334
1082.877 .0276310
1083.458 .0276283
1084.040 .0276255
1084.621 .0276224
1085.202 .0276190
1085.784 .0276153
1086.366 .0276111
1086.948 .0276067
1087.530 .0276020
1088.112 .0275969
1088.695 .0275914
1089.277 .0275854
1089.860 .0275789
1090.443 .0275720
1091.026 .0275647
1091.610 .0275570
1092.193 .0275491
1092.777 .0275408
1093.361 .0275320
1093.946 .0275225
1094.530 .0275122
1095.115 .0275009
1095.700 .0274886
1096.285 .0274750
1096.871 .0274604
1097.456 .0274447
1098.042 .0274284
1098.628 .0274114
1099.215 .0273940
1099.802 .0273760
1100.389 .0273574
1100.976 .0273381
1101.564 .0273179
1102.152 .0272970
1102.740 .0272754
1103.329 .0272537
1103.917 .0272321
1104.507 .0272111
1105.096 .0271915
1105.686 .0271736
1106.276 .0271578
1106.867 .0271440
1107.457 .0271321
1108.049 .0271219
1108.640 .0271132
1109.232 .0271060
1109.825 .0271005
1110.417 .0270968
1111.010 .0270952
1111.604 .0270961
1112.198 .0270999
1112.792 .0271063
1113.387 .0271156
1113.982 .0271273
1114.577 .0271411
1115.173 .0271563
1115.769 .0271725
1116.366 .0271894
1116.963 .0272067
1117.561 .0272243
1118.159 .0272422
1118.758 .0272604
1119.357 .0272790
1119.957 .0272979
1120.557 .0273169
1121.157 .0273361
1121.758 .0273550
1122.360 .0273733
1122.962 .0273909
1123.564 .0274076
1124.167 .0274197
1124.771 .0274348
1125.375 .0274493
1125.980 .0274635
1126.585 .0274778
1127.191 .0274926
1127.797 .0275083
1128.404 .0275254
1129.012 .0275443
1129.620 .0275652
1130.229 .0275883
1130.838 .0276140
1131.448 .0276422
1132.058 .0276734
1132.669 .0277138
1133.281 .0277531
1133.894 .0277963
1134.507 .0278426
1135.120 .0278965
1135.735 .0279602
1136.350 .0280123
1136.965 .0278834
1137.582 .0279853
1138.199 .0280886
1138.816 .0281945
1139.435 .0282998
1140.054 .0284028
1140.674 .0285098
1141.294 .0286055
1141.916 .0287054
1142.538 .0287773
1143.160 .0289674
1143.784 .0292151
1144.408 .0288878
1145.033 .0292145
