Measurement Sequence started on: 14-45-04-498
Integration time: 36
Scans to Average: 2 
>>>>>Begin Spectral Data<<<<<
433.946 .0382639
434.870 .0447592
435.793 .0414600
436.715 .0413361
437.635 .0399234
438.555 .0396582
439.473 .0392889
440.389 .0388099
441.305 .0385185
442.219 .0382920
443.132 .0389039
444.044 .0385073
444.954 .0382796
445.863 .0380530
446.771 .0378949
447.678 .0377450
448.584 .0376087
449.488 .0374922
450.391 .0373863
451.293 .0372878
452.194 .0371941
453.094 .0371033
453.992 .0370152
454.890 .0369295
455.786 .0368458
456.681 .0367637
457.575 .0366828
458.468 .0366022
459.360 .0365219
460.250 .0364422
461.140 .0363636
462.028 .0362868
462.915 .0362126
463.801 .0361419
464.687 .0360747
465.571 .0360108
466.454 .0359495
467.335 .0358894
468.216 .0358301
469.096 .0357701
469.975 .0357090
470.853 .0356468
471.729 .0355838
472.605 .0355213
473.479 .0354607
474.353 .0354032
475.226 .0353498
476.097 .0353008
476.968 .0352562
477.838 .0352153
478.706 .0351772
479.574 .0351412
480.441 .0351069
481.306 .0350740
482.171 .0350426
483.035 .0350131
483.898 .0349863
484.760 .0349625
485.621 .0349420
486.481 .0349248
487.340 .0349100
488.198 .0348969
489.055 .0348841
489.912 .0348705
490.767 .0348548
491.622 .0348218
492.476 .0347992
493.329 .0347741
494.180 .0347469
495.032 .0347181
495.882 .0346882
496.731 .0346573
497.580 .0346257
498.427 .0345935
499.274 .0345605
500.120 .0345424
500.965 .0345087
501.809 .0344744
502.653 .0344394
503.495 .0344042
504.337 .0343688
505.178 .0343335
506.018 .0342986
506.858 .0342644
507.696 .0342314
508.534 .0342000
509.371 .0341704
510.208 .0341428
511.043 .0341172
511.878 .0340933
512.712 .0340710
513.545 .0340500
514.377 .0340297
515.209 .0340095
516.040 .0339885
516.870 .0339659
517.699 .0339409
518.528 .0339131
519.356 .0338817
520.183 .0338465
521.010 .0338070
521.836 .0337633
522.661 .0337155
523.485 .0336640
524.309 .0336093
525.132 .0335520
525.954 .0334923
526.776 .0334301
527.597 .0333657
528.417 .0332993
529.237 .0332313
530.056 .0331621
530.874 .0330921
531.692 .0330225
532.508 .0329540
533.325 .0328876
534.140 .0328245
534.955 .0327654
535.770 .0327105
536.583 .0326594
537.397 .0326121
538.209 .0325682
539.021 .0325276
539.832 .0324900
540.643 .0324552
541.453 .0324226
542.262 .0323917
543.071 .0323621
543.879 .0323340
544.687 .0323072
545.494 .0322813
546.300 .0322560
547.106 .0322313
547.911 .0322069
548.716 .0321827
549.520 .0321588
550.323 .0321356
551.126 .0321130
551.929 .0320912
552.731 .0320704
553.532 .0320512
554.332 .0320339
555.133 .0320187
555.932 .0320055
556.731 .0319942
557.530 .0319843
558.328 .0319753
559.125 .0319670
559.922 .0319590
560.719 .0319507
561.515 .0319416
562.310 .0319315
563.105 .0319200
563.899 .0319070
564.693 .0318923
565.487 .0318757
566.280 .0318569
567.072 .0318356
567.864 .0318115
568.655 .0317845
569.446 .0317547
570.236 .0317222
571.026 .0316873
571.816 .0316506
572.605 .0316127
573.393 .0315738
574.181 .0315345
574.969 .0314954
575.756 .0314567
576.543 .0314185
577.329 .0313810
578.115 .0313443
578.900 .0313084
579.685 .0312734
580.469 .0312391
581.253 .0312057
582.036 .0311731
582.820 .0311415
583.602 .0311108
584.384 .0310814
585.166 .0310533
585.947 .0310266
586.728 .0310012
587.509 .0309770
588.289 .0309538
589.069 .0309315
589.848 .0309098
590.627 .0308886
591.405 .0308677
592.183 .0308472
592.961 .0308272
593.738 .0308079
594.515 .0307893
595.291 .0307718
596.067 .0307555
596.843 .0307403
597.618 .0307263
598.393 .0307078
599.167 .0306956
599.941 .0306840
600.715 .0306727
601.488 .0306617
602.261 .0306508
603.034 .0306401
603.806 .0306293
604.578 .0306184
605.349 .0306075
606.121 .0305964
606.891 .0305906
607.662 .0305790
608.432 .0305672
609.201 .0305551
609.971 .0305426
610.740 .0305296
611.508 .0305162
612.277 .0305023
613.045 .0304876
613.812 .0304723
614.579 .0304563
615.346 .0304395
616.113 .0304221
616.879 .0304041
617.645 .0303856
618.411 .0303666
619.176 .0303472
619.941 .0303274
620.705 .0303072
621.470 .0302866
622.233 .0302656
622.997 .0302444
623.760 .0302230
624.523 .0302015
625.286 .0301800
626.048 .0301587
626.810 .0301378
627.572 .0301172
628.333 .0300970
629.095 .0300774
629.855 .0300583
630.616 .0300398
631.376 .0300220
632.136 .0300048
632.895 .0299883
633.655 .0299724
634.414 .0299570
635.172 .0299420
635.931 .0299272
636.689 .0299126
637.447 .0298980
638.204 .0298835
638.962 .0298690
639.718 .0298545
640.475 .0298400
641.231 .0298257
641.988 .0298114
642.743 .0297971
643.499 .0297827
644.254 .0297683
645.009 .0297538
645.764 .0297391
646.518 .0297244
647.272 .0297097
648.026 .0296949
648.780 .0296801
649.533 .0296654
650.286 .0296507
651.039 .0296361
651.792 .0296216
652.544 .0296074
653.296 .0295934
654.048 .0295797
654.799 .0295663
655.550 .0295534
656.301 .0295408
657.052 .0295285
657.802 .0295165
658.552 .0295048
659.302 .0294934
660.052 .0294821
660.801 .0294711
661.550 .0294602
662.299 .0294495
663.048 .0294388
663.796 .0294281
664.544 .0294174
665.292 .0294066
666.040 .0293956
666.787 .0293844
667.534 .0293730
668.281 .0293613
669.028 .0293494
669.774 .0293374
670.521 .0293253
671.266 .0293132
672.012 .0293011
672.758 .0292891
673.503 .0292772
674.248 .0292656
674.992 .0292541
675.737 .0292429
676.481 .0292318
677.225 .0292209
677.969 .0292102
678.712 .0291996
679.455 .0291891
680.199 .0291787
680.941 .0291683
681.684 .0291580
682.426 .0291477
683.168 .0291374
683.910 .0291271
684.652 .0291168
685.393 .0291064
686.134 .0290959
686.875 .0290852
687.616 .0290744
688.356 .0290634
689.097 .0290522
689.837 .0290407
690.576 .0290290
691.316 .0290170
692.055 .0290049
692.794 .0289925
693.533 .0289798
694.272 .0289671
695.010 .0289542
695.748 .0289413
696.486 .0289283
697.224 .0289155
697.962 .0289027
698.699 .0288901
699.436 .0288776
700.173 .0288654
700.909 .0288534
701.646 .0288416
702.382 .0288301
703.118 .0288188
703.853 .0288077
704.589 .0287969
705.324 .0287863
706.059 .0287759
706.794 .0287656
707.529 .0287554
708.263 .0287453
708.997 .0287353
709.731 .0287252
710.465 .0287151
711.198 .0287049
711.931 .0286945
712.664 .0286840
713.397 .0286733
714.130 .0286623
714.862 .0286512
715.594 .0286397
716.326 .0286280
717.058 .0286161
717.789 .0286040
718.520 .0285917
719.251 .0285793
719.982 .0285668
720.713 .0285541
721.443 .0285413
722.173 .0285284
722.903 .0285152
723.633 .0285019
724.362 .0284884
725.091 .0284748
725.820 .0284612
726.549 .0284475
727.278 .0284340
728.006 .0284206
728.734 .0284075
729.462 .0283946
730.190 .0283819
730.917 .0283694
731.644 .0283571
732.371 .0283449
733.098 .0283329
733.825 .0283210
734.551 .0283092
735.277 .0282976
736.003 .0282861
736.728 .0282749
737.454 .0282639
738.179 .0282531
738.904 .0282427
739.629 .0282325
740.353 .0282226
741.077 .0282130
741.801 .0282037
742.525 .0281946
743.249 .0281858
743.972 .0281773
744.695 .0281689
745.418 .0281609
746.141 .0281531
746.863 .0281457
747.585 .0281385
748.307 .0281317
749.029 .0281252
749.750 .0281191
750.472 .0281131
751.193 .0281074
751.913 .0281018
752.634 .0280963
753.354 .0280908
754.074 .0280854
754.794 .0280799
755.514 .0280745
756.233 .0280692
756.952 .0280638
757.671 .0280586
758.390 .0280535
759.108 .0280484
759.826 .0280434
760.544 .0280383
761.262 .0280332
761.979 .0280279
762.697 .0280224
763.414 .0280168
764.130 .0280109
764.847 .0280049
765.563 .0279987
766.279 .0279924
766.995 .0279859
767.710 .0279792
768.426 .0279723
769.141 .0279651
769.855 .0279577
770.570 .0279499
771.284 .0279417
771.998 .0279331
772.712 .0279242
773.426 .0279150
774.139 .0279055
774.852 .0278956
775.565 .0278855
776.277 .0278750
776.990 .0278643
777.702 .0278532
778.414 .0278419
779.125 .0278303
779.836 .0278184
780.547 .0278063
781.258 .0277941
781.969 .0277817
782.679 .0277693
783.389 .0277510
784.099 .0277388
784.808 .0277267
785.517 .0277148
786.226 .0277031
786.935 .0276917
787.643 .0276807
788.352 .0276699
789.060 .0276596
789.767 .0276496
790.475 .0276399
791.182 .0276307
791.889 .0276269
792.595 .0276182
793.301 .0276098
794.008 .0276018
794.713 .0275940
795.419 .0275865
796.124 .0275792
796.829 .0275721
797.534 .0275652
798.238 .0275584
798.942 .0275518
799.646 .0275452
800.350 .0275388
801.053 .0275325
801.756 .0275264
802.459 .0275204
803.162 .0275147
803.864 .0275091
804.566 .0275038
805.267 .0274986
805.969 .0274935
806.670 .0274886
807.371 .0274837
808.071 .0274789
808.772 .0274742
809.472 .0274695
810.171 .0274648
810.871 .0274602
811.570 .0274556
812.269 .0274510
812.967 .0274463
813.666 .0274415
814.364 .0274364
815.061 .0274312
815.759 .0274256
816.456 .0274196
817.153 .0274133
817.849 .0274066
818.545 .0273995
819.241 .0273920
819.937 .0273840
820.632 .0273756
821.327 .0273667
822.022 .0273574
822.717 .0273477
823.411 .0273376
824.105 .0273272
824.798 .0273165
825.491 .0273055
826.184 .0272943
826.877 .0272829
827.569 .0272714
828.261 .0272597
828.953 .0272480
829.645 .0272363
830.336 .0272246
831.027 .0272130
831.717 .0272016
832.407 .0271903
833.097 .0271792
833.787 .0271683
834.476 .0271576
835.165 .0271471
835.854 .0271366
836.542 .0271262
837.230 .0271158
837.918 .0271054
838.605 .0270950
839.292 .0270844
839.979 .0270737
840.665 .0270628
841.352 .0270518
842.037 .0270405
842.723 .0270290
843.408 .0270172
844.093 .0270051
844.777 .0269926
845.462 .0269797
846.145 .0269663
846.829 .0269525
847.512 .0269382
848.195 .0269236
848.878 .0269086
849.560 .0268935
850.242 .0268781
850.923 .0268627
851.605 .0268471
852.286 .0268316
852.966 .0268161
853.646 .0268007
854.326 .0267853
855.006 .0267701
855.685 .0267550
856.364 .0267403
857.043 .0267258
857.721 .0267118
858.399 .0266981
859.077 .0266848
859.754 .0266719
860.431 .0266595
861.107 .0266474
861.784 .0266357
862.459 .0266244
863.135 .0266136
863.810 .0266033
864.485 .0265935
865.160 .0265842
865.834 .0265754
866.508 .0265671
867.181 .0265591
867.854 .0265516
868.527 .0265443
869.199 .0265375
869.872 .0265309
870.543 .0265247
871.215 .0265188
871.886 .0265130
872.557 .0265074
873.227 .0265019
873.897 .0264963
874.567 .0264906
875.236 .0264849
875.905 .0264791
876.573 .0264732
877.242 .0264673
877.909 .0264614
878.577 .0264556
879.244 .0264498
879.911 .0264440
880.577 .0264382
881.243 .0264323
881.909 .0264265
882.575 .0264207
883.240 .0264150
883.904 .0264095
884.569 .0264041
885.232 .0263990
885.896 .0263941
886.559 .0263895
887.222 .0263851
887.885 .0263809
888.547 .0263769
889.208 .0263732
889.870 .0263696
890.531 .0263663
891.192 .0263633
891.852 .0263605
892.512 .0263578
893.171 .0263553
893.830 .0263529
894.489 .0263505
895.148 .0263481
895.806 .0263456
896.464 .0263430
897.121 .0263403
897.778 .0263375
898.434 .0263345
899.091 .0263283
899.747 .0263244
900.402 .0263201
901.057 .0263154
901.712 .0263101
902.366 .0263042
903.020 .0262978
903.674 .0262910
904.327 .0262837
904.980 .0262759
905.633 .0262677
906.285 .0262592
906.936 .0262501
907.588 .0262445
908.239 .0262347
908.889 .0262243
909.540 .0262135
910.190 .0262021
910.839 .0261902
911.488 .0261778
912.137 .0261651
912.785 .0261519
913.433 .0261384
914.081 .0261245
914.728 .0261102
915.375 .0260955
916.021 .0260805
916.668 .0260651
917.313 .0260495
917.959 .0260337
918.604 .0260177
919.248 .0260016
919.892 .0259853
920.536 .0259687
921.180 .0259520
921.823 .0259350
922.465 .0259177
923.108 .0259001
923.750 .0258822
924.391 .0258641
925.032 .0258459
925.673 .0258276
926.313 .0258091
926.953 .0257906
927.593 .0257719
928.232 .0257530
928.871 .0257340
929.510 .0257149
930.148 .0256956
930.786 .0256762
931.423 .0256567
932.060 .0256371
932.697 .0256176
933.333 .0255980
933.969 .0255783
934.604 .0255585
935.239 .0255385
935.874 .0255183
936.508 .0254980
937.142 .0254775
937.776 .0254568
938.409 .0254361
939.042 .0254154
939.674 .0253948
940.306 .0253744
940.938 .0253541
941.569 .0253341
942.200 .0253144
942.830 .0252950
943.460 .0252759
944.090 .0252572
944.720 .0252390
945.349 .0252213
945.977 .0252041
946.606 .0251874
947.233 .0251712
947.861 .0251555
948.488 .0251403
949.115 .0251255
949.741 .0251112
950.367 .0250972
950.993 .0250837
951.618 .0250707
952.243 .0250580
952.868 .0250459
953.492 .0250343
954.115 .0250233
954.739 .0250129
955.362 .0250031
955.984 .0249940
956.607 .0249856
957.229 .0249778
957.850 .0249706
958.471 .0249641
959.092 .0249582
959.713 .0249528
960.333 .0249478
960.952 .0249434
961.572 .0249393
962.191 .0249356
962.809 .0249323
963.428 .0249293
964.045 .0249266
964.663 .0249243
965.280 .0249222
965.897 .0249205
966.513 .0249190
967.129 .0249179
967.745 .0249170
968.361 .0249163
968.976 .0249160
969.590 .0249158
970.205 .0249159
970.818 .0249163
971.432 .0249168
972.045 .0249174
972.658 .0249182
973.271 .0249190
973.883 .0249198
974.495 .0249206
975.106 .0249212
975.717 .0249217
976.328 .0249221
976.938 .0249224
977.548 .0249225
978.158 .0249226
978.768 .0249224
979.377 .0249221
979.985 .0249217
980.594 .0249211
981.202 .0249204
981.809 .0249196
982.417 .0249188
983.024 .0249179
983.631 .0249170
984.237 .0249160
984.843 .0249151
985.449 .0249141
986.054 .0249129
986.659 .0249116
987.264 .0249104
987.868 .0249089
988.472 .0249071
989.076 .0249052
989.679 .0249031
990.282 .0249009
990.885 .0248986
991.487 .0248963
992.090 .0248939
992.691 .0248914
993.293 .0248889
993.894 .0248862
994.495 .0248836
995.095 .0248808
995.696 .0248781
996.296 .0248753
996.895 .0248726
997.494 .0248699
998.093 .0248672
998.692 .0248645
999.291 .0248617
999.889 .0248589
1000.487 .0248558
1001.084 .0248526
1001.681 .0248491
1002.278 .0248453
1002.875 .0248413
1003.471 .0248371
1004.067 .0248327
1004.663 .0248280
1005.258 .0248230
1005.854 .0248178
1006.449 .0248123
1007.043 .0248064
1007.638 .0248004
1008.232 .0247941
1008.826 .0247875
1009.419 .0247808
1010.012 .0247740
1010.605 .0247669
1011.198 .0247596
1011.791 .0247520
1012.383 .0247442
1012.975 .0247360
1013.566 .0247275
1014.158 .0247188
1014.749 .0247098
1015.340 .0247007
1015.931 .0246915
1016.521 .0246822
1017.111 .0246728
1017.701 .0246634
1018.291 .0246539
1018.880 .0246443
1019.470 .0246347
1020.059 .0246251
1020.647 .0246155
1021.236 .0246059
1021.824 .0245966
1022.412 .0245875
1023.000 .0245786
1023.588 .0245699
1024.175 .0245614
1024.762 .0245530
1025.349 .0245446
1025.936 .0245361
1026.523 .0245276
1027.109 .0245189
1027.695 .0245102
1028.281 .0245015
1028.867 .0244928
1029.452 .0244844
1030.038 .0244763
1030.623 .0244685
1031.208 .0244611
1031.792 .0244541
1032.377 .0244474
1032.961 .0244411
1033.546 .0244351
1034.130 .0244295
1034.714 .0244243
1035.297 .0244195
1035.881 .0244152
1036.464 .0244114
1037.047 .0244082
1037.630 .0244055
1038.213 .0244034
1038.796 .0244016
1039.378 .0244003
1039.961 .0243992
1040.543 .0243984
1041.125 .0243978
1041.707 .0243973
1042.289 .0243970
1042.871 .0243969
1043.452 .0243969
1044.034 .0243970
1044.615 .0243972
1045.196 .0243977
1045.777 .0243982
1046.358 .0243988
1046.939 .0243994
1047.520 .0243999
1048.101 .0244002
1048.681 .0244002
1049.262 .0243998
1049.842 .0243991
1050.422 .0243980
1051.002 .0243967
1051.582 .0243951
1052.162 .0243934
1052.742 .0243917
1053.322 .0243901
1053.902 .0243884
1054.482 .0243869
1055.061 .0243854
1055.641 .0243840
1056.220 .0243826
1056.800 .0243814
1057.379 .0243804
1057.958 .0243795
1058.538 .0243789
1059.117 .0243786
1059.696 .0243786
1060.275 .0243790
1060.854 .0243796
1061.433 .0243806
1062.012 .0243817
1062.592 .0243829
1063.171 .0243842
1063.750 .0243856
1064.329 .0243870
1064.908 .0243884
1065.487 .0243900
1066.066 .0243917
1066.645 .0243938
1067.224 .0243961
1067.803 .0243986
1068.382 .0244013
1068.961 .0244039
1069.540 .0244066
1070.119 .0244091
1070.698 .0244114
1071.278 .0244136
1071.857 .0244156
1072.436 .0244176
1073.016 .0244197
1073.595 .0244221
1074.175 .0244248
1074.754 .0244279
1075.334 .0244313
1075.913 .0244349
1076.493 .0244387
1077.073 .0244425
1077.653 .0244463
1078.233 .0244500
1078.813 .0244537
1079.393 .0244575
1079.974 .0244613
1080.554 .0244654
1081.135 .0244695
1081.716 .0244738
1082.296 .0244780
1082.877 .0244820
1083.458 .0244855
1084.040 .0244884
1084.621 .0244906
1085.202 .0244923
1085.784 .0244934
1086.366 .0244942
1086.948 .0244948
1087.530 .0244953
1088.112 .0244957
1088.695 .0244960
1089.277 .0244961
1089.860 .0244958
1090.443 .0244950
1091.026 .0244937
1091.610 .0244919
1092.193 .0244896
1092.777 .0244870
1093.361 .0244843
1093.946 .0244816
1094.530 .0244788
1095.115 .0244760
1095.700 .0244733
1096.285 .0244705
1096.871 .0244676
1097.456 .0244647
1098.042 .0244620
1098.628 .0244594
1099.215 .0244571
1099.802 .0244554
1100.389 .0244543
1100.976 .0244537
1101.564 .0244538
1102.152 .0244544
1102.740 .0244555
1103.329 .0244570
1103.917 .0244591
1104.507 .0244619
1105.096 .0244653
1105.686 .0244696
1106.276 .0244747
1106.867 .0244807
1107.457 .0244875
1108.049 .0244948
1108.640 .0245026
1109.232 .0245109
1109.825 .0245196
1110.417 .0245288
1111.010 .0245387
1111.604 .0245495
1112.198 .0245612
1112.792 .0245738
1113.387 .0245873
1113.982 .0246015
1114.577 .0246161
1115.173 .0246307
1115.769 .0246451
1116.366 .0246591
1116.963 .0246726
1117.561 .0246858
1118.159 .0246991
1118.758 .0247126
1119.357 .0247265
1119.957 .0247409
1120.557 .0247556
1121.157 .0247702
1121.758 .0247845
1122.360 .0247981
1122.962 .0248106
1123.564 .0248218
1124.167 .0248293
1124.771 .0248387
1125.375 .0248471
1125.980 .0248547
1126.585 .0248617
1127.191 .0248683
1127.797 .0248746
1128.404 .0248808
1129.012 .0248868
1129.620 .0248929
1130.229 .0248994
1130.838 .0249066
1131.448 .0249148
1132.058 .0249246
1132.669 .0249391
1133.281 .0249561
1133.894 .0249779
1134.507 .0249997
1135.120 .0250286
1135.735 .0250679
1136.350 .0251194
1136.965 .0249368
1137.582 .0249662
1138.199 .0250043
1138.816 .0250465
1139.435 .0250957
1140.054 .0251563
1140.674 .0252338
1141.294 .0253367
1141.916 .0254590
1142.538 .0254531
1143.160 .0256501
1143.784 .0259376
1144.408 .0262771
1145.033 .0263401
