Measurement Sequence started on: 14-45-04-498
Integration time: 36
Scans to Average: 2 
>>>>>Begin Spectral Data<<<<<
433.946 .0403820
434.870 .0426110
435.793 .0380850
436.715 .0390138
437.635 .0390156
438.555 .0393568
439.473 .0392857
440.389 .0392091
441.305 .0392711
442.219 .0392911
443.132 .0393781
444.044 .0391946
444.954 .0392462
445.863 .0392458
446.771 .0392415
447.678 .0392154
448.584 .0391887
449.488 .0391613
450.391 .0391255
451.293 .0390836
452.194 .0390355
453.094 .0389812
453.992 .0389211
454.890 .0388551
455.786 .0387837
456.681 .0387074
457.575 .0386265
458.468 .0385423
459.360 .0384555
460.250 .0383672
461.140 .0382777
462.028 .0381876
462.915 .0380976
463.801 .0380082
464.687 .0379198
465.571 .0378331
466.454 .0377481
467.335 .0376653
468.216 .0375850
469.096 .0375073
469.975 .0374327
470.853 .0373612
471.729 .0372933
472.605 .0372293
473.479 .0371692
474.353 .0371129
475.226 .0370600
476.097 .0370101
476.968 .0369625
477.838 .0369165
478.706 .0368717
479.574 .0368275
480.441 .0367837
481.306 .0367401
482.171 .0366965
483.035 .0366529
483.898 .0366090
484.760 .0365645
485.621 .0365192
486.481 .0364728
487.340 .0364248
488.198 .0363752
489.055 .0363241
489.912 .0362719
490.767 .0362188
491.622 .0361386
492.476 .0360863
493.329 .0360347
494.180 .0359842
495.032 .0359350
495.882 .0358872
496.731 .0358410
497.580 .0357966
498.427 .0357539
499.274 .0357134
500.120 .0356993
500.965 .0356620
501.809 .0356266
502.653 .0355931
503.495 .0355617
504.337 .0355322
505.178 .0355044
506.018 .0354783
506.858 .0354534
507.696 .0354296
508.534 .0354066
509.371 .0353842
510.208 .0353623
511.043 .0353409
511.878 .0353194
512.712 .0352981
513.545 .0352767
514.377 .0352551
515.209 .0352329
516.040 .0352099
516.870 .0351854
517.699 .0351590
518.528 .0351303
519.356 .0350993
520.183 .0350656
521.010 .0350293
521.836 .0349904
522.661 .0349493
523.485 .0349060
524.309 .0348608
525.132 .0348140
525.954 .0347660
526.776 .0347165
527.597 .0346659
528.417 .0346144
529.237 .0345623
530.056 .0345096
530.874 .0344567
531.692 .0344040
532.508 .0343517
533.325 .0343001
534.140 .0342496
534.955 .0342002
535.770 .0341517
536.583 .0341034
537.397 .0340554
538.209 .0340073
539.021 .0339588
539.832 .0339096
540.643 .0338600
541.453 .0338103
542.262 .0337606
543.071 .0337111
543.879 .0336625
544.687 .0336145
545.494 .0335671
546.300 .0335201
547.106 .0334733
547.911 .0334267
548.716 .0333803
549.520 .0333346
550.323 .0332902
551.126 .0332480
551.929 .0332088
552.731 .0331732
553.532 .0331420
554.332 .0331154
555.133 .0330931
555.932 .0330748
556.731 .0330599
557.530 .0330476
558.328 .0330372
559.125 .0330283
559.922 .0330205
560.719 .0330132
561.515 .0330063
562.310 .0329996
563.105 .0329927
563.899 .0329853
564.693 .0329769
565.487 .0329671
566.280 .0329552
567.072 .0329408
567.864 .0329233
568.655 .0329026
569.446 .0328786
570.236 .0328518
571.026 .0328223
571.816 .0327907
572.605 .0327575
573.393 .0327232
574.181 .0326880
574.969 .0326519
575.756 .0326152
576.543 .0325777
577.329 .0325396
578.115 .0325010
578.900 .0324619
579.685 .0324229
580.469 .0323841
581.253 .0323458
582.036 .0323083
582.820 .0322717
583.602 .0322359
584.384 .0322008
585.166 .0321664
585.947 .0321326
586.728 .0320992
587.509 .0320662
588.289 .0320339
589.069 .0320023
589.848 .0319717
590.627 .0319421
591.405 .0319136
592.183 .0318861
592.961 .0318596
593.738 .0318339
594.515 .0318089
595.291 .0317844
596.067 .0317605
596.843 .0317372
597.618 .0317144
598.393 .0316825
599.167 .0316616
599.941 .0316417
600.715 .0316227
601.488 .0316045
602.261 .0315870
603.034 .0315702
603.806 .0315540
604.578 .0315383
605.349 .0315231
606.121 .0315084
606.891 .0315024
607.662 .0314883
608.432 .0314744
609.201 .0314610
609.971 .0314480
610.740 .0314354
611.508 .0314232
612.277 .0314114
613.045 .0313999
613.812 .0313886
614.579 .0313772
615.346 .0313658
616.113 .0313540
616.879 .0313418
617.645 .0313291
618.411 .0313158
619.176 .0313019
619.941 .0312874
620.705 .0312723
621.470 .0312566
622.233 .0312402
622.997 .0312232
623.760 .0312056
624.523 .0311872
625.286 .0311681
626.048 .0311484
626.810 .0311281
627.572 .0311073
628.333 .0310860
629.095 .0310644
629.855 .0310424
630.616 .0310203
631.376 .0309981
632.136 .0309759
632.895 .0309536
633.655 .0309315
634.414 .0309095
635.172 .0308876
635.931 .0308659
636.689 .0308444
637.447 .0308232
638.204 .0308022
638.962 .0307817
639.718 .0307617
640.475 .0307422
641.231 .0307234
641.988 .0307052
642.743 .0306876
643.499 .0306706
644.254 .0306541
645.009 .0306381
645.764 .0306226
646.518 .0306075
647.272 .0305928
648.026 .0305784
648.780 .0305643
649.533 .0305506
650.286 .0305371
651.039 .0305238
651.792 .0305107
652.544 .0304977
653.296 .0304849
654.048 .0304722
654.799 .0304596
655.550 .0304471
656.301 .0304348
657.052 .0304226
657.802 .0304106
658.552 .0303987
659.302 .0303871
660.052 .0303755
660.801 .0303641
661.550 .0303528
662.299 .0303415
663.048 .0303303
663.796 .0303191
664.544 .0303078
665.292 .0302966
666.040 .0302853
666.787 .0302739
667.534 .0302626
668.281 .0302513
669.028 .0302400
669.774 .0302287
670.521 .0302172
671.266 .0302057
672.012 .0301941
672.758 .0301824
673.503 .0301705
674.248 .0301585
674.992 .0301464
675.737 .0301341
676.481 .0301218
677.225 .0301094
677.969 .0300968
678.712 .0300843
679.455 .0300716
680.199 .0300590
680.941 .0300463
681.684 .0300337
682.426 .0300212
683.168 .0300087
683.910 .0299963
684.652 .0299840
685.393 .0299718
686.134 .0299597
686.875 .0299477
687.616 .0299359
688.356 .0299242
689.097 .0299127
689.837 .0299013
690.576 .0298902
691.316 .0298791
692.055 .0298682
692.794 .0298573
693.533 .0298463
694.272 .0298352
695.010 .0298241
695.748 .0298129
696.486 .0298015
697.224 .0297901
697.962 .0297787
698.699 .0297672
699.436 .0297558
700.173 .0297445
700.909 .0297332
701.646 .0297221
702.382 .0297112
703.118 .0297003
703.853 .0296897
704.589 .0296792
705.324 .0296689
706.059 .0296587
706.794 .0296485
707.529 .0296385
708.263 .0296284
708.997 .0296185
709.731 .0296087
710.465 .0295989
711.198 .0295893
711.931 .0295797
712.664 .0295702
713.397 .0295607
714.130 .0295510
714.862 .0295413
715.594 .0295312
716.326 .0295209
717.058 .0295102
717.789 .0294992
718.520 .0294878
719.251 .0294760
719.982 .0294638
720.713 .0294513
721.443 .0294384
722.173 .0294252
722.903 .0294116
723.633 .0293977
724.362 .0293836
725.091 .0293691
725.820 .0293545
726.549 .0293398
727.278 .0293250
728.006 .0293104
728.734 .0292958
729.462 .0292815
730.190 .0292674
730.917 .0292536
731.644 .0292401
732.371 .0292271
733.098 .0292145
733.825 .0292024
734.551 .0291908
735.277 .0291797
736.003 .0291691
736.728 .0291591
737.454 .0291496
738.179 .0291404
738.904 .0291317
739.629 .0291232
740.353 .0291149
741.077 .0291066
741.801 .0290983
742.525 .0290899
743.249 .0290813
743.972 .0290725
744.695 .0290634
745.418 .0290540
746.141 .0290442
746.863 .0290342
747.585 .0290237
748.307 .0290128
749.029 .0290014
749.750 .0289894
750.472 .0289770
751.193 .0289639
751.913 .0289503
752.634 .0289362
753.354 .0289217
754.074 .0289069
754.794 .0288921
755.514 .0288773
756.233 .0288627
756.952 .0288483
757.671 .0288344
758.390 .0288208
759.108 .0288076
759.826 .0287949
760.544 .0287826
761.262 .0287707
761.979 .0287592
762.697 .0287480
763.414 .0287371
764.130 .0287267
764.847 .0287166
765.563 .0287069
766.279 .0286976
766.995 .0286886
767.710 .0286799
768.426 .0286715
769.141 .0286633
769.855 .0286552
770.570 .0286471
771.284 .0286392
771.998 .0286312
772.712 .0286234
773.426 .0286157
774.139 .0286081
774.852 .0286007
775.565 .0285936
776.277 .0285866
776.990 .0285799
777.702 .0285734
778.414 .0285672
779.125 .0285614
779.836 .0285559
780.547 .0285507
781.258 .0285458
781.969 .0285413
782.679 .0285370
783.389 .0285316
784.099 .0285276
784.808 .0285237
785.517 .0285199
786.226 .0285161
786.935 .0285124
787.643 .0285087
788.352 .0285051
789.060 .0285013
789.767 .0284975
790.475 .0284935
791.182 .0284892
791.889 .0284862
792.595 .0284816
793.301 .0284767
794.008 .0284715
794.713 .0284658
795.419 .0284598
796.124 .0284534
796.829 .0284466
797.534 .0284393
798.238 .0284316
798.942 .0284236
799.646 .0284152
800.350 .0284066
801.053 .0283979
801.756 .0283891
802.459 .0283802
803.162 .0283712
803.864 .0283621
804.566 .0283529
805.267 .0283434
805.969 .0283338
806.670 .0283240
807.371 .0283141
808.071 .0283040
808.772 .0282939
809.472 .0282838
810.171 .0282736
810.871 .0282632
811.570 .0282528
812.269 .0282421
812.967 .0282312
813.666 .0282201
814.364 .0282087
815.061 .0281970
815.759 .0281851
816.456 .0281729
817.153 .0281605
817.849 .0281478
818.545 .0281347
819.241 .0281213
819.937 .0281076
820.632 .0280936
821.327 .0280793
822.022 .0280646
822.717 .0280496
823.411 .0280344
824.105 .0280189
824.798 .0280031
825.491 .0279870
826.184 .0279707
826.877 .0279541
827.569 .0279373
828.261 .0279205
828.953 .0279037
829.645 .0278870
830.336 .0278705
831.027 .0278544
831.717 .0278387
832.407 .0278235
833.097 .0278086
833.787 .0277942
834.476 .0277802
835.165 .0277667
835.854 .0277535
836.542 .0277409
837.230 .0277287
837.918 .0277171
838.605 .0277061
839.292 .0276956
839.979 .0276856
840.665 .0276761
841.352 .0276670
842.037 .0276582
842.723 .0276497
843.408 .0276415
844.093 .0276334
844.777 .0276256
845.462 .0276179
846.145 .0276103
846.829 .0276027
847.512 .0275953
848.195 .0275879
848.878 .0275805
849.560 .0275731
850.242 .0275657
850.923 .0275582
851.605 .0275507
852.286 .0275430
852.966 .0275351
853.646 .0275270
854.326 .0275187
855.006 .0275101
855.685 .0275012
856.364 .0274921
857.043 .0274829
857.721 .0274736
858.399 .0274642
859.077 .0274548
859.754 .0274456
860.431 .0274363
861.107 .0274272
861.784 .0274182
862.459 .0274094
863.135 .0274006
863.810 .0273920
864.485 .0273836
865.160 .0273753
865.834 .0273672
866.508 .0273593
867.181 .0273516
867.854 .0273442
868.527 .0273370
869.199 .0273300
869.872 .0273232
870.543 .0273165
871.215 .0273100
871.886 .0273036
872.557 .0272973
873.227 .0272910
873.897 .0272846
874.567 .0272783
875.236 .0272718
875.905 .0272654
876.573 .0272589
877.242 .0272524
877.909 .0272459
878.577 .0272393
879.244 .0272327
879.911 .0272260
880.577 .0272191
881.243 .0272122
881.909 .0272050
882.575 .0271976
883.240 .0271899
883.904 .0271821
884.569 .0271742
885.232 .0271661
885.896 .0271579
886.559 .0271497
887.222 .0271416
887.885 .0271334
888.547 .0271253
889.208 .0271171
889.870 .0271088
890.531 .0271005
891.192 .0270922
891.852 .0270837
892.512 .0270751
893.171 .0270664
893.830 .0270575
894.489 .0270485
895.148 .0270392
895.806 .0270296
896.464 .0270198
897.121 .0270096
897.778 .0269992
898.434 .0269885
899.091 .0269713
899.747 .0269601
900.402 .0269488
901.057 .0269373
901.712 .0269255
902.366 .0269136
903.020 .0269013
903.674 .0268888
904.327 .0268760
904.980 .0268631
905.633 .0268499
906.285 .0268366
906.936 .0268233
907.588 .0268164
908.239 .0268030
908.889 .0267894
909.540 .0267758
910.190 .0267619
910.839 .0267479
911.488 .0267337
912.137 .0267192
912.785 .0267047
913.433 .0266900
914.081 .0266754
914.728 .0266607
915.375 .0266459
916.021 .0266311
916.668 .0266161
917.313 .0266009
917.959 .0265853
918.604 .0265694
919.248 .0265531
919.892 .0265365
920.536 .0265196
921.180 .0265024
921.823 .0264850
922.465 .0264675
923.108 .0264498
923.750 .0264319
924.391 .0264138
925.032 .0263956
925.673 .0263771
926.313 .0263586
926.953 .0263401
927.593 .0263216
928.232 .0263032
928.871 .0262850
929.510 .0262670
930.148 .0262492
930.786 .0262317
931.423 .0262143
932.060 .0261971
932.697 .0261800
933.333 .0261631
933.969 .0261464
934.604 .0261300
935.239 .0261137
935.874 .0260977
936.508 .0260820
937.142 .0260666
937.776 .0260515
938.409 .0260366
939.042 .0260222
939.674 .0260081
940.306 .0259943
940.938 .0259809
941.569 .0259677
942.200 .0259549
942.830 .0259423
943.460 .0259300
944.090 .0259179
944.720 .0259059
945.349 .0258943
945.977 .0258828
946.606 .0258715
947.233 .0258604
947.861 .0258496
948.488 .0258389
949.115 .0258283
949.741 .0258180
950.367 .0258079
950.993 .0257979
951.618 .0257883
952.243 .0257790
952.868 .0257701
953.492 .0257615
954.115 .0257532
954.739 .0257453
955.362 .0257377
955.984 .0257303
956.607 .0257233
957.229 .0257164
957.850 .0257099
958.471 .0257036
959.092 .0256976
959.713 .0256919
960.333 .0256865
960.952 .0256814
961.572 .0256765
962.191 .0256719
962.809 .0256676
963.428 .0256634
964.045 .0256595
964.663 .0256559
965.280 .0256526
965.897 .0256495
966.513 .0256467
967.129 .0256442
967.745 .0256418
968.361 .0256395
968.976 .0256373
969.590 .0256352
970.205 .0256331
970.818 .0256312
971.432 .0256292
972.045 .0256273
972.658 .0256254
973.271 .0256235
973.883 .0256216
974.495 .0256195
975.106 .0256174
975.717 .0256153
976.328 .0256130
976.938 .0256108
977.548 .0256085
978.158 .0256063
978.768 .0256027
979.377 .0256006
979.985 .0255984
980.594 .0255962
981.202 .0255939
981.809 .0255916
982.417 .0255891
983.024 .0255866
983.631 .0255841
984.237 .0255815
984.843 .0255789
985.449 .0255763
986.054 .0255737
986.659 .0255709
987.264 .0255696
987.868 .0255666
988.472 .0255635
989.076 .0255604
989.679 .0255571
990.282 .0255538
990.885 .0255503
991.487 .0255468
992.090 .0255430
992.691 .0255390
993.293 .0255346
993.894 .0255298
994.495 .0255245
995.095 .0255188
995.696 .0255126
996.296 .0255059
996.895 .0254989
997.494 .0254914
998.093 .0254836
998.692 .0254753
999.291 .0254667
999.889 .0254576
1000.487 .0254482
1001.084 .0254383
1001.681 .0254281
1002.278 .0254176
1002.875 .0254070
1003.471 .0253964
1004.067 .0253857
1004.663 .0253751
1005.258 .0253646
1005.854 .0253542
1006.449 .0253438
1007.043 .0253336
1007.638 .0253234
1008.232 .0253134
1008.826 .0253035
1009.419 .0252939
1010.012 .0252847
1010.605 .0252759
1011.198 .0252675
1011.791 .0252595
1012.383 .0252519
1012.975 .0252448
1013.566 .0252379
1014.158 .0252314
1014.749 .0252252
1015.340 .0252192
1015.931 .0252133
1016.521 .0252076
1017.111 .0252021
1017.701 .0251966
1018.291 .0251912
1018.880 .0251858
1019.470 .0251804
1020.059 .0251749
1020.647 .0251693
1021.236 .0251634
1021.824 .0251573
1022.412 .0251509
1023.000 .0251441
1023.588 .0251371
1024.175 .0251296
1024.762 .0251219
1025.349 .0251139
1025.936 .0251057
1026.523 .0250973
1027.109 .0250889
1027.695 .0250804
1028.281 .0250720
1028.867 .0250636
1029.452 .0250552
1030.038 .0250470
1030.623 .0250389
1031.208 .0250311
1031.792 .0250236
1032.377 .0250166
1032.961 .0250102
1033.546 .0250044
1034.130 .0249991
1034.714 .0249945
1035.297 .0249904
1035.881 .0249868
1036.464 .0249835
1037.047 .0249806
1037.630 .0249779
1038.213 .0249754
1038.796 .0249732
1039.378 .0249711
1039.961 .0249692
1040.543 .0249673
1041.125 .0249654
1041.707 .0249635
1042.289 .0249614
1042.871 .0249591
1043.452 .0249567
1044.034 .0249543
1044.615 .0249517
1045.196 .0249492
1045.777 .0249469
1046.358 .0249446
1046.939 .0249425
1047.520 .0249405
1048.101 .0249385
1048.681 .0249365
1049.262 .0249344
1049.842 .0249324
1050.422 .0249305
1051.002 .0249286
1051.582 .0249270
1052.162 .0249255
1052.742 .0249243
1053.322 .0249233
1053.902 .0249226
1054.482 .0249224
1055.061 .0249225
1055.641 .0249231
1056.220 .0249242
1056.800 .0249260
1057.379 .0249285
1057.958 .0249318
1058.538 .0249358
1059.117 .0249404
1059.696 .0249457
1060.275 .0249513
1060.854 .0249574
1061.433 .0249636
1062.012 .0249700
1062.592 .0249766
1063.171 .0249832
1063.750 .0249898
1064.329 .0249965
1064.908 .0250030
1065.487 .0250094
1066.066 .0250156
1066.645 .0250214
1067.224 .0250270
1067.803 .0250324
1068.382 .0250376
1068.961 .0250426
1069.540 .0250476
1070.119 .0250526
1070.698 .0250575
1071.278 .0250622
1071.857 .0250666
1072.436 .0250706
1073.016 .0250741
1073.595 .0250770
1074.175 .0250794
1074.754 .0250814
1075.334 .0250829
1075.913 .0250841
1076.493 .0250849
1077.073 .0250853
1077.653 .0250853
1078.233 .0250848
1078.813 .0250837
1079.393 .0250822
1079.974 .0250803
1080.554 .0250781
1081.135 .0250758
1081.716 .0250736
1082.296 .0250717
1082.877 .0250700
1083.458 .0250685
1084.040 .0250671
1084.621 .0250657
1085.202 .0250640
1085.784 .0250622
1086.366 .0250601
1086.948 .0250580
1087.530 .0250558
1088.112 .0250538
1088.695 .0250520
1089.277 .0250507
1089.860 .0250497
1090.443 .0250490
1091.026 .0250486
1091.610 .0250483
1092.193 .0250482
1092.777 .0250482
1093.361 .0250483
1093.946 .0250487
1094.530 .0250493
1095.115 .0250502
1095.700 .0250513
1096.285 .0250525
1096.871 .0250536
1097.456 .0250545
1098.042 .0250550
1098.628 .0250549
1099.215 .0250543
1099.802 .0250532
1100.389 .0250517
1100.976 .0250500
1101.564 .0250482
1102.152 .0250464
1102.740 .0250446
1103.329 .0250429
1103.917 .0250412
1104.507 .0250395
1105.096 .0250379
1105.686 .0250363
1106.276 .0250350
1106.867 .0250341
1107.457 .0250339
1108.049 .0250345
1108.640 .0250361
1109.232 .0250387
1109.825 .0250423
1110.417 .0250469
1111.010 .0250523
1111.604 .0250586
1112.198 .0250658
1112.792 .0250740
1113.387 .0250834
1113.982 .0250941
1114.577 .0251063
1115.173 .0251200
1115.769 .0251352
1116.366 .0251517
1116.963 .0251695
1117.561 .0251884
1118.159 .0252081
1118.758 .0252285
1119.357 .0252496
1119.957 .0252716
1120.557 .0252943
1121.157 .0253179
1121.758 .0253423
1122.360 .0253675
1122.962 .0253936
1123.564 .0254201
1124.167 .0254332
1124.771 .0254603
1125.375 .0254873
1125.980 .0255138
1126.585 .0255396
1127.191 .0255644
1127.797 .0255881
1128.404 .0256106
1129.012 .0256320
1129.620 .0256525
1130.229 .0256719
1130.838 .0256905
1131.448 .0257082
1132.058 .0257249
1132.669 .0257515
1133.281 .0257664
1133.894 .0257822
1134.507 .0257908
1135.120 .0257999
1135.735 .0258185
1136.350 .0258454
1136.965 .0258505
1137.582 .0258444
1138.199 .0258404
1138.816 .0258433
1139.435 .0258467
1140.054 .0258511
1140.674 .0258631
1141.294 .0258865
1141.916 .0259377
1142.538 .0257700
1143.160 .0258065
1143.784 .0260855
1144.408 .0263300
1145.033 .0268438
