Measurement Sequence started on: 14-45-04-498
Integration time: 36
Scans to Average: 2 
>>>>>Begin Spectral Data<<<<<
433.946 .0329838
434.870 .0394481
435.793 .0386072
436.715 .0384442
437.635 .0375405
438.555 .0381656
439.473 .0383818
440.389 .0384017
441.305 .0384667
442.219 .0385235
443.132 .0386372
444.044 .0386179
444.954 .0386420
445.863 .0386724
446.771 .0387472
447.678 .0387852
448.584 .0388077
449.488 .0388246
450.391 .0388338
451.293 .0388355
452.194 .0388291
453.094 .0388157
453.992 .0387949
454.890 .0387658
455.786 .0387278
456.681 .0386796
457.575 .0386206
458.468 .0385516
459.360 .0384731
460.250 .0383873
461.140 .0382955
462.028 .0382001
462.915 .0381025
463.801 .0380038
464.687 .0379046
465.571 .0378054
466.454 .0377063
467.335 .0376075
468.216 .0375089
469.096 .0374113
469.975 .0373151
470.853 .0372211
471.729 .0371300
472.605 .0370426
473.479 .0369596
474.353 .0368811
475.226 .0368070
476.097 .0367372
476.968 .0366712
477.838 .0366086
478.706 .0365491
479.574 .0364928
480.441 .0364396
481.306 .0363896
482.171 .0363427
483.035 .0362992
483.898 .0362585
484.760 .0362206
485.621 .0361849
486.481 .0361512
487.340 .0361190
488.198 .0360880
489.055 .0360576
489.912 .0360278
490.767 .0359984
491.622 .0359537
492.476 .0359245
493.329 .0358953
494.180 .0358660
495.032 .0358367
495.882 .0358069
496.731 .0357768
497.580 .0357464
498.427 .0357157
499.274 .0356847
500.120 .0356698
500.965 .0356392
501.809 .0356090
502.653 .0355792
503.495 .0355500
504.337 .0355216
505.178 .0354939
506.018 .0354671
506.858 .0354406
507.696 .0354144
508.534 .0353882
509.371 .0353616
510.208 .0353344
511.043 .0353067
511.878 .0352784
512.712 .0352496
513.545 .0352205
514.377 .0351908
515.209 .0351603
516.040 .0351286
516.870 .0350954
517.699 .0350599
518.528 .0350221
519.356 .0349816
520.183 .0349382
521.010 .0348924
521.836 .0348447
522.661 .0347958
523.485 .0347466
524.309 .0346977
525.132 .0346498
525.954 .0346031
526.776 .0345577
527.597 .0345134
528.417 .0344697
529.237 .0344265
530.056 .0343835
530.874 .0343402
531.692 .0342972
532.508 .0342549
533.325 .0342140
534.140 .0341750
534.955 .0341388
535.770 .0341055
536.583 .0340750
537.397 .0340470
538.209 .0340207
539.021 .0339951
539.832 .0339694
540.643 .0339429
541.453 .0339148
542.262 .0338852
543.071 .0338540
543.879 .0338217
544.687 .0337887
545.494 .0337555
546.300 .0337222
547.106 .0336886
547.911 .0336546
548.716 .0336199
549.520 .0335839
550.323 .0335465
551.126 .0335071
551.929 .0334657
552.731 .0334227
553.532 .0333786
554.332 .0333342
555.133 .0332905
555.932 .0332482
556.731 .0332077
557.530 .0331692
558.328 .0331329
559.125 .0330986
559.922 .0330662
560.719 .0330355
561.515 .0330061
562.310 .0329779
563.105 .0329508
563.899 .0329247
564.693 .0328998
565.487 .0328763
566.280 .0328543
567.072 .0328339
567.864 .0328149
568.655 .0327973
569.446 .0327809
570.236 .0327651
571.026 .0327495
571.816 .0327331
572.605 .0327154
573.393 .0326958
574.181 .0326741
574.969 .0326502
575.756 .0326243
576.543 .0325964
577.329 .0325668
578.115 .0325359
578.900 .0325041
579.685 .0324718
580.469 .0324392
581.253 .0324062
582.036 .0323731
582.820 .0323397
583.602 .0323060
584.384 .0322719
585.166 .0322377
585.947 .0322034
586.728 .0321692
587.509 .0321355
588.289 .0321026
589.069 .0320708
589.848 .0320403
590.627 .0320113
591.405 .0319835
592.183 .0319569
592.961 .0319310
593.738 .0319059
594.515 .0318813
595.291 .0318570
596.067 .0318331
596.843 .0318096
597.618 .0317866
598.393 .0317546
599.167 .0317337
599.941 .0317138
600.715 .0316948
601.488 .0316767
602.261 .0316593
603.034 .0316426
603.806 .0316264
604.578 .0316106
605.349 .0315954
606.121 .0315806
606.891 .0315749
607.662 .0315608
608.432 .0315472
609.201 .0315341
609.971 .0315216
610.740 .0315095
611.508 .0314978
612.277 .0314865
613.045 .0314754
613.812 .0314644
614.579 .0314535
615.346 .0314424
616.113 .0314312
616.879 .0314197
617.645 .0314078
618.411 .0313954
619.176 .0313824
619.941 .0313688
620.705 .0313545
621.470 .0313396
622.233 .0313240
622.997 .0313078
623.760 .0312910
624.523 .0312736
625.286 .0312557
626.048 .0312372
626.810 .0312181
627.572 .0311985
628.333 .0311785
629.095 .0311580
629.855 .0311372
630.616 .0311161
631.376 .0310948
632.136 .0310734
632.895 .0310520
633.655 .0310304
634.414 .0310089
635.172 .0309874
635.931 .0309658
636.689 .0309444
637.447 .0309230
638.204 .0309018
638.962 .0308807
639.718 .0308600
640.475 .0308395
641.231 .0308194
641.988 .0307997
642.743 .0307804
643.499 .0307616
644.254 .0307434
645.009 .0307257
645.764 .0307085
646.518 .0306918
647.272 .0306756
648.026 .0306598
648.780 .0306445
649.533 .0306294
650.286 .0306148
651.039 .0306005
651.792 .0305865
652.544 .0305729
653.296 .0305597
654.048 .0305468
654.799 .0305343
655.550 .0305220
656.301 .0305099
657.052 .0304981
657.802 .0304865
658.552 .0304751
659.302 .0304639
660.052 .0304530
660.801 .0304421
661.550 .0304314
662.299 .0304208
663.048 .0304102
663.796 .0303997
664.544 .0303891
665.292 .0303784
666.040 .0303677
666.787 .0303568
667.534 .0303459
668.281 .0303348
669.028 .0303237
669.774 .0303125
670.521 .0303013
671.266 .0302900
672.012 .0302786
672.758 .0302671
673.503 .0302555
674.248 .0302437
674.992 .0302318
675.737 .0302196
676.481 .0302071
677.225 .0301943
677.969 .0301813
678.712 .0301681
679.455 .0301549
680.199 .0301416
680.941 .0301284
681.684 .0301152
682.426 .0301023
683.168 .0300894
683.910 .0300768
684.652 .0300642
685.393 .0300518
686.134 .0300394
686.875 .0300272
687.616 .0300151
688.356 .0300033
689.097 .0299918
689.837 .0299805
690.576 .0299696
691.316 .0299590
692.055 .0299486
692.794 .0299385
693.533 .0299285
694.272 .0299187
695.010 .0299089
695.748 .0298992
696.486 .0298895
697.224 .0298796
697.962 .0298697
698.699 .0298595
699.436 .0298493
700.173 .0298388
700.909 .0298282
701.646 .0298174
702.382 .0298064
703.118 .0297952
703.853 .0297838
704.589 .0297722
705.324 .0297603
706.059 .0297481
706.794 .0297356
707.529 .0297227
708.263 .0297096
708.997 .0296963
709.731 .0296828
710.465 .0296692
711.198 .0296555
711.931 .0296418
712.664 .0296280
713.397 .0296143
714.130 .0296005
714.862 .0295866
715.594 .0295727
716.326 .0295587
717.058 .0295447
717.789 .0295306
718.520 .0295166
719.251 .0295026
719.982 .0294887
720.713 .0294750
721.443 .0294615
722.173 .0294482
722.903 .0294352
723.633 .0294225
724.362 .0294100
725.091 .0293979
725.820 .0293861
726.549 .0293745
727.278 .0293632
728.006 .0293522
728.734 .0293414
729.462 .0293308
730.190 .0293205
730.917 .0293105
731.644 .0293006
732.371 .0292910
733.098 .0292814
733.825 .0292721
734.551 .0292628
735.277 .0292536
736.003 .0292444
736.728 .0292354
737.454 .0292264
738.179 .0292175
738.904 .0292086
739.629 .0291998
740.353 .0291909
741.077 .0291819
741.801 .0291728
742.525 .0291636
743.249 .0291541
743.972 .0291445
744.695 .0291347
745.418 .0291248
746.141 .0291147
746.863 .0291044
747.585 .0290940
748.307 .0290834
749.029 .0290726
749.750 .0290616
750.472 .0290504
751.193 .0290391
751.913 .0290276
752.634 .0290161
753.354 .0290046
754.074 .0289932
754.794 .0289817
755.514 .0289703
756.233 .0289590
756.952 .0289477
757.671 .0289364
758.390 .0289252
759.108 .0289141
759.826 .0289031
760.544 .0288922
761.262 .0288813
761.979 .0288706
762.697 .0288599
763.414 .0288493
764.130 .0288388
764.847 .0288285
765.563 .0288184
766.279 .0288085
766.995 .0287988
767.710 .0287893
768.426 .0287799
769.141 .0287706
769.855 .0287615
770.570 .0287524
771.284 .0287433
771.998 .0287345
772.712 .0287257
773.426 .0287172
774.139 .0287090
774.852 .0287010
775.565 .0286933
776.277 .0286858
776.990 .0286786
777.702 .0286716
778.414 .0286648
779.125 .0286583
779.836 .0286520
780.547 .0286461
781.258 .0286406
781.969 .0286354
782.679 .0286306
783.389 .0286248
784.099 .0286207
784.808 .0286168
785.517 .0286131
786.226 .0286095
786.935 .0286059
787.643 .0286022
788.352 .0285985
789.060 .0285947
789.767 .0285907
790.475 .0285865
791.182 .0285822
791.889 .0285793
792.595 .0285744
793.301 .0285692
794.008 .0285638
794.713 .0285580
795.419 .0285519
796.124 .0285454
796.829 .0285385
797.534 .0285312
798.238 .0285235
798.942 .0285154
799.646 .0285069
800.350 .0284981
801.053 .0284890
801.756 .0284797
802.459 .0284702
803.162 .0284605
803.864 .0284507
804.566 .0284406
805.267 .0284304
805.969 .0284199
806.670 .0284091
807.371 .0283981
808.071 .0283869
808.772 .0283756
809.472 .0283641
810.171 .0283526
810.871 .0283410
811.570 .0283292
812.269 .0283173
812.967 .0283050
813.666 .0282925
814.364 .0282797
815.061 .0282666
815.759 .0282531
816.456 .0282394
817.153 .0282254
817.849 .0282111
818.545 .0281965
819.241 .0281817
819.937 .0281666
820.632 .0281512
821.327 .0281356
822.022 .0281198
822.717 .0281039
823.411 .0280881
824.105 .0280722
824.798 .0280566
825.491 .0280411
826.184 .0280257
826.877 .0280105
827.569 .0279955
828.261 .0279807
828.953 .0279662
829.645 .0279520
830.336 .0279381
831.027 .0279247
831.717 .0279118
832.407 .0278995
833.097 .0278878
833.787 .0278766
834.476 .0278660
835.165 .0278558
835.854 .0278461
836.542 .0278368
837.230 .0278280
837.918 .0278195
838.605 .0278115
839.292 .0278039
839.979 .0277966
840.665 .0277896
841.352 .0277828
842.037 .0277761
842.723 .0277695
843.408 .0277629
844.093 .0277562
844.777 .0277494
845.462 .0277425
846.145 .0277355
846.829 .0277284
847.512 .0277212
848.195 .0277138
848.878 .0277062
849.560 .0276984
850.242 .0276904
850.923 .0276821
851.605 .0276735
852.286 .0276646
852.966 .0276556
853.646 .0276463
854.326 .0276370
855.006 .0276274
855.685 .0276178
856.364 .0276081
857.043 .0275982
857.721 .0275883
858.399 .0275783
859.077 .0275683
859.754 .0275584
860.431 .0275486
861.107 .0275390
861.784 .0275296
862.459 .0275204
863.135 .0275115
863.810 .0275029
864.485 .0274946
865.160 .0274865
865.834 .0274786
866.508 .0274709
867.181 .0274634
867.854 .0274560
868.527 .0274489
869.199 .0274418
869.872 .0274349
870.543 .0274281
871.215 .0274214
871.886 .0274146
872.557 .0274079
873.227 .0274012
873.897 .0273944
874.567 .0273875
875.236 .0273806
875.905 .0273735
876.573 .0273664
877.242 .0273592
877.909 .0273518
878.577 .0273443
879.244 .0273366
879.911 .0273286
880.577 .0273204
881.243 .0273120
881.909 .0273033
882.575 .0272944
883.240 .0272854
883.904 .0272761
884.569 .0272668
885.232 .0272574
885.896 .0272479
886.559 .0272385
887.222 .0272289
887.885 .0272195
888.547 .0272100
889.208 .0272006
889.870 .0271913
890.531 .0271822
891.192 .0271732
891.852 .0271643
892.512 .0271555
893.171 .0271467
893.830 .0271379
894.489 .0271289
895.148 .0271198
895.806 .0271105
896.464 .0271010
897.121 .0270913
897.778 .0270813
898.434 .0270713
899.091 .0270551
899.747 .0270445
900.402 .0270336
901.057 .0270225
901.712 .0270112
902.366 .0269997
903.020 .0269879
903.674 .0269760
904.327 .0269640
904.980 .0269519
905.633 .0269396
906.285 .0269272
906.936 .0269146
907.588 .0269081
908.239 .0268953
908.889 .0268823
909.540 .0268690
910.190 .0268555
910.839 .0268419
911.488 .0268282
912.137 .0268145
912.785 .0268008
913.433 .0267872
914.081 .0267737
914.728 .0267603
915.375 .0267469
916.021 .0267336
916.668 .0267203
917.313 .0267072
917.959 .0266941
918.604 .0266812
919.248 .0266684
919.892 .0266556
920.536 .0266427
921.180 .0266297
921.823 .0266165
922.465 .0266029
923.108 .0265889
923.750 .0265744
924.391 .0265595
925.032 .0265443
925.673 .0265288
926.313 .0265129
926.953 .0264969
927.593 .0264807
928.232 .0264642
928.871 .0264475
929.510 .0264305
930.148 .0264133
930.786 .0263958
931.423 .0263782
932.060 .0263604
932.697 .0263425
933.333 .0263246
933.969 .0263067
934.604 .0262887
935.239 .0262707
935.874 .0262525
936.508 .0262343
937.142 .0262160
937.776 .0261976
938.409 .0261792
939.042 .0261610
939.674 .0261429
940.306 .0261252
940.938 .0261077
941.569 .0260906
942.200 .0260739
942.830 .0260575
943.460 .0260414
944.090 .0260256
944.720 .0260102
945.349 .0259951
945.977 .0259805
946.606 .0259664
947.233 .0259528
947.861 .0259397
948.488 .0259269
949.115 .0259146
949.741 .0259025
950.367 .0258907
950.993 .0258792
951.618 .0258680
952.243 .0258571
952.868 .0258466
953.492 .0258366
954.115 .0258271
954.739 .0258181
955.362 .0258096
955.984 .0258016
956.607 .0257940
957.229 .0257869
957.850 .0257801
958.471 .0257737
959.092 .0257677
959.713 .0257621
960.333 .0257569
960.952 .0257520
961.572 .0257475
962.191 .0257433
962.809 .0257393
963.428 .0257355
964.045 .0257319
964.663 .0257285
965.280 .0257252
965.897 .0257221
966.513 .0257191
967.129 .0257162
967.745 .0257133
968.361 .0257105
968.976 .0257077
969.590 .0257048
970.205 .0257019
970.818 .0256989
971.432 .0256958
972.045 .0256926
972.658 .0256893
973.271 .0256859
973.883 .0256824
974.495 .0256787
975.106 .0256750
975.717 .0256712
976.328 .0256674
976.938 .0256634
977.548 .0256593
978.158 .0256551
978.768 .0256484
979.377 .0256440
979.985 .0256395
980.594 .0256349
981.202 .0256304
981.809 .0256259
982.417 .0256215
983.024 .0256172
983.631 .0256129
984.237 .0256087
984.843 .0256044
985.449 .0256002
986.054 .0255958
986.659 .0255913
987.264 .0255890
987.868 .0255844
988.472 .0255798
989.076 .0255751
989.679 .0255704
990.282 .0255657
990.885 .0255610
991.487 .0255562
992.090 .0255514
992.691 .0255463
993.293 .0255411
993.894 .0255357
994.495 .0255300
995.095 .0255242
995.696 .0255183
996.296 .0255123
996.895 .0255062
997.494 .0255000
998.093 .0254938
998.692 .0254876
999.291 .0254811
999.889 .0254745
1000.487 .0254677
1001.084 .0254607
1001.681 .0254536
1002.278 .0254463
1002.875 .0254391
1003.471 .0254320
1004.067 .0254250
1004.663 .0254182
1005.258 .0254116
1005.854 .0254052
1006.449 .0253990
1007.043 .0253928
1007.638 .0253866
1008.232 .0253805
1008.826 .0253744
1009.419 .0253683
1010.012 .0253624
1010.605 .0253568
1011.198 .0253514
1011.791 .0253462
1012.383 .0253414
1012.975 .0253367
1013.566 .0253323
1014.158 .0253279
1014.749 .0253235
1015.340 .0253192
1015.931 .0253148
1016.521 .0253105
1017.111 .0253061
1017.701 .0253018
1018.291 .0252976
1018.880 .0252934
1019.470 .0252893
1020.059 .0252851
1020.647 .0252808
1021.236 .0252765
1021.824 .0252719
1022.412 .0252672
1023.000 .0252623
1023.588 .0252573
1024.175 .0252521
1024.762 .0252469
1025.349 .0252416
1025.936 .0252363
1026.523 .0252309
1027.109 .0252255
1027.695 .0252200
1028.281 .0252146
1028.867 .0252092
1029.452 .0252038
1030.038 .0251985
1030.623 .0251933
1031.208 .0251882
1031.792 .0251832
1032.377 .0251785
1032.961 .0251738
1033.546 .0251693
1034.130 .0251648
1034.714 .0251605
1035.297 .0251563
1035.881 .0251522
1036.464 .0251483
1037.047 .0251446
1037.630 .0251411
1038.213 .0251380
1038.796 .0251351
1039.378 .0251326
1039.961 .0251302
1040.543 .0251281
1041.125 .0251261
1041.707 .0251241
1042.289 .0251222
1042.871 .0251204
1043.452 .0251187
1044.034 .0251172
1044.615 .0251157
1045.196 .0251145
1045.777 .0251133
1046.358 .0251123
1046.939 .0251114
1047.520 .0251105
1048.101 .0251096
1048.681 .0251084
1049.262 .0251072
1049.842 .0251058
1050.422 .0251042
1051.002 .0251026
1051.582 .0251010
1052.162 .0250994
1052.742 .0250977
1053.322 .0250960
1053.902 .0250942
1054.482 .0250923
1055.061 .0250903
1055.641 .0250881
1056.220 .0250857
1056.800 .0250832
1057.379 .0250807
1057.958 .0250783
1058.538 .0250760
1059.117 .0250739
1059.696 .0250721
1060.275 .0250706
1060.854 .0250692
1061.433 .0250681
1062.012 .0250672
1062.592 .0250665
1063.171 .0250659
1063.750 .0250656
1064.329 .0250656
1064.908 .0250659
1065.487 .0250668
1066.066 .0250682
1066.645 .0250703
1067.224 .0250730
1067.803 .0250761
1068.382 .0250797
1068.961 .0250836
1069.540 .0250876
1070.119 .0250918
1070.698 .0250958
1071.278 .0250999
1071.857 .0251039
1072.436 .0251079
1073.016 .0251120
1073.595 .0251162
1074.175 .0251205
1074.754 .0251247
1075.334 .0251288
1075.913 .0251327
1076.493 .0251363
1077.073 .0251395
1077.653 .0251425
1078.233 .0251450
1078.813 .0251472
1079.393 .0251492
1079.974 .0251508
1080.554 .0251520
1081.135 .0251529
1081.716 .0251534
1082.296 .0251533
1082.877 .0251525
1083.458 .0251511
1084.040 .0251490
1084.621 .0251464
1085.202 .0251434
1085.784 .0251402
1086.366 .0251369
1086.948 .0251337
1087.530 .0251306
1088.112 .0251278
1088.695 .0251253
1089.277 .0251231
1089.860 .0251213
1090.443 .0251198
1091.026 .0251186
1091.610 .0251177
1092.193 .0251172
1092.777 .0251171
1093.361 .0251173
1093.946 .0251177
1094.530 .0251182
1095.115 .0251187
1095.700 .0251192
1096.285 .0251193
1096.871 .0251191
1097.456 .0251186
1098.042 .0251177
1098.628 .0251167
1099.215 .0251158
1099.802 .0251150
1100.389 .0251147
1100.976 .0251148
1101.564 .0251155
1102.152 .0251167
1102.740 .0251185
1103.329 .0251205
1103.917 .0251229
1104.507 .0251256
1105.096 .0251284
1105.686 .0251316
1106.276 .0251352
1106.867 .0251394
1107.457 .0251442
1108.049 .0251498
1108.640 .0251561
1109.232 .0251629
1109.825 .0251702
1110.417 .0251780
1111.010 .0251861
1111.604 .0251948
1112.198 .0252040
1112.792 .0252140
1113.387 .0252248
1113.982 .0252367
1114.577 .0252496
1115.173 .0252635
1115.769 .0252783
1116.366 .0252936
1116.963 .0253091
1117.561 .0253247
1118.159 .0253403
1118.758 .0253558
1119.357 .0253713
1119.957 .0253867
1120.557 .0254023
1121.157 .0254181
1121.758 .0254341
1122.360 .0254503
1122.962 .0254668
1123.564 .0254835
1124.167 .0254925
1124.771 .0255090
1125.375 .0255258
1125.980 .0255431
1126.585 .0255611
1127.191 .0255800
1127.797 .0255999
1128.404 .0256206
1129.012 .0256419
1129.620 .0256637
1130.229 .0256859
1130.838 .0257084
1131.448 .0257312
1132.058 .0257542
1132.669 .0257866
1133.281 .0258104
1133.894 .0258344
1134.507 .0258599
1135.120 .0258826
1135.735 .0259002
1136.350 .0259320
1136.965 .0260016
1137.582 .0260291
1138.199 .0260546
1138.816 .0260808
1139.435 .0261083
1140.054 .0261326
1140.674 .0261511
1141.294 .0261771
1141.916 .0261918
1142.538 .0262364
1143.160 .0261696
1143.784 .0260382
1144.408 .0264309
1145.033 .0261698
