Measurement Sequence started on: 14-45-04-498
Integration time: 36
Scans to Average: 2 
>>>>>Begin Spectral Data<<<<<
433.946 .0672066
434.870 .0606938
435.793 .0560895
436.715 .0521551
437.635 .0497328
438.555 .0508941
439.473 .0494033
440.389 .0483874
441.305 .0476912
442.219 .0472080
443.132 .0486786
444.044 .0479001
444.954 .0473598
445.863 .0470222
446.771 .0468083
447.678 .0465305
448.584 .0463290
449.488 .0461792
450.391 .0460639
451.293 .0459715
452.194 .0458945
453.094 .0458276
453.992 .0457655
454.890 .0457047
455.786 .0456417
456.681 .0455744
457.575 .0455024
458.468 .0454264
459.360 .0453471
460.250 .0452661
461.140 .0451837
462.028 .0451002
462.915 .0450159
463.801 .0449297
464.687 .0448403
465.571 .0447476
466.454 .0446511
467.335 .0445515
468.216 .0444496
469.096 .0443463
469.975 .0442431
470.853 .0441410
471.729 .0440410
472.605 .0439439
473.479 .0438500
474.353 .0437599
475.226 .0436731
476.097 .0435900
476.968 .0435103
477.838 .0434341
478.706 .0433612
479.574 .0432919
480.441 .0432261
481.306 .0431637
482.171 .0431039
483.035 .0430463
483.898 .0429905
484.760 .0429360
485.621 .0428823
486.481 .0428294
487.340 .0427770
488.198 .0427247
489.055 .0426725
489.912 .0426201
490.767 .0425670
491.622 .0424826
492.476 .0424269
493.329 .0423701
494.180 .0423123
495.032 .0422545
495.882 .0421970
496.731 .0421409
497.580 .0420873
498.427 .0420370
499.274 .0419903
500.120 .0419760
500.965 .0419351
501.809 .0418966
502.653 .0418600
503.495 .0418246
504.337 .0417901
505.178 .0417566
506.018 .0417238
506.858 .0416916
507.696 .0416602
508.534 .0416294
509.371 .0415991
510.208 .0415688
511.043 .0415384
511.878 .0415072
512.712 .0414743
513.545 .0414392
514.377 .0414018
515.209 .0413621
516.040 .0413202
516.870 .0412758
517.699 .0412291
518.528 .0411803
519.356 .0411297
520.183 .0410772
521.010 .0410227
521.836 .0409662
522.661 .0409075
523.485 .0408466
524.309 .0407839
525.132 .0407194
525.954 .0406535
526.776 .0405866
527.597 .0405189
528.417 .0404505
529.237 .0403816
530.056 .0403128
530.874 .0402444
531.692 .0401761
532.508 .0401075
533.325 .0400384
534.140 .0399690
534.955 .0398998
535.770 .0398307
536.583 .0397621
537.397 .0396949
538.209 .0396298
539.021 .0395675
539.832 .0395081
540.643 .0394524
541.453 .0394001
542.262 .0393510
543.071 .0393047
543.879 .0392605
544.687 .0392183
545.494 .0391781
546.300 .0391393
547.106 .0391017
547.911 .0390650
548.716 .0390292
549.520 .0389948
550.323 .0389618
551.126 .0389306
551.929 .0389009
552.731 .0388730
553.532 .0388467
554.332 .0388212
555.133 .0387958
555.932 .0387696
556.731 .0387420
557.530 .0387117
558.328 .0386781
559.125 .0386415
559.922 .0386021
560.719 .0385602
561.515 .0385163
562.310 .0384708
563.105 .0384242
563.899 .0383763
564.693 .0383270
565.487 .0382762
566.280 .0382236
567.072 .0381689
567.864 .0381121
568.655 .0380534
569.446 .0379933
570.236 .0379321
571.026 .0378706
571.816 .0378091
572.605 .0377480
573.393 .0376878
574.181 .0376287
574.969 .0375711
575.756 .0375148
576.543 .0374596
577.329 .0374056
578.115 .0373527
578.900 .0373007
579.685 .0372496
580.469 .0371997
581.253 .0371508
582.036 .0371029
582.820 .0370559
583.602 .0370096
584.384 .0369637
585.166 .0369182
585.947 .0368728
586.728 .0368272
587.509 .0367816
588.289 .0367359
589.069 .0366902
589.848 .0366448
590.627 .0365998
591.405 .0365553
592.183 .0365116
592.961 .0364688
593.738 .0364268
594.515 .0363858
595.291 .0363458
596.067 .0363067
596.843 .0362684
597.618 .0362309
598.393 .0361767
599.167 .0361407
599.941 .0361053
600.715 .0360705
601.488 .0360361
602.261 .0360021
603.034 .0359686
603.806 .0359355
604.578 .0359029
605.349 .0358710
606.121 .0358399
606.891 .0358260
607.662 .0357960
608.432 .0357668
609.201 .0357384
609.971 .0357106
610.740 .0356836
611.508 .0356571
612.277 .0356310
613.045 .0356054
613.812 .0355802
614.579 .0355553
615.346 .0355310
616.113 .0355070
616.879 .0354834
617.645 .0354602
618.411 .0354370
619.176 .0354139
619.941 .0353906
620.705 .0353671
621.470 .0353433
622.233 .0353192
622.997 .0352947
623.760 .0352699
624.523 .0352448
625.286 .0352193
626.048 .0351937
626.810 .0351677
627.572 .0351415
628.333 .0351149
629.095 .0350880
629.855 .0350607
630.616 .0350329
631.376 .0350048
632.136 .0349762
632.895 .0349472
633.655 .0349176
634.414 .0348876
635.172 .0348572
635.931 .0348264
636.689 .0347953
637.447 .0347640
638.204 .0347326
638.962 .0347012
639.718 .0346698
640.475 .0346385
641.231 .0346074
641.988 .0345763
642.743 .0345453
643.499 .0345143
644.254 .0344835
645.009 .0344528
645.764 .0344224
646.518 .0343923
647.272 .0343626
648.026 .0343334
648.780 .0343046
649.533 .0342764
650.286 .0342486
651.039 .0342212
651.792 .0341943
652.544 .0341678
653.296 .0341418
654.048 .0341163
654.799 .0340914
655.550 .0340669
656.301 .0340428
657.052 .0340191
657.802 .0339956
658.552 .0339723
659.302 .0339491
660.052 .0339260
660.801 .0339030
661.550 .0338800
662.299 .0338571
663.048 .0338343
663.796 .0338117
664.544 .0337892
665.292 .0337669
666.040 .0337447
666.787 .0337227
667.534 .0337008
668.281 .0336791
669.028 .0336575
669.774 .0336362
670.521 .0336150
671.266 .0335940
672.012 .0335731
672.758 .0335524
673.503 .0335317
674.248 .0335110
674.992 .0334904
675.737 .0334698
676.481 .0334491
677.225 .0334284
677.969 .0334075
678.712 .0333864
679.455 .0333651
680.199 .0333435
680.941 .0333217
681.684 .0332998
682.426 .0332777
683.168 .0332555
683.910 .0332334
684.652 .0332113
685.393 .0331893
686.134 .0331674
686.875 .0331456
687.616 .0331239
688.356 .0331022
689.097 .0330805
689.837 .0330590
690.576 .0330375
691.316 .0330161
692.055 .0329950
692.794 .0329742
693.533 .0329537
694.272 .0329336
695.010 .0329140
695.748 .0328948
696.486 .0328761
697.224 .0328578
697.962 .0328398
698.699 .0328222
699.436 .0328049
700.173 .0327880
700.909 .0327716
701.646 .0327557
702.382 .0327403
703.118 .0327256
703.853 .0327115
704.589 .0326981
705.324 .0326853
706.059 .0326731
706.794 .0326613
707.529 .0326499
708.263 .0326388
708.997 .0326279
709.731 .0326172
710.465 .0326068
711.198 .0325964
711.931 .0325862
712.664 .0325760
713.397 .0325658
714.130 .0325554
714.862 .0325448
715.594 .0325338
716.326 .0325224
717.058 .0325105
717.789 .0324979
718.520 .0324848
719.251 .0324710
719.982 .0324566
720.713 .0324417
721.443 .0324262
722.173 .0324103
722.903 .0323941
723.633 .0323775
724.362 .0323608
725.091 .0323439
725.820 .0323270
726.549 .0323101
727.278 .0322932
728.006 .0322763
728.734 .0322596
729.462 .0322430
730.190 .0322266
730.917 .0322104
731.644 .0321945
732.371 .0321789
733.098 .0321636
733.825 .0321486
734.551 .0321338
735.277 .0321193
736.003 .0321050
736.728 .0320908
737.454 .0320767
738.179 .0320627
738.904 .0320486
739.629 .0320346
740.353 .0320204
741.077 .0320062
741.801 .0319918
742.525 .0319774
743.249 .0319629
743.972 .0319482
744.695 .0319335
745.418 .0319187
746.141 .0319036
746.863 .0318884
747.585 .0318730
748.307 .0318574
749.029 .0318416
749.750 .0318258
750.472 .0318098
751.193 .0317939
751.913 .0317781
752.634 .0317624
753.354 .0317469
754.074 .0317316
754.794 .0317165
755.514 .0317015
756.233 .0316869
756.952 .0316725
757.671 .0316585
758.390 .0316450
759.108 .0316320
759.826 .0316197
760.544 .0316081
761.262 .0315974
761.979 .0315875
762.697 .0315785
763.414 .0315704
764.130 .0315632
764.847 .0315570
765.563 .0315516
766.279 .0315470
766.995 .0315432
767.710 .0315402
768.426 .0315377
769.141 .0315359
769.855 .0315344
770.570 .0315334
771.284 .0315326
771.998 .0315321
772.712 .0315318
773.426 .0315316
774.139 .0315314
774.852 .0315311
775.565 .0315307
776.277 .0315299
776.990 .0315287
777.702 .0315270
778.414 .0315248
779.125 .0315220
779.836 .0315188
780.547 .0315151
781.258 .0315109
781.969 .0315064
782.679 .0315016
783.389 .0314926
784.099 .0314866
784.808 .0314799
785.517 .0314727
786.226 .0314648
786.935 .0314564
787.643 .0314475
788.352 .0314380
789.060 .0314281
789.767 .0314179
790.475 .0314072
791.182 .0313961
791.889 .0313895
792.595 .0313778
793.301 .0313659
794.008 .0313536
794.713 .0313410
795.419 .0313281
796.124 .0313150
796.829 .0313015
797.534 .0312878
798.238 .0312738
798.942 .0312594
799.646 .0312447
800.350 .0312297
801.053 .0312145
801.756 .0311990
802.459 .0311833
803.162 .0311674
803.864 .0311514
804.566 .0311351
805.267 .0311186
805.969 .0311018
806.670 .0310848
807.371 .0310677
808.071 .0310503
808.772 .0310329
809.472 .0310155
810.171 .0309980
810.871 .0309806
811.570 .0309633
812.269 .0309460
812.967 .0309288
813.666 .0309118
814.364 .0308950
815.061 .0308785
815.759 .0308623
816.456 .0308464
817.153 .0308308
817.849 .0308156
818.545 .0308008
819.241 .0307862
819.937 .0307719
820.632 .0307580
821.327 .0307444
822.022 .0307312
822.717 .0307185
823.411 .0307063
824.105 .0306945
824.798 .0306832
825.491 .0306723
826.184 .0306617
826.877 .0306514
827.569 .0306414
828.261 .0306317
828.953 .0306222
829.645 .0306131
830.336 .0306042
831.027 .0305956
831.717 .0305873
832.407 .0305793
833.097 .0305716
833.787 .0305641
834.476 .0305569
835.165 .0305500
835.854 .0305435
836.542 .0305373
837.230 .0305314
837.918 .0305260
838.605 .0305210
839.292 .0305164
839.979 .0305120
840.665 .0305080
841.352 .0305042
842.037 .0305007
842.723 .0304975
843.408 .0304945
844.093 .0304918
844.777 .0304892
845.462 .0304867
846.145 .0304842
846.829 .0304816
847.512 .0304789
848.195 .0304758
848.878 .0304723
849.560 .0304684
850.242 .0304641
850.923 .0304592
851.605 .0304537
852.286 .0304477
852.966 .0304411
853.646 .0304338
854.326 .0304259
855.006 .0304173
855.685 .0304081
856.364 .0303982
857.043 .0303876
857.721 .0303763
858.399 .0303644
859.077 .0303518
859.754 .0303384
860.431 .0303245
861.107 .0303100
861.784 .0302949
862.459 .0302794
863.135 .0302634
863.810 .0302470
864.485 .0302303
865.160 .0302132
865.834 .0301958
866.508 .0301781
867.181 .0301600
867.854 .0301416
868.527 .0301228
869.199 .0301037
869.872 .0300843
870.543 .0300647
871.215 .0300449
871.886 .0300250
872.557 .0300051
873.227 .0299852
873.897 .0299655
874.567 .0299460
875.236 .0299266
875.905 .0299074
876.573 .0298884
877.242 .0298694
877.909 .0298505
878.577 .0298317
879.244 .0298129
879.911 .0297941
880.577 .0297755
881.243 .0297570
881.909 .0297387
882.575 .0297205
883.240 .0297024
883.904 .0296845
884.569 .0296668
885.232 .0296491
885.896 .0296317
886.559 .0296145
887.222 .0295975
887.885 .0295809
888.547 .0295646
889.208 .0295488
889.870 .0295334
890.531 .0295184
891.192 .0295040
891.852 .0294900
892.512 .0294766
893.171 .0294636
893.830 .0294512
894.489 .0294392
895.148 .0294278
895.806 .0294170
896.464 .0294066
897.121 .0293967
897.778 .0293873
898.434 .0293783
899.091 .0293673
899.747 .0293594
900.402 .0293521
901.057 .0293451
901.712 .0293387
902.366 .0293327
903.020 .0293272
903.674 .0293221
904.327 .0293174
904.980 .0293128
905.633 .0293083
906.285 .0293039
906.936 .0292992
907.588 .0292964
908.239 .0292912
908.889 .0292858
909.540 .0292800
910.190 .0292738
910.839 .0292673
911.488 .0292604
912.137 .0292533
912.785 .0292460
913.433 .0292384
914.081 .0292306
914.728 .0292226
915.375 .0292146
916.021 .0292064
916.668 .0291982
917.313 .0291900
917.959 .0291819
918.604 .0291739
919.248 .0291659
919.892 .0291579
920.536 .0291499
921.180 .0291419
921.823 .0291337
922.465 .0291255
923.108 .0291170
923.750 .0291085
924.391 .0290997
925.032 .0290909
925.673 .0290819
926.313 .0290726
926.953 .0290633
927.593 .0290537
928.232 .0290439
928.871 .0290339
929.510 .0290236
930.148 .0290131
930.786 .0290022
931.423 .0289912
932.060 .0289798
932.697 .0289681
933.333 .0289560
933.969 .0289437
934.604 .0289309
935.239 .0289178
935.874 .0289043
936.508 .0288904
937.142 .0288761
937.776 .0288613
938.409 .0288462
939.042 .0288307
939.674 .0288148
940.306 .0287987
940.938 .0287824
941.569 .0287658
942.200 .0287490
942.830 .0287322
943.460 .0287152
944.090 .0286982
944.720 .0286811
945.349 .0286641
945.977 .0286472
946.606 .0286304
947.233 .0286138
947.861 .0285973
948.488 .0285811
949.115 .0285652
949.741 .0285494
950.367 .0285338
950.993 .0285185
951.618 .0285033
952.243 .0284882
952.868 .0284733
953.492 .0284586
954.115 .0284439
954.739 .0284294
955.362 .0284149
955.984 .0284004
956.607 .0283858
957.229 .0283712
957.850 .0283564
958.471 .0283415
959.092 .0283265
959.713 .0283114
960.333 .0282962
960.952 .0282810
961.572 .0282657
962.191 .0282502
962.809 .0282345
963.428 .0282187
964.045 .0282027
964.663 .0281865
965.280 .0281702
965.897 .0281538
966.513 .0281373
967.129 .0281208
967.745 .0281041
968.361 .0280874
968.976 .0280704
969.590 .0280532
970.205 .0280357
970.818 .0280179
971.432 .0279999
972.045 .0279817
972.658 .0279635
973.271 .0279452
973.883 .0279270
974.495 .0279088
975.106 .0278907
975.717 .0278726
976.328 .0278544
976.938 .0278362
977.548 .0278180
978.158 .0277997
978.768 .0277715
979.377 .0277533
979.985 .0277352
980.594 .0277173
981.202 .0276997
981.809 .0276823
982.417 .0276651
983.024 .0276481
983.631 .0276312
984.237 .0276146
984.843 .0275983
985.449 .0275824
986.054 .0275670
986.659 .0275522
987.264 .0275471
987.868 .0275335
988.472 .0275208
989.076 .0275088
989.679 .0274975
990.282 .0274869
990.885 .0274769
991.487 .0274674
992.090 .0274585
992.691 .0274499
993.293 .0274419
993.894 .0274342
994.495 .0274268
995.095 .0274197
995.696 .0274129
996.296 .0274063
996.895 .0273997
997.494 .0273933
998.093 .0273869
998.692 .0273805
999.291 .0273741
999.889 .0273678
1000.487 .0273616
1001.084 .0273556
1001.681 .0273499
1002.278 .0273445
1002.875 .0273394
1003.471 .0273348
1004.067 .0273307
1004.663 .0273269
1005.258 .0273236
1005.854 .0273206
1006.449 .0273179
1007.043 .0273155
1007.638 .0273135
1008.232 .0273117
1008.826 .0273102
1009.419 .0273090
1010.012 .0273082
1010.605 .0273079
1011.198 .0273080
1011.791 .0273087
1012.383 .0273100
1012.975 .0273121
1013.566 .0273148
1014.158 .0273182
1014.749 .0273224
1015.340 .0273271
1015.931 .0273326
1016.521 .0273386
1017.111 .0273453
1017.701 .0273524
1018.291 .0273601
1018.880 .0273683
1019.470 .0273768
1020.059 .0273857
1020.647 .0273946
1021.236 .0274036
1021.824 .0274126
1022.412 .0274215
1023.000 .0274303
1023.588 .0274390
1024.175 .0274477
1024.762 .0274564
1025.349 .0274652
1025.936 .0274740
1026.523 .0274830
1027.109 .0274922
1027.695 .0275015
1028.281 .0275110
1028.867 .0275207
1029.452 .0275305
1030.038 .0275405
1030.623 .0275507
1031.208 .0275611
1031.792 .0275714
1032.377 .0275816
1032.961 .0275915
1033.546 .0276010
1034.130 .0276101
1034.714 .0276186
1035.297 .0276264
1035.881 .0276337
1036.464 .0276404
1037.047 .0276465
1037.630 .0276520
1038.213 .0276570
1038.796 .0276613
1039.378 .0276650
1039.961 .0276679
1040.543 .0276702
1041.125 .0276717
1041.707 .0276725
1042.289 .0276727
1042.871 .0276723
1043.452 .0276713
1044.034 .0276698
1044.615 .0276677
1045.196 .0276652
1045.777 .0276621
1046.358 .0276583
1046.939 .0276537
1047.520 .0276485
1048.101 .0276425
1048.681 .0276358
1049.262 .0276286
1049.842 .0276209
1050.422 .0276129
1051.002 .0276046
1051.582 .0275960
1052.162 .0275872
1052.742 .0275780
1053.322 .0275685
1053.902 .0275587
1054.482 .0275485
1055.061 .0275381
1055.641 .0275276
1056.220 .0275171
1056.800 .0275066
1057.379 .0274962
1057.958 .0274857
1058.538 .0274753
1059.117 .0274649
1059.696 .0274542
1060.275 .0274435
1060.854 .0274327
1061.433 .0274218
1062.012 .0274110
1062.592 .0274005
1063.171 .0273903
1063.750 .0273806
1064.329 .0273712
1064.908 .0273623
1065.487 .0273536
1066.066 .0273453
1066.645 .0273373
1067.224 .0273297
1067.803 .0273225
1068.382 .0273160
1068.961 .0273101
1069.540 .0273049
1070.119 .0273004
1070.698 .0272964
1071.278 .0272929
1071.857 .0272897
1072.436 .0272866
1073.016 .0272836
1073.595 .0272806
1074.175 .0272778
1074.754 .0272751
1075.334 .0272726
1075.913 .0272703
1076.493 .0272681
1077.073 .0272658
1077.653 .0272632
1078.233 .0272602
1078.813 .0272567
1079.393 .0272527
1079.974 .0272481
1080.554 .0272431
1081.135 .0272377
1081.716 .0272321
1082.296 .0272263
1082.877 .0272202
1083.458 .0272135
1084.040 .0272062
1084.621 .0271979
1085.202 .0271887
1085.784 .0271786
1086.366 .0271678
1086.948 .0271563
1087.530 .0271445
1088.112 .0271325
1088.695 .0271202
1089.277 .0271079
1089.860 .0270956
1090.443 .0270830
1091.026 .0270701
1091.610 .0270570
1092.193 .0270436
1092.777 .0270302
1093.361 .0270171
1093.946 .0270046
1094.530 .0269927
1095.115 .0269816
1095.700 .0269712
1096.285 .0269611
1096.871 .0269513
1097.456 .0269413
1098.042 .0269310
1098.628 .0269205
1099.215 .0269098
1099.802 .0268991
1100.389 .0268887
1100.976 .0268792
1101.564 .0268707
1102.152 .0268631
1102.740 .0268566
1103.329 .0268510
1103.917 .0268462
1104.507 .0268422
1105.096 .0268389
1105.686 .0268366
1106.276 .0268354
1106.867 .0268356
1107.457 .0268374
1108.049 .0268408
1108.640 .0268461
1109.232 .0268529
1109.825 .0268612
1110.417 .0268706
1111.010 .0268809
1111.604 .0268921
1112.198 .0269041
1112.792 .0269171
1113.387 .0269313
1113.982 .0269470
1114.577 .0269645
1115.173 .0269837
1115.769 .0270045
1116.366 .0270268
1116.963 .0270502
1117.561 .0270744
1118.159 .0270993
1118.758 .0271245
1119.357 .0271504
1119.957 .0271769
1120.557 .0272045
1121.157 .0272331
1121.758 .0272630
1122.360 .0272939
1122.962 .0273258
1123.564 .0273581
1124.167 .0273736
1124.771 .0274060
1125.375 .0274384
1125.980 .0274706
1126.585 .0275029
1127.191 .0275358
1127.797 .0275697
1128.404 .0276049
1129.012 .0276418
1129.620 .0276802
1130.229 .0277200
1130.838 .0277607
1131.448 .0278019
1132.058 .0278432
1132.669 .0279026
1133.281 .0279451
1133.894 .0279874
1134.507 .0280330
1135.120 .0280744
1135.735 .0281216
1136.350 .0281777
1136.965 .0282097
1137.582 .0282827
1138.199 .0283469
1138.816 .0284041
1139.435 .0284550
1140.054 .0284928
1140.674 .0285296
1141.294 .0285746
1141.916 .0285910
1142.538 .0286985
1143.160 .0286040
1143.784 .0287788
1144.408 .0290471
1145.033 .0281647
