Measurement Sequence started on: 14-45-04-498
Integration time: 36
Scans to Average: 2 
>>>>>Begin Spectral Data<<<<<
433.946 .0646899
434.870 .0622745
435.793 .0571338
436.715 .0557310
437.635 .0537899
438.555 .0551533
439.473 .0542970
440.389 .0536903
441.305 .0533131
442.219 .0530190
443.132 .0538598
444.044 .0533277
444.954 .0530604
445.863 .0528613
446.771 .0527589
447.678 .0525799
448.584 .0524411
449.488 .0523293
450.391 .0522314
451.293 .0521426
452.194 .0520576
453.094 .0519740
453.992 .0518891
454.890 .0518000
455.786 .0517041
456.681 .0516011
457.575 .0514917
458.468 .0513773
459.360 .0512599
460.250 .0511408
461.140 .0510208
462.028 .0509003
462.915 .0507792
463.801 .0506576
464.687 .0505349
465.571 .0504115
466.454 .0502873
467.335 .0501631
468.216 .0500391
469.096 .0499159
469.975 .0497939
470.853 .0496733
471.729 .0495544
472.605 .0494374
473.479 .0493227
474.353 .0492104
475.226 .0491006
476.097 .0489936
476.968 .0488891
477.838 .0487871
478.706 .0486872
479.574 .0485892
480.441 .0484927
481.306 .0483977
482.171 .0483043
483.035 .0482126
483.898 .0481231
484.760 .0480360
485.621 .0479513
486.481 .0478690
487.340 .0477887
488.198 .0477103
489.055 .0476332
489.912 .0475570
490.767 .0474813
491.622 .0473697
492.476 .0472952
493.329 .0472211
494.180 .0471476
495.032 .0470748
495.882 .0470028
496.731 .0469316
497.580 .0468615
498.427 .0467921
499.274 .0467231
500.120 .0466893
500.965 .0466201
501.809 .0465500
502.653 .0464788
503.495 .0464061
504.337 .0463320
505.178 .0462568
506.018 .0461809
506.858 .0461047
507.696 .0460292
508.534 .0459551
509.371 .0458827
510.208 .0458125
511.043 .0457449
511.878 .0456800
512.712 .0456177
513.545 .0455581
514.377 .0455017
515.209 .0454484
516.040 .0453985
516.870 .0453523
517.699 .0453101
518.528 .0452718
519.356 .0452374
520.183 .0452063
521.010 .0451777
521.836 .0451505
522.661 .0451230
523.485 .0450939
524.309 .0450620
525.132 .0450256
525.954 .0449834
526.776 .0449349
527.597 .0448800
528.417 .0448186
529.237 .0447513
530.056 .0446789
530.874 .0446021
531.692 .0445212
532.508 .0444364
533.325 .0443478
534.140 .0442554
534.955 .0441593
535.770 .0440597
536.583 .0439573
537.397 .0438531
538.209 .0437483
539.021 .0436447
539.832 .0435438
540.643 .0434467
541.453 .0433539
542.262 .0432662
543.071 .0431840
543.879 .0431071
544.687 .0430349
545.494 .0429669
546.300 .0429027
547.106 .0428417
547.911 .0427834
548.716 .0427274
549.520 .0426737
550.323 .0426223
551.126 .0425730
551.929 .0425254
552.731 .0424794
553.532 .0424346
554.332 .0423907
555.133 .0423473
555.932 .0423037
556.731 .0422597
557.530 .0422151
558.328 .0421700
559.125 .0421245
559.922 .0420784
560.719 .0420318
561.515 .0419848
562.310 .0419375
563.105 .0418895
563.899 .0418406
564.693 .0417907
565.487 .0417398
566.280 .0416878
567.072 .0416346
567.864 .0415803
568.655 .0415255
569.446 .0414704
570.236 .0414155
571.026 .0413609
571.816 .0413069
572.605 .0412535
573.393 .0412009
574.181 .0411491
574.969 .0410979
575.756 .0410477
576.543 .0409985
577.329 .0409506
578.115 .0409041
578.900 .0408590
579.685 .0408153
580.469 .0407728
581.253 .0407312
582.036 .0406903
582.820 .0406496
583.602 .0406089
584.384 .0405680
585.166 .0405268
585.947 .0404851
586.728 .0404430
587.509 .0404004
588.289 .0403574
589.069 .0403138
589.848 .0402697
590.627 .0402250
591.405 .0401798
592.183 .0401341
592.961 .0400879
593.738 .0400415
594.515 .0399951
595.291 .0399489
596.067 .0399032
596.843 .0398582
597.618 .0398142
598.393 .0397527
599.167 .0397117
599.941 .0396718
600.715 .0396333
601.488 .0395959
602.261 .0395598
603.034 .0395251
603.806 .0394915
604.578 .0394592
605.349 .0394281
606.121 .0393982
606.891 .0393857
607.662 .0393568
608.432 .0393287
609.201 .0393014
609.971 .0392747
610.740 .0392484
611.508 .0392224
612.277 .0391966
613.045 .0391709
613.812 .0391450
614.579 .0391189
615.346 .0390925
616.113 .0390658
616.879 .0390385
617.645 .0390108
618.411 .0389826
619.176 .0389539
619.941 .0389247
620.705 .0388949
621.470 .0388648
622.233 .0388343
622.997 .0388033
623.760 .0387722
624.523 .0387408
625.286 .0387094
626.048 .0386779
626.810 .0386467
627.572 .0386156
628.333 .0385848
629.095 .0385543
629.855 .0385240
630.616 .0384940
631.376 .0384642
632.136 .0384347
632.895 .0384056
633.655 .0383767
634.414 .0383482
635.172 .0383199
635.931 .0382918
636.689 .0382638
637.447 .0382358
638.204 .0382077
638.962 .0381793
639.718 .0381508
640.475 .0381219
641.231 .0380929
641.988 .0380637
642.743 .0380344
643.499 .0380049
644.254 .0379751
645.009 .0379451
645.764 .0379147
646.518 .0378839
647.272 .0378529
648.026 .0378218
648.780 .0377906
649.533 .0377595
650.286 .0377285
651.039 .0376979
651.792 .0376677
652.544 .0376380
653.296 .0376088
654.048 .0375803
654.799 .0375524
655.550 .0375253
656.301 .0374991
657.052 .0374737
657.802 .0374491
658.552 .0374252
659.302 .0374020
660.052 .0373794
660.801 .0373574
661.550 .0373358
662.299 .0373146
663.048 .0372939
663.796 .0372734
664.544 .0372533
665.292 .0372334
666.040 .0372137
666.787 .0371939
667.534 .0371742
668.281 .0371543
669.028 .0371342
669.774 .0371139
670.521 .0370934
671.266 .0370728
672.012 .0370519
672.758 .0370308
673.503 .0370096
674.248 .0369881
674.992 .0369665
675.737 .0369448
676.481 .0369230
677.225 .0369012
677.969 .0368794
678.712 .0368577
679.455 .0368361
680.199 .0368148
680.941 .0367937
681.684 .0367729
682.426 .0367524
683.168 .0367322
683.910 .0367124
684.652 .0366929
685.393 .0366737
686.134 .0366548
686.875 .0366361
687.616 .0366177
688.356 .0365994
689.097 .0365813
689.837 .0365634
690.576 .0365456
691.316 .0365280
692.055 .0365104
692.794 .0364929
693.533 .0364754
694.272 .0364580
695.010 .0364405
695.748 .0364229
696.486 .0364051
697.224 .0363872
697.962 .0363690
698.699 .0363507
699.436 .0363323
700.173 .0363138
700.909 .0362953
701.646 .0362768
702.382 .0362583
703.118 .0362398
703.853 .0362213
704.589 .0362027
705.324 .0361841
706.059 .0361654
706.794 .0361467
707.529 .0361279
708.263 .0361092
708.997 .0360906
709.731 .0360722
710.465 .0360540
711.198 .0360359
711.931 .0360180
712.664 .0360002
713.397 .0359824
714.130 .0359645
714.862 .0359464
715.594 .0359279
716.326 .0359091
717.058 .0358897
717.789 .0358699
718.520 .0358497
719.251 .0358289
719.982 .0358078
720.713 .0357863
721.443 .0357645
722.173 .0357424
722.903 .0357201
723.633 .0356977
724.362 .0356750
725.091 .0356523
725.820 .0356296
726.549 .0356068
727.278 .0355842
728.006 .0355618
728.734 .0355399
729.462 .0355184
730.190 .0354976
730.917 .0354775
731.644 .0354582
732.371 .0354399
733.098 .0354225
733.825 .0354060
734.551 .0353904
735.277 .0353757
736.003 .0353618
736.728 .0353485
737.454 .0353360
738.179 .0353240
738.904 .0353125
739.629 .0353016
740.353 .0352911
741.077 .0352809
741.801 .0352709
742.525 .0352609
743.249 .0352509
743.972 .0352405
744.695 .0352298
745.418 .0352185
746.141 .0352067
746.863 .0351943
747.585 .0351812
748.307 .0351676
749.029 .0351534
749.750 .0351387
750.472 .0351234
751.193 .0351076
751.913 .0350913
752.634 .0350746
753.354 .0350577
754.074 .0350405
754.794 .0350233
755.514 .0350060
756.233 .0349887
756.952 .0349715
757.671 .0349544
758.390 .0349374
759.108 .0349205
759.826 .0349038
760.544 .0348873
761.262 .0348709
761.979 .0348547
762.697 .0348386
763.414 .0348225
764.130 .0348064
764.847 .0347902
765.563 .0347739
766.279 .0347576
766.995 .0347410
767.710 .0347243
768.426 .0347075
769.141 .0346906
769.855 .0346735
770.570 .0346564
771.284 .0346391
771.998 .0346217
772.712 .0346042
773.426 .0345866
774.139 .0345689
774.852 .0345512
775.565 .0345336
776.277 .0345160
776.990 .0344985
777.702 .0344811
778.414 .0344639
779.125 .0344470
779.836 .0344304
780.547 .0344142
781.258 .0343984
781.969 .0343830
782.679 .0343680
783.389 .0343470
784.099 .0343331
784.808 .0343195
785.517 .0343064
786.226 .0342936
786.935 .0342812
787.643 .0342692
788.352 .0342576
789.060 .0342463
789.767 .0342354
790.475 .0342248
791.182 .0342143
791.889 .0342099
792.595 .0341997
793.301 .0341895
794.008 .0341793
794.713 .0341691
795.419 .0341588
796.124 .0341484
796.829 .0341379
797.534 .0341272
798.238 .0341163
798.942 .0341052
799.646 .0340939
800.350 .0340824
801.053 .0340706
801.756 .0340586
802.459 .0340465
803.162 .0340342
803.864 .0340218
804.566 .0340092
805.267 .0339966
805.969 .0339838
806.670 .0339709
807.371 .0339579
808.071 .0339448
808.772 .0339318
809.472 .0339189
810.171 .0339061
810.871 .0338934
811.570 .0338810
812.269 .0338688
812.967 .0338568
813.666 .0338449
814.364 .0338331
815.061 .0338213
815.759 .0338094
816.456 .0337975
817.153 .0337854
817.849 .0337732
818.545 .0337608
819.241 .0337483
819.937 .0337355
820.632 .0337224
821.327 .0337089
822.022 .0336949
822.717 .0336804
823.411 .0336654
824.105 .0336498
824.798 .0336336
825.491 .0336168
826.184 .0335996
826.877 .0335819
827.569 .0335638
828.261 .0335454
828.953 .0335265
829.645 .0335073
830.336 .0334877
831.027 .0334679
831.717 .0334479
832.407 .0334277
833.097 .0334076
833.787 .0333876
834.476 .0333678
835.165 .0333483
835.854 .0333291
836.542 .0333101
837.230 .0332915
837.918 .0332731
838.605 .0332549
839.292 .0332371
839.979 .0332196
840.665 .0332026
841.352 .0331860
842.037 .0331698
842.723 .0331541
843.408 .0331386
844.093 .0331234
844.777 .0331083
845.462 .0330932
846.145 .0330782
846.829 .0330632
847.512 .0330482
848.195 .0330333
848.878 .0330184
849.560 .0330035
850.242 .0329885
850.923 .0329735
851.605 .0329583
852.286 .0329428
852.966 .0329271
853.646 .0329112
854.326 .0328950
855.006 .0328787
855.685 .0328623
856.364 .0328458
857.043 .0328293
857.721 .0328128
858.399 .0327964
859.077 .0327799
859.754 .0327635
860.431 .0327473
861.107 .0327314
861.784 .0327157
862.459 .0327004
863.135 .0326856
863.810 .0326713
864.485 .0326575
865.160 .0326443
865.834 .0326315
866.508 .0326193
867.181 .0326077
867.854 .0325966
868.527 .0325860
869.199 .0325759
869.872 .0325662
870.543 .0325569
871.215 .0325480
871.886 .0325392
872.557 .0325305
873.227 .0325219
873.897 .0325132
874.567 .0325043
875.236 .0324951
875.905 .0324856
876.573 .0324757
877.242 .0324652
877.909 .0324542
878.577 .0324427
879.244 .0324305
879.911 .0324178
880.577 .0324046
881.243 .0323908
881.909 .0323766
882.575 .0323619
883.240 .0323468
883.904 .0323314
884.569 .0323157
885.232 .0322998
885.896 .0322837
886.559 .0322676
887.222 .0322516
887.885 .0322358
888.547 .0322203
889.208 .0322053
889.870 .0321907
890.531 .0321768
891.192 .0321635
891.852 .0321509
892.512 .0321390
893.171 .0321276
893.830 .0321168
894.489 .0321066
895.148 .0320969
895.806 .0320877
896.464 .0320789
897.121 .0320705
897.778 .0320624
898.434 .0320546
899.091 .0320430
899.747 .0320351
900.402 .0320270
901.057 .0320188
901.712 .0320104
902.366 .0320017
903.020 .0319926
903.674 .0319833
904.327 .0319735
904.980 .0319633
905.633 .0319526
906.285 .0319413
906.936 .0319294
907.588 .0319218
908.239 .0319089
908.889 .0318953
909.540 .0318811
910.190 .0318663
910.839 .0318511
911.488 .0318356
912.137 .0318198
912.785 .0318038
913.433 .0317878
914.081 .0317717
914.728 .0317556
915.375 .0317394
916.021 .0317233
916.668 .0317073
917.313 .0316913
917.959 .0316756
918.604 .0316600
919.248 .0316445
919.892 .0316292
920.536 .0316139
921.180 .0315986
921.823 .0315831
922.465 .0315673
923.108 .0315511
923.750 .0315346
924.391 .0315177
925.032 .0315004
925.673 .0314828
926.313 .0314648
926.953 .0314465
927.593 .0314279
928.232 .0314088
928.871 .0313894
929.510 .0313696
930.148 .0313494
930.786 .0313288
931.423 .0313079
932.060 .0312867
932.697 .0312651
933.333 .0312433
933.969 .0312212
934.604 .0311988
935.239 .0311762
935.874 .0311533
936.508 .0311302
937.142 .0311070
937.776 .0310837
938.409 .0310604
939.042 .0310372
939.674 .0310142
940.306 .0309915
940.938 .0309690
941.569 .0309469
942.200 .0309252
942.830 .0309040
943.460 .0308834
944.090 .0308634
944.720 .0308440
945.349 .0308253
945.977 .0308072
946.606 .0307896
947.233 .0307724
947.861 .0307556
948.488 .0307392
949.115 .0307231
949.741 .0307074
950.367 .0306922
950.993 .0306775
951.618 .0306633
952.243 .0306495
952.868 .0306361
953.492 .0306231
954.115 .0306104
954.739 .0305980
955.362 .0305858
955.984 .0305738
956.607 .0305623
957.229 .0305511
957.850 .0305404
958.471 .0305302
959.092 .0305205
959.713 .0305113
960.333 .0305023
960.952 .0304937
961.572 .0304853
962.191 .0304770
962.809 .0304690
963.428 .0304611
964.045 .0304533
964.663 .0304458
965.280 .0304385
965.897 .0304313
966.513 .0304241
967.129 .0304167
967.745 .0304091
968.361 .0304012
968.976 .0303930
969.590 .0303844
970.205 .0303756
970.818 .0303664
971.432 .0303570
972.045 .0303474
972.658 .0303376
973.271 .0303275
973.883 .0303172
974.495 .0303065
975.106 .0302954
975.717 .0302840
976.328 .0302723
976.938 .0302604
977.548 .0302483
978.158 .0302362
978.768 .0302180
979.377 .0302062
979.985 .0301946
980.594 .0301831
981.202 .0301718
981.809 .0301606
982.417 .0301495
983.024 .0301388
983.631 .0301284
984.237 .0301184
984.843 .0301090
985.449 .0301001
986.054 .0300918
986.659 .0300841
987.264 .0300822
987.868 .0300753
988.472 .0300689
989.076 .0300631
989.679 .0300577
990.282 .0300528
990.885 .0300484
991.487 .0300444
992.090 .0300407
992.691 .0300374
993.293 .0300342
993.894 .0300312
994.495 .0300283
995.095 .0300253
995.696 .0300222
996.296 .0300190
996.895 .0300156
997.494 .0300119
998.093 .0300080
998.692 .0300038
999.291 .0299993
999.889 .0299942
1000.487 .0299887
1001.084 .0299827
1001.681 .0299762
1002.278 .0299691
1002.875 .0299615
1003.471 .0299534
1004.067 .0299449
1004.663 .0299360
1005.258 .0299266
1005.854 .0299169
1006.449 .0299069
1007.043 .0298965
1007.638 .0298859
1008.232 .0298751
1008.826 .0298640
1009.419 .0298529
1010.012 .0298417
1010.605 .0298304
1011.198 .0298192
1011.791 .0298080
1012.383 .0297970
1012.975 .0297860
1013.566 .0297753
1014.158 .0297648
1014.749 .0297545
1015.340 .0297447
1015.931 .0297352
1016.521 .0297262
1017.111 .0297178
1017.701 .0297099
1018.291 .0297026
1018.880 .0296959
1019.470 .0296899
1020.059 .0296846
1020.647 .0296800
1021.236 .0296762
1021.824 .0296730
1022.412 .0296706
1023.000 .0296688
1023.588 .0296676
1024.175 .0296670
1024.762 .0296668
1025.349 .0296671
1025.936 .0296676
1026.523 .0296684
1027.109 .0296695
1027.695 .0296708
1028.281 .0296722
1028.867 .0296739
1029.452 .0296758
1030.038 .0296777
1030.623 .0296798
1031.208 .0296820
1031.792 .0296842
1032.377 .0296863
1032.961 .0296884
1033.546 .0296905
1034.130 .0296924
1034.714 .0296943
1035.297 .0296961
1035.881 .0296978
1036.464 .0296994
1037.047 .0297009
1037.630 .0297022
1038.213 .0297032
1038.796 .0297038
1039.378 .0297039
1039.961 .0297035
1040.543 .0297026
1041.125 .0297010
1041.707 .0296989
1042.289 .0296963
1042.871 .0296932
1043.452 .0296896
1044.034 .0296856
1044.615 .0296813
1045.196 .0296767
1045.777 .0296717
1046.358 .0296665
1046.939 .0296612
1047.520 .0296556
1048.101 .0296499
1048.681 .0296441
1049.262 .0296383
1049.842 .0296325
1050.422 .0296267
1051.002 .0296209
1051.582 .0296152
1052.162 .0296095
1052.742 .0296039
1053.322 .0295984
1053.902 .0295930
1054.482 .0295877
1055.061 .0295825
1055.641 .0295774
1056.220 .0295726
1056.800 .0295679
1057.379 .0295635
1057.958 .0295594
1058.538 .0295556
1059.117 .0295522
1059.696 .0295491
1060.275 .0295464
1060.854 .0295441
1061.433 .0295424
1062.012 .0295411
1062.592 .0295403
1063.171 .0295400
1063.750 .0295402
1064.329 .0295408
1064.908 .0295419
1065.487 .0295434
1066.066 .0295452
1066.645 .0295472
1067.224 .0295494
1067.803 .0295517
1068.382 .0295542
1068.961 .0295567
1069.540 .0295592
1070.119 .0295616
1070.698 .0295639
1071.278 .0295661
1071.857 .0295681
1072.436 .0295700
1073.016 .0295715
1073.595 .0295726
1074.175 .0295733
1074.754 .0295734
1075.334 .0295732
1075.913 .0295725
1076.493 .0295716
1077.073 .0295703
1077.653 .0295689
1078.233 .0295672
1078.813 .0295654
1079.393 .0295635
1079.974 .0295614
1080.554 .0295590
1081.135 .0295563
1081.716 .0295533
1082.296 .0295502
1082.877 .0295470
1083.458 .0295440
1084.040 .0295413
1084.621 .0295389
1085.202 .0295370
1085.784 .0295353
1086.366 .0295338
1086.948 .0295324
1087.530 .0295308
1088.112 .0295292
1088.695 .0295275
1089.277 .0295259
1089.860 .0295247
1090.443 .0295241
1091.026 .0295242
1091.610 .0295251
1092.193 .0295267
1092.777 .0295288
1093.361 .0295310
1093.946 .0295332
1094.530 .0295349
1095.115 .0295360
1095.700 .0295366
1096.285 .0295366
1096.871 .0295361
1097.456 .0295353
1098.042 .0295341
1098.628 .0295327
1099.215 .0295307
1099.802 .0295282
1100.389 .0295248
1100.976 .0295203
1101.564 .0295149
1102.152 .0295085
1102.740 .0295013
1103.329 .0294937
1103.917 .0294859
1104.507 .0294781
1105.096 .0294704
1105.686 .0294630
1106.276 .0294559
1106.867 .0294491
1107.457 .0294425
1108.049 .0294362
1108.640 .0294305
1109.232 .0294254
1109.825 .0294214
1110.417 .0294189
1111.010 .0294184
1111.604 .0294202
1112.198 .0294246
1112.792 .0294316
1113.387 .0294415
1113.982 .0294543
1114.577 .0294698
1115.173 .0294882
1115.769 .0295092
1116.366 .0295329
1116.963 .0295588
1117.561 .0295870
1118.159 .0296172
1118.758 .0296490
1119.357 .0296824
1119.957 .0297170
1120.557 .0297526
1121.157 .0297893
1121.758 .0298270
1122.360 .0298657
1122.962 .0299054
1123.564 .0299460
1124.167 .0299669
1124.771 .0300090
1125.375 .0300514
1125.980 .0300938
1126.585 .0301358
1127.191 .0301774
1127.797 .0302188
1128.404 .0302599
1129.012 .0303009
1129.620 .0303421
1130.229 .0303835
1130.838 .0304252
1131.448 .0304666
1132.058 .0305078
1132.669 .0305669
1133.281 .0306071
1133.894 .0306488
1134.507 .0306828
1135.120 .0307258
1135.735 .0307722
1136.350 .0308336
1136.965 .0307370
1137.582 .0307980
1138.199 .0308678
1138.816 .0309377
1139.435 .0310030
1140.054 .0310663
1140.674 .0311293
1141.294 .0312058
1141.916 .0313002
1142.538 .0311444
1143.160 .0314279
1143.784 .0315549
1144.408 .0319902
1145.033 .0322700
