Measurement Sequence started on: 14-45-04-498
Integration time: 36
Scans to Average: 2 
>>>>>Begin Spectral Data<<<<<
433.946 .0609870
434.870 .0473004
435.793 .0466159
436.715 .0439954
437.635 .0441446
438.555 .0434601
439.473 .0420736
440.389 .0412212
441.305 .0404512
442.219 .0398185
443.132 .0405381
444.044 .0400342
444.954 .0395682
445.863 .0392422
446.771 .0389100
447.678 .0386146
448.584 .0383926
449.488 .0382153
450.391 .0380779
451.293 .0379730
452.194 .0378968
453.094 .0378439
453.992 .0378075
454.890 .0377832
455.786 .0377658
456.681 .0377518
457.575 .0377372
458.468 .0377193
459.360 .0376964
460.250 .0376674
461.140 .0376319
462.028 .0375911
462.915 .0375453
463.801 .0374951
464.687 .0374409
465.571 .0373830
466.454 .0373213
467.335 .0372557
468.216 .0371863
469.096 .0371131
469.975 .0370371
470.853 .0369595
471.729 .0368816
472.605 .0368053
473.479 .0367321
474.353 .0366628
475.226 .0365975
476.097 .0365359
476.968 .0364769
477.838 .0364199
478.706 .0363636
479.574 .0363078
480.441 .0362525
481.306 .0361980
482.171 .0361446
483.035 .0360931
483.898 .0360437
484.760 .0359966
485.621 .0359516
486.481 .0359082
487.340 .0358656
488.198 .0358233
489.055 .0357806
489.912 .0357375
490.767 .0356939
491.622 .0356300
492.476 .0355880
493.329 .0355472
494.180 .0355076
495.032 .0354695
495.882 .0354325
496.731 .0353957
497.580 .0353581
498.427 .0353189
499.274 .0352774
500.120 .0352530
500.965 .0352049
501.809 .0351534
502.653 .0350985
503.495 .0350401
504.337 .0349782
505.178 .0349127
506.018 .0348436
506.858 .0347706
507.696 .0346936
508.534 .0346131
509.371 .0345296
510.208 .0344445
511.043 .0343594
511.878 .0342760
512.712 .0341957
513.545 .0341197
514.377 .0340488
515.209 .0339833
516.040 .0339231
516.870 .0338678
517.699 .0338172
518.528 .0337711
519.356 .0337295
520.183 .0336923
521.010 .0336596
521.836 .0336313
522.661 .0336068
523.485 .0335856
524.309 .0335668
525.132 .0335491
525.954 .0335311
526.776 .0335113
527.597 .0334882
528.417 .0334598
529.237 .0334252
530.056 .0333834
530.874 .0333345
531.692 .0332788
532.508 .0332175
533.325 .0331520
534.140 .0330845
534.955 .0330165
535.770 .0329493
536.583 .0328835
537.397 .0328198
538.209 .0327582
539.021 .0326993
539.832 .0326431
540.643 .0325903
541.453 .0325414
542.262 .0324974
543.071 .0324585
543.879 .0324256
544.687 .0323988
545.494 .0323782
546.300 .0323630
547.106 .0323530
547.911 .0323471
548.716 .0323442
549.520 .0323438
550.323 .0323449
551.126 .0323464
551.929 .0323477
552.731 .0323479
553.532 .0323470
554.332 .0323446
555.133 .0323408
555.932 .0323355
556.731 .0323292
557.530 .0323220
558.328 .0323140
559.125 .0323054
559.922 .0322964
560.719 .0322866
561.515 .0322758
562.310 .0322639
563.105 .0322505
563.899 .0322355
564.693 .0322190
565.487 .0322010
566.280 .0321821
567.072 .0321622
567.864 .0321416
568.655 .0321205
569.446 .0320991
570.236 .0320774
571.026 .0320554
571.816 .0320330
572.605 .0320100
573.393 .0319860
574.181 .0319611
574.969 .0319351
575.756 .0319081
576.543 .0318801
577.329 .0318512
578.115 .0318215
578.900 .0317913
579.685 .0317607
580.469 .0317300
581.253 .0316995
582.036 .0316693
582.820 .0316393
583.602 .0316097
584.384 .0315805
585.166 .0315516
585.947 .0315229
586.728 .0314941
587.509 .0314651
588.289 .0314360
589.069 .0314067
589.848 .0313773
590.627 .0313482
591.405 .0313195
592.183 .0312915
592.961 .0312642
593.738 .0312381
594.515 .0312130
595.291 .0311891
596.067 .0311663
596.843 .0311445
597.618 .0311235
598.393 .0310952
599.167 .0310761
599.941 .0310575
600.715 .0310394
601.488 .0310217
602.261 .0310044
603.034 .0309874
603.806 .0309707
604.578 .0309542
605.349 .0309380
606.121 .0309219
606.891 .0309131
607.662 .0308968
608.432 .0308802
609.201 .0308634
609.971 .0308462
610.740 .0308286
611.508 .0308106
612.277 .0307924
613.045 .0307740
613.812 .0307556
614.579 .0307373
615.346 .0307190
616.113 .0307008
616.879 .0306828
617.645 .0306647
618.411 .0306466
619.176 .0306286
619.941 .0306105
620.705 .0305925
621.470 .0305746
622.233 .0305568
622.997 .0305393
623.760 .0305220
624.523 .0305051
625.286 .0304886
626.048 .0304726
626.810 .0304571
627.572 .0304422
628.333 .0304277
629.095 .0304136
629.855 .0303997
630.616 .0303861
631.376 .0303724
632.136 .0303586
632.895 .0303446
633.655 .0303303
634.414 .0303157
635.172 .0303009
635.931 .0302858
636.689 .0302704
637.447 .0302548
638.204 .0302390
638.962 .0302228
639.718 .0302061
640.475 .0301890
641.231 .0301713
641.988 .0301530
642.743 .0301341
643.499 .0301145
644.254 .0300943
645.009 .0300736
645.764 .0300526
646.518 .0300314
647.272 .0300102
648.026 .0299890
648.780 .0299680
649.533 .0299472
650.286 .0299266
651.039 .0299063
651.792 .0298863
652.544 .0298666
653.296 .0298473
654.048 .0298284
654.799 .0298101
655.550 .0297924
656.301 .0297755
657.052 .0297594
657.802 .0297443
658.552 .0297301
659.302 .0297168
660.052 .0297043
660.801 .0296927
661.550 .0296818
662.299 .0296716
663.048 .0296619
663.796 .0296527
664.544 .0296439
665.292 .0296355
666.040 .0296273
666.787 .0296194
667.534 .0296117
668.281 .0296042
669.028 .0295969
669.774 .0295897
670.521 .0295826
671.266 .0295758
672.012 .0295690
672.758 .0295622
673.503 .0295554
674.248 .0295485
674.992 .0295414
675.737 .0295341
676.481 .0295264
677.225 .0295185
677.969 .0295102
678.712 .0295015
679.455 .0294924
680.199 .0294830
680.941 .0294732
681.684 .0294631
682.426 .0294526
683.168 .0294417
683.910 .0294305
684.652 .0294189
685.393 .0294070
686.134 .0293948
686.875 .0293823
687.616 .0293696
688.356 .0293567
689.097 .0293436
689.837 .0293304
690.576 .0293171
691.316 .0293038
692.055 .0292904
692.794 .0292770
693.533 .0292637
694.272 .0292505
695.010 .0292373
695.748 .0292243
696.486 .0292114
697.224 .0291986
697.962 .0291859
698.699 .0291733
699.436 .0291607
700.173 .0291482
700.909 .0291358
701.646 .0291235
702.382 .0291114
703.118 .0290996
703.853 .0290880
704.589 .0290766
705.324 .0290653
706.059 .0290542
706.794 .0290430
707.529 .0290318
708.263 .0290206
708.997 .0290094
709.731 .0289983
710.465 .0289873
711.198 .0289763
711.931 .0289654
712.664 .0289545
713.397 .0289436
714.130 .0289325
714.862 .0289213
715.594 .0289099
716.326 .0288983
717.058 .0288866
717.789 .0288748
718.520 .0288630
719.251 .0288511
719.982 .0288392
720.713 .0288273
721.443 .0288152
722.173 .0288029
722.903 .0287904
723.633 .0287776
724.362 .0287647
725.091 .0287516
725.820 .0287383
726.549 .0287250
727.278 .0287115
728.006 .0286981
728.734 .0286846
729.462 .0286713
730.190 .0286580
730.917 .0286450
731.644 .0286322
732.371 .0286198
733.098 .0286078
733.825 .0285962
734.551 .0285851
735.277 .0285744
736.003 .0285640
736.728 .0285541
737.454 .0285447
738.179 .0285357
738.904 .0285272
739.629 .0285193
740.353 .0285119
741.077 .0285051
741.801 .0284985
742.525 .0284922
743.249 .0284860
743.972 .0284797
744.695 .0284731
745.418 .0284663
746.141 .0284592
746.863 .0284517
747.585 .0284440
748.307 .0284360
749.029 .0284277
749.750 .0284192
750.472 .0284104
751.193 .0284013
751.913 .0283918
752.634 .0283819
753.354 .0283716
754.074 .0283611
754.794 .0283502
755.514 .0283391
756.233 .0283279
756.952 .0283166
757.671 .0283053
758.390 .0282941
759.108 .0282829
759.826 .0282718
760.544 .0282608
761.262 .0282498
761.979 .0282387
762.697 .0282277
763.414 .0282166
764.130 .0282054
764.847 .0281941
765.563 .0281827
766.279 .0281711
766.995 .0281594
767.710 .0281475
768.426 .0281354
769.141 .0281230
769.855 .0281103
770.570 .0280973
771.284 .0280840
771.998 .0280704
772.712 .0280566
773.426 .0280426
774.139 .0280286
774.852 .0280145
775.565 .0280005
776.277 .0279867
776.990 .0279731
777.702 .0279600
778.414 .0279473
779.125 .0279352
779.836 .0279239
780.547 .0279132
781.258 .0279033
781.969 .0278941
782.679 .0278856
783.389 .0278756
784.099 .0278685
784.808 .0278617
785.517 .0278555
786.226 .0278497
786.935 .0278443
787.643 .0278392
788.352 .0278344
789.060 .0278297
789.767 .0278250
790.475 .0278202
791.182 .0278152
791.889 .0278119
792.595 .0278065
793.301 .0278009
794.008 .0277952
794.713 .0277893
795.419 .0277833
796.124 .0277772
796.829 .0277709
797.534 .0277644
798.238 .0277577
798.942 .0277509
799.646 .0277439
800.350 .0277369
801.053 .0277299
801.756 .0277231
802.459 .0277166
803.162 .0277103
803.864 .0277042
804.566 .0276984
805.267 .0276929
805.969 .0276875
806.670 .0276824
807.371 .0276774
808.071 .0276727
808.772 .0276680
809.472 .0276635
810.171 .0276590
810.871 .0276544
811.570 .0276495
812.269 .0276444
812.967 .0276388
813.666 .0276328
814.364 .0276263
815.061 .0276194
815.759 .0276120
816.456 .0276041
817.153 .0275958
817.849 .0275870
818.545 .0275776
819.241 .0275677
819.937 .0275572
820.632 .0275462
821.327 .0275347
822.022 .0275227
822.717 .0275103
823.411 .0274975
824.105 .0274845
824.798 .0274712
825.491 .0274576
826.184 .0274439
826.877 .0274301
827.569 .0274161
828.261 .0274019
828.953 .0273877
829.645 .0273735
830.336 .0273593
831.027 .0273451
831.717 .0273312
832.407 .0273174
833.097 .0273039
833.787 .0272906
834.476 .0272776
835.165 .0272648
835.854 .0272522
836.542 .0272397
837.230 .0272274
837.918 .0272153
838.605 .0272032
839.292 .0271914
839.979 .0271796
840.665 .0271680
841.352 .0271565
842.037 .0271451
842.723 .0271336
843.408 .0271220
844.093 .0271103
844.777 .0270984
845.462 .0270863
846.145 .0270741
846.829 .0270617
847.512 .0270492
848.195 .0270365
848.878 .0270237
849.560 .0270106
850.242 .0269972
850.923 .0269835
851.605 .0269695
852.286 .0269551
852.966 .0269404
853.646 .0269254
854.326 .0269102
855.006 .0268949
855.685 .0268796
856.364 .0268644
857.043 .0268492
857.721 .0268342
858.399 .0268194
859.077 .0268049
859.754 .0267907
860.431 .0267770
861.107 .0267638
861.784 .0267511
862.459 .0267392
863.135 .0267279
863.810 .0267171
864.485 .0267070
865.160 .0266974
865.834 .0266882
866.508 .0266794
867.181 .0266710
867.854 .0266630
868.527 .0266554
869.199 .0266482
869.872 .0266414
870.543 .0266350
871.215 .0266288
871.886 .0266229
872.557 .0266171
873.227 .0266113
873.897 .0266056
874.567 .0265999
875.236 .0265943
875.905 .0265886
876.573 .0265829
877.242 .0265773
877.909 .0265717
878.577 .0265661
879.244 .0265604
879.911 .0265547
880.577 .0265489
881.243 .0265432
881.909 .0265374
882.575 .0265316
883.240 .0265258
883.904 .0265200
884.569 .0265142
885.232 .0265084
885.896 .0265026
886.559 .0264968
887.222 .0264911
887.885 .0264854
888.547 .0264798
889.208 .0264744
889.870 .0264691
890.531 .0264638
891.192 .0264587
891.852 .0264535
892.512 .0264484
893.171 .0264431
893.830 .0264378
894.489 .0264323
895.148 .0264267
895.806 .0264210
896.464 .0264152
897.121 .0264093
897.778 .0264032
898.434 .0263971
899.091 .0263876
899.747 .0263812
900.402 .0263746
901.057 .0263679
901.712 .0263610
902.366 .0263538
903.020 .0263463
903.674 .0263384
904.327 .0263302
904.980 .0263215
905.633 .0263124
906.285 .0263028
906.936 .0262926
907.588 .0262861
908.239 .0262751
908.889 .0262636
909.540 .0262516
910.190 .0262390
910.839 .0262259
911.488 .0262124
912.137 .0261985
912.785 .0261842
913.433 .0261697
914.081 .0261550
914.728 .0261401
915.375 .0261249
916.021 .0261095
916.668 .0260940
917.313 .0260783
917.959 .0260624
918.604 .0260464
919.248 .0260303
919.892 .0260141
920.536 .0259979
921.180 .0259815
921.823 .0259652
922.465 .0259487
923.108 .0259321
923.750 .0259154
924.391 .0258986
925.032 .0258816
925.673 .0258644
926.313 .0258470
926.953 .0258294
927.593 .0258117
928.232 .0257937
928.871 .0257756
929.510 .0257575
930.148 .0257393
930.786 .0257211
931.423 .0257029
932.060 .0256848
932.697 .0256667
933.333 .0256487
933.969 .0256307
934.604 .0256127
935.239 .0255947
935.874 .0255765
936.508 .0255584
937.142 .0255402
937.776 .0255220
938.409 .0255039
939.042 .0254858
939.674 .0254678
940.306 .0254499
940.938 .0254320
941.569 .0254142
942.200 .0253964
942.830 .0253787
943.460 .0253611
944.090 .0253436
944.720 .0253263
945.349 .0253092
945.977 .0252923
946.606 .0252758
947.233 .0252596
947.861 .0252437
948.488 .0252282
949.115 .0252130
949.741 .0251981
950.367 .0251836
950.993 .0251694
951.618 .0251556
952.243 .0251422
952.868 .0251292
953.492 .0251165
954.115 .0251042
954.739 .0250924
955.362 .0250809
955.984 .0250700
956.607 .0250595
957.229 .0250495
957.850 .0250401
958.471 .0250312
959.092 .0250230
959.713 .0250153
960.333 .0250083
960.952 .0250018
961.572 .0249959
962.191 .0249904
962.809 .0249852
963.428 .0249804
964.045 .0249757
964.663 .0249712
965.280 .0249667
965.897 .0249622
966.513 .0249575
967.129 .0249526
967.745 .0249477
968.361 .0249425
968.976 .0249373
969.590 .0249320
970.205 .0249266
970.818 .0249213
971.432 .0249159
972.045 .0249104
972.658 .0249049
973.271 .0248992
973.883 .0248934
974.495 .0248875
975.106 .0248817
975.717 .0248759
976.328 .0248703
976.938 .0248649
977.548 .0248598
978.158 .0248550
978.768 .0248491
979.377 .0248451
979.985 .0248413
980.594 .0248379
981.202 .0248348
981.809 .0248321
982.417 .0248300
983.024 .0248284
983.631 .0248275
984.237 .0248271
984.843 .0248274
985.449 .0248282
986.054 .0248295
986.659 .0248312
987.264 .0248336
987.868 .0248359
988.472 .0248386
989.076 .0248416
989.679 .0248450
990.282 .0248486
990.885 .0248523
991.487 .0248561
992.090 .0248599
992.691 .0248637
993.293 .0248672
993.894 .0248706
994.495 .0248738
995.095 .0248767
995.696 .0248795
996.296 .0248821
996.895 .0248843
997.494 .0248862
998.093 .0248876
998.692 .0248885
999.291 .0248887
999.889 .0248882
1000.487 .0248871
1001.084 .0248853
1001.681 .0248828
1002.278 .0248799
1002.875 .0248765
1003.471 .0248726
1004.067 .0248683
1004.663 .0248636
1005.258 .0248585
1005.854 .0248530
1006.449 .0248470
1007.043 .0248408
1007.638 .0248345
1008.232 .0248281
1008.826 .0248217
1009.419 .0248156
1010.012 .0248096
1010.605 .0248038
1011.198 .0247982
1011.791 .0247927
1012.383 .0247873
1012.975 .0247819
1013.566 .0247766
1014.158 .0247714
1014.749 .0247662
1015.340 .0247613
1015.931 .0247565
1016.521 .0247518
1017.111 .0247473
1017.701 .0247429
1018.291 .0247386
1018.880 .0247343
1019.470 .0247300
1020.059 .0247259
1020.647 .0247217
1021.236 .0247177
1021.824 .0247137
1022.412 .0247098
1023.000 .0247058
1023.588 .0247018
1024.175 .0246976
1024.762 .0246933
1025.349 .0246888
1025.936 .0246842
1026.523 .0246794
1027.109 .0246745
1027.695 .0246696
1028.281 .0246647
1028.867 .0246598
1029.452 .0246548
1030.038 .0246499
1030.623 .0246449
1031.208 .0246398
1031.792 .0246348
1032.377 .0246297
1032.961 .0246247
1033.546 .0246200
1034.130 .0246154
1034.714 .0246109
1035.297 .0246066
1035.881 .0246023
1036.464 .0245979
1037.047 .0245933
1037.630 .0245883
1038.213 .0245830
1038.796 .0245773
1039.378 .0245714
1039.961 .0245652
1040.543 .0245588
1041.125 .0245524
1041.707 .0245460
1042.289 .0245395
1042.871 .0245327
1043.452 .0245258
1044.034 .0245186
1044.615 .0245111
1045.196 .0245032
1045.777 .0244951
1046.358 .0244868
1046.939 .0244784
1047.520 .0244698
1048.101 .0244613
1048.681 .0244527
1049.262 .0244440
1049.842 .0244352
1050.422 .0244262
1051.002 .0244170
1051.582 .0244076
1052.162 .0243982
1052.742 .0243887
1053.322 .0243794
1053.902 .0243704
1054.482 .0243617
1055.061 .0243534
1055.641 .0243456
1056.220 .0243383
1056.800 .0243314
1057.379 .0243248
1057.958 .0243187
1058.538 .0243129
1059.117 .0243075
1059.696 .0243025
1060.275 .0242979
1060.854 .0242937
1061.433 .0242899
1062.012 .0242864
1062.592 .0242833
1063.171 .0242804
1063.750 .0242777
1064.329 .0242752
1064.908 .0242727
1065.487 .0242704
1066.066 .0242682
1066.645 .0242664
1067.224 .0242649
1067.803 .0242638
1068.382 .0242631
1068.961 .0242628
1069.540 .0242629
1070.119 .0242633
1070.698 .0242640
1071.278 .0242649
1071.857 .0242660
1072.436 .0242674
1073.016 .0242690
1073.595 .0242710
1074.175 .0242735
1074.754 .0242762
1075.334 .0242793
1075.913 .0242827
1076.493 .0242861
1077.073 .0242894
1077.653 .0242924
1078.233 .0242951
1078.813 .0242973
1079.393 .0242990
1079.974 .0243003
1080.554 .0243015
1081.135 .0243025
1081.716 .0243035
1082.296 .0243046
1082.877 .0243056
1083.458 .0243065
1084.040 .0243072
1084.621 .0243078
1085.202 .0243081
1085.784 .0243082
1086.366 .0243083
1086.948 .0243083
1087.530 .0243086
1088.112 .0243092
1088.695 .0243099
1089.277 .0243110
1089.860 .0243120
1090.443 .0243130
1091.026 .0243137
1091.610 .0243141
1092.193 .0243142
1092.777 .0243140
1093.361 .0243136
1093.946 .0243131
1094.530 .0243130
1095.115 .0243133
1095.700 .0243143
1096.285 .0243162
1096.871 .0243190
1097.456 .0243227
1098.042 .0243273
1098.628 .0243328
1099.215 .0243391
1099.802 .0243461
1100.389 .0243538
1100.976 .0243622
1101.564 .0243712
1102.152 .0243807
1102.740 .0243906
1103.329 .0244008
1103.917 .0244111
1104.507 .0244212
1105.096 .0244310
1105.686 .0244402
1106.276 .0244489
1106.867 .0244571
1107.457 .0244648
1108.049 .0244721
1108.640 .0244792
1109.232 .0244860
1109.825 .0244926
1110.417 .0244989
1111.010 .0245050
1111.604 .0245106
1112.198 .0245160
1112.792 .0245212
1113.387 .0245262
1113.982 .0245314
1114.577 .0245370
1115.173 .0245431
1115.769 .0245498
1116.366 .0245570
1116.963 .0245646
1117.561 .0245726
1118.159 .0245808
1118.758 .0245890
1119.357 .0245977
1119.957 .0246068
1120.557 .0246165
1121.157 .0246271
1121.758 .0246389
1122.360 .0246521
1122.962 .0246667
1123.564 .0246826
1124.167 .0246866
1124.771 .0247045
1125.375 .0247232
1125.980 .0247426
1126.585 .0247623
1127.191 .0247826
1127.797 .0248033
1128.404 .0248246
1129.012 .0248467
1129.620 .0248698
1130.229 .0248941
1130.838 .0249194
1131.448 .0249456
1132.058 .0249726
1132.669 .0250134
1133.281 .0250415
1133.894 .0250711
1134.507 .0251009
1135.120 .0251303
1135.735 .0251653
1136.350 .0252014
1136.965 .0251301
1137.582 .0251545
1138.199 .0251866
1138.816 .0252266
1139.435 .0252732
1140.054 .0253229
1140.674 .0253804
1141.294 .0254387
1141.916 .0255151
1142.538 .0255466
1143.160 .0255613
1143.784 .0257302
1144.408 .0257837
1145.033 .0263014
