Measurement Sequence started on: 14-45-04-498
Integration time: 36
Scans to Average: 2 
>>>>>Begin Spectral Data<<<<<
433.946 .0434400
434.870 .0460224
435.793 .0443974
436.715 .0436962
437.635 .0429120
438.555 .0425673
439.473 .0421227
440.389 .0416304
441.305 .0412328
442.219 .0408964
443.132 .0413366
444.044 .0410000
444.954 .0407472
445.863 .0405299
446.771 .0403528
447.678 .0401937
448.584 .0400584
449.488 .0399500
450.391 .0398639
451.293 .0397976
452.194 .0397479
453.094 .0397118
453.992 .0396863
454.890 .0396685
455.786 .0396558
456.681 .0396457
457.575 .0396364
458.468 .0396276
459.360 .0396180
460.250 .0396080
461.140 .0395974
462.028 .0395859
462.915 .0395733
463.801 .0395584
464.687 .0395398
465.571 .0395166
466.454 .0394873
467.335 .0394511
468.216 .0394076
469.096 .0393573
469.975 .0393010
470.853 .0392403
471.729 .0391768
472.605 .0391118
473.479 .0390467
474.353 .0389821
475.226 .0389181
476.097 .0388549
476.968 .0387920
477.838 .0387292
478.706 .0386668
479.574 .0386050
480.441 .0385448
481.306 .0384875
482.171 .0384338
483.035 .0383851
483.898 .0383417
484.760 .0383034
485.621 .0382698
486.481 .0382400
487.340 .0382131
488.198 .0381880
489.055 .0381641
489.912 .0381411
490.767 .0381194
491.622 .0380929
492.476 .0380759
493.329 .0380613
494.180 .0380488
495.032 .0380380
495.882 .0380281
496.731 .0380180
497.580 .0380067
498.427 .0379933
499.274 .0379769
500.120 .0379636
500.965 .0379419
501.809 .0379170
502.653 .0378891
503.495 .0378582
504.337 .0378243
505.178 .0377874
506.018 .0377473
506.858 .0377040
507.696 .0376575
508.534 .0376080
509.371 .0375560
510.208 .0375021
511.043 .0374470
511.878 .0373918
512.712 .0373371
513.545 .0372834
514.377 .0372313
515.209 .0371809
516.040 .0371327
516.870 .0370869
517.699 .0370435
518.528 .0370030
519.356 .0369658
520.183 .0369321
521.010 .0369020
521.836 .0368752
522.661 .0368516
523.485 .0368302
524.309 .0368104
525.132 .0367910
525.954 .0367712
526.776 .0367502
527.597 .0367275
528.417 .0367027
529.237 .0366762
530.056 .0366475
530.874 .0366171
531.692 .0365850
532.508 .0365510
533.325 .0365146
534.140 .0364760
534.955 .0364349
535.770 .0363912
536.583 .0363448
537.397 .0362964
538.209 .0362464
539.021 .0361959
539.832 .0361459
540.643 .0360973
541.453 .0360509
542.262 .0360069
543.071 .0359655
543.879 .0359266
544.687 .0358897
545.494 .0358543
546.300 .0358195
547.106 .0357855
547.911 .0357518
548.716 .0357184
549.520 .0356856
550.323 .0356535
551.126 .0356221
551.929 .0355911
552.731 .0355599
553.532 .0355280
554.332 .0354947
555.133 .0354597
555.932 .0354224
556.731 .0353828
557.530 .0353407
558.328 .0352965
559.125 .0352506
559.922 .0352035
560.719 .0351553
561.515 .0351065
562.310 .0350572
563.105 .0350074
563.899 .0349571
564.693 .0349065
565.487 .0348556
566.280 .0348047
567.072 .0347543
567.864 .0347047
568.655 .0346562
569.446 .0346096
570.236 .0345651
571.026 .0345230
571.816 .0344833
572.605 .0344458
573.393 .0344105
574.181 .0343774
574.969 .0343464
575.756 .0343175
576.543 .0342905
577.329 .0342654
578.115 .0342419
578.900 .0342198
579.685 .0341991
580.469 .0341795
581.253 .0341608
582.036 .0341430
582.820 .0341258
583.602 .0341092
584.384 .0340929
585.166 .0340768
585.947 .0340608
586.728 .0340445
587.509 .0340277
588.289 .0340101
589.069 .0339916
589.848 .0339720
590.627 .0339511
591.405 .0339288
592.183 .0339049
592.961 .0338796
593.738 .0338529
594.515 .0338251
595.291 .0337963
596.067 .0337669
596.843 .0337371
597.618 .0337070
598.393 .0336625
599.167 .0336332
599.941 .0336041
600.715 .0335754
601.488 .0335470
602.261 .0335192
603.034 .0334919
603.806 .0334654
604.578 .0334398
605.349 .0334151
606.121 .0333916
606.891 .0333826
607.662 .0333604
608.432 .0333393
609.201 .0333190
609.971 .0332996
610.740 .0332807
611.508 .0332624
612.277 .0332445
613.045 .0332270
613.812 .0332098
614.579 .0331930
615.346 .0331765
616.113 .0331603
616.879 .0331442
617.645 .0331283
618.411 .0331123
619.176 .0330962
619.941 .0330799
620.705 .0330634
621.470 .0330466
622.233 .0330296
622.997 .0330122
623.760 .0329946
624.523 .0329768
625.286 .0329588
626.048 .0329406
626.810 .0329222
627.572 .0329035
628.333 .0328847
629.095 .0328655
629.855 .0328460
630.616 .0328261
631.376 .0328057
632.136 .0327848
632.895 .0327634
633.655 .0327415
634.414 .0327191
635.172 .0326961
635.931 .0326727
636.689 .0326488
637.447 .0326245
638.204 .0325999
638.962 .0325749
639.718 .0325496
640.475 .0325242
641.231 .0324987
641.988 .0324732
642.743 .0324478
643.499 .0324226
644.254 .0323977
645.009 .0323731
645.764 .0323488
646.518 .0323248
647.272 .0323010
648.026 .0322775
648.780 .0322543
649.533 .0322314
650.286 .0322087
651.039 .0321863
651.792 .0321642
652.544 .0321424
653.296 .0321208
654.048 .0320995
654.799 .0320785
655.550 .0320579
656.301 .0320376
657.052 .0320176
657.802 .0319979
658.552 .0319785
659.302 .0319594
660.052 .0319405
660.801 .0319219
661.550 .0319036
662.299 .0318857
663.048 .0318682
663.796 .0318511
664.544 .0318347
665.292 .0318187
666.040 .0318034
666.787 .0317886
667.534 .0317744
668.281 .0317607
669.028 .0317476
669.774 .0317350
670.521 .0317230
671.266 .0317117
672.012 .0317010
672.758 .0316909
673.503 .0316814
674.248 .0316724
674.992 .0316637
675.737 .0316553
676.481 .0316471
677.225 .0316389
677.969 .0316306
678.712 .0316222
679.455 .0316136
680.199 .0316048
680.941 .0315957
681.684 .0315863
682.426 .0315764
683.168 .0315661
683.910 .0315552
684.652 .0315438
685.393 .0315318
686.134 .0315192
686.875 .0315061
687.616 .0314925
688.356 .0314785
689.097 .0314640
689.837 .0314493
690.576 .0314342
691.316 .0314187
692.055 .0314030
692.794 .0313869
693.533 .0313705
694.272 .0313538
695.010 .0313370
695.748 .0313202
696.486 .0313033
697.224 .0312865
697.962 .0312697
698.699 .0312531
699.436 .0312365
700.173 .0312201
700.909 .0312037
701.646 .0311875
702.382 .0311713
703.118 .0311553
703.853 .0311395
704.589 .0311239
705.324 .0311085
706.059 .0310932
706.794 .0310781
707.529 .0310631
708.263 .0310482
708.997 .0310334
709.731 .0310187
710.465 .0310042
711.198 .0309896
711.931 .0309751
712.664 .0309606
713.397 .0309460
714.130 .0309315
714.862 .0309169
715.594 .0309024
716.326 .0308880
717.058 .0308738
717.789 .0308599
718.520 .0308462
719.251 .0308329
719.982 .0308199
720.713 .0308071
721.443 .0307947
722.173 .0307824
722.903 .0307705
723.633 .0307590
724.362 .0307478
725.091 .0307371
725.820 .0307267
726.549 .0307168
727.278 .0307073
728.006 .0306981
728.734 .0306891
729.462 .0306804
730.190 .0306717
730.917 .0306632
731.644 .0306548
732.371 .0306465
733.098 .0306384
733.825 .0306303
734.551 .0306224
735.277 .0306146
736.003 .0306069
736.728 .0305993
737.454 .0305917
738.179 .0305842
738.904 .0305768
739.629 .0305694
740.353 .0305621
741.077 .0305549
741.801 .0305478
742.525 .0305407
743.249 .0305336
743.972 .0305266
744.695 .0305195
745.418 .0305125
746.141 .0305054
746.863 .0304984
747.585 .0304912
748.307 .0304839
749.029 .0304763
749.750 .0304684
750.472 .0304602
751.193 .0304515
751.913 .0304423
752.634 .0304327
753.354 .0304226
754.074 .0304122
754.794 .0304014
755.514 .0303903
756.233 .0303790
756.952 .0303673
757.671 .0303553
758.390 .0303429
759.108 .0303302
759.826 .0303174
760.544 .0303043
761.262 .0302912
761.979 .0302783
762.697 .0302655
763.414 .0302530
764.130 .0302408
764.847 .0302291
765.563 .0302177
766.279 .0302067
766.995 .0301961
767.710 .0301859
768.426 .0301761
769.141 .0301667
769.855 .0301577
770.570 .0301489
771.284 .0301404
771.998 .0301321
772.712 .0301238
773.426 .0301156
774.139 .0301074
774.852 .0300991
775.565 .0300906
776.277 .0300820
776.990 .0300731
777.702 .0300640
778.414 .0300546
779.125 .0300450
779.836 .0300351
780.547 .0300250
781.258 .0300148
781.969 .0300044
782.679 .0299939
783.389 .0299780
784.099 .0299676
784.808 .0299573
785.517 .0299469
786.226 .0299366
786.935 .0299265
787.643 .0299165
788.352 .0299066
789.060 .0298969
789.767 .0298874
790.475 .0298781
791.182 .0298690
791.889 .0298654
792.595 .0298566
793.301 .0298480
794.008 .0298397
794.713 .0298316
795.419 .0298237
796.124 .0298160
796.829 .0298083
797.534 .0298007
798.238 .0297932
798.942 .0297857
799.646 .0297783
800.350 .0297710
801.053 .0297638
801.756 .0297566
802.459 .0297495
803.162 .0297424
803.864 .0297352
804.566 .0297280
805.267 .0297206
805.969 .0297130
806.670 .0297052
807.371 .0296972
808.071 .0296891
808.772 .0296808
809.472 .0296724
810.171 .0296639
810.871 .0296553
811.570 .0296466
812.269 .0296378
812.967 .0296289
813.666 .0296198
814.364 .0296106
815.061 .0296012
815.759 .0295917
816.456 .0295821
817.153 .0295723
817.849 .0295624
818.545 .0295524
819.241 .0295423
819.937 .0295321
820.632 .0295220
821.327 .0295119
822.022 .0295018
822.717 .0294918
823.411 .0294820
824.105 .0294722
824.798 .0294626
825.491 .0294531
826.184 .0294437
826.877 .0294345
827.569 .0294253
828.261 .0294163
828.953 .0294075
829.645 .0293988
830.336 .0293903
831.027 .0293820
831.717 .0293739
832.407 .0293659
833.097 .0293580
833.787 .0293501
834.476 .0293423
835.165 .0293345
835.854 .0293266
836.542 .0293186
837.230 .0293104
837.918 .0293020
838.605 .0292934
839.292 .0292846
839.979 .0292756
840.665 .0292664
841.352 .0292569
842.037 .0292472
842.723 .0292373
843.408 .0292272
844.093 .0292169
844.777 .0292063
845.462 .0291954
846.145 .0291841
846.829 .0291726
847.512 .0291607
848.195 .0291484
848.878 .0291357
849.560 .0291226
850.242 .0291092
850.923 .0290955
851.605 .0290815
852.286 .0290673
852.966 .0290528
853.646 .0290381
854.326 .0290232
855.006 .0290081
855.685 .0289928
856.364 .0289774
857.043 .0289619
857.721 .0289463
858.399 .0289308
859.077 .0289152
859.754 .0288997
860.431 .0288842
861.107 .0288688
861.784 .0288534
862.459 .0288380
863.135 .0288226
863.810 .0288071
864.485 .0287916
865.160 .0287761
865.834 .0287606
866.508 .0287452
867.181 .0287298
867.854 .0287144
868.527 .0286991
869.199 .0286837
869.872 .0286683
870.543 .0286527
871.215 .0286371
871.886 .0286214
872.557 .0286056
873.227 .0285898
873.897 .0285740
874.567 .0285582
875.236 .0285425
875.905 .0285268
876.573 .0285111
877.242 .0284955
877.909 .0284799
878.577 .0284643
879.244 .0284489
879.911 .0284336
880.577 .0284185
881.243 .0284037
881.909 .0283894
882.575 .0283755
883.240 .0283620
883.904 .0283491
884.569 .0283366
885.232 .0283247
885.896 .0283134
886.559 .0283027
887.222 .0282926
887.885 .0282832
888.547 .0282744
889.208 .0282663
889.870 .0282587
890.531 .0282517
891.192 .0282453
891.852 .0282393
892.512 .0282338
893.171 .0282288
893.830 .0282241
894.489 .0282198
895.148 .0282159
895.806 .0282123
896.464 .0282090
897.121 .0282059
897.778 .0282029
898.434 .0282001
899.091 .0281956
899.747 .0281926
900.402 .0281896
901.057 .0281866
901.712 .0281834
902.366 .0281800
903.020 .0281764
903.674 .0281725
904.327 .0281684
904.980 .0281638
905.633 .0281588
906.285 .0281533
906.936 .0281473
907.588 .0281430
908.239 .0281362
908.889 .0281290
909.540 .0281214
910.190 .0281134
910.839 .0281051
911.488 .0280964
912.137 .0280873
912.785 .0280779
913.433 .0280681
914.081 .0280581
914.728 .0280478
915.375 .0280372
916.021 .0280263
916.668 .0280153
917.313 .0280041
917.959 .0279927
918.604 .0279812
919.248 .0279695
919.892 .0279577
920.536 .0279459
921.180 .0279339
921.823 .0279218
922.465 .0279098
923.108 .0278977
923.750 .0278856
924.391 .0278736
925.032 .0278615
925.673 .0278495
926.313 .0278375
926.953 .0278254
927.593 .0278132
928.232 .0278009
928.871 .0277884
929.510 .0277757
930.148 .0277628
930.786 .0277498
931.423 .0277365
932.060 .0277230
932.697 .0277092
933.333 .0276952
933.969 .0276808
934.604 .0276662
935.239 .0276512
935.874 .0276358
936.508 .0276201
937.142 .0276039
937.776 .0275875
938.409 .0275707
939.042 .0275536
939.674 .0275363
940.306 .0275187
940.938 .0275008
941.569 .0274827
942.200 .0274643
942.830 .0274456
943.460 .0274267
944.090 .0274075
944.720 .0273883
945.349 .0273688
945.977 .0273494
946.606 .0273299
947.233 .0273106
947.861 .0272914
948.488 .0272723
949.115 .0272534
949.741 .0272346
950.367 .0272159
950.993 .0271974
951.618 .0271789
952.243 .0271605
952.868 .0271421
953.492 .0271237
954.115 .0271053
954.739 .0270870
955.362 .0270688
955.984 .0270506
956.607 .0270326
957.229 .0270146
957.850 .0269968
958.471 .0269791
959.092 .0269614
959.713 .0269439
960.333 .0269266
960.952 .0269094
961.572 .0268924
962.191 .0268756
962.809 .0268592
963.428 .0268430
964.045 .0268272
964.663 .0268117
965.280 .0267964
965.897 .0267813
966.513 .0267665
967.129 .0267518
967.745 .0267373
968.361 .0267230
968.976 .0267089
969.590 .0266951
970.205 .0266817
970.818 .0266685
971.432 .0266557
972.045 .0266432
972.658 .0266309
973.271 .0266190
973.883 .0266073
974.495 .0265959
975.106 .0265847
975.717 .0265738
976.328 .0265632
976.938 .0265528
977.548 .0265425
978.158 .0265322
978.768 .0265165
979.377 .0265060
979.985 .0264953
980.594 .0264844
981.202 .0264733
981.809 .0264620
982.417 .0264507
983.024 .0264394
983.631 .0264282
984.237 .0264170
984.843 .0264059
985.449 .0263948
986.054 .0263839
986.659 .0263731
987.264 .0263678
987.868 .0263572
988.472 .0263468
989.076 .0263366
989.679 .0263266
990.282 .0263169
990.885 .0263074
991.487 .0262981
992.090 .0262891
992.691 .0262804
993.293 .0262719
993.894 .0262637
994.495 .0262558
995.095 .0262483
995.696 .0262413
996.296 .0262347
996.895 .0262287
997.494 .0262233
998.093 .0262185
998.692 .0262142
999.291 .0262104
999.889 .0262071
1000.487 .0262043
1001.084 .0262017
1001.681 .0261996
1002.278 .0261978
1002.875 .0261963
1003.471 .0261951
1004.067 .0261942
1004.663 .0261935
1005.258 .0261929
1005.854 .0261925
1006.449 .0261921
1007.043 .0261916
1007.638 .0261912
1008.232 .0261908
1008.826 .0261903
1009.419 .0261899
1010.012 .0261895
1010.605 .0261891
1011.198 .0261888
1011.791 .0261884
1012.383 .0261879
1012.975 .0261873
1013.566 .0261865
1014.158 .0261855
1014.749 .0261844
1015.340 .0261831
1015.931 .0261817
1016.521 .0261802
1017.111 .0261787
1017.701 .0261771
1018.291 .0261755
1018.880 .0261739
1019.470 .0261723
1020.059 .0261709
1020.647 .0261696
1021.236 .0261686
1021.824 .0261679
1022.412 .0261675
1023.000 .0261676
1023.588 .0261680
1024.175 .0261688
1024.762 .0261700
1025.349 .0261715
1025.936 .0261733
1026.523 .0261755
1027.109 .0261780
1027.695 .0261810
1028.281 .0261844
1028.867 .0261882
1029.452 .0261925
1030.038 .0261972
1030.623 .0262021
1031.208 .0262073
1031.792 .0262125
1032.377 .0262178
1032.961 .0262230
1033.546 .0262282
1034.130 .0262331
1034.714 .0262380
1035.297 .0262426
1035.881 .0262471
1036.464 .0262514
1037.047 .0262553
1037.630 .0262588
1038.213 .0262620
1038.796 .0262646
1039.378 .0262669
1039.961 .0262687
1040.543 .0262702
1041.125 .0262715
1041.707 .0262726
1042.289 .0262736
1042.871 .0262747
1043.452 .0262758
1044.034 .0262768
1044.615 .0262777
1045.196 .0262783
1045.777 .0262787
1046.358 .0262788
1046.939 .0262786
1047.520 .0262782
1048.101 .0262776
1048.681 .0262770
1049.262 .0262763
1049.842 .0262757
1050.422 .0262752
1051.002 .0262748
1051.582 .0262745
1052.162 .0262741
1052.742 .0262738
1053.322 .0262736
1053.902 .0262735
1054.482 .0262735
1055.061 .0262738
1055.641 .0262744
1056.220 .0262754
1056.800 .0262768
1057.379 .0262784
1057.958 .0262803
1058.538 .0262822
1059.117 .0262841
1059.696 .0262860
1060.275 .0262877
1060.854 .0262893
1061.433 .0262908
1062.012 .0262924
1062.592 .0262939
1063.171 .0262954
1063.750 .0262968
1064.329 .0262981
1064.908 .0262990
1065.487 .0262995
1066.066 .0262996
1066.645 .0262992
1067.224 .0262982
1067.803 .0262969
1068.382 .0262952
1068.961 .0262933
1069.540 .0262912
1070.119 .0262889
1070.698 .0262863
1071.278 .0262834
1071.857 .0262801
1072.436 .0262762
1073.016 .0262717
1073.595 .0262666
1074.175 .0262611
1074.754 .0262552
1075.334 .0262490
1075.913 .0262427
1076.493 .0262362
1077.073 .0262296
1077.653 .0262229
1078.233 .0262159
1078.813 .0262085
1079.393 .0262008
1079.974 .0261927
1080.554 .0261843
1081.135 .0261757
1081.716 .0261669
1082.296 .0261582
1082.877 .0261496
1083.458 .0261412
1084.040 .0261328
1084.621 .0261246
1085.202 .0261165
1085.784 .0261086
1086.366 .0261008
1086.948 .0260932
1087.530 .0260859
1088.112 .0260790
1088.695 .0260725
1089.277 .0260666
1089.860 .0260612
1090.443 .0260563
1091.026 .0260517
1091.610 .0260471
1092.193 .0260425
1092.777 .0260376
1093.361 .0260325
1093.946 .0260269
1094.530 .0260209
1095.115 .0260145
1095.700 .0260077
1096.285 .0260006
1096.871 .0259931
1097.456 .0259853
1098.042 .0259771
1098.628 .0259687
1099.215 .0259599
1099.802 .0259510
1100.389 .0259420
1100.976 .0259331
1101.564 .0259244
1102.152 .0259161
1102.740 .0259083
1103.329 .0259010
1103.917 .0258943
1104.507 .0258882
1105.096 .0258825
1105.686 .0258771
1106.276 .0258721
1106.867 .0258676
1107.457 .0258635
1108.049 .0258599
1108.640 .0258570
1109.232 .0258549
1109.825 .0258535
1110.417 .0258530
1111.010 .0258532
1111.604 .0258542
1112.198 .0258561
1112.792 .0258589
1113.387 .0258627
1113.982 .0258676
1114.577 .0258738
1115.173 .0258814
1115.769 .0258905
1116.366 .0259009
1116.963 .0259126
1117.561 .0259254
1118.159 .0259392
1118.758 .0259538
1119.357 .0259689
1119.957 .0259845
1120.557 .0260006
1121.157 .0260173
1121.758 .0260347
1122.360 .0260528
1122.962 .0260718
1123.564 .0260915
1124.167 .0260996
1124.771 .0261201
1125.375 .0261410
1125.980 .0261623
1126.585 .0261841
1127.191 .0262065
1127.797 .0262296
1128.404 .0262538
1129.012 .0262793
1129.620 .0263061
1130.229 .0263347
1130.838 .0263646
1131.448 .0263959
1132.058 .0264288
1132.669 .0264775
1133.281 .0265141
1133.894 .0265522
1134.507 .0265883
1135.120 .0266373
1135.735 .0266857
1136.350 .0267314
1136.965 .0266969
1137.582 .0267477
1138.199 .0268026
1138.816 .0268535
1139.435 .0269030
1140.054 .0269616
1140.674 .0270239
1141.294 .0270880
1141.916 .0271455
1142.538 .0271155
1143.160 .0274818
1143.784 .0274853
1144.408 .0274349
1145.033 .0271745
