Measurement Sequence started on: 14-45-04-498
Integration time: 36
Scans to Average: 2 
>>>>>Begin Spectral Data<<<<<
433.946 .0511322
434.870 .0472536
435.793 .0447426
436.715 .0416963
437.635 .0406890
438.555 .0409163
439.473 .0398257
440.389 .0390079
441.305 .0383999
442.219 .0379869
443.132 .0392264
444.044 .0387138
444.954 .0383349
445.863 .0381184
446.771 .0379565
447.678 .0377831
448.584 .0376661
449.488 .0375896
450.391 .0375415
451.293 .0375106
452.194 .0374899
453.094 .0374745
453.992 .0374592
454.890 .0374411
455.786 .0374187
456.681 .0373917
457.575 .0373600
458.468 .0373244
459.360 .0372848
460.250 .0372410
461.140 .0371928
462.028 .0371401
462.915 .0370828
463.801 .0370217
464.687 .0369577
465.571 .0368921
466.454 .0368261
467.335 .0367602
468.216 .0366955
469.096 .0366318
469.975 .0365693
470.853 .0365080
471.729 .0364476
472.605 .0363881
473.479 .0363291
474.353 .0362703
475.226 .0362115
476.097 .0361523
476.968 .0360924
477.838 .0360314
478.706 .0359689
479.574 .0359051
480.441 .0358403
481.306 .0357753
482.171 .0357111
483.035 .0356487
483.898 .0355889
484.760 .0355321
485.621 .0354783
486.481 .0354275
487.340 .0353796
488.198 .0353343
489.055 .0352914
489.912 .0352510
490.767 .0352137
491.622 .0351726
492.476 .0351446
493.329 .0351212
494.180 .0351023
495.032 .0350873
495.882 .0350757
496.731 .0350662
497.580 .0350576
498.427 .0350488
499.274 .0350388
500.120 .0350302
500.965 .0350159
501.809 .0349989
502.653 .0349794
503.495 .0349575
504.337 .0349333
505.178 .0349067
506.018 .0348777
506.858 .0348461
507.696 .0348116
508.534 .0347737
509.371 .0347322
510.208 .0346866
511.043 .0346367
511.878 .0345824
512.712 .0345243
513.545 .0344628
514.377 .0343986
515.209 .0343325
516.040 .0342654
516.870 .0341977
517.699 .0341297
518.528 .0340620
519.356 .0339948
520.183 .0339278
521.010 .0338607
521.836 .0337932
522.661 .0337250
523.485 .0336563
524.309 .0335874
525.132 .0335186
525.954 .0334503
526.776 .0333830
527.597 .0333167
528.417 .0332517
529.237 .0331886
530.056 .0331277
530.874 .0330692
531.692 .0330135
532.508 .0329610
533.325 .0329118
534.140 .0328665
534.955 .0328249
535.770 .0327866
536.583 .0327510
537.397 .0327174
538.209 .0326854
539.021 .0326549
539.832 .0326259
540.643 .0325982
541.453 .0325718
542.262 .0325468
543.071 .0325229
543.879 .0325002
544.687 .0324789
545.494 .0324587
546.300 .0324393
547.106 .0324203
547.911 .0324014
548.716 .0323823
549.520 .0323630
550.323 .0323438
551.126 .0323246
551.929 .0323059
552.731 .0322882
553.532 .0322719
554.332 .0322577
555.133 .0322458
555.932 .0322359
556.731 .0322278
557.530 .0322210
558.328 .0322150
559.125 .0322095
559.922 .0322044
560.719 .0321991
561.515 .0321937
562.310 .0321880
563.105 .0321817
563.899 .0321747
564.693 .0321670
565.487 .0321581
566.280 .0321479
567.072 .0321358
567.864 .0321212
568.655 .0321039
569.446 .0320841
570.236 .0320616
571.026 .0320367
571.816 .0320096
572.605 .0319807
573.393 .0319504
574.181 .0319191
574.969 .0318870
575.756 .0318543
576.543 .0318213
577.329 .0317879
578.115 .0317544
578.900 .0317210
579.685 .0316878
580.469 .0316549
581.253 .0316224
582.036 .0315903
582.820 .0315583
583.602 .0315264
584.384 .0314945
585.166 .0314626
585.947 .0314308
586.728 .0313990
587.509 .0313677
588.289 .0313369
589.069 .0313070
589.848 .0312780
590.627 .0312498
591.405 .0312223
592.183 .0311954
592.961 .0311690
593.738 .0311428
594.515 .0311169
595.291 .0310913
596.067 .0310659
596.843 .0310409
597.618 .0310161
598.393 .0309792
599.167 .0309553
599.941 .0309318
600.715 .0309087
601.488 .0308859
602.261 .0308633
603.034 .0308409
603.806 .0308185
604.578 .0307961
605.349 .0307737
606.121 .0307514
606.891 .0307415
607.662 .0307198
608.432 .0306985
609.201 .0306778
609.971 .0306580
610.740 .0306392
611.508 .0306215
612.277 .0306049
613.045 .0305894
613.812 .0305749
614.579 .0305614
615.346 .0305486
616.113 .0305364
616.879 .0305247
617.645 .0305134
618.411 .0305024
619.176 .0304916
619.941 .0304808
620.705 .0304701
621.470 .0304594
622.233 .0304486
622.997 .0304376
623.760 .0304262
624.523 .0304143
625.286 .0304019
626.048 .0303888
626.810 .0303749
627.572 .0303602
628.333 .0303446
629.095 .0303283
629.855 .0303114
630.616 .0302938
631.376 .0302759
632.136 .0302577
632.895 .0302393
633.655 .0302205
634.414 .0302016
635.172 .0301824
635.931 .0301629
636.689 .0301430
637.447 .0301229
638.204 .0301024
638.962 .0300817
639.718 .0300608
640.475 .0300398
641.231 .0300189
641.988 .0299981
642.743 .0299776
643.499 .0299573
644.254 .0299374
645.009 .0299177
645.764 .0298984
646.518 .0298794
647.272 .0298608
648.026 .0298424
648.780 .0298243
649.533 .0298065
650.286 .0297890
651.039 .0297719
651.792 .0297551
652.544 .0297388
653.296 .0297230
654.048 .0297076
654.799 .0296928
655.550 .0296786
656.301 .0296651
657.052 .0296522
657.802 .0296399
658.552 .0296282
659.302 .0296170
660.052 .0296064
660.801 .0295962
661.550 .0295864
662.299 .0295769
663.048 .0295676
663.796 .0295584
664.544 .0295494
665.292 .0295404
666.040 .0295314
666.787 .0295224
667.534 .0295134
668.281 .0295044
669.028 .0294954
669.774 .0294864
670.521 .0294774
671.266 .0294684
672.012 .0294594
672.758 .0294503
673.503 .0294412
674.248 .0294319
674.992 .0294225
675.737 .0294129
676.481 .0294032
677.225 .0293933
677.969 .0293832
678.712 .0293730
679.455 .0293627
680.199 .0293524
680.941 .0293419
681.684 .0293313
682.426 .0293205
683.168 .0293095
683.910 .0292980
684.652 .0292862
685.393 .0292740
686.134 .0292615
686.875 .0292487
687.616 .0292358
688.356 .0292227
689.097 .0292097
689.837 .0291967
690.576 .0291839
691.316 .0291711
692.055 .0291584
692.794 .0291458
693.533 .0291332
694.272 .0291208
695.010 .0291085
695.748 .0290963
696.486 .0290842
697.224 .0290722
697.962 .0290602
698.699 .0290484
699.436 .0290366
700.173 .0290249
700.909 .0290132
701.646 .0290015
702.382 .0289899
703.118 .0289782
703.853 .0289663
704.589 .0289541
705.324 .0289416
706.059 .0289286
706.794 .0289152
707.529 .0289014
708.263 .0288873
708.997 .0288729
709.731 .0288584
710.465 .0288438
711.198 .0288293
711.931 .0288149
712.664 .0288006
713.397 .0287864
714.130 .0287724
714.862 .0287585
715.594 .0287447
716.326 .0287312
717.058 .0287180
717.789 .0287051
718.520 .0286926
719.251 .0286807
719.982 .0286692
720.713 .0286584
721.443 .0286480
722.173 .0286382
722.903 .0286289
723.633 .0286200
724.362 .0286114
725.091 .0286031
725.820 .0285949
726.549 .0285868
727.278 .0285789
728.006 .0285710
728.734 .0285631
729.462 .0285554
730.190 .0285477
730.917 .0285400
731.644 .0285325
732.371 .0285250
733.098 .0285176
733.825 .0285102
734.551 .0285030
735.277 .0284958
736.003 .0284887
736.728 .0284816
737.454 .0284747
738.179 .0284678
738.904 .0284609
739.629 .0284539
740.353 .0284468
741.077 .0284395
741.801 .0284320
742.525 .0284242
743.249 .0284161
743.972 .0284075
744.695 .0283984
745.418 .0283888
746.141 .0283786
746.863 .0283679
747.585 .0283565
748.307 .0283446
749.029 .0283320
749.750 .0283187
750.472 .0283049
751.193 .0282905
751.913 .0282755
752.634 .0282602
753.354 .0282445
754.074 .0282286
754.794 .0282126
755.514 .0281966
756.233 .0281807
756.952 .0281650
757.671 .0281496
758.390 .0281345
759.108 .0281198
759.826 .0281056
760.544 .0280919
761.262 .0280786
761.979 .0280658
762.697 .0280536
763.414 .0280419
764.130 .0280308
764.847 .0280202
765.563 .0280102
766.279 .0280007
766.995 .0279918
767.710 .0279834
768.426 .0279754
769.141 .0279677
769.855 .0279603
770.570 .0279530
771.284 .0279458
771.998 .0279385
772.712 .0279312
773.426 .0279238
774.139 .0279163
774.852 .0279089
775.565 .0279015
776.277 .0278941
776.990 .0278869
777.702 .0278799
778.414 .0278731
779.125 .0278664
779.836 .0278600
780.547 .0278539
781.258 .0278480
781.969 .0278424
782.679 .0278371
783.389 .0278303
784.099 .0278257
784.808 .0278214
785.517 .0278172
786.226 .0278132
786.935 .0278094
787.643 .0278058
788.352 .0278022
789.060 .0277987
789.767 .0277952
790.475 .0277917
791.182 .0277880
791.889 .0277855
792.595 .0277814
793.301 .0277770
794.008 .0277724
794.713 .0277675
795.419 .0277624
796.124 .0277572
796.829 .0277517
797.534 .0277459
798.238 .0277398
798.942 .0277334
799.646 .0277267
800.350 .0277197
801.053 .0277123
801.756 .0277046
802.459 .0276967
803.162 .0276884
803.864 .0276799
804.566 .0276710
805.267 .0276619
805.969 .0276525
806.670 .0276428
807.371 .0276328
808.071 .0276226
808.772 .0276120
809.472 .0276012
810.171 .0275902
810.871 .0275789
811.570 .0275674
812.269 .0275554
812.967 .0275430
813.666 .0275302
814.364 .0275168
815.061 .0275028
815.759 .0274883
816.456 .0274733
817.153 .0274578
817.849 .0274418
818.545 .0274254
819.241 .0274086
819.937 .0273914
820.632 .0273740
821.327 .0273564
822.022 .0273387
822.717 .0273210
823.411 .0273033
824.105 .0272859
824.798 .0272687
825.491 .0272518
826.184 .0272352
826.877 .0272190
827.569 .0272031
828.261 .0271876
828.953 .0271725
829.645 .0271578
830.336 .0271436
831.027 .0271300
831.717 .0271170
832.407 .0271045
833.097 .0270926
833.787 .0270813
834.476 .0270703
835.165 .0270598
835.854 .0270495
836.542 .0270394
837.230 .0270295
837.918 .0270198
838.605 .0270103
839.292 .0270009
839.979 .0269916
840.665 .0269823
841.352 .0269731
842.037 .0269640
842.723 .0269548
843.408 .0269456
844.093 .0269365
844.777 .0269275
845.462 .0269186
846.145 .0269099
846.829 .0269013
847.512 .0268930
848.195 .0268849
848.878 .0268771
849.560 .0268695
850.242 .0268623
850.923 .0268553
851.605 .0268486
852.286 .0268422
852.966 .0268360
853.646 .0268301
854.326 .0268245
855.006 .0268190
855.685 .0268138
856.364 .0268087
857.043 .0268038
857.721 .0267990
858.399 .0267943
859.077 .0267897
859.754 .0267852
860.431 .0267808
861.107 .0267765
861.784 .0267721
862.459 .0267677
863.135 .0267634
863.810 .0267589
864.485 .0267544
865.160 .0267498
865.834 .0267450
866.508 .0267401
867.181 .0267351
867.854 .0267299
868.527 .0267246
869.199 .0267192
869.872 .0267138
870.543 .0267083
871.215 .0267028
871.886 .0266973
872.557 .0266917
873.227 .0266861
873.897 .0266803
874.567 .0266744
875.236 .0266682
875.905 .0266618
876.573 .0266551
877.242 .0266482
877.909 .0266411
878.577 .0266337
879.244 .0266260
879.911 .0266179
880.577 .0266093
881.243 .0266002
881.909 .0265906
882.575 .0265804
883.240 .0265697
883.904 .0265585
884.569 .0265471
885.232 .0265354
885.896 .0265234
886.559 .0265114
887.222 .0264992
887.885 .0264868
888.547 .0264741
889.208 .0264612
889.870 .0264481
890.531 .0264348
891.192 .0264214
891.852 .0264079
892.512 .0263946
893.171 .0263812
893.830 .0263679
894.489 .0263547
895.148 .0263415
895.806 .0263283
896.464 .0263152
897.121 .0263021
897.778 .0262892
898.434 .0262765
899.091 .0262579
899.747 .0262457
900.402 .0262336
901.057 .0262216
901.712 .0262096
902.366 .0261976
903.020 .0261854
903.674 .0261731
904.327 .0261606
904.980 .0261481
905.633 .0261353
906.285 .0261224
906.936 .0261092
907.588 .0261020
908.239 .0260883
908.889 .0260742
909.540 .0260598
910.190 .0260451
910.839 .0260302
911.488 .0260150
912.137 .0259997
912.785 .0259841
913.433 .0259685
914.081 .0259526
914.728 .0259365
915.375 .0259202
916.021 .0259038
916.668 .0258872
917.313 .0258705
917.959 .0258539
918.604 .0258373
919.248 .0258209
919.892 .0258045
920.536 .0257882
921.180 .0257719
921.823 .0257556
922.465 .0257394
923.108 .0257233
923.750 .0257074
924.391 .0256919
925.032 .0256769
925.673 .0256624
926.313 .0256485
926.953 .0256352
927.593 .0256224
928.232 .0256101
928.871 .0255981
929.510 .0255863
930.148 .0255749
930.786 .0255637
931.423 .0255530
932.060 .0255426
932.697 .0255326
933.333 .0255231
933.969 .0255140
934.604 .0255052
935.239 .0254966
935.874 .0254883
936.508 .0254800
937.142 .0254719
937.776 .0254639
938.409 .0254561
939.042 .0254485
939.674 .0254411
940.306 .0254339
940.938 .0254267
941.569 .0254197
942.200 .0254127
942.830 .0254056
943.460 .0253984
944.090 .0253910
944.720 .0253836
945.349 .0253760
945.977 .0253682
946.606 .0253604
947.233 .0253525
947.861 .0253445
948.488 .0253365
949.115 .0253284
949.741 .0253203
950.367 .0253121
950.993 .0253040
951.618 .0252959
952.243 .0252878
952.868 .0252798
953.492 .0252718
954.115 .0252639
954.739 .0252561
955.362 .0252485
955.984 .0252410
956.607 .0252337
957.229 .0252265
957.850 .0252195
958.471 .0252126
959.092 .0252058
959.713 .0251990
960.333 .0251923
960.952 .0251857
961.572 .0251791
962.191 .0251727
962.809 .0251665
963.428 .0251604
964.045 .0251544
964.663 .0251487
965.280 .0251430
965.897 .0251374
966.513 .0251317
967.129 .0251260
967.745 .0251201
968.361 .0251140
968.976 .0251077
969.590 .0251012
970.205 .0250946
970.818 .0250878
971.432 .0250807
972.045 .0250735
972.658 .0250659
973.271 .0250581
973.883 .0250500
974.495 .0250416
975.106 .0250330
975.717 .0250241
976.328 .0250152
976.938 .0250062
977.548 .0249970
978.158 .0249878
978.768 .0249731
979.377 .0249632
979.985 .0249531
980.594 .0249429
981.202 .0249325
981.809 .0249221
982.417 .0249119
983.024 .0249017
983.631 .0248918
984.237 .0248820
984.843 .0248723
985.449 .0248626
986.054 .0248528
986.659 .0248429
987.264 .0248382
987.868 .0248281
988.472 .0248180
989.076 .0248079
989.679 .0247979
990.282 .0247879
990.885 .0247780
991.487 .0247680
992.090 .0247579
992.691 .0247474
993.293 .0247365
993.894 .0247252
994.495 .0247135
995.095 .0247015
995.696 .0246893
996.296 .0246772
996.895 .0246651
997.494 .0246533
998.093 .0246417
998.692 .0246304
999.291 .0246193
999.889 .0246083
1000.487 .0245975
1001.084 .0245866
1001.681 .0245758
1002.278 .0245650
1002.875 .0245545
1003.471 .0245441
1004.067 .0245340
1004.663 .0245242
1005.258 .0245147
1005.854 .0245053
1006.449 .0244961
1007.043 .0244870
1007.638 .0244780
1008.232 .0244690
1008.826 .0244601
1009.419 .0244514
1010.012 .0244430
1010.605 .0244348
1011.198 .0244270
1011.791 .0244196
1012.383 .0244126
1012.975 .0244058
1013.566 .0243993
1014.158 .0243931
1014.749 .0243869
1015.340 .0243808
1015.931 .0243746
1016.521 .0243684
1017.111 .0243622
1017.701 .0243559
1018.291 .0243497
1018.880 .0243436
1019.470 .0243377
1020.059 .0243318
1020.647 .0243262
1021.236 .0243208
1021.824 .0243158
1022.412 .0243110
1023.000 .0243065
1023.588 .0243024
1024.175 .0242987
1024.762 .0242955
1025.349 .0242928
1025.936 .0242907
1026.523 .0242893
1027.109 .0242885
1027.695 .0242883
1028.281 .0242887
1028.867 .0242897
1029.452 .0242915
1030.038 .0242938
1030.623 .0242969
1031.208 .0243005
1031.792 .0243047
1032.377 .0243095
1032.961 .0243146
1033.546 .0243202
1034.130 .0243259
1034.714 .0243318
1035.297 .0243378
1035.881 .0243438
1036.464 .0243498
1037.047 .0243559
1037.630 .0243620
1038.213 .0243682
1038.796 .0243743
1039.378 .0243804
1039.961 .0243864
1040.543 .0243923
1041.125 .0243982
1041.707 .0244039
1042.289 .0244097
1042.871 .0244155
1043.452 .0244216
1044.034 .0244280
1044.615 .0244348
1045.196 .0244419
1045.777 .0244493
1046.358 .0244568
1046.939 .0244642
1047.520 .0244714
1048.101 .0244784
1048.681 .0244849
1049.262 .0244910
1049.842 .0244969
1050.422 .0245025
1051.002 .0245079
1051.582 .0245132
1052.162 .0245184
1052.742 .0245236
1053.322 .0245287
1053.902 .0245338
1054.482 .0245389
1055.061 .0245440
1055.641 .0245493
1056.220 .0245550
1056.800 .0245612
1057.379 .0245678
1057.958 .0245749
1058.538 .0245824
1059.117 .0245903
1059.696 .0245982
1060.275 .0246060
1060.854 .0246136
1061.433 .0246209
1062.012 .0246277
1062.592 .0246340
1063.171 .0246398
1063.750 .0246453
1064.329 .0246503
1064.908 .0246548
1065.487 .0246590
1066.066 .0246628
1066.645 .0246662
1067.224 .0246692
1067.803 .0246720
1068.382 .0246744
1068.961 .0246766
1069.540 .0246785
1070.119 .0246800
1070.698 .0246813
1071.278 .0246822
1071.857 .0246828
1072.436 .0246831
1073.016 .0246829
1073.595 .0246824
1074.175 .0246816
1074.754 .0246804
1075.334 .0246789
1075.913 .0246770
1076.493 .0246746
1077.073 .0246717
1077.653 .0246683
1078.233 .0246643
1078.813 .0246599
1079.393 .0246551
1079.974 .0246500
1080.554 .0246448
1081.135 .0246395
1081.716 .0246343
1082.296 .0246291
1082.877 .0246239
1083.458 .0246186
1084.040 .0246131
1084.621 .0246075
1085.202 .0246019
1085.784 .0245964
1086.366 .0245912
1086.948 .0245864
1087.530 .0245819
1088.112 .0245778
1088.695 .0245738
1089.277 .0245700
1089.860 .0245659
1090.443 .0245617
1091.026 .0245570
1091.610 .0245521
1092.193 .0245467
1092.777 .0245413
1093.361 .0245357
1093.946 .0245301
1094.530 .0245245
1095.115 .0245188
1095.700 .0245128
1096.285 .0245065
1096.871 .0244997
1097.456 .0244924
1098.042 .0244846
1098.628 .0244763
1099.215 .0244676
1099.802 .0244586
1100.389 .0244496
1100.976 .0244406
1101.564 .0244318
1102.152 .0244230
1102.740 .0244143
1103.329 .0244056
1103.917 .0243969
1104.507 .0243884
1105.096 .0243800
1105.686 .0243720
1106.276 .0243642
1106.867 .0243571
1107.457 .0243507
1108.049 .0243452
1108.640 .0243406
1109.232 .0243371
1109.825 .0243347
1110.417 .0243336
1111.010 .0243336
1111.604 .0243351
1112.198 .0243380
1112.792 .0243424
1113.387 .0243481
1113.982 .0243551
1114.577 .0243633
1115.173 .0243726
1115.769 .0243828
1116.366 .0243939
1116.963 .0244056
1117.561 .0244180
1118.159 .0244308
1118.758 .0244440
1119.357 .0244575
1119.957 .0244712
1120.557 .0244852
1121.157 .0244993
1121.758 .0245135
1122.360 .0245277
1122.962 .0245419
1123.564 .0245562
1124.167 .0245656
1124.771 .0245798
1125.375 .0245937
1125.980 .0246077
1126.585 .0246216
1127.191 .0246359
1127.797 .0246507
1128.404 .0246662
1129.012 .0246827
1129.620 .0247002
1130.229 .0247189
1130.838 .0247387
1131.448 .0247597
1132.058 .0247821
1132.669 .0248123
1133.281 .0248384
1133.894 .0248663
1134.507 .0248971
1135.120 .0249329
1135.735 .0249624
1136.350 .0250039
1136.965 .0249715
1137.582 .0250300
1138.199 .0250887
1138.816 .0251396
1139.435 .0251911
1140.054 .0252415
1140.674 .0252855
1141.294 .0253384
1141.916 .0253875
1142.538 .0254660
1143.160 .0256004
1143.784 .0254339
1144.408 .0257603
1145.033 .0255725
