Measurement Sequence started on: 14-45-04-498
Integration time: 36
Scans to Average: 2 
>>>>>Begin Spectral Data<<<<<
433.946 .0596069
434.870 .0643636
435.793 .0601756
436.715 .0591245
437.635 .0567072
438.555 .0568373
439.473 .0559916
440.389 .0551285
441.305 .0545067
442.219 .0539901
443.132 .0548573
444.044 .0541888
444.954 .0537321
445.863 .0533208
446.771 .0530265
447.678 .0527149
448.584 .0524368
449.488 .0521932
450.391 .0519718
451.293 .0517672
452.194 .0515741
453.094 .0513893
453.992 .0512094
454.890 .0510331
455.786 .0508580
456.681 .0506830
457.575 .0505070
458.468 .0503300
459.360 .0501530
460.250 .0499776
461.140 .0498052
462.028 .0496372
462.915 .0494754
463.801 .0493209
464.687 .0491740
465.571 .0490353
466.454 .0489047
467.335 .0487813
468.216 .0486651
469.096 .0485551
469.975 .0484510
470.853 .0483526
471.729 .0482595
472.605 .0481714
473.479 .0480882
474.353 .0480093
475.226 .0479337
476.097 .0478609
476.968 .0477896
477.838 .0477188
478.706 .0476476
479.574 .0475753
480.441 .0475013
481.306 .0474255
482.171 .0473481
483.035 .0472693
483.898 .0471897
484.760 .0471099
485.621 .0470304
486.481 .0469518
487.340 .0468740
488.198 .0467972
489.055 .0467214
489.912 .0466465
490.767 .0465723
491.622 .0464654
492.476 .0463927
493.329 .0463209
494.180 .0462500
495.032 .0461803
495.882 .0461117
496.731 .0460440
497.580 .0459769
498.427 .0459097
499.274 .0458418
500.120 .0458047
500.965 .0457338
501.809 .0456611
502.653 .0455865
503.495 .0455105
504.337 .0454333
505.178 .0453555
506.018 .0452776
506.858 .0451998
507.696 .0451227
508.534 .0450466
509.371 .0449722
510.208 .0448996
511.043 .0448296
511.878 .0447624
512.712 .0446986
513.545 .0446389
514.377 .0445834
515.209 .0445327
516.040 .0444867
516.870 .0444452
517.699 .0444076
518.528 .0443734
519.356 .0443419
520.183 .0443124
521.010 .0442840
521.836 .0442557
522.661 .0442267
523.485 .0441962
524.309 .0441636
525.132 .0441283
525.954 .0440900
526.776 .0440485
527.597 .0440034
528.417 .0439546
529.237 .0439020
530.056 .0438453
530.874 .0437848
531.692 .0437205
532.508 .0436526
533.325 .0435818
534.140 .0435090
534.955 .0434351
535.770 .0433611
536.583 .0432876
537.397 .0432151
538.209 .0431440
539.021 .0430748
539.832 .0430074
540.643 .0429418
541.453 .0428786
542.262 .0428177
543.071 .0427590
543.879 .0427023
544.687 .0426475
545.494 .0425940
546.300 .0425413
547.106 .0424886
547.911 .0424354
548.716 .0423816
549.520 .0423267
550.323 .0422703
551.126 .0422121
551.929 .0421520
552.731 .0420901
553.532 .0420263
554.332 .0419614
555.133 .0418953
555.932 .0418289
556.731 .0417628
557.530 .0416975
558.328 .0416335
559.125 .0415707
559.922 .0415095
560.719 .0414496
561.515 .0413907
562.310 .0413325
563.105 .0412747
563.899 .0412174
564.693 .0411605
565.487 .0411037
566.280 .0410476
567.072 .0409923
567.864 .0409380
568.655 .0408847
569.446 .0408324
570.236 .0407807
571.026 .0407293
571.816 .0406777
572.605 .0406257
573.393 .0405725
574.181 .0405184
574.969 .0404633
575.756 .0404076
576.543 .0403515
577.329 .0402957
578.115 .0402404
578.900 .0401864
579.685 .0401338
580.469 .0400827
581.253 .0400331
582.036 .0399850
582.820 .0399382
583.602 .0398925
584.384 .0398479
585.166 .0398045
585.947 .0397621
586.728 .0397210
587.509 .0396813
588.289 .0396431
589.069 .0396062
589.848 .0395707
590.627 .0395360
591.405 .0395020
592.183 .0394683
592.961 .0394347
593.738 .0394008
594.515 .0393668
595.291 .0393327
596.067 .0392986
596.843 .0392648
597.618 .0392315
598.393 .0391837
599.167 .0391522
599.941 .0391215
600.715 .0390914
601.488 .0390618
602.261 .0390326
603.034 .0390038
603.806 .0389753
604.578 .0389473
605.349 .0389198
606.121 .0388927
606.891 .0388806
607.662 .0388543
608.432 .0388284
609.201 .0388030
609.971 .0387781
610.740 .0387536
611.508 .0387294
612.277 .0387055
613.045 .0386819
613.812 .0386584
614.579 .0386351
615.346 .0386118
616.113 .0385884
616.879 .0385648
617.645 .0385410
618.411 .0385170
619.176 .0384928
619.941 .0384683
620.705 .0384437
621.470 .0384188
622.233 .0383935
622.997 .0383679
623.760 .0383420
624.523 .0383158
625.286 .0382893
626.048 .0382626
626.810 .0382359
627.572 .0382090
628.333 .0381822
629.095 .0381555
629.855 .0381288
630.616 .0381023
631.376 .0380759
632.136 .0380497
632.895 .0380236
633.655 .0379979
634.414 .0379724
635.172 .0379472
635.931 .0379224
636.689 .0378978
637.447 .0378735
638.204 .0378493
638.962 .0378253
639.718 .0378014
640.475 .0377776
641.231 .0377539
641.988 .0377303
642.743 .0377068
643.499 .0376834
644.254 .0376600
645.009 .0376367
645.764 .0376134
646.518 .0375901
647.272 .0375668
648.026 .0375434
648.780 .0375200
649.533 .0374965
650.286 .0374729
651.039 .0374493
651.792 .0374255
652.544 .0374018
653.296 .0373781
654.048 .0373545
654.799 .0373312
655.550 .0373081
656.301 .0372854
657.052 .0372630
657.802 .0372408
658.552 .0372189
659.302 .0371970
660.052 .0371750
660.801 .0371530
661.550 .0371308
662.299 .0371085
663.048 .0370860
663.796 .0370633
664.544 .0370405
665.292 .0370176
666.040 .0369946
666.787 .0369714
667.534 .0369481
668.281 .0369247
669.028 .0369011
669.774 .0368774
670.521 .0368537
671.266 .0368300
672.012 .0368065
672.758 .0367833
673.503 .0367604
674.248 .0367380
674.992 .0367162
675.737 .0366950
676.481 .0366744
677.225 .0366544
677.969 .0366350
678.712 .0366163
679.455 .0365981
680.199 .0365804
680.941 .0365632
681.684 .0365463
682.426 .0365299
683.168 .0365137
683.910 .0364978
684.652 .0364821
685.393 .0364664
686.134 .0364507
686.875 .0364350
687.616 .0364191
688.356 .0364030
689.097 .0363865
689.837 .0363697
690.576 .0363524
691.316 .0363347
692.055 .0363166
692.794 .0362981
693.533 .0362792
694.272 .0362601
695.010 .0362408
695.748 .0362214
696.486 .0362019
697.224 .0361823
697.962 .0361628
698.699 .0361432
699.436 .0361237
700.173 .0361042
700.909 .0360848
701.646 .0360656
702.382 .0360465
703.118 .0360276
703.853 .0360087
704.589 .0359900
705.324 .0359712
706.059 .0359524
706.794 .0359335
707.529 .0359144
708.263 .0358951
708.997 .0358757
709.731 .0358560
710.465 .0358361
711.198 .0358160
711.931 .0357957
712.664 .0357751
713.397 .0357542
714.130 .0357331
714.862 .0357118
715.594 .0356902
716.326 .0356685
717.058 .0356466
717.789 .0356246
718.520 .0356025
719.251 .0355804
719.982 .0355582
720.713 .0355361
721.443 .0355139
722.173 .0354919
722.903 .0354700
723.633 .0354484
724.362 .0354270
725.091 .0354061
725.820 .0353856
726.549 .0353656
727.278 .0353462
728.006 .0353274
728.734 .0353094
729.462 .0352921
730.190 .0352755
730.917 .0352597
731.644 .0352448
732.371 .0352307
733.098 .0352174
733.825 .0352049
734.551 .0351932
735.277 .0351823
736.003 .0351720
736.728 .0351624
737.454 .0351533
738.179 .0351448
738.904 .0351366
739.629 .0351288
740.353 .0351212
741.077 .0351137
741.801 .0351062
742.525 .0350986
743.249 .0350908
743.972 .0350826
744.695 .0350741
745.418 .0350649
746.141 .0350552
746.863 .0350449
747.585 .0350339
748.307 .0350221
749.029 .0350096
749.750 .0349962
750.472 .0349821
751.193 .0349672
751.913 .0349516
752.634 .0349354
753.354 .0349186
754.074 .0349014
754.794 .0348838
755.514 .0348659
756.233 .0348478
756.952 .0348295
757.671 .0348110
758.390 .0347923
759.108 .0347734
759.826 .0347544
760.544 .0347353
761.262 .0347162
761.979 .0346971
762.697 .0346780
763.414 .0346591
764.130 .0346402
764.847 .0346214
765.563 .0346027
766.279 .0345841
766.995 .0345655
767.710 .0345470
768.426 .0345285
769.141 .0345101
769.855 .0344918
770.570 .0344736
771.284 .0344555
771.998 .0344376
772.712 .0344197
773.426 .0344021
774.139 .0343846
774.852 .0343673
775.565 .0343502
776.277 .0343334
776.990 .0343167
777.702 .0343004
778.414 .0342842
779.125 .0342685
779.836 .0342530
780.547 .0342379
781.258 .0342233
781.969 .0342090
782.679 .0341952
783.389 .0341762
784.099 .0341635
784.808 .0341512
785.517 .0341392
786.226 .0341276
786.935 .0341162
787.643 .0341052
788.352 .0340945
789.060 .0340841
789.767 .0340738
790.475 .0340638
791.182 .0340539
791.889 .0340492
792.595 .0340392
793.301 .0340292
794.008 .0340192
794.713 .0340090
795.419 .0339987
796.124 .0339881
796.829 .0339773
797.534 .0339662
798.238 .0339549
798.942 .0339433
799.646 .0339316
800.350 .0339198
801.053 .0339079
801.756 .0338960
802.459 .0338841
803.162 .0338722
803.864 .0338603
804.566 .0338485
805.267 .0338368
805.969 .0338252
806.670 .0338138
807.371 .0338027
808.071 .0337918
808.772 .0337811
809.472 .0337708
810.171 .0337606
810.871 .0337507
811.570 .0337410
812.269 .0337315
812.967 .0337222
813.666 .0337129
814.364 .0337037
815.061 .0336944
815.759 .0336850
816.456 .0336754
817.153 .0336655
817.849 .0336553
818.545 .0336446
819.241 .0336336
819.937 .0336221
820.632 .0336101
821.327 .0335976
822.022 .0335845
822.717 .0335707
823.411 .0335561
824.105 .0335406
824.798 .0335243
825.491 .0335070
826.184 .0334889
826.877 .0334701
827.569 .0334505
828.261 .0334304
828.953 .0334098
829.645 .0333889
830.336 .0333676
831.027 .0333460
831.717 .0333242
832.407 .0333023
833.097 .0332802
833.787 .0332581
834.476 .0332361
835.165 .0332142
835.854 .0331924
836.542 .0331709
837.230 .0331497
837.918 .0331287
838.605 .0331081
839.292 .0330878
839.979 .0330679
840.665 .0330484
841.352 .0330294
842.037 .0330109
842.723 .0329928
843.408 .0329753
844.093 .0329582
844.777 .0329416
845.462 .0329253
846.145 .0329093
846.829 .0328934
847.512 .0328777
848.195 .0328621
848.878 .0328465
849.560 .0328309
850.242 .0328152
850.923 .0327995
851.605 .0327835
852.286 .0327674
852.966 .0327510
853.646 .0327345
854.326 .0327177
855.006 .0327007
855.685 .0326835
856.364 .0326662
857.043 .0326489
857.721 .0326317
858.399 .0326146
859.077 .0325977
859.754 .0325813
860.431 .0325653
861.107 .0325497
861.784 .0325347
862.459 .0325204
863.135 .0325066
863.810 .0324935
864.485 .0324810
865.160 .0324694
865.834 .0324585
866.508 .0324486
867.181 .0324395
867.854 .0324314
868.527 .0324241
869.199 .0324176
869.872 .0324117
870.543 .0324065
871.215 .0324017
871.886 .0323972
872.557 .0323930
873.227 .0323889
873.897 .0323850
874.567 .0323812
875.236 .0323773
875.905 .0323733
876.573 .0323689
877.242 .0323641
877.909 .0323587
878.577 .0323527
879.244 .0323459
879.911 .0323385
880.577 .0323303
881.243 .0323215
881.909 .0323120
882.575 .0323019
883.240 .0322913
883.904 .0322800
884.569 .0322682
885.232 .0322558
885.896 .0322429
886.559 .0322298
887.222 .0322163
887.885 .0322028
888.547 .0321893
889.208 .0321759
889.870 .0321626
890.531 .0321496
891.192 .0321368
891.852 .0321242
892.512 .0321118
893.171 .0320996
893.830 .0320876
894.489 .0320758
895.148 .0320641
895.806 .0320525
896.464 .0320409
897.121 .0320293
897.778 .0320176
898.434 .0320058
899.091 .0319869
899.747 .0319743
900.402 .0319614
901.057 .0319483
901.712 .0319349
902.366 .0319213
903.020 .0319073
903.674 .0318931
904.327 .0318785
904.980 .0318635
905.633 .0318482
906.285 .0318325
906.936 .0318164
907.588 .0318075
908.239 .0317913
908.889 .0317748
909.540 .0317581
910.190 .0317412
910.839 .0317241
911.488 .0317069
912.137 .0316894
912.785 .0316719
913.433 .0316543
914.081 .0316367
914.728 .0316192
915.375 .0316018
916.021 .0315846
916.668 .0315675
917.313 .0315506
917.959 .0315338
918.604 .0315171
919.248 .0315004
919.892 .0314837
920.536 .0314670
921.180 .0314501
921.823 .0314330
922.465 .0314156
923.108 .0313979
923.750 .0313799
924.391 .0313615
925.032 .0313425
925.673 .0313231
926.313 .0313030
926.953 .0312824
927.593 .0312611
928.232 .0312394
928.871 .0312172
929.510 .0311947
930.148 .0311720
930.786 .0311491
931.423 .0311260
932.060 .0311028
932.697 .0310796
933.333 .0310563
933.969 .0310330
934.604 .0310097
935.239 .0309865
935.874 .0309634
936.508 .0309406
937.142 .0309182
937.776 .0308961
938.409 .0308745
939.042 .0308535
939.674 .0308329
940.306 .0308129
940.938 .0307934
941.569 .0307744
942.200 .0307559
942.830 .0307379
943.460 .0307206
944.090 .0307039
944.720 .0306879
945.349 .0306726
945.977 .0306580
946.606 .0306440
947.233 .0306306
947.861 .0306178
948.488 .0306056
949.115 .0305939
949.741 .0305828
950.367 .0305722
950.993 .0305622
951.618 .0305526
952.243 .0305435
952.868 .0305348
953.492 .0305264
954.115 .0305182
954.739 .0305104
955.362 .0305029
955.984 .0304956
956.607 .0304887
957.229 .0304821
957.850 .0304758
958.471 .0304699
959.092 .0304643
959.713 .0304590
960.333 .0304540
960.952 .0304491
961.572 .0304445
962.191 .0304400
962.809 .0304356
963.428 .0304314
964.045 .0304273
964.663 .0304233
965.280 .0304193
965.897 .0304153
966.513 .0304111
967.129 .0304068
967.745 .0304024
968.361 .0303977
968.976 .0303929
969.590 .0303878
970.205 .0303826
970.818 .0303772
971.432 .0303714
972.045 .0303653
972.658 .0303588
973.271 .0303519
973.883 .0303444
974.495 .0303364
975.106 .0303279
975.717 .0303190
976.328 .0303096
976.938 .0302999
977.548 .0302898
978.158 .0302794
978.768 .0302622
979.377 .0302511
979.985 .0302398
980.594 .0302284
981.202 .0302170
981.809 .0302055
982.417 .0301942
983.024 .0301832
983.631 .0301724
984.237 .0301619
984.843 .0301517
985.449 .0301419
986.054 .0301322
986.659 .0301228
987.264 .0301197
987.868 .0301106
988.472 .0301017
989.076 .0300928
989.679 .0300840
990.282 .0300754
990.885 .0300667
991.487 .0300582
992.090 .0300497
992.691 .0300412
993.293 .0300328
993.894 .0300244
994.495 .0300161
995.095 .0300078
995.696 .0299995
996.296 .0299912
996.895 .0299828
997.494 .0299742
998.093 .0299654
998.692 .0299563
999.291 .0299468
999.889 .0299368
1000.487 .0299264
1001.084 .0299154
1001.681 .0299038
1002.278 .0298918
1002.875 .0298792
1003.471 .0298661
1004.067 .0298526
1004.663 .0298385
1005.258 .0298241
1005.854 .0298093
1006.449 .0297942
1007.043 .0297790
1007.638 .0297639
1008.232 .0297488
1008.826 .0297340
1009.419 .0297194
1010.012 .0297052
1010.605 .0296914
1011.198 .0296779
1011.791 .0296649
1012.383 .0296523
1012.975 .0296401
1013.566 .0296284
1014.158 .0296173
1014.749 .0296069
1015.340 .0295972
1015.931 .0295882
1016.521 .0295799
1017.111 .0295724
1017.701 .0295655
1018.291 .0295593
1018.880 .0295537
1019.470 .0295487
1020.059 .0295443
1020.647 .0295406
1021.236 .0295375
1021.824 .0295351
1022.412 .0295332
1023.000 .0295319
1023.588 .0295311
1024.175 .0295306
1024.762 .0295304
1025.349 .0295304
1025.936 .0295307
1026.523 .0295311
1027.109 .0295317
1027.695 .0295324
1028.281 .0295333
1028.867 .0295343
1029.452 .0295353
1030.038 .0295363
1030.623 .0295373
1031.208 .0295382
1031.792 .0295390
1032.377 .0295397
1032.961 .0295402
1033.546 .0295407
1034.130 .0295410
1034.714 .0295411
1035.297 .0295411
1035.881 .0295408
1036.464 .0295404
1037.047 .0295398
1037.630 .0295390
1038.213 .0295382
1038.796 .0295373
1039.378 .0295365
1039.961 .0295359
1040.543 .0295355
1041.125 .0295352
1041.707 .0295352
1042.289 .0295354
1042.871 .0295358
1043.452 .0295363
1044.034 .0295370
1044.615 .0295378
1045.196 .0295388
1045.777 .0295398
1046.358 .0295410
1046.939 .0295422
1047.520 .0295432
1048.101 .0295442
1048.681 .0295449
1049.262 .0295454
1049.842 .0295456
1050.422 .0295456
1051.002 .0295454
1051.582 .0295450
1052.162 .0295446
1052.742 .0295441
1053.322 .0295434
1053.902 .0295428
1054.482 .0295420
1055.061 .0295413
1055.641 .0295407
1056.220 .0295403
1056.800 .0295401
1057.379 .0295403
1057.958 .0295408
1058.538 .0295415
1059.117 .0295424
1059.696 .0295432
1060.275 .0295438
1060.854 .0295441
1061.433 .0295441
1062.012 .0295439
1062.592 .0295434
1063.171 .0295429
1063.750 .0295422
1064.329 .0295415
1064.908 .0295407
1065.487 .0295396
1066.066 .0295383
1066.645 .0295365
1067.224 .0295345
1067.803 .0295322
1068.382 .0295297
1068.961 .0295273
1069.540 .0295251
1070.119 .0295233
1070.698 .0295220
1071.278 .0295211
1071.857 .0295206
1072.436 .0295204
1073.016 .0295203
1073.595 .0295202
1074.175 .0295201
1074.754 .0295201
1075.334 .0295200
1075.913 .0295200
1076.493 .0295200
1077.073 .0295200
1077.653 .0295199
1078.233 .0295196
1078.813 .0295190
1079.393 .0295180
1079.974 .0295165
1080.554 .0295145
1081.135 .0295121
1081.716 .0295094
1082.296 .0295064
1082.877 .0295032
1083.458 .0295000
1084.040 .0294967
1084.621 .0294935
1085.202 .0294903
1085.784 .0294870
1086.366 .0294838
1086.948 .0294805
1087.530 .0294773
1088.112 .0294742
1088.695 .0294711
1089.277 .0294680
1089.860 .0294648
1090.443 .0294617
1091.026 .0294585
1091.610 .0294554
1092.193 .0294525
1092.777 .0294497
1093.361 .0294472
1093.946 .0294449
1094.530 .0294430
1095.115 .0294414
1095.700 .0294400
1096.285 .0294388
1096.871 .0294377
1097.456 .0294367
1098.042 .0294357
1098.628 .0294349
1099.215 .0294343
1099.802 .0294339
1100.389 .0294338
1100.976 .0294338
1101.564 .0294339
1102.152 .0294340
1102.740 .0294340
1103.329 .0294339
1103.917 .0294336
1104.507 .0294330
1105.096 .0294321
1105.686 .0294310
1106.276 .0294296
1106.867 .0294281
1107.457 .0294264
1108.049 .0294246
1108.640 .0294228
1109.232 .0294211
1109.825 .0294197
1110.417 .0294187
1111.010 .0294183
1111.604 .0294188
1112.198 .0294201
1112.792 .0294223
1113.387 .0294253
1113.982 .0294293
1114.577 .0294341
1115.173 .0294397
1115.769 .0294462
1116.366 .0294538
1116.963 .0294627
1117.561 .0294732
1118.159 .0294854
1118.758 .0294993
1119.357 .0295147
1119.957 .0295313
1120.557 .0295487
1121.157 .0295667
1121.758 .0295853
1122.360 .0296044
1122.962 .0296243
1123.564 .0296453
1124.167 .0296548
1124.771 .0296777
1125.375 .0297024
1125.980 .0297289
1126.585 .0297572
1127.191 .0297869
1127.797 .0298176
1128.404 .0298491
1129.012 .0298809
1129.620 .0299132
1130.229 .0299459
1130.838 .0299791
1131.448 .0300130
1132.058 .0300476
1132.669 .0300998
1133.281 .0301357
1133.894 .0301717
1134.507 .0302064
1135.120 .0302381
1135.735 .0302697
1136.350 .0302951
1136.965 .0304086
1137.582 .0304452
1138.199 .0304770
1138.816 .0305090
1139.435 .0305407
1140.054 .0305687
1140.674 .0305941
1141.294 .0306101
1141.916 .0306373
1142.538 .0306371
1143.160 .0305986
1143.784 .0306302
1144.408 .0305010
1145.033 .0311088
