Measurement Sequence started on: 14-45-04-498
Integration time: 36
Scans to Average: 2 
>>>>>Begin Spectral Data<<<<<
433.946 .0347660
434.870 .0448576
435.793 .0470742
436.715 .0492341
437.635 .0466269
438.555 .0462864
439.473 .0465937
440.389 .0464862
441.305 .0463160
442.219 .0461227
443.132 .0462645
444.044 .0463226
444.954 .0462623
445.863 .0460865
446.771 .0460458
447.678 .0460217
448.584 .0459807
449.488 .0459455
450.391 .0459191
451.293 .0459023
452.194 .0458899
453.094 .0458793
453.992 .0458676
454.890 .0458536
455.786 .0458347
456.681 .0458106
457.575 .0457802
458.468 .0457446
459.360 .0457051
460.250 .0456625
461.140 .0456181
462.028 .0455721
462.915 .0455247
463.801 .0454753
464.687 .0454227
465.571 .0453658
466.454 .0453042
467.335 .0452381
468.216 .0451683
469.096 .0450954
469.975 .0450213
470.853 .0449468
471.729 .0448727
472.605 .0447992
473.479 .0447259
474.353 .0446523
475.226 .0445774
476.097 .0445009
476.968 .0444223
477.838 .0443414
478.706 .0442589
479.574 .0441750
480.441 .0440907
481.306 .0440065
482.171 .0439230
483.035 .0438403
483.898 .0437586
484.760 .0436780
485.621 .0435986
486.481 .0435207
487.340 .0434451
488.198 .0433722
489.055 .0433030
489.912 .0432382
490.767 .0431785
491.622 .0431103
492.476 .0430640
493.329 .0430221
494.180 .0429843
495.032 .0429494
495.882 .0429170
496.731 .0428862
497.580 .0428567
498.427 .0428279
499.274 .0427991
500.120 .0427812
500.965 .0427496
501.809 .0427168
502.653 .0426824
503.495 .0426458
504.337 .0426067
505.178 .0425652
506.018 .0425212
506.858 .0424751
507.696 .0424276
508.534 .0423795
509.371 .0423313
510.208 .0422837
511.043 .0422375
511.878 .0421929
512.712 .0421507
513.545 .0421117
514.377 .0420764
515.209 .0420449
516.040 .0420180
516.870 .0419957
517.699 .0419783
518.528 .0419655
519.356 .0419570
520.183 .0419523
521.010 .0419511
521.836 .0419527
522.661 .0419565
523.485 .0419626
524.309 .0419708
525.132 .0419800
525.954 .0419890
526.776 .0419968
527.597 .0420020
528.417 .0420034
529.237 .0420005
530.056 .0419925
530.874 .0419791
531.692 .0419603
532.508 .0419363
533.325 .0419074
534.140 .0418738
534.955 .0418362
535.770 .0417945
536.583 .0417493
537.397 .0417009
538.209 .0416498
539.021 .0415964
539.832 .0415414
540.643 .0414847
541.453 .0414261
542.262 .0413659
543.071 .0413049
543.879 .0412435
544.687 .0411823
545.494 .0411220
546.300 .0410631
547.106 .0410056
547.911 .0409494
548.716 .0408946
549.520 .0408408
550.323 .0407880
551.126 .0407360
551.929 .0406846
552.731 .0406339
553.532 .0405844
554.332 .0405361
555.133 .0404890
555.932 .0404434
556.731 .0403990
557.530 .0403556
558.328 .0403131
559.125 .0402715
559.922 .0402308
560.719 .0401909
561.515 .0401520
562.310 .0401137
563.105 .0400765
563.899 .0400400
564.693 .0400043
565.487 .0399690
566.280 .0399338
567.072 .0398983
567.864 .0398626
568.655 .0398267
569.446 .0397909
570.236 .0397549
571.026 .0397192
571.816 .0396836
572.605 .0396481
573.393 .0396122
574.181 .0395761
574.969 .0395394
575.756 .0395021
576.543 .0394641
577.329 .0394259
578.115 .0393876
578.900 .0393497
579.685 .0393124
580.469 .0392758
581.253 .0392402
582.036 .0392057
582.820 .0391724
583.602 .0391403
584.384 .0391093
585.166 .0390792
585.947 .0390498
586.728 .0390211
587.509 .0389929
588.289 .0389652
589.069 .0389378
589.848 .0389107
590.627 .0388836
591.405 .0388566
592.183 .0388295
592.961 .0388023
593.738 .0387748
594.515 .0387471
595.291 .0387193
596.067 .0386915
596.843 .0386639
597.618 .0386369
598.393 .0386002
599.167 .0385757
599.941 .0385522
600.715 .0385296
601.488 .0385080
602.261 .0384872
603.034 .0384671
603.806 .0384476
604.578 .0384288
605.349 .0384106
606.121 .0383930
606.891 .0383855
607.662 .0383690
608.432 .0383534
609.201 .0383386
609.971 .0383246
610.740 .0383112
611.508 .0382985
612.277 .0382863
613.045 .0382745
613.812 .0382629
614.579 .0382516
615.346 .0382404
616.113 .0382294
616.879 .0382184
617.645 .0382077
618.411 .0381971
619.176 .0381868
619.941 .0381768
620.705 .0381670
621.470 .0381572
622.233 .0381474
622.997 .0381374
623.760 .0381270
624.523 .0381160
625.286 .0381043
626.048 .0380920
626.810 .0380791
627.572 .0380657
628.333 .0380519
629.095 .0380378
629.855 .0380235
630.616 .0380088
631.376 .0379938
632.136 .0379782
632.895 .0379620
633.655 .0379449
634.414 .0379271
635.172 .0379085
635.931 .0378891
636.689 .0378691
637.447 .0378486
638.204 .0378277
638.962 .0378065
639.718 .0377851
640.475 .0377634
641.231 .0377415
641.988 .0377194
642.743 .0376970
643.499 .0376743
644.254 .0376511
645.009 .0376274
645.764 .0376034
646.518 .0375790
647.272 .0375543
648.026 .0375297
648.780 .0375051
649.533 .0374808
650.286 .0374570
651.039 .0374337
651.792 .0374110
652.544 .0373887
653.296 .0373669
654.048 .0373453
654.799 .0373241
655.550 .0373031
656.301 .0372826
657.052 .0372627
657.802 .0372434
658.552 .0372249
659.302 .0372074
660.052 .0371907
660.801 .0371751
661.550 .0371603
662.299 .0371462
663.048 .0371326
663.796 .0371196
664.544 .0371068
665.292 .0370943
666.040 .0370820
666.787 .0370699
667.534 .0370579
668.281 .0370460
669.028 .0370342
669.774 .0370224
670.521 .0370105
671.266 .0369986
672.012 .0369864
672.758 .0369738
673.503 .0369608
674.248 .0369473
674.992 .0369332
675.737 .0369186
676.481 .0369036
677.225 .0368881
677.969 .0368724
678.712 .0368564
679.455 .0368403
680.199 .0368241
680.941 .0368080
681.684 .0367919
682.426 .0367758
683.168 .0367597
683.910 .0367436
684.652 .0367275
685.393 .0367113
686.134 .0366952
686.875 .0366790
687.616 .0366628
688.356 .0366467
689.097 .0366307
689.837 .0366148
690.576 .0365991
691.316 .0365835
692.055 .0365679
692.794 .0365524
693.533 .0365369
694.272 .0365212
695.010 .0365052
695.748 .0364889
696.486 .0364723
697.224 .0364553
697.962 .0364379
698.699 .0364201
699.436 .0364021
700.173 .0363838
700.909 .0363654
701.646 .0363468
702.382 .0363281
703.118 .0363095
703.853 .0362908
704.589 .0362723
705.324 .0362540
706.059 .0362359
706.794 .0362181
707.529 .0362005
708.263 .0361832
708.997 .0361663
709.731 .0361498
710.465 .0361337
711.198 .0361181
711.931 .0361029
712.664 .0360882
713.397 .0360741
714.130 .0360604
714.862 .0360472
715.594 .0360342
716.326 .0360215
717.058 .0360089
717.789 .0359963
718.520 .0359839
719.251 .0359715
719.982 .0359591
720.713 .0359469
721.443 .0359347
722.173 .0359226
722.903 .0359106
723.633 .0358986
724.362 .0358866
725.091 .0358745
725.820 .0358622
726.549 .0358499
727.278 .0358374
728.006 .0358247
728.734 .0358118
729.462 .0357987
730.190 .0357854
730.917 .0357720
731.644 .0357584
732.371 .0357448
733.098 .0357312
733.825 .0357176
734.551 .0357040
735.277 .0356904
736.003 .0356767
736.728 .0356630
737.454 .0356491
738.179 .0356351
738.904 .0356208
739.629 .0356063
740.353 .0355916
741.077 .0355766
741.801 .0355615
742.525 .0355461
743.249 .0355305
743.972 .0355148
744.695 .0354990
745.418 .0354831
746.141 .0354671
746.863 .0354508
747.585 .0354344
748.307 .0354177
749.029 .0354006
749.750 .0353833
750.472 .0353658
751.193 .0353482
751.913 .0353305
752.634 .0353130
753.354 .0352956
754.074 .0352785
754.794 .0352618
755.514 .0352454
756.233 .0352293
756.952 .0352135
757.671 .0351979
758.390 .0351826
759.108 .0351676
759.826 .0351529
760.544 .0351387
761.262 .0351248
761.979 .0351113
762.697 .0350982
763.414 .0350854
764.130 .0350730
764.847 .0350609
765.563 .0350491
766.279 .0350375
766.995 .0350262
767.710 .0350151
768.426 .0350042
769.141 .0349934
769.855 .0349828
770.570 .0349721
771.284 .0349616
771.998 .0349511
772.712 .0349408
773.426 .0349307
774.139 .0349208
774.852 .0349110
775.565 .0349012
776.277 .0348915
776.990 .0348819
777.702 .0348722
778.414 .0348625
779.125 .0348528
779.836 .0348432
780.547 .0348337
781.258 .0348244
781.969 .0348153
782.679 .0348063
783.389 .0347934
784.099 .0347851
784.808 .0347769
785.517 .0347690
786.226 .0347612
786.935 .0347536
787.643 .0347460
788.352 .0347385
789.060 .0347309
789.767 .0347234
790.475 .0347158
791.182 .0347082
791.889 .0347045
792.595 .0346966
793.301 .0346886
794.008 .0346804
794.713 .0346720
795.419 .0346634
796.124 .0346545
796.829 .0346454
797.534 .0346360
798.238 .0346263
798.942 .0346164
799.646 .0346062
800.350 .0345958
801.053 .0345851
801.756 .0345741
802.459 .0345628
803.162 .0345513
803.864 .0345395
804.566 .0345276
805.267 .0345155
805.969 .0345032
806.670 .0344908
807.371 .0344782
808.071 .0344653
808.772 .0344521
809.472 .0344387
810.171 .0344249
810.871 .0344109
811.570 .0343965
812.269 .0343820
812.967 .0343672
813.666 .0343522
814.364 .0343370
815.061 .0343214
815.759 .0343054
816.456 .0342889
817.153 .0342719
817.849 .0342543
818.545 .0342362
819.241 .0342175
819.937 .0341982
820.632 .0341784
821.327 .0341580
822.022 .0341370
822.717 .0341154
823.411 .0340932
824.105 .0340704
824.798 .0340472
825.491 .0340236
826.184 .0339998
826.877 .0339758
827.569 .0339517
828.261 .0339276
828.953 .0339037
829.645 .0338799
830.336 .0338562
831.027 .0338329
831.717 .0338099
832.407 .0337876
833.097 .0337659
833.787 .0337450
834.476 .0337251
835.165 .0337062
835.854 .0336883
836.542 .0336712
837.230 .0336550
837.918 .0336394
838.605 .0336246
839.292 .0336103
839.979 .0335967
840.665 .0335838
841.352 .0335716
842.037 .0335601
842.723 .0335493
843.408 .0335392
844.093 .0335297
844.777 .0335206
845.462 .0335119
846.145 .0335035
846.829 .0334954
847.512 .0334875
848.195 .0334798
848.878 .0334722
849.560 .0334647
850.242 .0334572
850.923 .0334495
851.605 .0334417
852.286 .0334335
852.966 .0334250
853.646 .0334162
854.326 .0334071
855.006 .0333979
855.685 .0333885
856.364 .0333791
857.043 .0333696
857.721 .0333600
858.399 .0333503
859.077 .0333404
859.754 .0333302
860.431 .0333198
861.107 .0333093
861.784 .0332987
862.459 .0332881
863.135 .0332775
863.810 .0332670
864.485 .0332565
865.160 .0332460
865.834 .0332357
866.508 .0332253
867.181 .0332151
867.854 .0332048
868.527 .0331948
869.199 .0331849
869.872 .0331753
870.543 .0331658
871.215 .0331565
871.886 .0331473
872.557 .0331381
873.227 .0331289
873.897 .0331196
874.567 .0331102
875.236 .0331008
875.905 .0330913
876.573 .0330816
877.242 .0330718
877.909 .0330619
878.577 .0330517
879.244 .0330412
879.911 .0330302
880.577 .0330189
881.243 .0330071
881.909 .0329948
882.575 .0329822
883.240 .0329693
883.904 .0329560
884.569 .0329426
885.232 .0329290
885.896 .0329153
886.559 .0329014
887.222 .0328873
887.885 .0328731
888.547 .0328587
889.208 .0328441
889.870 .0328293
890.531 .0328143
891.192 .0327993
891.852 .0327841
892.512 .0327687
893.171 .0327532
893.830 .0327375
894.489 .0327217
895.148 .0327056
895.806 .0326893
896.464 .0326727
897.121 .0326559
897.778 .0326389
898.434 .0326216
899.091 .0325935
899.747 .0325753
900.402 .0325567
901.057 .0325377
901.712 .0325180
902.366 .0324978
903.020 .0324771
903.674 .0324558
904.327 .0324341
904.980 .0324119
905.633 .0323894
906.285 .0323666
906.936 .0323435
907.588 .0323314
908.239 .0323079
908.889 .0322842
909.540 .0322602
910.190 .0322359
910.839 .0322115
911.488 .0321869
912.137 .0321622
912.785 .0321376
913.433 .0321130
914.081 .0320885
914.728 .0320642
915.375 .0320399
916.021 .0320157
916.668 .0319916
917.313 .0319676
917.959 .0319436
918.604 .0319197
919.248 .0318960
919.892 .0318723
920.536 .0318489
921.180 .0318256
921.823 .0318025
922.465 .0317796
923.108 .0317570
923.750 .0317346
924.391 .0317125
925.032 .0316906
925.673 .0316690
926.313 .0316477
926.953 .0316268
927.593 .0316062
928.232 .0315859
928.871 .0315659
929.510 .0315463
930.148 .0315270
930.786 .0315079
931.423 .0314890
932.060 .0314702
932.697 .0314516
933.333 .0314332
933.969 .0314149
934.604 .0313969
935.239 .0313792
935.874 .0313617
936.508 .0313446
937.142 .0313279
937.776 .0313116
938.409 .0312956
939.042 .0312801
939.674 .0312651
940.306 .0312504
940.938 .0312362
941.569 .0312225
942.200 .0312092
942.830 .0311965
943.460 .0311842
944.090 .0311725
944.720 .0311613
945.349 .0311506
945.977 .0311403
946.606 .0311304
947.233 .0311209
947.861 .0311117
948.488 .0311027
949.115 .0310941
949.741 .0310857
950.367 .0310777
950.993 .0310701
951.618 .0310627
952.243 .0310557
952.868 .0310489
953.492 .0310423
954.115 .0310358
954.739 .0310294
955.362 .0310230
955.984 .0310166
956.607 .0310103
957.229 .0310041
957.850 .0309980
958.471 .0309921
959.092 .0309864
959.713 .0309809
960.333 .0309756
960.952 .0309702
961.572 .0309648
962.191 .0309593
962.809 .0309536
963.428 .0309479
964.045 .0309422
964.663 .0309366
965.280 .0309312
965.897 .0309260
966.513 .0309212
967.129 .0309165
967.745 .0309120
968.361 .0309077
968.976 .0309034
969.590 .0308992
970.205 .0308949
970.818 .0308906
971.432 .0308862
972.045 .0308818
972.658 .0308774
973.271 .0308729
973.883 .0308683
974.495 .0308634
975.106 .0308584
975.717 .0308530
976.328 .0308474
976.938 .0308416
977.548 .0308356
978.158 .0308293
978.768 .0308194
979.377 .0308128
979.985 .0308062
980.594 .0307995
981.202 .0307927
981.809 .0307860
982.417 .0307791
983.024 .0307722
983.631 .0307651
984.237 .0307578
984.843 .0307502
985.449 .0307423
986.054 .0307340
986.659 .0307252
987.264 .0307199
987.868 .0307104
988.472 .0307004
989.076 .0306900
989.679 .0306792
990.282 .0306680
990.885 .0306565
991.487 .0306446
992.090 .0306324
992.691 .0306199
993.293 .0306071
993.894 .0305939
994.495 .0305805
995.095 .0305670
995.696 .0305533
996.296 .0305396
996.895 .0305258
997.494 .0305119
998.093 .0304981
998.692 .0304841
999.291 .0304700
999.889 .0304557
1000.487 .0304412
1001.084 .0304265
1001.681 .0304116
1002.278 .0303966
1002.875 .0303817
1003.471 .0303668
1004.067 .0303521
1004.663 .0303375
1005.258 .0303231
1005.854 .0303087
1006.449 .0302944
1007.043 .0302802
1007.638 .0302659
1008.232 .0302516
1008.826 .0302373
1009.419 .0302230
1010.012 .0302086
1010.605 .0301943
1011.198 .0301799
1011.791 .0301654
1012.383 .0301508
1012.975 .0301362
1013.566 .0301216
1014.158 .0301070
1014.749 .0300925
1015.340 .0300783
1015.931 .0300642
1016.521 .0300505
1017.111 .0300371
1017.701 .0300240
1018.291 .0300112
1018.880 .0299987
1019.470 .0299864
1020.059 .0299742
1020.647 .0299623
1021.236 .0299506
1021.824 .0299391
1022.412 .0299279
1023.000 .0299170
1023.588 .0299063
1024.175 .0298960
1024.762 .0298860
1025.349 .0298762
1025.936 .0298667
1026.523 .0298573
1027.109 .0298481
1027.695 .0298391
1028.281 .0298303
1028.867 .0298218
1029.452 .0298135
1030.038 .0298056
1030.623 .0297978
1031.208 .0297902
1031.792 .0297827
1032.377 .0297752
1032.961 .0297677
1033.546 .0297602
1034.130 .0297526
1034.714 .0297451
1035.297 .0297376
1035.881 .0297301
1036.464 .0297229
1037.047 .0297158
1037.630 .0297090
1038.213 .0297023
1038.796 .0296960
1039.378 .0296900
1039.961 .0296844
1040.543 .0296791
1041.125 .0296743
1041.707 .0296698
1042.289 .0296657
1042.871 .0296619
1043.452 .0296583
1044.034 .0296549
1044.615 .0296516
1045.196 .0296484
1045.777 .0296452
1046.358 .0296420
1046.939 .0296388
1047.520 .0296356
1048.101 .0296324
1048.681 .0296292
1049.262 .0296258
1049.842 .0296224
1050.422 .0296190
1051.002 .0296155
1051.582 .0296121
1052.162 .0296090
1052.742 .0296061
1053.322 .0296038
1053.902 .0296020
1054.482 .0296009
1055.061 .0296005
1055.641 .0296007
1056.220 .0296014
1056.800 .0296027
1057.379 .0296045
1057.958 .0296066
1058.538 .0296091
1059.117 .0296120
1059.696 .0296151
1060.275 .0296188
1060.854 .0296229
1061.433 .0296275
1062.012 .0296326
1062.592 .0296382
1063.171 .0296439
1063.750 .0296498
1064.329 .0296556
1064.908 .0296613
1065.487 .0296667
1066.066 .0296718
1066.645 .0296764
1067.224 .0296806
1067.803 .0296843
1068.382 .0296877
1068.961 .0296905
1069.540 .0296928
1070.119 .0296947
1070.698 .0296961
1071.278 .0296969
1071.857 .0296974
1072.436 .0296975
1073.016 .0296973
1073.595 .0296971
1074.175 .0296968
1074.754 .0296966
1075.334 .0296966
1075.913 .0296969
1076.493 .0296975
1077.073 .0296984
1077.653 .0296996
1078.233 .0297011
1078.813 .0297028
1079.393 .0297048
1079.974 .0297070
1080.554 .0297094
1081.135 .0297119
1081.716 .0297147
1082.296 .0297175
1082.877 .0297205
1083.458 .0297236
1084.040 .0297268
1084.621 .0297301
1085.202 .0297335
1085.784 .0297370
1086.366 .0297406
1086.948 .0297441
1087.530 .0297477
1088.112 .0297512
1088.695 .0297548
1089.277 .0297583
1089.860 .0297617
1090.443 .0297650
1091.026 .0297681
1091.610 .0297712
1092.193 .0297742
1092.777 .0297771
1093.361 .0297799
1093.946 .0297824
1094.530 .0297846
1095.115 .0297864
1095.700 .0297879
1096.285 .0297893
1096.871 .0297904
1097.456 .0297918
1098.042 .0297935
1098.628 .0297958
1099.215 .0297988
1099.802 .0298028
1100.389 .0298076
1100.976 .0298131
1101.564 .0298191
1102.152 .0298255
1102.740 .0298321
1103.329 .0298389
1103.917 .0298460
1104.507 .0298532
1105.096 .0298606
1105.686 .0298683
1106.276 .0298763
1106.867 .0298844
1107.457 .0298924
1108.049 .0299001
1108.640 .0299073
1109.232 .0299140
1109.825 .0299201
1110.417 .0299259
1111.010 .0299318
1111.604 .0299381
1112.198 .0299449
1112.792 .0299523
1113.387 .0299605
1113.982 .0299694
1114.577 .0299790
1115.173 .0299890
1115.769 .0299994
1116.366 .0300104
1116.963 .0300220
1117.561 .0300346
1118.159 .0300485
1118.758 .0300641
1119.357 .0300813
1119.957 .0301002
1120.557 .0301206
1121.157 .0301421
1121.758 .0301647
1122.360 .0301883
1122.962 .0302127
1123.564 .0302381
1124.167 .0302472
1124.771 .0302744
1125.375 .0303033
1125.980 .0303342
1126.585 .0303670
1127.191 .0304017
1127.797 .0304382
1128.404 .0304761
1129.012 .0305149
1129.620 .0305546
1130.229 .0305952
1130.838 .0306364
1131.448 .0306782
1132.058 .0307209
1132.669 .0307856
1133.281 .0308308
1133.894 .0308765
1134.507 .0309220
1135.120 .0309745
1135.735 .0310219
1136.350 .0310688
1136.965 .0311120
1137.582 .0311582
1138.199 .0312068
1138.816 .0312499
1139.435 .0312934
1140.054 .0313399
1140.674 .0313881
1141.294 .0314395
1141.916 .0314865
1142.538 .0315186
1143.160 .0317527
1143.784 .0316672
1144.408 .0317011
1145.033 .0315777
