Measurement Sequence started on: 14-45-04-498
Integration time: 36
Scans to Average: 2 
>>>>>Begin Spectral Data<<<<<
433.946 .0524919
434.870 .0525679
435.793 .0493681
436.715 .0483190
437.635 .0475964
438.555 .0481557
439.473 .0476925
440.389 .0473276
441.305 .0471218
442.219 .0469787
443.132 .0475795
444.044 .0472760
444.954 .0471370
445.863 .0470491
446.771 .0469951
447.678 .0469075
448.584 .0468396
449.488 .0467859
450.391 .0467370
451.293 .0466893
452.194 .0466395
453.094 .0465856
453.992 .0465247
454.890 .0464561
455.786 .0463786
456.681 .0462925
457.575 .0461983
458.468 .0460976
459.360 .0459917
460.250 .0458820
461.140 .0457690
462.028 .0456538
462.915 .0455368
463.801 .0454183
464.687 .0452988
465.571 .0451790
466.454 .0450597
467.335 .0449415
468.216 .0448250
469.096 .0447104
469.975 .0445981
470.853 .0444883
471.729 .0443807
472.605 .0442755
473.479 .0441731
474.353 .0440734
475.226 .0439767
476.097 .0438836
476.968 .0437939
477.838 .0437083
478.706 .0436267
479.574 .0435492
480.441 .0434760
481.306 .0434072
482.171 .0433428
483.035 .0432828
483.898 .0432274
484.760 .0431768
485.621 .0431310
486.481 .0430903
487.340 .0430545
488.198 .0430238
489.055 .0429981
489.912 .0429770
490.767 .0429604
491.622 .0429482
492.476 .0429388
493.329 .0429311
494.180 .0429242
495.032 .0429172
495.882 .0429090
496.731 .0428991
497.580 .0428866
498.427 .0428707
499.274 .0428511
500.120 .0428308
500.965 .0428044
501.809 .0427738
502.653 .0427391
503.495 .0427004
504.337 .0426576
505.178 .0426107
506.018 .0425597
506.858 .0425045
507.696 .0424456
508.534 .0423833
509.371 .0423179
510.208 .0422500
511.043 .0421806
511.878 .0421107
512.712 .0420414
513.545 .0419736
514.377 .0419080
515.209 .0418448
516.040 .0417843
516.870 .0417261
517.699 .0416699
518.528 .0416149
519.356 .0415607
520.183 .0415064
521.010 .0414518
521.836 .0413967
522.661 .0413408
523.485 .0412846
524.309 .0412282
525.132 .0411716
525.954 .0411148
526.776 .0410577
527.597 .0410001
528.417 .0409413
529.237 .0408809
530.056 .0408188
530.874 .0407547
531.692 .0406886
532.508 .0406211
533.325 .0405527
534.140 .0404845
534.955 .0404173
535.770 .0403521
536.583 .0402895
537.397 .0402301
538.209 .0401745
539.021 .0401228
539.832 .0400752
540.643 .0400315
541.453 .0399913
542.262 .0399544
543.071 .0399203
543.879 .0398890
544.687 .0398603
545.494 .0398344
546.300 .0398109
547.106 .0397897
547.911 .0397703
548.716 .0397527
549.520 .0397364
550.323 .0397210
551.126 .0397061
551.929 .0396915
552.731 .0396769
553.532 .0396619
554.332 .0396466
555.133 .0396307
555.932 .0396141
556.731 .0395967
557.530 .0395781
558.328 .0395584
559.125 .0395377
559.922 .0395158
560.719 .0394929
561.515 .0394688
562.310 .0394434
563.105 .0394165
563.899 .0393880
564.693 .0393573
565.487 .0393244
566.280 .0392892
567.072 .0392517
567.864 .0392117
568.655 .0391697
569.446 .0391257
570.236 .0390801
571.026 .0390333
571.816 .0389852
572.605 .0389360
573.393 .0388858
574.181 .0388346
574.969 .0387826
575.756 .0387298
576.543 .0386766
577.329 .0386234
578.115 .0385704
578.900 .0385182
579.685 .0384671
580.469 .0384175
581.253 .0383697
582.036 .0383239
582.820 .0382800
583.602 .0382380
584.384 .0381980
585.166 .0381597
585.947 .0381230
586.728 .0380879
587.509 .0380542
588.289 .0380219
589.069 .0379908
589.848 .0379608
590.627 .0379318
591.405 .0379038
592.183 .0378766
592.961 .0378501
593.738 .0378242
594.515 .0377989
595.291 .0377741
596.067 .0377498
596.843 .0377259
597.618 .0377023
598.393 .0376676
599.167 .0376446
599.941 .0376218
600.715 .0375992
601.488 .0375768
602.261 .0375545
603.034 .0375323
603.806 .0375101
604.578 .0374878
605.349 .0374654
606.121 .0374428
606.891 .0374313
607.662 .0374082
608.432 .0373848
609.201 .0373612
609.971 .0373374
610.740 .0373133
611.508 .0372889
612.277 .0372641
613.045 .0372390
613.812 .0372135
614.579 .0371875
615.346 .0371611
616.113 .0371343
616.879 .0371072
617.645 .0370799
618.411 .0370524
619.176 .0370247
619.941 .0369969
620.705 .0369689
621.470 .0369409
622.233 .0369130
622.997 .0368852
623.760 .0368576
624.523 .0368303
625.286 .0368034
626.048 .0367770
626.810 .0367511
627.572 .0367256
628.333 .0367006
629.095 .0366760
629.855 .0366517
630.616 .0366278
631.376 .0366044
632.136 .0365813
632.895 .0365586
633.655 .0365362
634.414 .0365141
635.172 .0364922
635.931 .0364704
636.689 .0364486
637.447 .0364267
638.204 .0364048
638.962 .0363827
639.718 .0363604
640.475 .0363380
641.231 .0363156
641.988 .0362929
642.743 .0362702
643.499 .0362472
644.254 .0362241
645.009 .0362007
645.764 .0361772
646.518 .0361535
647.272 .0361297
648.026 .0361058
648.780 .0360820
649.533 .0360582
650.286 .0360346
651.039 .0360112
651.792 .0359880
652.544 .0359649
653.296 .0359421
654.048 .0359194
654.799 .0358969
655.550 .0358745
656.301 .0358522
657.052 .0358301
657.802 .0358081
658.552 .0357862
659.302 .0357645
660.052 .0357428
660.801 .0357214
661.550 .0357000
662.299 .0356787
663.048 .0356575
663.796 .0356362
664.544 .0356149
665.292 .0355936
666.040 .0355722
666.787 .0355506
667.534 .0355291
668.281 .0355074
669.028 .0354859
669.774 .0354644
670.521 .0354433
671.266 .0354224
672.012 .0354020
672.758 .0353820
673.503 .0353625
674.248 .0353435
674.992 .0353250
675.737 .0353069
676.481 .0352893
677.225 .0352721
677.969 .0352554
678.712 .0352392
679.455 .0352235
680.199 .0352083
680.941 .0351938
681.684 .0351797
682.426 .0351662
683.168 .0351531
683.910 .0351404
684.652 .0351279
685.393 .0351157
686.134 .0351034
686.875 .0350912
687.616 .0350788
688.356 .0350664
689.097 .0350538
689.837 .0350411
690.576 .0350282
691.316 .0350153
692.055 .0350023
692.794 .0349891
693.533 .0349759
694.272 .0349625
695.010 .0349490
695.748 .0349352
696.486 .0349212
697.224 .0349069
697.962 .0348923
698.699 .0348776
699.436 .0348627
700.173 .0348476
700.909 .0348324
701.646 .0348171
702.382 .0348017
703.118 .0347863
703.853 .0347707
704.589 .0347551
705.324 .0347393
706.059 .0347234
706.794 .0347073
707.529 .0346910
708.263 .0346746
708.997 .0346580
709.731 .0346413
710.465 .0346245
711.198 .0346075
711.931 .0345904
712.664 .0345733
713.397 .0345561
714.130 .0345388
714.862 .0345214
715.594 .0345038
716.326 .0344862
717.058 .0344684
717.789 .0344504
718.520 .0344323
719.251 .0344140
719.982 .0343957
720.713 .0343772
721.443 .0343585
722.173 .0343398
722.903 .0343210
723.633 .0343022
724.362 .0342833
725.091 .0342644
725.820 .0342456
726.549 .0342268
727.278 .0342080
728.006 .0341894
728.734 .0341709
729.462 .0341525
730.190 .0341345
730.917 .0341167
731.644 .0340994
732.371 .0340826
733.098 .0340663
733.825 .0340505
734.551 .0340352
735.277 .0340203
736.003 .0340060
736.728 .0339920
737.454 .0339785
738.179 .0339655
738.904 .0339530
739.629 .0339410
740.353 .0339294
741.077 .0339184
741.801 .0339077
742.525 .0338974
743.249 .0338874
743.972 .0338775
744.695 .0338676
745.418 .0338578
746.141 .0338479
746.863 .0338380
747.585 .0338280
748.307 .0338179
749.029 .0338077
749.750 .0337973
750.472 .0337867
751.193 .0337761
751.913 .0337654
752.634 .0337547
753.354 .0337440
754.074 .0337333
754.794 .0337228
755.514 .0337123
756.233 .0337018
756.952 .0336915
757.671 .0336812
758.390 .0336711
759.108 .0336611
759.826 .0336513
760.544 .0336417
761.262 .0336325
761.979 .0336235
762.697 .0336149
763.414 .0336065
764.130 .0335982
764.847 .0335902
765.563 .0335821
766.279 .0335741
766.995 .0335659
767.710 .0335576
768.426 .0335491
769.141 .0335403
769.855 .0335312
770.570 .0335219
771.284 .0335121
771.998 .0335019
772.712 .0334913
773.426 .0334802
774.139 .0334685
774.852 .0334564
775.565 .0334437
776.277 .0334305
776.990 .0334168
777.702 .0334026
778.414 .0333881
779.125 .0333732
779.836 .0333582
780.547 .0333429
781.258 .0333277
781.969 .0333125
782.679 .0332973
783.389 .0332757
784.099 .0332611
784.808 .0332468
785.517 .0332328
786.226 .0332190
786.935 .0332055
787.643 .0331922
788.352 .0331791
789.060 .0331663
789.767 .0331539
790.475 .0331416
791.182 .0331297
791.889 .0331244
792.595 .0331129
793.301 .0331016
794.008 .0330906
794.713 .0330798
795.419 .0330692
796.124 .0330585
796.829 .0330479
797.534 .0330373
798.238 .0330267
798.942 .0330161
799.646 .0330055
800.350 .0329950
801.053 .0329845
801.756 .0329741
802.459 .0329638
803.162 .0329535
803.864 .0329432
804.566 .0329330
805.267 .0329230
805.969 .0329130
806.670 .0329033
807.371 .0328939
808.071 .0328847
808.772 .0328760
809.472 .0328676
810.171 .0328595
810.871 .0328518
811.570 .0328443
812.269 .0328370
812.967 .0328299
813.666 .0328231
814.364 .0328163
815.061 .0328097
815.759 .0328032
816.456 .0327968
817.153 .0327904
817.849 .0327841
818.545 .0327777
819.241 .0327713
819.937 .0327647
820.632 .0327580
821.327 .0327511
822.022 .0327440
822.717 .0327364
823.411 .0327285
824.105 .0327202
824.798 .0327113
825.491 .0327019
826.184 .0326920
826.877 .0326815
827.569 .0326705
828.261 .0326590
828.953 .0326470
829.645 .0326345
830.336 .0326217
831.027 .0326085
831.717 .0325950
832.407 .0325813
833.097 .0325673
833.787 .0325532
834.476 .0325389
835.165 .0325244
835.854 .0325098
836.542 .0324951
837.230 .0324803
837.918 .0324654
838.605 .0324506
839.292 .0324359
839.979 .0324212
840.665 .0324066
841.352 .0323921
842.037 .0323775
842.723 .0323629
843.408 .0323482
844.093 .0323333
844.777 .0323182
845.462 .0323030
846.145 .0322875
846.829 .0322719
847.512 .0322562
848.195 .0322403
848.878 .0322243
849.560 .0322082
850.242 .0321920
850.923 .0321755
851.605 .0321589
852.286 .0321421
852.966 .0321251
853.646 .0321079
854.326 .0320905
855.006 .0320729
855.685 .0320551
856.364 .0320373
857.043 .0320194
857.721 .0320015
858.399 .0319837
859.077 .0319660
859.754 .0319484
860.431 .0319311
861.107 .0319141
861.784 .0318973
862.459 .0318808
863.135 .0318646
863.810 .0318486
864.485 .0318328
865.160 .0318172
865.834 .0318017
866.508 .0317864
867.181 .0317712
867.854 .0317562
868.527 .0317414
869.199 .0317268
869.872 .0317123
870.543 .0316980
871.215 .0316838
871.886 .0316698
872.557 .0316558
873.227 .0316419
873.897 .0316281
874.567 .0316143
875.236 .0316006
875.905 .0315870
876.573 .0315735
877.242 .0315602
877.909 .0315471
878.577 .0315341
879.244 .0315214
879.911 .0315090
880.577 .0314967
881.243 .0314848
881.909 .0314731
882.575 .0314616
883.240 .0314504
883.904 .0314393
884.569 .0314286
885.232 .0314180
885.896 .0314077
886.559 .0313978
887.222 .0313882
887.885 .0313790
888.547 .0313703
889.208 .0313619
889.870 .0313540
890.531 .0313465
891.192 .0313393
891.852 .0313323
892.512 .0313256
893.171 .0313192
893.830 .0313128
894.489 .0313066
895.148 .0313005
895.806 .0312945
896.464 .0312886
897.121 .0312826
897.778 .0312765
898.434 .0312704
899.091 .0312606
899.747 .0312539
900.402 .0312471
901.057 .0312401
901.712 .0312329
902.366 .0312255
903.020 .0312179
903.674 .0312100
904.327 .0312019
904.980 .0311935
905.633 .0311849
906.285 .0311761
906.936 .0311672
907.588 .0311620
908.239 .0311529
908.889 .0311436
909.540 .0311341
910.190 .0311244
910.839 .0311145
911.488 .0311043
912.137 .0310938
912.785 .0310831
913.433 .0310723
914.081 .0310613
914.728 .0310503
915.375 .0310392
916.021 .0310279
916.668 .0310166
917.313 .0310050
917.959 .0309933
918.604 .0309812
919.248 .0309690
919.892 .0309564
920.536 .0309435
921.180 .0309302
921.823 .0309165
922.465 .0309023
923.108 .0308874
923.750 .0308717
924.391 .0308552
925.032 .0308377
925.673 .0308193
926.313 .0307999
926.953 .0307796
927.593 .0307583
928.232 .0307361
928.871 .0307130
929.510 .0306889
930.148 .0306640
930.786 .0306381
931.423 .0306115
932.060 .0305840
932.697 .0305558
933.333 .0305269
933.969 .0304973
934.604 .0304670
935.239 .0304362
935.874 .0304046
936.508 .0303725
937.142 .0303397
937.776 .0303063
938.409 .0302724
939.042 .0302379
939.674 .0302030
940.306 .0301678
940.938 .0301322
941.569 .0300963
942.200 .0300602
942.830 .0300239
943.460 .0299874
944.090 .0299510
944.720 .0299145
945.349 .0298782
945.977 .0298421
946.606 .0298063
947.233 .0297709
947.861 .0297358
948.488 .0297011
949.115 .0296667
949.741 .0296329
950.367 .0295995
950.993 .0295666
951.618 .0295344
952.243 .0295027
952.868 .0294717
953.492 .0294414
954.115 .0294119
954.739 .0293833
955.362 .0293556
955.984 .0293288
956.607 .0293031
957.229 .0292785
957.850 .0292551
958.471 .0292329
959.092 .0292119
959.713 .0291921
960.333 .0291734
960.952 .0291558
961.572 .0291391
962.191 .0291234
962.809 .0291086
963.428 .0290946
964.045 .0290813
964.663 .0290688
965.280 .0290569
965.897 .0290455
966.513 .0290347
967.129 .0290243
967.745 .0290142
968.361 .0290045
968.976 .0289951
969.590 .0289860
970.205 .0289773
970.818 .0289689
971.432 .0289608
972.045 .0289530
972.658 .0289454
973.271 .0289380
973.883 .0289307
974.495 .0289235
975.106 .0289164
975.717 .0289094
976.328 .0289026
976.938 .0288960
977.548 .0288896
978.158 .0288835
978.768 .0288755
979.377 .0288701
979.985 .0288651
980.594 .0288603
981.202 .0288559
981.809 .0288520
982.417 .0288485
983.024 .0288455
983.631 .0288431
984.237 .0288412
984.843 .0288399
985.449 .0288391
986.054 .0288389
986.659 .0288391
987.264 .0288407
987.868 .0288415
988.472 .0288427
989.076 .0288443
989.679 .0288462
990.282 .0288484
990.885 .0288509
991.487 .0288536
992.090 .0288565
992.691 .0288596
993.293 .0288630
993.894 .0288666
994.495 .0288703
995.095 .0288743
995.696 .0288784
996.296 .0288827
996.895 .0288871
997.494 .0288917
998.093 .0288963
998.692 .0289011
999.291 .0289059
999.889 .0289109
1000.487 .0289160
1001.084 .0289212
1001.681 .0289264
1002.278 .0289318
1002.875 .0289373
1003.471 .0289428
1004.067 .0289482
1004.663 .0289536
1005.258 .0289589
1005.854 .0289640
1006.449 .0289690
1007.043 .0289738
1007.638 .0289785
1008.232 .0289831
1008.826 .0289876
1009.419 .0289921
1010.012 .0289965
1010.605 .0290007
1011.198 .0290048
1011.791 .0290088
1012.383 .0290126
1012.975 .0290163
1013.566 .0290198
1014.158 .0290233
1014.749 .0290268
1015.340 .0290304
1015.931 .0290340
1016.521 .0290377
1017.111 .0290414
1017.701 .0290450
1018.291 .0290486
1018.880 .0290521
1019.470 .0290553
1020.059 .0290585
1020.647 .0290614
1021.236 .0290642
1021.824 .0290668
1022.412 .0290693
1023.000 .0290717
1023.588 .0290741
1024.175 .0290763
1024.762 .0290784
1025.349 .0290804
1025.936 .0290823
1026.523 .0290841
1027.109 .0290858
1027.695 .0290874
1028.281 .0290890
1028.867 .0290905
1029.452 .0290920
1030.038 .0290933
1030.623 .0290946
1031.208 .0290957
1031.792 .0290966
1032.377 .0290972
1032.961 .0290974
1033.546 .0290973
1034.130 .0290967
1034.714 .0290957
1035.297 .0290943
1035.881 .0290925
1036.464 .0290903
1037.047 .0290878
1037.630 .0290850
1038.213 .0290820
1038.796 .0290788
1039.378 .0290755
1039.961 .0290720
1040.543 .0290683
1041.125 .0290645
1041.707 .0290605
1042.289 .0290562
1042.871 .0290517
1043.452 .0290470
1044.034 .0290420
1044.615 .0290368
1045.196 .0290313
1045.777 .0290256
1046.358 .0290195
1046.939 .0290131
1047.520 .0290064
1048.101 .0289993
1048.681 .0289919
1049.262 .0289841
1049.842 .0289760
1050.422 .0289677
1051.002 .0289593
1051.582 .0289507
1052.162 .0289422
1052.742 .0289338
1053.322 .0289255
1053.902 .0289174
1054.482 .0289095
1055.061 .0289017
1055.641 .0288941
1056.220 .0288868
1056.800 .0288796
1057.379 .0288724
1057.958 .0288653
1058.538 .0288580
1059.117 .0288504
1059.696 .0288425
1060.275 .0288341
1060.854 .0288252
1061.433 .0288159
1062.012 .0288062
1062.592 .0287961
1063.171 .0287858
1063.750 .0287752
1064.329 .0287644
1064.908 .0287533
1065.487 .0287420
1066.066 .0287304
1066.645 .0287187
1067.224 .0287068
1067.803 .0286950
1068.382 .0286833
1068.961 .0286718
1069.540 .0286606
1070.119 .0286497
1070.698 .0286391
1071.278 .0286289
1071.857 .0286188
1072.436 .0286089
1073.016 .0285990
1073.595 .0285893
1074.175 .0285796
1074.754 .0285702
1075.334 .0285610
1075.913 .0285522
1076.493 .0285438
1077.073 .0285358
1077.653 .0285281
1078.233 .0285207
1078.813 .0285136
1079.393 .0285068
1079.974 .0285002
1080.554 .0284939
1081.135 .0284879
1081.716 .0284823
1082.296 .0284772
1082.877 .0284724
1083.458 .0284678
1084.040 .0284635
1084.621 .0284594
1085.202 .0284552
1085.784 .0284511
1086.366 .0284469
1086.948 .0284428
1087.530 .0284388
1088.112 .0284350
1088.695 .0284313
1089.277 .0284278
1089.860 .0284248
1090.443 .0284220
1091.026 .0284196
1091.610 .0284176
1092.193 .0284160
1092.777 .0284149
1093.361 .0284142
1093.946 .0284142
1094.530 .0284147
1095.115 .0284160
1095.700 .0284179
1096.285 .0284203
1096.871 .0284231
1097.456 .0284261
1098.042 .0284292
1098.628 .0284323
1099.215 .0284352
1099.802 .0284377
1100.389 .0284398
1100.976 .0284416
1101.564 .0284430
1102.152 .0284442
1102.740 .0284452
1103.329 .0284462
1103.917 .0284470
1104.507 .0284477
1105.096 .0284484
1105.686 .0284490
1106.276 .0284497
1106.867 .0284506
1107.457 .0284517
1108.049 .0284532
1108.640 .0284555
1109.232 .0284587
1109.825 .0284629
1110.417 .0284685
1111.010 .0284752
1111.604 .0284831
1112.198 .0284921
1112.792 .0285020
1113.387 .0285128
1113.982 .0285247
1114.577 .0285374
1115.173 .0285513
1115.769 .0285666
1116.366 .0285834
1116.963 .0286019
1117.561 .0286224
1118.159 .0286448
1118.758 .0286692
1119.357 .0286953
1119.957 .0287230
1120.557 .0287522
1121.157 .0287825
1121.758 .0288137
1122.360 .0288458
1122.962 .0288784
1123.564 .0289115
1124.167 .0289279
1124.771 .0289618
1125.375 .0289958
1125.980 .0290297
1126.585 .0290635
1127.191 .0290972
1127.797 .0291308
1128.404 .0291643
1129.012 .0291978
1129.620 .0292313
1130.229 .0292651
1130.838 .0292992
1131.448 .0293341
1132.058 .0293700
1132.669 .0294254
1133.281 .0294646
1133.894 .0295057
1134.507 .0295494
1135.120 .0295980
1135.735 .0296456
1136.350 .0296880
1136.965 .0296545
1137.582 .0296908
1138.199 .0297291
1138.816 .0297686
1139.435 .0298154
1140.054 .0298732
1140.674 .0299411
1141.294 .0300124
1141.916 .0300984
1142.538 .0302049
1143.160 .0303768
1143.784 .0303947
1144.408 .0302972
1145.033 .0306583
