Measurement Sequence started on: 14-45-04-498
Integration time: 36
Scans to Average: 2 
>>>>>Begin Spectral Data<<<<<
433.946 .0346313
434.870 .0385551
435.793 .0369493
436.715 .0388605
437.635 .0385920
438.555 .0386565
439.473 .0388979
440.389 .0389782
441.305 .0390642
442.219 .0390590
443.132 .0388244
444.044 .0388499
444.954 .0389591
445.863 .0389656
446.771 .0389833
447.678 .0389939
448.584 .0389874
449.488 .0389721
450.391 .0389478
451.293 .0389192
452.194 .0388865
453.094 .0388503
453.992 .0388099
454.890 .0387648
455.786 .0387141
456.681 .0386565
457.575 .0385917
458.468 .0385193
459.360 .0384399
460.250 .0383545
461.140 .0382641
462.028 .0381706
462.915 .0380759
463.801 .0379809
464.687 .0378865
465.571 .0377933
466.454 .0377009
467.335 .0376093
468.216 .0375182
469.096 .0374275
469.975 .0373376
470.853 .0372489
471.729 .0371624
472.605 .0370785
473.479 .0369977
474.353 .0369199
475.226 .0368450
476.097 .0367726
476.968 .0367017
477.838 .0366315
478.706 .0365614
479.574 .0364910
480.441 .0364203
481.306 .0363495
482.171 .0362790
483.035 .0362094
483.898 .0361411
484.760 .0360743
485.621 .0360090
486.481 .0359454
487.340 .0358831
488.198 .0358221
489.055 .0357623
489.912 .0357037
490.767 .0356465
491.622 .0355668
492.476 .0355134
493.329 .0354618
494.180 .0354118
495.032 .0353635
495.882 .0353168
496.731 .0352714
497.580 .0352273
498.427 .0351841
499.274 .0351417
500.120 .0351221
500.965 .0350806
501.809 .0350398
502.653 .0349995
503.495 .0349600
504.337 .0349211
505.178 .0348828
506.018 .0348451
506.858 .0348077
507.696 .0347703
508.534 .0347329
509.371 .0346955
510.208 .0346581
511.043 .0346206
511.878 .0345829
512.712 .0345451
513.545 .0345072
514.377 .0344690
515.209 .0344301
516.040 .0343905
516.870 .0343497
517.699 .0343074
518.528 .0342632
519.356 .0342173
520.183 .0341695
521.010 .0341201
521.836 .0340693
522.661 .0340176
523.485 .0339652
524.309 .0339124
525.132 .0338595
525.954 .0338065
526.776 .0337532
527.597 .0336995
528.417 .0336452
529.237 .0335904
530.056 .0335348
530.874 .0334788
531.692 .0334225
532.508 .0333665
533.325 .0333113
534.140 .0332573
534.955 .0332052
535.770 .0331555
536.583 .0331082
537.397 .0330633
538.209 .0330205
539.021 .0329799
539.832 .0329411
540.643 .0329040
541.453 .0328683
542.262 .0328338
543.071 .0328007
543.879 .0327690
544.687 .0327387
545.494 .0327096
546.300 .0326817
547.106 .0326549
547.911 .0326289
548.716 .0326040
549.520 .0325801
550.323 .0325574
551.126 .0325359
551.929 .0325158
552.731 .0324972
553.532 .0324803
554.332 .0324649
555.133 .0324511
555.932 .0324387
556.731 .0324274
557.530 .0324169
558.328 .0324073
559.125 .0323986
559.922 .0323908
560.719 .0323840
561.515 .0323783
562.310 .0323740
563.105 .0323708
563.899 .0323684
564.693 .0323666
565.487 .0323647
566.280 .0323624
567.072 .0323589
567.864 .0323542
568.655 .0323479
569.446 .0323401
570.236 .0323305
571.026 .0323194
571.816 .0323068
572.605 .0322925
573.393 .0322766
574.181 .0322591
574.969 .0322398
575.756 .0322187
576.543 .0321958
577.329 .0321714
578.115 .0321455
578.900 .0321186
579.685 .0320910
580.469 .0320633
581.253 .0320357
582.036 .0320085
582.820 .0319820
583.602 .0319562
584.384 .0319309
585.166 .0319059
585.947 .0318811
586.728 .0318565
587.509 .0318323
588.289 .0318084
589.069 .0317854
589.848 .0317634
590.627 .0317426
591.405 .0317231
592.183 .0317050
592.961 .0316881
593.738 .0316722
594.515 .0316572
595.291 .0316428
596.067 .0316290
596.843 .0316158
597.618 .0316032
598.393 .0315875
599.167 .0315768
599.941 .0315668
600.715 .0315574
601.488 .0315486
602.261 .0315401
603.034 .0315318
603.806 .0315234
604.578 .0315147
605.349 .0315056
606.121 .0314959
606.891 .0314898
607.662 .0314794
608.432 .0314685
609.201 .0314572
609.971 .0314453
610.740 .0314330
611.508 .0314201
612.277 .0314067
613.045 .0313926
613.812 .0313780
614.579 .0313627
615.346 .0313467
616.113 .0313300
616.879 .0313127
617.645 .0312950
618.411 .0312767
619.176 .0312581
619.941 .0312392
620.705 .0312199
621.470 .0312005
622.233 .0311809
622.997 .0311611
623.760 .0311412
624.523 .0311212
625.286 .0311010
626.048 .0310808
626.810 .0310606
627.572 .0310404
628.333 .0310204
629.095 .0310007
629.855 .0309813
630.616 .0309622
631.376 .0309435
632.136 .0309252
632.895 .0309073
633.655 .0308896
634.414 .0308722
635.172 .0308551
635.931 .0308382
636.689 .0308217
637.447 .0308056
638.204 .0307900
638.962 .0307748
639.718 .0307603
640.475 .0307463
641.231 .0307328
641.988 .0307198
642.743 .0307073
643.499 .0306951
644.254 .0306832
645.009 .0306717
645.764 .0306604
646.518 .0306495
647.272 .0306389
648.026 .0306286
648.780 .0306188
649.533 .0306094
650.286 .0306004
651.039 .0305917
651.792 .0305833
652.544 .0305752
653.296 .0305674
654.048 .0305597
654.799 .0305521
655.550 .0305446
656.301 .0305373
657.052 .0305299
657.802 .0305226
658.552 .0305153
659.302 .0305077
660.052 .0305001
660.801 .0304922
661.550 .0304841
662.299 .0304757
663.048 .0304671
663.796 .0304582
664.544 .0304489
665.292 .0304393
666.040 .0304293
666.787 .0304189
667.534 .0304080
668.281 .0303968
669.028 .0303852
669.774 .0303734
670.521 .0303616
671.266 .0303498
672.012 .0303380
672.758 .0303265
673.503 .0303151
674.248 .0303039
674.992 .0302929
675.737 .0302821
676.481 .0302716
677.225 .0302613
677.969 .0302514
678.712 .0302420
679.455 .0302329
680.199 .0302244
680.941 .0302164
681.684 .0302087
682.426 .0302015
683.168 .0301946
683.910 .0301879
684.652 .0301814
685.393 .0301751
686.134 .0301688
686.875 .0301626
687.616 .0301563
688.356 .0301501
689.097 .0301438
689.837 .0301375
690.576 .0301310
691.316 .0301245
692.055 .0301178
692.794 .0301109
693.533 .0301039
694.272 .0300966
695.010 .0300891
695.748 .0300814
696.486 .0300733
697.224 .0300650
697.962 .0300565
698.699 .0300476
699.436 .0300384
700.173 .0300289
700.909 .0300192
701.646 .0300091
702.382 .0299989
703.118 .0299883
703.853 .0299776
704.589 .0299666
705.324 .0299553
706.059 .0299437
706.794 .0299317
707.529 .0299193
708.263 .0299065
708.997 .0298933
709.731 .0298799
710.465 .0298661
711.198 .0298521
711.931 .0298378
712.664 .0298232
713.397 .0298084
714.130 .0297933
714.862 .0297778
715.594 .0297620
716.326 .0297460
717.058 .0297297
717.789 .0297132
718.520 .0296967
719.251 .0296803
719.982 .0296638
720.713 .0296475
721.443 .0296313
722.173 .0296152
722.903 .0295993
723.633 .0295835
724.362 .0295680
725.091 .0295526
725.820 .0295376
726.549 .0295229
727.278 .0295086
728.006 .0294946
728.734 .0294811
729.462 .0294679
730.190 .0294551
730.917 .0294427
731.644 .0294307
732.371 .0294191
733.098 .0294078
733.825 .0293969
734.551 .0293863
735.277 .0293760
736.003 .0293660
736.728 .0293563
737.454 .0293468
738.179 .0293374
738.904 .0293282
739.629 .0293190
740.353 .0293099
741.077 .0293009
741.801 .0292919
742.525 .0292828
743.249 .0292737
743.972 .0292644
744.695 .0292550
745.418 .0292455
746.141 .0292358
746.863 .0292259
747.585 .0292159
748.307 .0292057
749.029 .0291952
749.750 .0291846
750.472 .0291737
751.193 .0291625
751.913 .0291510
752.634 .0291392
753.354 .0291271
754.074 .0291146
754.794 .0291018
755.514 .0290887
756.233 .0290754
756.952 .0290618
757.671 .0290481
758.390 .0290341
759.108 .0290200
759.826 .0290058
760.544 .0289914
761.262 .0289769
761.979 .0289624
762.697 .0289478
763.414 .0289332
764.130 .0289186
764.847 .0289041
765.563 .0288895
766.279 .0288750
766.995 .0288605
767.710 .0288461
768.426 .0288318
769.141 .0288175
769.855 .0288032
770.570 .0287891
771.284 .0287751
771.998 .0287612
772.712 .0287475
773.426 .0287339
774.139 .0287206
774.852 .0287074
775.565 .0286945
776.277 .0286818
776.990 .0286693
777.702 .0286570
778.414 .0286449
779.125 .0286331
779.836 .0286215
780.547 .0286102
781.258 .0285993
781.969 .0285887
782.679 .0285784
783.389 .0285644
784.099 .0285549
784.808 .0285455
785.517 .0285364
786.226 .0285273
786.935 .0285184
787.643 .0285095
788.352 .0285007
789.060 .0284918
789.767 .0284829
790.475 .0284739
791.182 .0284647
791.889 .0284594
792.595 .0284498
793.301 .0284400
794.008 .0284299
794.713 .0284196
795.419 .0284091
796.124 .0283984
796.829 .0283875
797.534 .0283764
798.238 .0283652
798.942 .0283538
799.646 .0283423
800.350 .0283309
801.053 .0283195
801.756 .0283083
802.459 .0282973
803.162 .0282866
803.864 .0282763
804.566 .0282661
805.267 .0282563
805.969 .0282466
806.670 .0282371
807.371 .0282277
808.071 .0282185
808.772 .0282094
809.472 .0282006
810.171 .0281919
810.871 .0281834
811.570 .0281751
812.269 .0281668
812.967 .0281584
813.666 .0281498
814.364 .0281409
815.061 .0281317
815.759 .0281220
816.456 .0281119
817.153 .0281014
817.849 .0280905
818.545 .0280791
819.241 .0280674
819.937 .0280551
820.632 .0280423
821.327 .0280290
822.022 .0280152
822.717 .0280008
823.411 .0279860
824.105 .0279708
824.798 .0279553
825.491 .0279395
826.184 .0279235
826.877 .0279073
827.569 .0278910
828.261 .0278746
828.953 .0278580
829.645 .0278415
830.336 .0278249
831.027 .0278085
831.717 .0277923
832.407 .0277763
833.097 .0277605
833.787 .0277449
834.476 .0277296
835.165 .0277143
835.854 .0276991
836.542 .0276840
837.230 .0276690
837.918 .0276541
838.605 .0276392
839.292 .0276244
839.979 .0276098
840.665 .0275953
841.352 .0275809
842.037 .0275665
842.723 .0275521
843.408 .0275375
844.093 .0275228
844.777 .0275079
845.462 .0274928
846.145 .0274776
846.829 .0274624
847.512 .0274470
848.195 .0274317
848.878 .0274163
849.560 .0274010
850.242 .0273857
850.923 .0273703
851.605 .0273548
852.286 .0273393
852.966 .0273236
853.646 .0273079
854.326 .0272922
855.006 .0272765
855.685 .0272610
856.364 .0272458
857.043 .0272307
857.721 .0272159
858.399 .0272014
859.077 .0271871
859.754 .0271731
860.431 .0271594
861.107 .0271462
861.784 .0271333
862.459 .0271209
863.135 .0271090
863.810 .0270975
864.485 .0270865
865.160 .0270759
865.834 .0270657
866.508 .0270558
867.181 .0270462
867.854 .0270368
868.527 .0270278
869.199 .0270191
869.872 .0270108
870.543 .0270028
871.215 .0269951
871.886 .0269877
872.557 .0269806
873.227 .0269736
873.897 .0269667
874.567 .0269601
875.236 .0269535
875.905 .0269471
876.573 .0269409
877.242 .0269347
877.909 .0269287
878.577 .0269227
879.244 .0269168
879.911 .0269108
880.577 .0269048
881.243 .0268987
881.909 .0268925
882.575 .0268864
883.240 .0268802
883.904 .0268740
884.569 .0268678
885.232 .0268617
885.896 .0268555
886.559 .0268493
887.222 .0268431
887.885 .0268368
888.547 .0268304
889.208 .0268240
889.870 .0268173
890.531 .0268105
891.192 .0268034
891.852 .0267961
892.512 .0267885
893.171 .0267805
893.830 .0267721
894.489 .0267633
895.148 .0267541
895.806 .0267445
896.464 .0267344
897.121 .0267239
897.778 .0267129
898.434 .0267015
899.091 .0266825
899.747 .0266702
900.402 .0266577
901.057 .0266451
901.712 .0266323
902.366 .0266193
903.020 .0266063
903.674 .0265931
904.327 .0265798
904.980 .0265664
905.633 .0265529
906.285 .0265392
906.936 .0265255
907.588 .0265192
908.239 .0265055
908.889 .0264918
909.540 .0264781
910.190 .0264643
910.839 .0264504
911.488 .0264364
912.137 .0264223
912.785 .0264080
913.433 .0263936
914.081 .0263792
914.728 .0263647
915.375 .0263501
916.021 .0263353
916.668 .0263204
917.313 .0263053
917.959 .0262898
918.604 .0262740
919.248 .0262578
919.892 .0262412
920.536 .0262242
921.180 .0262068
921.823 .0261892
922.465 .0261712
923.108 .0261529
923.750 .0261342
924.391 .0261152
925.032 .0260959
925.673 .0260764
926.313 .0260566
926.953 .0260366
927.593 .0260166
928.232 .0259967
928.871 .0259770
929.510 .0259575
930.148 .0259382
930.786 .0259192
931.423 .0259004
932.060 .0258818
932.697 .0258635
933.333 .0258453
933.969 .0258275
934.604 .0258100
935.239 .0257928
935.874 .0257761
936.508 .0257598
937.142 .0257439
937.776 .0257284
938.409 .0257132
939.042 .0256984
939.674 .0256838
940.306 .0256695
940.938 .0256556
941.569 .0256420
942.200 .0256288
942.830 .0256160
943.460 .0256036
944.090 .0255916
944.720 .0255799
945.349 .0255685
945.977 .0255573
946.606 .0255462
947.233 .0255352
947.861 .0255243
948.488 .0255134
949.115 .0255028
949.741 .0254923
950.367 .0254821
950.993 .0254721
951.618 .0254623
952.243 .0254527
952.868 .0254433
953.492 .0254341
954.115 .0254250
954.739 .0254162
955.362 .0254076
955.984 .0253993
956.607 .0253913
957.229 .0253837
957.850 .0253765
958.471 .0253696
959.092 .0253631
959.713 .0253568
960.333 .0253507
960.952 .0253449
961.572 .0253392
962.191 .0253338
962.809 .0253287
963.428 .0253238
964.045 .0253192
964.663 .0253150
965.280 .0253110
965.897 .0253073
966.513 .0253037
967.129 .0253003
967.745 .0252970
968.361 .0252937
968.976 .0252904
969.590 .0252872
970.205 .0252840
970.818 .0252809
971.432 .0252777
972.045 .0252745
972.658 .0252713
973.271 .0252681
973.883 .0252648
974.495 .0252614
975.106 .0252581
975.717 .0252549
976.328 .0252519
976.938 .0252489
977.548 .0252462
978.158 .0252436
978.768 .0252404
979.377 .0252381
979.985 .0252358
980.594 .0252335
981.202 .0252312
981.809 .0252288
982.417 .0252263
983.024 .0252237
983.631 .0252211
984.237 .0252182
984.843 .0252152
985.449 .0252119
986.054 .0252084
986.659 .0252045
987.264 .0252015
987.868 .0251970
988.472 .0251923
989.076 .0251873
989.679 .0251820
990.282 .0251765
990.885 .0251708
991.487 .0251648
992.090 .0251584
992.691 .0251517
993.293 .0251445
993.894 .0251369
994.495 .0251289
995.095 .0251204
995.696 .0251115
996.296 .0251024
996.895 .0250929
997.494 .0250833
998.093 .0250734
998.692 .0250634
999.291 .0250533
999.889 .0250430
1000.487 .0250325
1001.084 .0250220
1001.681 .0250114
1002.278 .0250008
1002.875 .0249903
1003.471 .0249799
1004.067 .0249696
1004.663 .0249595
1005.258 .0249494
1005.854 .0249395
1006.449 .0249295
1007.043 .0249196
1007.638 .0249096
1008.232 .0248997
1008.826 .0248897
1009.419 .0248798
1010.012 .0248700
1010.605 .0248603
1011.198 .0248508
1011.791 .0248416
1012.383 .0248326
1012.975 .0248238
1013.566 .0248154
1014.158 .0248072
1014.749 .0247992
1015.340 .0247914
1015.931 .0247839
1016.521 .0247766
1017.111 .0247696
1017.701 .0247627
1018.291 .0247560
1018.880 .0247495
1019.470 .0247432
1020.059 .0247371
1020.647 .0247311
1021.236 .0247251
1021.824 .0247193
1022.412 .0247135
1023.000 .0247078
1023.588 .0247021
1024.175 .0246966
1024.762 .0246911
1025.349 .0246858
1025.936 .0246807
1026.523 .0246757
1027.109 .0246710
1027.695 .0246664
1028.281 .0246620
1028.867 .0246578
1029.452 .0246537
1030.038 .0246499
1030.623 .0246464
1031.208 .0246432
1031.792 .0246403
1032.377 .0246376
1032.961 .0246352
1033.546 .0246331
1034.130 .0246311
1034.714 .0246294
1035.297 .0246278
1035.881 .0246264
1036.464 .0246251
1037.047 .0246241
1037.630 .0246233
1038.213 .0246228
1038.796 .0246226
1039.378 .0246227
1039.961 .0246229
1040.543 .0246233
1041.125 .0246239
1041.707 .0246245
1042.289 .0246252
1042.871 .0246259
1043.452 .0246267
1044.034 .0246275
1044.615 .0246282
1045.196 .0246288
1045.777 .0246293
1046.358 .0246295
1046.939 .0246293
1047.520 .0246289
1048.101 .0246281
1048.681 .0246270
1049.262 .0246257
1049.842 .0246245
1050.422 .0246232
1051.002 .0246221
1051.582 .0246212
1052.162 .0246205
1052.742 .0246201
1053.322 .0246200
1053.902 .0246201
1054.482 .0246207
1055.061 .0246217
1055.641 .0246232
1056.220 .0246253
1056.800 .0246279
1057.379 .0246311
1057.958 .0246348
1058.538 .0246388
1059.117 .0246430
1059.696 .0246473
1060.275 .0246517
1060.854 .0246561
1061.433 .0246604
1062.012 .0246648
1062.592 .0246692
1063.171 .0246738
1063.750 .0246784
1064.329 .0246831
1064.908 .0246879
1065.487 .0246925
1066.066 .0246971
1066.645 .0247016
1067.224 .0247061
1067.803 .0247105
1068.382 .0247149
1068.961 .0247193
1069.540 .0247237
1070.119 .0247280
1070.698 .0247321
1071.278 .0247359
1071.857 .0247393
1072.436 .0247422
1073.016 .0247445
1073.595 .0247463
1074.175 .0247478
1074.754 .0247490
1075.334 .0247501
1075.913 .0247512
1076.493 .0247524
1077.073 .0247538
1077.653 .0247554
1078.233 .0247573
1078.813 .0247595
1079.393 .0247621
1079.974 .0247650
1080.554 .0247683
1081.135 .0247720
1081.716 .0247759
1082.296 .0247802
1082.877 .0247846
1083.458 .0247891
1084.040 .0247937
1084.621 .0247982
1085.202 .0248026
1085.784 .0248070
1086.366 .0248113
1086.948 .0248154
1087.530 .0248192
1088.112 .0248227
1088.695 .0248258
1089.277 .0248285
1089.860 .0248307
1090.443 .0248326
1091.026 .0248341
1091.610 .0248354
1092.193 .0248364
1092.777 .0248372
1093.361 .0248379
1093.946 .0248383
1094.530 .0248383
1095.115 .0248378
1095.700 .0248367
1096.285 .0248350
1096.871 .0248326
1097.456 .0248296
1098.042 .0248260
1098.628 .0248220
1099.215 .0248175
1099.802 .0248126
1100.389 .0248073
1100.976 .0248014
1101.564 .0247950
1102.152 .0247880
1102.740 .0247805
1103.329 .0247725
1103.917 .0247643
1104.507 .0247562
1105.096 .0247484
1105.686 .0247410
1106.276 .0247342
1106.867 .0247281
1107.457 .0247225
1108.049 .0247174
1108.640 .0247125
1109.232 .0247077
1109.825 .0247031
1110.417 .0246987
1111.010 .0246945
1111.604 .0246908
1112.198 .0246879
1112.792 .0246858
1113.387 .0246847
1113.982 .0246845
1114.577 .0246850
1115.173 .0246863
1115.769 .0246882
1116.366 .0246906
1116.963 .0246936
1117.561 .0246974
1118.159 .0247023
1118.758 .0247085
1119.357 .0247162
1119.957 .0247255
1120.557 .0247362
1121.157 .0247481
1121.758 .0247610
1122.360 .0247746
1122.962 .0247887
1123.564 .0248034
1124.167 .0248084
1124.771 .0248239
1125.375 .0248400
1125.980 .0248569
1126.585 .0248749
1127.191 .0248940
1127.797 .0249143
1128.404 .0249357
1129.012 .0249580
1129.620 .0249811
1130.229 .0250051
1130.838 .0250299
1131.448 .0250559
1132.058 .0250830
1132.669 .0251240
1133.281 .0251552
1133.894 .0251881
1134.507 .0252228
1135.120 .0252550
1135.735 .0252973
1136.350 .0253377
1136.965 .0253101
1137.582 .0253447
1138.199 .0253817
1138.816 .0254236
1139.435 .0254689
1140.054 .0255153
1140.674 .0255712
1141.294 .0256313
1141.916 .0256843
1142.538 .0257511
1143.160 .0257020
1143.784 .0260058
1144.408 .0259838
1145.033 .0257414
