Measurement Sequence started on: 14-45-04-498
Integration time: 36
Scans to Average: 2 
>>>>>Begin Spectral Data<<<<<
433.946 .0593042
434.870 .0503191
435.793 .0453703
436.715 .0442031
437.635 .0426394
438.555 .0438651
439.473 .0427684
440.389 .0421242
441.305 .0416938
442.219 .0413286
443.132 .0420031
444.044 .0414540
444.954 .0411612
445.863 .0409258
446.771 .0407683
447.678 .0405419
448.584 .0403685
449.488 .0402238
450.391 .0400957
451.293 .0399799
452.194 .0398723
453.094 .0397705
453.992 .0396710
454.890 .0395713
455.786 .0394685
456.681 .0393617
457.575 .0392506
458.468 .0391356
459.360 .0390176
460.250 .0388972
461.140 .0387748
462.028 .0386510
462.915 .0385262
463.801 .0384010
464.687 .0382758
465.571 .0381510
466.454 .0380278
467.335 .0379069
468.216 .0377893
469.096 .0376756
469.975 .0375667
470.853 .0374630
471.729 .0373648
472.605 .0372725
473.479 .0371864
474.353 .0371066
475.226 .0370327
476.097 .0369642
476.968 .0369004
477.838 .0368408
478.706 .0367846
479.574 .0367313
480.441 .0366808
481.306 .0366327
482.171 .0365868
483.035 .0365431
483.898 .0365016
484.760 .0364620
485.621 .0364241
486.481 .0363876
487.340 .0363520
488.198 .0363169
489.055 .0362818
489.912 .0362463
490.767 .0362104
491.622 .0361560
492.476 .0361202
493.329 .0360851
494.180 .0360509
495.032 .0360178
495.882 .0359859
496.731 .0359550
497.580 .0359248
498.427 .0358949
499.274 .0358648
500.120 .0358503
500.965 .0358190
501.809 .0357871
502.653 .0357546
503.495 .0357218
504.337 .0356889
505.178 .0356562
506.018 .0356239
506.858 .0355915
507.696 .0355587
508.534 .0355250
509.371 .0354903
510.208 .0354545
511.043 .0354176
511.878 .0353800
512.712 .0353425
513.545 .0353056
514.377 .0352700
515.209 .0352357
516.040 .0352030
516.870 .0351712
517.699 .0351400
518.528 .0351085
519.356 .0350764
520.183 .0350432
521.010 .0350088
521.836 .0349734
522.661 .0349370
523.485 .0348998
524.309 .0348624
525.132 .0348252
525.954 .0347886
526.776 .0347525
527.597 .0347169
528.417 .0346812
529.237 .0346452
530.056 .0346081
530.874 .0345699
531.692 .0345302
532.508 .0344896
533.325 .0344484
534.140 .0344074
534.955 .0343674
535.770 .0343291
536.583 .0342932
537.397 .0342599
538.209 .0342286
539.021 .0341987
539.832 .0341697
540.643 .0341410
541.453 .0341121
542.262 .0340826
543.071 .0340526
543.879 .0340222
544.687 .0339914
545.494 .0339603
546.300 .0339289
547.106 .0338974
547.911 .0338657
548.716 .0338335
549.520 .0338008
550.323 .0337678
551.126 .0337345
551.929 .0337013
552.731 .0336682
553.532 .0336354
554.332 .0336030
555.133 .0335712
555.932 .0335404
556.731 .0335106
557.530 .0334820
558.328 .0334550
559.125 .0334295
559.922 .0334054
560.719 .0333824
561.515 .0333600
562.310 .0333380
563.105 .0333161
563.899 .0332936
564.693 .0332702
565.487 .0332457
566.280 .0332198
567.072 .0331924
567.864 .0331634
568.655 .0331328
569.446 .0331004
570.236 .0330666
571.026 .0330312
571.816 .0329946
572.605 .0329567
573.393 .0329180
574.181 .0328786
574.969 .0328387
575.756 .0327986
576.543 .0327585
577.329 .0327188
578.115 .0326798
578.900 .0326420
579.685 .0326055
580.469 .0325707
581.253 .0325379
582.036 .0325072
582.820 .0324785
583.602 .0324519
584.384 .0324274
585.166 .0324048
585.947 .0323840
586.728 .0323648
587.509 .0323472
588.289 .0323311
589.069 .0323165
589.848 .0323029
590.627 .0322905
591.405 .0322789
592.183 .0322682
592.961 .0322580
593.738 .0322482
594.515 .0322386
595.291 .0322292
596.067 .0322199
596.843 .0322107
597.618 .0322016
598.393 .0321873
599.167 .0321784
599.941 .0321697
600.715 .0321611
601.488 .0321525
602.261 .0321440
603.034 .0321355
603.806 .0321271
604.578 .0321188
605.349 .0321107
606.121 .0321029
606.891 .0321006
607.662 .0320934
608.432 .0320866
609.201 .0320803
609.971 .0320744
610.740 .0320689
611.508 .0320637
612.277 .0320589
613.045 .0320543
613.812 .0320498
614.579 .0320454
615.346 .0320409
616.113 .0320362
616.879 .0320313
617.645 .0320261
618.411 .0320203
619.176 .0320140
619.941 .0320070
620.705 .0319992
621.470 .0319905
622.233 .0319808
622.997 .0319701
623.760 .0319583
624.523 .0319455
625.286 .0319317
626.048 .0319170
626.810 .0319014
627.572 .0318851
628.333 .0318681
629.095 .0318507
629.855 .0318327
630.616 .0318144
631.376 .0317958
632.136 .0317770
632.895 .0317579
633.655 .0317386
634.414 .0317191
635.172 .0316995
635.931 .0316798
636.689 .0316601
637.447 .0316405
638.204 .0316211
638.962 .0316021
639.718 .0315836
640.475 .0315657
641.231 .0315485
641.988 .0315318
642.743 .0315157
643.499 .0315003
644.254 .0314853
645.009 .0314707
645.764 .0314565
646.518 .0314426
647.272 .0314291
648.026 .0314161
648.780 .0314035
649.533 .0313915
650.286 .0313799
651.039 .0313689
651.792 .0313583
652.544 .0313480
653.296 .0313380
654.048 .0313282
654.799 .0313185
655.550 .0313089
656.301 .0312993
657.052 .0312897
657.802 .0312801
658.552 .0312705
659.302 .0312608
660.052 .0312510
660.801 .0312411
661.550 .0312309
662.299 .0312206
663.048 .0312100
663.796 .0311991
664.544 .0311878
665.292 .0311762
666.040 .0311641
666.787 .0311515
667.534 .0311385
668.281 .0311250
669.028 .0311111
669.774 .0310969
670.521 .0310826
671.266 .0310683
672.012 .0310541
672.758 .0310400
673.503 .0310261
674.248 .0310125
674.992 .0309991
675.737 .0309858
676.481 .0309726
677.225 .0309595
677.969 .0309465
678.712 .0309336
679.455 .0309209
680.199 .0309084
680.941 .0308962
681.684 .0308843
682.426 .0308727
683.168 .0308615
683.910 .0308506
684.652 .0308399
685.393 .0308293
686.134 .0308189
686.875 .0308085
687.616 .0307981
688.356 .0307877
689.097 .0307773
689.837 .0307670
690.576 .0307566
691.316 .0307464
692.055 .0307362
692.794 .0307262
693.533 .0307163
694.272 .0307065
695.010 .0306968
695.748 .0306871
696.486 .0306775
697.224 .0306678
697.962 .0306581
698.699 .0306483
699.436 .0306385
700.173 .0306287
700.909 .0306189
701.646 .0306091
702.382 .0305995
703.118 .0305901
703.853 .0305807
704.589 .0305715
705.324 .0305623
706.059 .0305529
706.794 .0305435
707.529 .0305337
708.263 .0305237
708.997 .0305135
709.731 .0305030
710.465 .0304924
711.198 .0304818
711.931 .0304712
712.664 .0304608
713.397 .0304505
714.130 .0304403
714.862 .0304302
715.594 .0304200
716.326 .0304096
717.058 .0303991
717.789 .0303883
718.520 .0303773
719.251 .0303661
719.982 .0303549
720.713 .0303435
721.443 .0303322
722.173 .0303208
722.903 .0303094
723.633 .0302980
724.362 .0302865
725.091 .0302749
725.820 .0302632
726.549 .0302514
727.278 .0302394
728.006 .0302272
728.734 .0302148
729.462 .0302023
730.190 .0301896
730.917 .0301769
731.644 .0301641
732.371 .0301515
733.098 .0301390
733.825 .0301267
734.551 .0301147
735.277 .0301030
736.003 .0300915
736.728 .0300802
737.454 .0300691
738.179 .0300580
738.904 .0300469
739.629 .0300359
740.353 .0300251
741.077 .0300144
741.801 .0300039
742.525 .0299936
743.249 .0299835
743.972 .0299736
744.695 .0299639
745.418 .0299542
746.141 .0299446
746.863 .0299350
747.585 .0299253
748.307 .0299157
749.029 .0299060
749.750 .0298964
750.472 .0298867
751.193 .0298769
751.913 .0298672
752.634 .0298576
753.354 .0298480
754.074 .0298387
754.794 .0298296
755.514 .0298208
756.233 .0298122
756.952 .0298040
757.671 .0297960
758.390 .0297881
759.108 .0297803
759.826 .0297726
760.544 .0297648
761.262 .0297571
761.979 .0297494
762.697 .0297417
763.414 .0297340
764.130 .0297264
764.847 .0297188
765.563 .0297110
766.279 .0297032
766.995 .0296951
767.710 .0296867
768.426 .0296780
769.141 .0296690
769.855 .0296596
770.570 .0296499
771.284 .0296399
771.998 .0296295
772.712 .0296189
773.426 .0296080
774.139 .0295968
774.852 .0295855
775.565 .0295741
776.277 .0295625
776.990 .0295508
777.702 .0295391
778.414 .0295272
779.125 .0295154
779.836 .0295035
780.547 .0294916
781.258 .0294797
781.969 .0294679
782.679 .0294562
783.389 .0294391
784.099 .0294276
784.808 .0294163
785.517 .0294050
786.226 .0293938
786.935 .0293826
787.643 .0293715
788.352 .0293604
789.060 .0293494
789.767 .0293384
790.475 .0293274
791.182 .0293166
791.889 .0293115
792.595 .0293009
793.301 .0292903
794.008 .0292798
794.713 .0292694
795.419 .0292589
796.124 .0292484
796.829 .0292379
797.534 .0292273
798.238 .0292166
798.942 .0292059
799.646 .0291952
800.350 .0291844
801.053 .0291736
801.756 .0291628
802.459 .0291521
803.162 .0291413
803.864 .0291305
804.566 .0291198
805.267 .0291090
805.969 .0290982
806.670 .0290874
807.371 .0290766
808.071 .0290658
808.772 .0290548
809.472 .0290439
810.171 .0290328
810.871 .0290217
811.570 .0290107
812.269 .0289996
812.967 .0289886
813.666 .0289777
814.364 .0289668
815.061 .0289561
815.759 .0289453
816.456 .0289347
817.153 .0289240
817.849 .0289132
818.545 .0289023
819.241 .0288913
819.937 .0288802
820.632 .0288689
821.327 .0288575
822.022 .0288459
822.717 .0288340
823.411 .0288220
824.105 .0288096
824.798 .0287971
825.491 .0287843
826.184 .0287713
826.877 .0287581
827.569 .0287448
828.261 .0287313
828.953 .0287178
829.645 .0287042
830.336 .0286907
831.027 .0286771
831.717 .0286636
832.407 .0286502
833.097 .0286369
833.787 .0286239
834.476 .0286110
835.165 .0285985
835.854 .0285861
836.542 .0285741
837.230 .0285623
837.918 .0285507
838.605 .0285393
839.292 .0285282
839.979 .0285171
840.665 .0285062
841.352 .0284954
842.037 .0284848
842.723 .0284742
843.408 .0284637
844.093 .0284531
844.777 .0284426
845.462 .0284319
846.145 .0284210
846.829 .0284099
847.512 .0283985
848.195 .0283868
848.878 .0283748
849.560 .0283625
850.242 .0283499
850.923 .0283369
851.605 .0283237
852.286 .0283102
852.966 .0282964
853.646 .0282823
854.326 .0282680
855.006 .0282536
855.685 .0282391
856.364 .0282245
857.043 .0282098
857.721 .0281951
858.399 .0281804
859.077 .0281657
859.754 .0281510
860.431 .0281362
861.107 .0281215
861.784 .0281068
862.459 .0280922
863.135 .0280777
863.810 .0280633
864.485 .0280490
865.160 .0280348
865.834 .0280208
866.508 .0280068
867.181 .0279929
867.854 .0279791
868.527 .0279654
869.199 .0279518
869.872 .0279383
870.543 .0279251
871.215 .0279120
871.886 .0278991
872.557 .0278863
873.227 .0278737
873.897 .0278613
874.567 .0278490
875.236 .0278368
875.905 .0278248
876.573 .0278130
877.242 .0278013
877.909 .0277899
878.577 .0277787
879.244 .0277678
879.911 .0277572
880.577 .0277469
881.243 .0277369
881.909 .0277273
882.575 .0277179
883.240 .0277088
883.904 .0277000
884.569 .0276914
885.232 .0276830
885.896 .0276749
886.559 .0276670
887.222 .0276593
887.885 .0276519
888.547 .0276447
889.208 .0276378
889.870 .0276312
890.531 .0276248
891.192 .0276187
891.852 .0276128
892.512 .0276071
893.171 .0276015
893.830 .0275961
894.489 .0275908
895.148 .0275855
895.806 .0275802
896.464 .0275749
897.121 .0275696
897.778 .0275642
898.434 .0275587
899.091 .0275502
899.747 .0275445
900.402 .0275387
901.057 .0275328
901.712 .0275268
902.366 .0275207
903.020 .0275144
903.674 .0275079
904.327 .0275013
904.980 .0274944
905.633 .0274872
906.285 .0274797
906.936 .0274720
907.588 .0274674
908.239 .0274591
908.889 .0274506
909.540 .0274417
910.190 .0274324
910.839 .0274228
911.488 .0274129
912.137 .0274026
912.785 .0273919
913.433 .0273809
914.081 .0273694
914.728 .0273576
915.375 .0273455
916.021 .0273330
916.668 .0273202
917.313 .0273072
917.959 .0272939
918.604 .0272804
919.248 .0272666
919.892 .0272525
920.536 .0272381
921.180 .0272232
921.823 .0272079
922.465 .0271921
923.108 .0271757
923.750 .0271589
924.391 .0271417
925.032 .0271240
925.673 .0271059
926.313 .0270874
926.953 .0270686
927.593 .0270493
928.232 .0270298
928.871 .0270098
929.510 .0269896
930.148 .0269691
930.786 .0269483
931.423 .0269274
932.060 .0269064
932.697 .0268852
933.333 .0268640
933.969 .0268427
934.604 .0268213
935.239 .0267998
935.874 .0267782
936.508 .0267566
937.142 .0267349
937.776 .0267133
938.409 .0266918
939.042 .0266705
939.674 .0266493
940.306 .0266283
940.938 .0266075
941.569 .0265868
942.200 .0265662
942.830 .0265458
943.460 .0265256
944.090 .0265056
944.720 .0264859
945.349 .0264665
945.977 .0264475
946.606 .0264288
947.233 .0264105
947.861 .0263924
948.488 .0263747
949.115 .0263572
949.741 .0263399
950.367 .0263229
950.993 .0263061
951.618 .0262896
952.243 .0262734
952.868 .0262576
953.492 .0262422
954.115 .0262271
954.739 .0262124
955.362 .0261980
955.984 .0261840
956.607 .0261703
957.229 .0261569
957.850 .0261440
958.471 .0261315
959.092 .0261195
959.713 .0261079
960.333 .0260969
960.952 .0260864
961.572 .0260764
962.191 .0260669
962.809 .0260578
963.428 .0260493
964.045 .0260413
964.663 .0260339
965.280 .0260272
965.897 .0260210
966.513 .0260155
967.129 .0260105
967.745 .0260061
968.361 .0260021
968.976 .0259984
969.590 .0259951
970.205 .0259920
970.818 .0259892
971.432 .0259866
972.045 .0259843
972.658 .0259823
973.271 .0259805
973.883 .0259790
974.495 .0259776
975.106 .0259764
975.717 .0259753
976.328 .0259743
976.938 .0259733
977.548 .0259723
978.158 .0259713
978.768 .0259694
979.377 .0259686
979.985 .0259678
980.594 .0259671
981.202 .0259665
981.809 .0259659
982.417 .0259653
983.024 .0259648
983.631 .0259643
984.237 .0259638
984.843 .0259634
985.449 .0259631
986.054 .0259628
986.659 .0259626
987.264 .0259631
987.868 .0259629
988.472 .0259627
989.076 .0259624
989.679 .0259620
990.282 .0259616
990.885 .0259610
991.487 .0259605
992.090 .0259599
992.691 .0259594
993.293 .0259588
993.894 .0259582
994.495 .0259576
995.095 .0259569
995.696 .0259562
996.296 .0259555
996.895 .0259547
997.494 .0259539
998.093 .0259530
998.692 .0259522
999.291 .0259513
999.889 .0259504
1000.487 .0259494
1001.084 .0259482
1001.681 .0259469
1002.278 .0259455
1002.875 .0259438
1003.471 .0259421
1004.067 .0259403
1004.663 .0259383
1005.258 .0259362
1005.854 .0259339
1006.449 .0259315
1007.043 .0259288
1007.638 .0259260
1008.232 .0259230
1008.826 .0259199
1009.419 .0259167
1010.012 .0259133
1010.605 .0259098
1011.198 .0259063
1011.791 .0259026
1012.383 .0258987
1012.975 .0258945
1013.566 .0258900
1014.158 .0258851
1014.749 .0258799
1015.340 .0258743
1015.931 .0258685
1016.521 .0258625
1017.111 .0258564
1017.701 .0258502
1018.291 .0258440
1018.880 .0258378
1019.470 .0258316
1020.059 .0258255
1020.647 .0258193
1021.236 .0258132
1021.824 .0258070
1022.412 .0258010
1023.000 .0257952
1023.588 .0257897
1024.175 .0257844
1024.762 .0257794
1025.349 .0257747
1025.936 .0257703
1026.523 .0257660
1027.109 .0257618
1027.695 .0257577
1028.281 .0257536
1028.867 .0257496
1029.452 .0257458
1030.038 .0257423
1030.623 .0257392
1031.208 .0257366
1031.792 .0257344
1032.377 .0257327
1032.961 .0257315
1033.546 .0257305
1034.130 .0257298
1034.714 .0257292
1035.297 .0257286
1035.881 .0257280
1036.464 .0257273
1037.047 .0257265
1037.630 .0257257
1038.213 .0257248
1038.796 .0257239
1039.378 .0257229
1039.961 .0257218
1040.543 .0257203
1041.125 .0257184
1041.707 .0257161
1042.289 .0257132
1042.871 .0257098
1043.452 .0257060
1044.034 .0257020
1044.615 .0256977
1045.196 .0256934
1045.777 .0256891
1046.358 .0256847
1046.939 .0256803
1047.520 .0256756
1048.101 .0256706
1048.681 .0256652
1049.262 .0256594
1049.842 .0256532
1050.422 .0256467
1051.002 .0256400
1051.582 .0256332
1052.162 .0256264
1052.742 .0256196
1053.322 .0256129
1053.902 .0256063
1054.482 .0255997
1055.061 .0255932
1055.641 .0255869
1056.220 .0255810
1056.800 .0255755
1057.379 .0255706
1057.958 .0255664
1058.538 .0255632
1059.117 .0255608
1059.696 .0255593
1060.275 .0255585
1060.854 .0255585
1061.433 .0255591
1062.012 .0255603
1062.592 .0255619
1063.171 .0255639
1063.750 .0255664
1064.329 .0255692
1064.908 .0255724
1065.487 .0255758
1066.066 .0255795
1066.645 .0255832
1067.224 .0255869
1067.803 .0255905
1068.382 .0255938
1068.961 .0255968
1069.540 .0255996
1070.119 .0256019
1070.698 .0256039
1071.278 .0256055
1071.857 .0256067
1072.436 .0256075
1073.016 .0256078
1073.595 .0256075
1074.175 .0256067
1074.754 .0256053
1075.334 .0256034
1075.913 .0256008
1076.493 .0255977
1077.073 .0255941
1077.653 .0255901
1078.233 .0255857
1078.813 .0255811
1079.393 .0255765
1079.974 .0255719
1080.554 .0255673
1081.135 .0255630
1081.716 .0255589
1082.296 .0255552
1082.877 .0255517
1083.458 .0255484
1084.040 .0255453
1084.621 .0255424
1085.202 .0255398
1085.784 .0255373
1086.366 .0255352
1086.948 .0255335
1087.530 .0255321
1088.112 .0255311
1088.695 .0255304
1089.277 .0255299
1089.860 .0255295
1090.443 .0255291
1091.026 .0255287
1091.610 .0255281
1092.193 .0255275
1092.777 .0255269
1093.361 .0255265
1093.946 .0255262
1094.530 .0255260
1095.115 .0255261
1095.700 .0255263
1096.285 .0255266
1096.871 .0255270
1097.456 .0255276
1098.042 .0255284
1098.628 .0255294
1099.215 .0255309
1099.802 .0255327
1100.389 .0255351
1100.976 .0255380
1101.564 .0255414
1102.152 .0255454
1102.740 .0255500
1103.329 .0255551
1103.917 .0255607
1104.507 .0255669
1105.096 .0255738
1105.686 .0255813
1106.276 .0255895
1106.867 .0255983
1107.457 .0256077
1108.049 .0256178
1108.640 .0256287
1109.232 .0256403
1109.825 .0256526
1110.417 .0256655
1111.010 .0256789
1111.604 .0256925
1112.198 .0257063
1112.792 .0257200
1113.387 .0257333
1113.982 .0257462
1114.577 .0257584
1115.173 .0257701
1115.769 .0257811
1116.366 .0257915
1116.963 .0258013
1117.561 .0258101
1118.159 .0258179
1118.758 .0258246
1119.357 .0258301
1119.957 .0258344
1120.557 .0258377
1121.157 .0258404
1121.758 .0258426
1122.360 .0258448
1122.962 .0258471
1123.564 .0258501
1124.167 .0258523
1124.771 .0258558
1125.375 .0258602
1125.980 .0258654
1126.585 .0258714
1127.191 .0258782
1127.797 .0258862
1128.404 .0258954
1129.012 .0259060
1129.620 .0259184
1130.229 .0259325
1130.838 .0259484
1131.448 .0259662
1132.058 .0259857
1132.669 .0260112
1133.281 .0260343
1133.894 .0260587
1134.507 .0260898
1135.120 .0261164
1135.735 .0261435
1136.350 .0261753
1136.965 .0261828
1137.582 .0262375
1138.199 .0262875
1138.816 .0263343
1139.435 .0263864
1140.054 .0264317
1140.674 .0264712
1141.294 .0265087
1141.916 .0265467
1142.538 .0267212
1143.160 .0265848
1143.784 .0265822
1144.408 .0266922
1145.033 .0267808
