Measurement Sequence started on: 14-45-04-498
Integration time: 36
Scans to Average: 2 
>>>>>Begin Spectral Data<<<<<
433.946 .0549570
434.870 .0462108
435.793 .0401012
436.715 .0406363
437.635 .0394963
438.555 .0402616
439.473 .0393975
440.389 .0390146
441.305 .0388902
442.219 .0387923
443.132 .0395839
444.044 .0392127
444.954 .0391638
445.863 .0390870
446.771 .0390693
447.678 .0390097
448.584 .0389932
449.488 .0389943
450.391 .0389986
451.293 .0390047
452.194 .0390091
453.094 .0390098
453.992 .0390064
454.890 .0389976
455.786 .0389829
456.681 .0389620
457.575 .0389346
458.468 .0389008
459.360 .0388614
460.250 .0388170
461.140 .0387681
462.028 .0387159
462.915 .0386617
463.801 .0386067
464.687 .0385520
465.571 .0384981
466.454 .0384453
467.335 .0383940
468.216 .0383440
469.096 .0382949
469.975 .0382468
470.853 .0381994
471.729 .0381532
472.605 .0381084
473.479 .0380653
474.353 .0380242
475.226 .0379850
476.097 .0379474
476.968 .0379108
477.838 .0378745
478.706 .0378380
479.574 .0378003
480.441 .0377614
481.306 .0377212
482.171 .0376800
483.035 .0376382
483.898 .0375963
484.760 .0375548
485.621 .0375141
486.481 .0374742
487.340 .0374349
488.198 .0373961
489.055 .0373577
489.912 .0373195
490.767 .0372816
491.622 .0372300
492.476 .0371955
493.329 .0371628
494.180 .0371324
495.032 .0371044
495.882 .0370787
496.731 .0370550
497.580 .0370327
498.427 .0370110
499.274 .0369895
500.120 .0369784
500.965 .0369551
501.809 .0369308
502.653 .0369059
503.495 .0368801
504.337 .0368536
505.178 .0368266
506.018 .0367988
506.858 .0367700
507.696 .0367400
508.534 .0367082
509.371 .0366742
510.208 .0366379
511.043 .0365995
511.878 .0365592
512.712 .0365177
513.545 .0364757
514.377 .0364336
515.209 .0363919
516.040 .0363508
516.870 .0363103
517.699 .0362703
518.528 .0362306
519.356 .0361911
520.183 .0361514
521.010 .0361115
521.836 .0360716
522.661 .0360319
523.485 .0359928
524.309 .0359540
525.132 .0359157
525.954 .0358780
526.776 .0358402
527.597 .0358019
528.417 .0357625
529.237 .0357213
530.056 .0356775
530.874 .0356306
531.692 .0355804
532.508 .0355271
533.325 .0354714
534.140 .0354141
534.955 .0353561
535.770 .0352981
536.583 .0352402
537.397 .0351830
538.209 .0351269
539.021 .0350715
539.832 .0350162
540.643 .0349610
541.453 .0349058
542.262 .0348505
543.071 .0347952
543.879 .0347408
544.687 .0346876
545.494 .0346363
546.300 .0345872
547.106 .0345404
547.911 .0344959
548.716 .0344538
549.520 .0344137
550.323 .0343751
551.126 .0343374
551.929 .0342998
552.731 .0342619
553.532 .0342234
554.332 .0341839
555.133 .0341427
555.932 .0341002
556.731 .0340566
557.530 .0340122
558.328 .0339673
559.125 .0339222
559.922 .0338772
560.719 .0338324
561.515 .0337877
562.310 .0337428
563.105 .0336977
563.899 .0336527
564.693 .0336079
565.487 .0335635
566.280 .0335200
567.072 .0334778
567.864 .0334370
568.655 .0333980
569.446 .0333606
570.236 .0333249
571.026 .0332909
571.816 .0332584
572.605 .0332274
573.393 .0331976
574.181 .0331688
574.969 .0331409
575.756 .0331138
576.543 .0330874
577.329 .0330616
578.115 .0330362
578.900 .0330114
579.685 .0329870
580.469 .0329628
581.253 .0329387
582.036 .0329146
582.820 .0328901
583.602 .0328651
584.384 .0328395
585.166 .0328133
585.947 .0327867
586.728 .0327597
587.509 .0327325
588.289 .0327052
589.069 .0326779
589.848 .0326507
590.627 .0326233
591.405 .0325959
592.183 .0325685
592.961 .0325410
593.738 .0325137
594.515 .0324868
595.291 .0324603
596.067 .0324344
596.843 .0324090
597.618 .0323842
598.393 .0323484
599.167 .0323246
599.941 .0323010
600.715 .0322777
601.488 .0322546
602.261 .0322318
603.034 .0322093
603.806 .0321872
604.578 .0321654
605.349 .0321440
606.121 .0321230
606.891 .0321132
607.662 .0320924
608.432 .0320719
609.201 .0320517
609.971 .0320317
610.740 .0320118
611.508 .0319920
612.277 .0319723
613.045 .0319525
613.812 .0319327
614.579 .0319129
615.346 .0318931
616.113 .0318732
616.879 .0318534
617.645 .0318336
618.411 .0318138
619.176 .0317938
619.941 .0317735
620.705 .0317530
621.470 .0317321
622.233 .0317109
622.997 .0316894
623.760 .0316676
624.523 .0316457
625.286 .0316238
626.048 .0316019
626.810 .0315800
627.572 .0315580
628.333 .0315359
629.095 .0315137
629.855 .0314913
630.616 .0314688
631.376 .0314462
632.136 .0314235
632.895 .0314008
633.655 .0313781
634.414 .0313553
635.172 .0313326
635.931 .0313098
636.689 .0312870
637.447 .0312642
638.204 .0312415
638.962 .0312188
639.718 .0311964
640.475 .0311742
641.231 .0311523
641.988 .0311308
642.743 .0311094
643.499 .0310884
644.254 .0310675
645.009 .0310469
645.764 .0310266
646.518 .0310067
647.272 .0309872
648.026 .0309681
648.780 .0309494
649.533 .0309312
650.286 .0309134
651.039 .0308959
651.792 .0308788
652.544 .0308620
653.296 .0308456
654.048 .0308295
654.799 .0308138
655.550 .0307984
656.301 .0307835
657.052 .0307689
657.802 .0307546
658.552 .0307405
659.302 .0307266
660.052 .0307129
660.801 .0306993
661.550 .0306859
662.299 .0306726
663.048 .0306594
663.796 .0306464
664.544 .0306334
665.292 .0306204
666.040 .0306074
666.787 .0305944
667.534 .0305814
668.281 .0305684
669.028 .0305554
669.774 .0305425
670.521 .0305296
671.266 .0305169
672.012 .0305043
672.758 .0304918
673.503 .0304795
674.248 .0304673
674.992 .0304552
675.737 .0304433
676.481 .0304315
677.225 .0304198
677.969 .0304082
678.712 .0303965
679.455 .0303847
680.199 .0303729
680.941 .0303610
681.684 .0303491
682.426 .0303371
683.168 .0303250
683.910 .0303128
684.652 .0303004
685.393 .0302878
686.134 .0302751
686.875 .0302622
687.616 .0302491
688.356 .0302359
689.097 .0302226
689.837 .0302092
690.576 .0301957
691.316 .0301822
692.055 .0301685
692.794 .0301548
693.533 .0301409
694.272 .0301270
695.010 .0301131
695.748 .0300992
696.486 .0300853
697.224 .0300716
697.962 .0300580
698.699 .0300446
699.436 .0300312
700.173 .0300180
700.909 .0300049
701.646 .0299919
702.382 .0299791
703.118 .0299666
703.853 .0299543
704.589 .0299423
705.324 .0299306
706.059 .0299190
706.794 .0299076
707.529 .0298962
708.263 .0298849
708.997 .0298735
709.731 .0298623
710.465 .0298511
711.198 .0298401
711.931 .0298291
712.664 .0298182
713.397 .0298075
714.130 .0297968
714.862 .0297862
715.594 .0297756
716.326 .0297651
717.058 .0297546
717.789 .0297442
718.520 .0297339
719.251 .0297237
719.982 .0297134
720.713 .0297031
721.443 .0296928
722.173 .0296824
722.903 .0296720
723.633 .0296615
724.362 .0296511
725.091 .0296408
725.820 .0296305
726.549 .0296203
727.278 .0296101
728.006 .0296000
728.734 .0295900
729.462 .0295800
730.190 .0295701
730.917 .0295603
731.644 .0295506
732.371 .0295410
733.098 .0295315
733.825 .0295222
734.551 .0295130
735.277 .0295040
736.003 .0294951
736.728 .0294863
737.454 .0294776
738.179 .0294690
738.904 .0294605
739.629 .0294519
740.353 .0294433
741.077 .0294346
741.801 .0294258
742.525 .0294168
743.249 .0294076
743.972 .0293982
744.695 .0293886
745.418 .0293788
746.141 .0293688
746.863 .0293585
747.585 .0293480
748.307 .0293372
749.029 .0293260
749.750 .0293144
750.472 .0293025
751.193 .0292901
751.913 .0292774
752.634 .0292643
753.354 .0292511
754.074 .0292378
754.794 .0292245
755.514 .0292113
756.233 .0291983
756.952 .0291856
757.671 .0291732
758.390 .0291611
759.108 .0291494
759.826 .0291381
760.544 .0291272
761.262 .0291167
761.979 .0291066
762.697 .0290969
763.414 .0290876
764.130 .0290786
764.847 .0290700
765.563 .0290617
766.279 .0290537
766.995 .0290460
767.710 .0290384
768.426 .0290310
769.141 .0290237
769.855 .0290165
770.570 .0290091
771.284 .0290018
771.998 .0289943
772.712 .0289867
773.426 .0289791
774.139 .0289713
774.852 .0289635
775.565 .0289557
776.277 .0289478
776.990 .0289399
777.702 .0289320
778.414 .0289242
779.125 .0289164
779.836 .0289088
780.547 .0289015
781.258 .0288944
781.969 .0288876
782.679 .0288811
783.389 .0288727
784.099 .0288667
784.808 .0288609
785.517 .0288552
786.226 .0288497
786.935 .0288442
787.643 .0288389
788.352 .0288336
789.060 .0288283
789.767 .0288229
790.475 .0288176
791.182 .0288122
791.889 .0288088
792.595 .0288031
793.301 .0287973
794.008 .0287914
794.713 .0287852
795.419 .0287789
796.124 .0287722
796.829 .0287653
797.534 .0287581
798.238 .0287506
798.942 .0287428
799.646 .0287349
800.350 .0287269
801.053 .0287189
801.756 .0287109
802.459 .0287028
803.162 .0286948
803.864 .0286868
804.566 .0286788
805.267 .0286707
805.969 .0286625
806.670 .0286542
807.371 .0286459
808.071 .0286375
808.772 .0286290
809.472 .0286205
810.171 .0286119
810.871 .0286032
811.570 .0285944
812.269 .0285855
812.967 .0285765
813.666 .0285673
814.364 .0285578
815.061 .0285482
815.759 .0285382
816.456 .0285280
817.153 .0285173
817.849 .0285064
818.545 .0284950
819.241 .0284833
819.937 .0284713
820.632 .0284589
821.327 .0284463
822.022 .0284333
822.717 .0284201
823.411 .0284066
824.105 .0283928
824.798 .0283788
825.491 .0283645
826.184 .0283499
826.877 .0283351
827.569 .0283200
828.261 .0283047
828.953 .0282893
829.645 .0282738
830.336 .0282583
831.027 .0282427
831.717 .0282273
832.407 .0282119
833.097 .0281967
833.787 .0281817
834.476 .0281669
835.165 .0281523
835.854 .0281379
836.542 .0281237
837.230 .0281097
837.918 .0280959
838.605 .0280823
839.292 .0280689
839.979 .0280556
840.665 .0280426
841.352 .0280298
842.037 .0280173
842.723 .0280051
843.408 .0279932
844.093 .0279815
844.777 .0279701
845.462 .0279589
846.145 .0279478
846.829 .0279370
847.512 .0279263
848.195 .0279157
848.878 .0279052
849.560 .0278948
850.242 .0278844
850.923 .0278742
851.605 .0278640
852.286 .0278538
852.966 .0278436
853.646 .0278334
854.326 .0278233
855.006 .0278131
855.685 .0278031
856.364 .0277931
857.043 .0277832
857.721 .0277734
858.399 .0277637
859.077 .0277540
859.754 .0277444
860.431 .0277348
861.107 .0277252
861.784 .0277157
862.459 .0277062
863.135 .0276967
863.810 .0276873
864.485 .0276780
865.160 .0276687
865.834 .0276594
866.508 .0276501
867.181 .0276408
867.854 .0276313
868.527 .0276218
869.199 .0276123
869.872 .0276027
870.543 .0275932
871.215 .0275836
871.886 .0275742
872.557 .0275650
873.227 .0275558
873.897 .0275469
874.567 .0275381
875.236 .0275296
875.905 .0275212
876.573 .0275130
877.242 .0275049
877.909 .0274970
878.577 .0274892
879.244 .0274816
879.911 .0274740
880.577 .0274666
881.243 .0274594
881.909 .0274523
882.575 .0274453
883.240 .0274385
883.904 .0274318
884.569 .0274252
885.232 .0274187
885.896 .0274123
886.559 .0274060
887.222 .0273998
887.885 .0273937
888.547 .0273876
889.208 .0273816
889.870 .0273757
890.531 .0273697
891.192 .0273637
891.852 .0273577
892.512 .0273516
893.171 .0273454
893.830 .0273391
894.489 .0273327
895.148 .0273262
895.806 .0273196
896.464 .0273129
897.121 .0273059
897.778 .0272987
898.434 .0272913
899.091 .0272790
899.747 .0272708
900.402 .0272624
901.057 .0272537
901.712 .0272450
902.366 .0272361
903.020 .0272270
903.674 .0272178
904.327 .0272083
904.980 .0271986
905.633 .0271885
906.285 .0271782
906.936 .0271675
907.588 .0271614
908.239 .0271503
908.889 .0271388
909.540 .0271271
910.190 .0271151
910.839 .0271028
911.488 .0270902
912.137 .0270773
912.785 .0270642
913.433 .0270508
914.081 .0270371
914.728 .0270231
915.375 .0270088
916.021 .0269943
916.668 .0269796
917.313 .0269646
917.959 .0269494
918.604 .0269339
919.248 .0269182
919.892 .0269022
920.536 .0268859
921.180 .0268694
921.823 .0268525
922.465 .0268353
923.108 .0268178
923.750 .0267999
924.391 .0267816
925.032 .0267631
925.673 .0267443
926.313 .0267252
926.953 .0267058
927.593 .0266862
928.232 .0266664
928.871 .0266463
929.510 .0266261
930.148 .0266058
930.786 .0265853
931.423 .0265647
932.060 .0265440
932.697 .0265233
933.333 .0265027
933.969 .0264820
934.604 .0264613
935.239 .0264406
935.874 .0264199
936.508 .0263990
937.142 .0263781
937.776 .0263571
938.409 .0263360
939.042 .0263148
939.674 .0262935
940.306 .0262722
940.938 .0262509
941.569 .0262296
942.200 .0262083
942.830 .0261870
943.460 .0261658
944.090 .0261447
944.720 .0261237
945.349 .0261028
945.977 .0260822
946.606 .0260619
947.233 .0260418
947.861 .0260221
948.488 .0260027
949.115 .0259838
949.741 .0259652
950.367 .0259471
950.993 .0259294
951.618 .0259121
952.243 .0258952
952.868 .0258788
953.492 .0258627
954.115 .0258471
954.739 .0258319
955.362 .0258172
955.984 .0258031
956.607 .0257894
957.229 .0257764
957.850 .0257640
958.471 .0257521
959.092 .0257407
959.713 .0257299
960.333 .0257196
960.952 .0257097
961.572 .0257003
962.191 .0256913
962.809 .0256826
963.428 .0256744
964.045 .0256666
964.663 .0256591
965.280 .0256520
965.897 .0256451
966.513 .0256385
967.129 .0256321
967.745 .0256259
968.361 .0256198
968.976 .0256140
969.590 .0256085
970.205 .0256032
970.818 .0255982
971.432 .0255935
972.045 .0255891
972.658 .0255850
973.271 .0255812
973.883 .0255777
974.495 .0255744
975.106 .0255714
975.717 .0255686
976.328 .0255660
976.938 .0255636
977.548 .0255614
978.158 .0255592
978.768 .0255559
979.377 .0255534
979.985 .0255509
980.594 .0255482
981.202 .0255454
981.809 .0255426
982.417 .0255398
983.024 .0255369
983.631 .0255341
984.237 .0255315
984.843 .0255289
985.449 .0255265
986.054 .0255242
986.659 .0255220
987.264 .0255211
987.868 .0255193
988.472 .0255177
989.076 .0255161
989.679 .0255147
990.282 .0255134
990.885 .0255121
991.487 .0255109
992.090 .0255098
992.691 .0255088
993.293 .0255080
993.894 .0255074
994.495 .0255069
995.095 .0255067
995.696 .0255068
996.296 .0255071
996.895 .0255077
997.494 .0255086
998.093 .0255098
998.692 .0255113
999.291 .0255131
999.889 .0255151
1000.487 .0255174
1001.084 .0255200
1001.681 .0255228
1002.278 .0255258
1002.875 .0255288
1003.471 .0255319
1004.067 .0255349
1004.663 .0255377
1005.258 .0255403
1005.854 .0255425
1006.449 .0255445
1007.043 .0255460
1007.638 .0255472
1008.232 .0255480
1008.826 .0255485
1009.419 .0255487
1010.012 .0255485
1010.605 .0255481
1011.198 .0255473
1011.791 .0255462
1012.383 .0255448
1012.975 .0255432
1013.566 .0255414
1014.158 .0255396
1014.749 .0255376
1015.340 .0255357
1015.931 .0255338
1016.521 .0255319
1017.111 .0255301
1017.701 .0255283
1018.291 .0255265
1018.880 .0255246
1019.470 .0255226
1020.059 .0255205
1020.647 .0255183
1021.236 .0255160
1021.824 .0255136
1022.412 .0255113
1023.000 .0255090
1023.588 .0255067
1024.175 .0255045
1024.762 .0255023
1025.349 .0255000
1025.936 .0254977
1026.523 .0254953
1027.109 .0254927
1027.695 .0254900
1028.281 .0254872
1028.867 .0254844
1029.452 .0254817
1030.038 .0254790
1030.623 .0254763
1031.208 .0254738
1031.792 .0254712
1032.377 .0254686
1032.961 .0254659
1033.546 .0254630
1034.130 .0254598
1034.714 .0254563
1035.297 .0254526
1035.881 .0254488
1036.464 .0254448
1037.047 .0254408
1037.630 .0254368
1038.213 .0254328
1038.796 .0254289
1039.378 .0254250
1039.961 .0254210
1040.543 .0254170
1041.125 .0254129
1041.707 .0254087
1042.289 .0254045
1042.871 .0254001
1043.452 .0253957
1044.034 .0253912
1044.615 .0253866
1045.196 .0253818
1045.777 .0253767
1046.358 .0253713
1046.939 .0253655
1047.520 .0253591
1048.101 .0253522
1048.681 .0253448
1049.262 .0253369
1049.842 .0253286
1050.422 .0253200
1051.002 .0253112
1051.582 .0253021
1052.162 .0252930
1052.742 .0252838
1053.322 .0252744
1053.902 .0252649
1054.482 .0252554
1055.061 .0252460
1055.641 .0252367
1056.220 .0252276
1056.800 .0252190
1057.379 .0252109
1057.958 .0252033
1058.538 .0251963
1059.117 .0251897
1059.696 .0251837
1060.275 .0251780
1060.854 .0251726
1061.433 .0251675
1062.012 .0251626
1062.592 .0251581
1063.171 .0251540
1063.750 .0251504
1064.329 .0251472
1064.908 .0251446
1065.487 .0251424
1066.066 .0251406
1066.645 .0251389
1067.224 .0251372
1067.803 .0251354
1068.382 .0251335
1068.961 .0251314
1069.540 .0251290
1070.119 .0251266
1070.698 .0251240
1071.278 .0251213
1071.857 .0251183
1072.436 .0251150
1073.016 .0251111
1073.595 .0251066
1074.175 .0251013
1074.754 .0250952
1075.334 .0250883
1075.913 .0250807
1076.493 .0250727
1077.073 .0250642
1077.653 .0250555
1078.233 .0250467
1078.813 .0250379
1079.393 .0250290
1079.974 .0250200
1080.554 .0250110
1081.135 .0250019
1081.716 .0249927
1082.296 .0249835
1082.877 .0249745
1083.458 .0249658
1084.040 .0249575
1084.621 .0249497
1085.202 .0249426
1085.784 .0249360
1086.366 .0249301
1086.948 .0249248
1087.530 .0249200
1088.112 .0249156
1088.695 .0249117
1089.277 .0249080
1089.860 .0249048
1090.443 .0249019
1091.026 .0248995
1091.610 .0248975
1092.193 .0248960
1092.777 .0248951
1093.361 .0248946
1093.946 .0248946
1094.530 .0248949
1095.115 .0248955
1095.700 .0248962
1096.285 .0248970
1096.871 .0248978
1097.456 .0248987
1098.042 .0248996
1098.628 .0249006
1099.215 .0249017
1099.802 .0249029
1100.389 .0249042
1100.976 .0249055
1101.564 .0249069
1102.152 .0249085
1102.740 .0249102
1103.329 .0249122
1103.917 .0249147
1104.507 .0249179
1105.096 .0249219
1105.686 .0249270
1106.276 .0249332
1106.867 .0249408
1107.457 .0249498
1108.049 .0249601
1108.640 .0249718
1109.232 .0249849
1109.825 .0249991
1110.417 .0250144
1111.010 .0250306
1111.604 .0250476
1112.198 .0250652
1112.792 .0250834
1113.387 .0251017
1113.982 .0251203
1114.577 .0251390
1115.173 .0251577
1115.769 .0251764
1116.366 .0251950
1116.963 .0252137
1117.561 .0252322
1118.159 .0252507
1118.758 .0252691
1119.357 .0252876
1119.957 .0253064
1120.557 .0253257
1121.157 .0253456
1121.758 .0253663
1122.360 .0253878
1122.962 .0254099
1123.564 .0254324
1124.167 .0254428
1124.771 .0254651
1125.375 .0254873
1125.980 .0255094
1126.585 .0255312
1127.191 .0255529
1127.797 .0255747
1128.404 .0255969
1129.012 .0256200
1129.620 .0256442
1130.229 .0256699
1130.838 .0256972
1131.448 .0257261
1132.058 .0257568
1132.669 .0258025
1133.281 .0258384
1133.894 .0258765
1134.507 .0259151
1135.120 .0259613
1135.735 .0260083
1136.350 .0260589
1136.965 .0260521
1137.582 .0261013
1138.199 .0261520
1138.816 .0262008
1139.435 .0262485
1140.054 .0262984
1140.674 .0263497
1141.294 .0264073
1141.916 .0264661
1142.538 .0264809
1143.160 .0266892
1143.784 .0267192
1144.408 .0268266
1145.033 .0267219
