Measurement Sequence started on: 14-45-04-498
Integration time: 36
Scans to Average: 2 
>>>>>Begin Spectral Data<<<<<
433.946 .0564423
434.870 .0519587
435.793 .0459350
436.715 .0458488
437.635 .0443154
438.555 .0455113
439.473 .0447641
440.389 .0443371
441.305 .0441625
442.219 .0440087
443.132 .0444989
444.044 .0440234
444.954 .0438585
445.863 .0436902
446.771 .0435943
447.678 .0434266
448.584 .0432892
449.488 .0431652
450.391 .0430418
451.293 .0429189
452.194 .0427950
453.094 .0426699
453.992 .0425439
454.890 .0424156
455.786 .0422850
456.681 .0421512
457.575 .0420133
458.468 .0418716
459.360 .0417271
460.250 .0415806
461.140 .0414332
462.028 .0412865
462.915 .0411426
463.801 .0410022
464.687 .0408660
465.571 .0407340
466.454 .0406059
467.335 .0404815
468.216 .0403598
469.096 .0402403
469.975 .0401236
470.853 .0400097
471.729 .0398997
472.605 .0397948
473.479 .0396961
474.353 .0396043
475.226 .0395197
476.097 .0394423
476.968 .0393719
477.838 .0393078
478.706 .0392497
479.574 .0391968
480.441 .0391490
481.306 .0391059
482.171 .0390672
483.035 .0390327
483.898 .0390023
484.760 .0389751
485.621 .0389509
486.481 .0389289
487.340 .0389086
488.198 .0388892
489.055 .0388697
489.912 .0388492
490.767 .0388269
491.622 .0387798
492.476 .0387469
493.329 .0387094
494.180 .0386672
495.032 .0386202
495.882 .0385690
496.731 .0385142
497.580 .0384565
498.427 .0383967
499.274 .0383353
500.120 .0383013
500.965 .0382394
501.809 .0381764
502.653 .0381123
503.495 .0380469
504.337 .0379803
505.178 .0379129
506.018 .0378454
506.858 .0377787
507.696 .0377136
508.534 .0376508
509.371 .0375910
510.208 .0375340
511.043 .0374793
511.878 .0374260
512.712 .0373728
513.545 .0373184
514.377 .0372614
515.209 .0372011
516.040 .0371374
516.870 .0370705
517.699 .0370012
518.528 .0369303
519.356 .0368587
520.183 .0367868
521.010 .0367148
521.836 .0366425
522.661 .0365692
523.485 .0364948
524.309 .0364194
525.132 .0363432
525.954 .0362670
526.776 .0361917
527.597 .0361188
528.417 .0360496
529.237 .0359854
530.056 .0359272
530.874 .0358748
531.692 .0358286
532.508 .0357881
533.325 .0357520
534.140 .0357198
534.955 .0356905
535.770 .0356635
536.583 .0356384
537.397 .0356154
538.209 .0355947
539.021 .0355771
539.832 .0355634
540.643 .0355533
541.453 .0355463
542.262 .0355419
543.071 .0355385
543.879 .0355349
544.687 .0355297
545.494 .0355221
546.300 .0355113
547.106 .0354970
547.911 .0354797
548.716 .0354599
549.520 .0354381
550.323 .0354154
551.126 .0353917
551.929 .0353675
552.731 .0353425
553.532 .0353165
554.332 .0352890
555.133 .0352595
555.932 .0352276
556.731 .0351931
557.530 .0351559
558.328 .0351166
559.125 .0350755
559.922 .0350336
560.719 .0349915
561.515 .0349502
562.310 .0349100
563.105 .0348714
563.899 .0348344
564.693 .0347992
565.487 .0347652
566.280 .0347323
567.072 .0347001
567.864 .0346683
568.655 .0346366
569.446 .0346050
570.236 .0345733
571.026 .0345415
571.816 .0345096
572.605 .0344777
573.393 .0344458
574.181 .0344138
574.969 .0343815
575.756 .0343487
576.543 .0343151
577.329 .0342807
578.115 .0342449
578.900 .0342081
579.685 .0341699
580.469 .0341307
581.253 .0340908
582.036 .0340508
582.820 .0340109
583.602 .0339718
584.384 .0339337
585.166 .0338970
585.947 .0338618
586.728 .0338284
587.509 .0337969
588.289 .0337672
589.069 .0337392
589.848 .0337129
590.627 .0336878
591.405 .0336639
592.183 .0336411
592.961 .0336190
593.738 .0335974
594.515 .0335762
595.291 .0335552
596.067 .0335344
596.843 .0335138
597.618 .0334935
598.393 .0334633
599.167 .0334439
599.941 .0334247
600.715 .0334057
601.488 .0333867
602.261 .0333676
603.034 .0333482
603.806 .0333286
604.578 .0333087
605.349 .0332886
606.121 .0332686
606.891 .0332594
607.662 .0332399
608.432 .0332208
609.201 .0332022
609.971 .0331840
610.740 .0331662
611.508 .0331486
612.277 .0331311
613.045 .0331135
613.812 .0330959
614.579 .0330779
615.346 .0330597
616.113 .0330411
616.879 .0330222
617.645 .0330028
618.411 .0329829
619.176 .0329627
619.941 .0329422
620.705 .0329214
621.470 .0329004
622.233 .0328793
622.997 .0328580
623.760 .0328365
624.523 .0328148
625.286 .0327929
626.048 .0327708
626.810 .0327487
627.572 .0327266
628.333 .0327047
629.095 .0326831
629.855 .0326621
630.616 .0326415
631.376 .0326216
632.136 .0326023
632.895 .0325834
633.655 .0325650
634.414 .0325470
635.172 .0325293
635.931 .0325119
636.689 .0324947
637.447 .0324777
638.204 .0324608
638.962 .0324442
639.718 .0324277
640.475 .0324115
641.231 .0323955
641.988 .0323798
642.743 .0323644
643.499 .0323491
644.254 .0323339
645.009 .0323188
645.764 .0323036
646.518 .0322884
647.272 .0322730
648.026 .0322576
648.780 .0322422
649.533 .0322269
650.286 .0322117
651.039 .0321967
651.792 .0321819
652.544 .0321672
653.296 .0321527
654.048 .0321382
654.799 .0321237
655.550 .0321092
656.301 .0320947
657.052 .0320802
657.802 .0320657
658.552 .0320512
659.302 .0320367
660.052 .0320222
660.801 .0320078
661.550 .0319934
662.299 .0319791
663.048 .0319649
663.796 .0319508
664.544 .0319366
665.292 .0319225
666.040 .0319083
666.787 .0318940
667.534 .0318795
668.281 .0318650
669.028 .0318504
669.774 .0318359
670.521 .0318216
671.266 .0318075
672.012 .0317939
672.758 .0317806
673.503 .0317676
674.248 .0317549
674.992 .0317424
675.737 .0317299
676.481 .0317174
677.225 .0317049
677.969 .0316925
678.712 .0316801
679.455 .0316679
680.199 .0316559
680.941 .0316442
681.684 .0316328
682.426 .0316216
683.168 .0316106
683.910 .0315997
684.652 .0315887
685.393 .0315776
686.134 .0315665
686.875 .0315553
687.616 .0315441
688.356 .0315329
689.097 .0315219
689.837 .0315109
690.576 .0315001
691.316 .0314893
692.055 .0314786
692.794 .0314679
693.533 .0314571
694.272 .0314463
695.010 .0314355
695.748 .0314246
696.486 .0314137
697.224 .0314027
697.962 .0313916
698.699 .0313805
699.436 .0313693
700.173 .0313581
700.909 .0313469
701.646 .0313357
702.382 .0313246
703.118 .0313136
703.853 .0313026
704.589 .0312916
705.324 .0312806
706.059 .0312695
706.794 .0312582
707.529 .0312468
708.263 .0312352
708.997 .0312235
709.731 .0312116
710.465 .0311997
711.198 .0311875
711.931 .0311752
712.664 .0311627
713.397 .0311499
714.130 .0311367
714.862 .0311231
715.594 .0311090
716.326 .0310944
717.058 .0310794
717.789 .0310640
718.520 .0310482
719.251 .0310321
719.982 .0310156
720.713 .0309989
721.443 .0309819
722.173 .0309646
722.903 .0309472
723.633 .0309297
724.362 .0309121
725.091 .0308945
725.820 .0308770
726.549 .0308596
727.278 .0308424
728.006 .0308255
728.734 .0308089
729.462 .0307928
730.190 .0307770
730.917 .0307616
731.644 .0307467
732.371 .0307322
733.098 .0307183
733.825 .0307049
734.551 .0306920
735.277 .0306796
736.003 .0306676
736.728 .0306560
737.454 .0306447
738.179 .0306338
738.904 .0306233
739.629 .0306130
740.353 .0306030
741.077 .0305932
741.801 .0305838
742.525 .0305745
743.249 .0305654
743.972 .0305564
744.695 .0305473
745.418 .0305382
746.141 .0305290
746.863 .0305196
747.585 .0305101
748.307 .0305005
749.029 .0304909
749.750 .0304811
750.472 .0304712
751.193 .0304613
751.913 .0304512
752.634 .0304411
753.354 .0304309
754.074 .0304208
754.794 .0304108
755.514 .0304008
756.233 .0303909
756.952 .0303811
757.671 .0303714
758.390 .0303616
759.108 .0303516
759.826 .0303416
760.544 .0303314
761.262 .0303211
761.979 .0303107
762.697 .0303001
763.414 .0302895
764.130 .0302786
764.847 .0302675
765.563 .0302561
766.279 .0302443
766.995 .0302323
767.710 .0302199
768.426 .0302073
769.141 .0301945
769.855 .0301814
770.570 .0301681
771.284 .0301546
771.998 .0301408
772.712 .0301268
773.426 .0301126
774.139 .0300982
774.852 .0300836
775.565 .0300690
776.277 .0300544
776.990 .0300398
777.702 .0300254
778.414 .0300111
779.125 .0299969
779.836 .0299828
780.547 .0299688
781.258 .0299551
781.969 .0299417
782.679 .0299285
783.389 .0299101
784.099 .0298978
784.808 .0298860
785.517 .0298746
786.226 .0298635
786.935 .0298527
787.643 .0298422
788.352 .0298319
789.060 .0298218
789.767 .0298119
790.475 .0298021
791.182 .0297924
791.889 .0297877
792.595 .0297778
793.301 .0297678
794.008 .0297577
794.713 .0297474
795.419 .0297368
796.124 .0297261
796.829 .0297152
797.534 .0297040
798.238 .0296925
798.942 .0296809
799.646 .0296691
800.350 .0296570
801.053 .0296449
801.756 .0296326
802.459 .0296204
803.162 .0296082
803.864 .0295963
804.566 .0295846
805.267 .0295732
805.969 .0295622
806.670 .0295516
807.371 .0295414
808.071 .0295317
808.772 .0295224
809.472 .0295135
810.171 .0295050
810.871 .0294968
811.570 .0294890
812.269 .0294815
812.967 .0294742
813.666 .0294670
814.364 .0294599
815.061 .0294528
815.759 .0294455
816.456 .0294380
817.153 .0294303
817.849 .0294222
818.545 .0294138
819.241 .0294049
819.937 .0293955
820.632 .0293857
821.327 .0293752
822.022 .0293641
822.717 .0293524
823.411 .0293400
824.105 .0293271
824.798 .0293136
825.491 .0292996
826.184 .0292852
826.877 .0292704
827.569 .0292554
828.261 .0292401
828.953 .0292246
829.645 .0292089
830.336 .0291931
831.027 .0291774
831.717 .0291616
832.407 .0291460
833.097 .0291307
833.787 .0291158
834.476 .0291012
835.165 .0290871
835.854 .0290733
836.542 .0290600
837.230 .0290471
837.918 .0290344
838.605 .0290221
839.292 .0290099
839.979 .0289979
840.665 .0289860
841.352 .0289741
842.037 .0289623
842.723 .0289503
843.408 .0289383
844.093 .0289260
844.777 .0289135
845.462 .0289008
846.145 .0288877
846.829 .0288742
847.512 .0288604
848.195 .0288462
848.878 .0288315
849.560 .0288164
850.242 .0288008
850.923 .0287847
851.605 .0287682
852.286 .0287512
852.966 .0287338
853.646 .0287159
854.326 .0286977
855.006 .0286791
855.685 .0286602
856.364 .0286411
857.043 .0286219
857.721 .0286025
858.399 .0285832
859.077 .0285641
859.754 .0285453
860.431 .0285268
861.107 .0285089
861.784 .0284914
862.459 .0284746
863.135 .0284583
863.810 .0284426
864.485 .0284276
865.160 .0284133
865.834 .0283996
866.508 .0283867
867.181 .0283745
867.854 .0283631
868.527 .0283523
869.199 .0283423
869.872 .0283328
870.543 .0283238
871.215 .0283153
871.886 .0283072
872.557 .0282996
873.227 .0282924
873.897 .0282856
874.567 .0282792
875.236 .0282732
875.905 .0282676
876.573 .0282623
877.242 .0282572
877.909 .0282524
878.577 .0282478
879.244 .0282432
879.911 .0282389
880.577 .0282346
881.243 .0282305
881.909 .0282264
882.575 .0282224
883.240 .0282184
883.904 .0282144
884.569 .0282105
885.232 .0282065
885.896 .0282027
886.559 .0281989
887.222 .0281953
887.885 .0281919
888.547 .0281885
889.208 .0281854
889.870 .0281823
890.531 .0281792
891.192 .0281761
891.852 .0281728
892.512 .0281693
893.171 .0281656
893.830 .0281617
894.489 .0281574
895.148 .0281529
895.806 .0281481
896.464 .0281431
897.121 .0281378
897.778 .0281322
898.434 .0281265
899.091 .0281169
899.747 .0281105
900.402 .0281038
901.057 .0280968
901.712 .0280894
902.366 .0280817
903.020 .0280735
903.674 .0280648
904.327 .0280556
904.980 .0280458
905.633 .0280355
906.285 .0280246
906.936 .0280130
907.588 .0280055
908.239 .0279930
908.889 .0279797
909.540 .0279658
910.190 .0279512
910.839 .0279361
911.488 .0279205
912.137 .0279044
912.785 .0278881
913.433 .0278716
914.081 .0278548
914.728 .0278379
915.375 .0278207
916.021 .0278032
916.668 .0277854
917.313 .0277672
917.959 .0277487
918.604 .0277299
919.248 .0277108
919.892 .0276915
920.536 .0276720
921.180 .0276523
921.823 .0276325
922.465 .0276123
923.108 .0275919
923.750 .0275712
924.391 .0275502
925.032 .0275289
925.673 .0275073
926.313 .0274856
926.953 .0274637
927.593 .0274419
928.232 .0274200
928.871 .0273981
929.510 .0273761
930.148 .0273541
930.786 .0273319
931.423 .0273096
932.060 .0272872
932.697 .0272648
933.333 .0272424
933.969 .0272201
934.604 .0271979
935.239 .0271760
935.874 .0271544
936.508 .0271330
937.142 .0271118
937.776 .0270909
938.409 .0270703
939.042 .0270500
939.674 .0270301
940.306 .0270107
940.938 .0269917
941.569 .0269732
942.200 .0269553
942.830 .0269379
943.460 .0269212
944.090 .0269050
944.720 .0268894
945.349 .0268744
945.977 .0268600
946.606 .0268461
947.233 .0268328
947.861 .0268200
948.488 .0268077
949.115 .0267961
949.741 .0267850
950.367 .0267745
950.993 .0267646
951.618 .0267553
952.243 .0267465
952.868 .0267382
953.492 .0267303
954.115 .0267226
954.739 .0267151
955.362 .0267078
955.984 .0267007
956.607 .0266936
957.229 .0266868
957.850 .0266803
958.471 .0266740
959.092 .0266681
959.713 .0266625
960.333 .0266571
960.952 .0266518
961.572 .0266467
962.191 .0266416
962.809 .0266365
963.428 .0266315
964.045 .0266267
964.663 .0266221
965.280 .0266178
965.897 .0266138
966.513 .0266101
967.129 .0266067
967.745 .0266033
968.361 .0266001
968.976 .0265970
969.590 .0265939
970.205 .0265910
970.818 .0265884
971.432 .0265862
972.045 .0265845
972.658 .0265833
973.271 .0265826
973.883 .0265823
974.495 .0265823
975.106 .0265825
975.717 .0265828
976.328 .0265833
976.938 .0265838
977.548 .0265845
978.158 .0265854
978.768 .0265868
979.377 .0265881
979.985 .0265895
980.594 .0265910
981.202 .0265924
981.809 .0265935
982.417 .0265945
983.024 .0265951
983.631 .0265955
984.237 .0265956
984.843 .0265955
985.449 .0265953
986.054 .0265950
986.659 .0265945
987.264 .0265938
987.868 .0265933
988.472 .0265925
989.076 .0265916
989.679 .0265904
990.282 .0265888
990.885 .0265870
991.487 .0265850
992.090 .0265827
992.691 .0265802
993.293 .0265774
993.894 .0265744
994.495 .0265712
995.095 .0265675
995.696 .0265635
996.296 .0265590
996.895 .0265541
997.494 .0265487
998.093 .0265428
998.692 .0265364
999.291 .0265296
999.889 .0265223
1000.487 .0265145
1001.084 .0265062
1001.681 .0264975
1002.278 .0264884
1002.875 .0264789
1003.471 .0264690
1004.067 .0264587
1004.663 .0264481
1005.258 .0264371
1005.854 .0264255
1006.449 .0264135
1007.043 .0264009
1007.638 .0263878
1008.232 .0263742
1008.826 .0263604
1009.419 .0263463
1010.012 .0263322
1010.605 .0263181
1011.198 .0263041
1011.791 .0262903
1012.383 .0262765
1012.975 .0262629
1013.566 .0262494
1014.158 .0262359
1014.749 .0262225
1015.340 .0262094
1015.931 .0261966
1016.521 .0261842
1017.111 .0261725
1017.701 .0261613
1018.291 .0261506
1018.880 .0261404
1019.470 .0261306
1020.059 .0261210
1020.647 .0261115
1021.236 .0261021
1021.824 .0260928
1022.412 .0260837
1023.000 .0260749
1023.588 .0260666
1024.175 .0260587
1024.762 .0260514
1025.349 .0260445
1025.936 .0260379
1026.523 .0260315
1027.109 .0260252
1027.695 .0260190
1028.281 .0260127
1028.867 .0260064
1029.452 .0260002
1030.038 .0259942
1030.623 .0259884
1031.208 .0259828
1031.792 .0259774
1032.377 .0259721
1032.961 .0259666
1033.546 .0259610
1034.130 .0259552
1034.714 .0259491
1035.297 .0259427
1035.881 .0259362
1036.464 .0259296
1037.047 .0259230
1037.630 .0259165
1038.213 .0259102
1038.796 .0259041
1039.378 .0258982
1039.961 .0258925
1040.543 .0258869
1041.125 .0258813
1041.707 .0258759
1042.289 .0258706
1042.871 .0258655
1043.452 .0258607
1044.034 .0258561
1044.615 .0258518
1045.196 .0258481
1045.777 .0258448
1046.358 .0258421
1046.939 .0258399
1047.520 .0258382
1048.101 .0258368
1048.681 .0258358
1049.262 .0258351
1049.842 .0258349
1050.422 .0258349
1051.002 .0258353
1051.582 .0258362
1052.162 .0258378
1052.742 .0258400
1053.322 .0258429
1053.902 .0258466
1054.482 .0258510
1055.061 .0258558
1055.641 .0258612
1056.220 .0258669
1056.800 .0258729
1057.379 .0258792
1057.958 .0258858
1058.538 .0258928
1059.117 .0259001
1059.696 .0259078
1060.275 .0259157
1060.854 .0259236
1061.433 .0259313
1062.012 .0259385
1062.592 .0259451
1063.171 .0259507
1063.750 .0259553
1064.329 .0259589
1064.908 .0259617
1065.487 .0259636
1066.066 .0259651
1066.645 .0259660
1067.224 .0259666
1067.803 .0259670
1068.382 .0259671
1068.961 .0259669
1069.540 .0259666
1070.119 .0259662
1070.698 .0259658
1071.278 .0259657
1071.857 .0259660
1072.436 .0259667
1073.016 .0259682
1073.595 .0259703
1074.175 .0259732
1074.754 .0259769
1075.334 .0259813
1075.913 .0259861
1076.493 .0259913
1077.073 .0259968
1077.653 .0260025
1078.233 .0260082
1078.813 .0260141
1079.393 .0260200
1079.974 .0260261
1080.554 .0260323
1081.135 .0260388
1081.716 .0260455
1082.296 .0260525
1082.877 .0260597
1083.458 .0260670
1084.040 .0260745
1084.621 .0260820
1085.202 .0260897
1085.784 .0260974
1086.366 .0261052
1086.948 .0261128
1087.530 .0261203
1088.112 .0261275
1088.695 .0261344
1089.277 .0261408
1089.860 .0261465
1090.443 .0261516
1091.026 .0261557
1091.610 .0261590
1092.193 .0261615
1092.777 .0261634
1093.361 .0261648
1093.946 .0261659
1094.530 .0261668
1095.115 .0261676
1095.700 .0261685
1096.285 .0261695
1096.871 .0261708
1097.456 .0261724
1098.042 .0261744
1098.628 .0261768
1099.215 .0261797
1099.802 .0261832
1100.389 .0261874
1100.976 .0261924
1101.564 .0261981
1102.152 .0262045
1102.740 .0262113
1103.329 .0262184
1103.917 .0262258
1104.507 .0262332
1105.096 .0262406
1105.686 .0262480
1106.276 .0262553
1106.867 .0262628
1107.457 .0262703
1108.049 .0262781
1108.640 .0262861
1109.232 .0262942
1109.825 .0263022
1110.417 .0263101
1111.010 .0263176
1111.604 .0263248
1112.198 .0263318
1112.792 .0263389
1113.387 .0263462
1113.982 .0263541
1114.577 .0263628
1115.173 .0263725
1115.769 .0263831
1116.366 .0263944
1116.963 .0264062
1117.561 .0264184
1118.159 .0264305
1118.758 .0264425
1119.357 .0264543
1119.957 .0264662
1120.557 .0264783
1121.157 .0264908
1121.758 .0265038
1122.360 .0265172
1122.962 .0265309
1123.564 .0265447
1124.167 .0265497
1124.771 .0265635
1125.375 .0265772
1125.980 .0265911
1126.585 .0266051
1127.191 .0266198
1127.797 .0266356
1128.404 .0266527
1129.012 .0266714
1129.620 .0266917
1130.229 .0267135
1130.838 .0267363
1131.448 .0267598
1132.058 .0267837
1132.669 .0268183
1133.281 .0268419
1133.894 .0268654
1134.507 .0268897
1135.120 .0269137
1135.735 .0269343
1136.350 .0269613
1136.965 .0269550
1137.582 .0269929
1138.199 .0270298
1138.816 .0270638
1139.435 .0270954
1140.054 .0271261
1140.674 .0271504
1141.294 .0271802
1141.916 .0272043
1142.538 .0272512
1143.160 .0272606
1143.784 .0271866
1144.408 .0273775
1145.033 .0272715
