Measurement Sequence started on: 14-45-04-498
Integration time: 36
Scans to Average: 2 
>>>>>Begin Spectral Data<<<<<
433.946 .0509837
434.870 .0461720
435.793 .0402241
436.715 .0389032
437.635 .0389152
438.555 .0402402
439.473 .0396088
440.389 .0392820
441.305 .0391579
442.219 .0390544
443.132 .0393955
444.044 .0389932
444.954 .0389028
445.863 .0388812
446.771 .0388580
447.678 .0387641
448.584 .0387022
449.488 .0386556
450.391 .0386127
451.293 .0385722
452.194 .0385336
453.094 .0384972
453.992 .0384604
454.890 .0384219
455.786 .0383805
456.681 .0383356
457.575 .0382868
458.468 .0382344
459.360 .0381790
460.250 .0381210
461.140 .0380603
462.028 .0379973
462.915 .0379319
463.801 .0378648
464.687 .0377964
465.571 .0377272
466.454 .0376581
467.335 .0375903
468.216 .0375242
469.096 .0374606
469.975 .0373998
470.853 .0373423
471.729 .0372882
472.605 .0372377
473.479 .0371907
474.353 .0371468
475.226 .0371057
476.097 .0370669
476.968 .0370298
477.838 .0369940
478.706 .0369589
479.574 .0369243
480.441 .0368899
481.306 .0368555
482.171 .0368206
483.035 .0367851
483.898 .0367486
484.760 .0367107
485.621 .0366709
486.481 .0366292
487.340 .0365854
488.198 .0365397
489.055 .0364925
489.912 .0364445
490.767 .0363964
491.622 .0363276
492.476 .0362828
493.329 .0362396
494.180 .0361979
495.032 .0361575
495.882 .0361182
496.731 .0360797
497.580 .0360419
498.427 .0360049
499.274 .0359687
500.120 .0359539
500.965 .0359193
501.809 .0358859
502.653 .0358545
503.495 .0358251
504.337 .0357977
505.178 .0357723
506.018 .0357485
506.858 .0357261
507.696 .0357046
508.534 .0356838
509.371 .0356637
510.208 .0356441
511.043 .0356252
511.878 .0356069
512.712 .0355892
513.545 .0355721
514.377 .0355552
515.209 .0355382
516.040 .0355203
516.870 .0355008
517.699 .0354785
518.528 .0354527
519.356 .0354229
520.183 .0353884
521.010 .0353489
521.836 .0353043
522.661 .0352547
523.485 .0351999
524.309 .0351401
525.132 .0350757
525.954 .0350069
526.776 .0349337
527.597 .0348563
528.417 .0347750
529.237 .0346905
530.056 .0346033
530.874 .0345140
531.692 .0344234
532.508 .0343326
533.325 .0342424
534.140 .0341542
534.955 .0340689
535.770 .0339877
536.583 .0339115
537.397 .0338410
538.209 .0337763
539.021 .0337176
539.832 .0336649
540.643 .0336181
541.453 .0335770
542.262 .0335407
543.071 .0335089
543.879 .0334809
544.687 .0334564
545.494 .0334345
546.300 .0334148
547.106 .0333969
547.911 .0333803
548.716 .0333647
549.520 .0333495
550.323 .0333344
551.126 .0333189
551.929 .0333027
552.731 .0332852
553.532 .0332659
554.332 .0332442
555.133 .0332204
555.932 .0331948
556.731 .0331675
557.530 .0331387
558.328 .0331086
559.125 .0330779
559.922 .0330465
560.719 .0330145
561.515 .0329819
562.310 .0329489
563.105 .0329152
563.899 .0328807
564.693 .0328451
565.487 .0328089
566.280 .0327722
567.072 .0327354
567.864 .0326984
568.655 .0326617
569.446 .0326253
570.236 .0325894
571.026 .0325543
571.816 .0325199
572.605 .0324858
573.393 .0324520
574.181 .0324185
574.969 .0323851
575.756 .0323521
576.543 .0323196
577.329 .0322878
578.115 .0322570
578.900 .0322275
579.685 .0321992
580.469 .0321724
581.253 .0321471
582.036 .0321230
582.820 .0320998
583.602 .0320773
584.384 .0320553
585.166 .0320334
585.947 .0320117
586.728 .0319900
587.509 .0319680
588.289 .0319456
589.069 .0319225
589.848 .0318986
590.627 .0318737
591.405 .0318477
592.183 .0318205
592.961 .0317921
593.738 .0317624
594.515 .0317316
595.291 .0316998
596.067 .0316672
596.843 .0316339
597.618 .0316001
598.393 .0315483
599.167 .0315141
599.941 .0314799
600.715 .0314460
601.488 .0314123
602.261 .0313790
603.034 .0313463
603.806 .0313143
604.578 .0312831
605.349 .0312528
606.121 .0312236
606.891 .0312117
607.662 .0311840
608.432 .0311573
609.201 .0311318
609.971 .0311073
610.740 .0310839
611.508 .0310616
612.277 .0310402
613.045 .0310198
613.812 .0310001
614.579 .0309812
615.346 .0309628
616.113 .0309450
616.879 .0309276
617.645 .0309107
618.411 .0308941
619.176 .0308777
619.941 .0308616
620.705 .0308457
621.470 .0308300
622.233 .0308143
622.997 .0307986
623.760 .0307829
624.523 .0307671
625.286 .0307513
626.048 .0307353
626.810 .0307193
627.572 .0307032
628.333 .0306869
629.095 .0306705
629.855 .0306539
630.616 .0306370
631.376 .0306198
632.136 .0306022
632.895 .0305842
633.655 .0305656
634.414 .0305464
635.172 .0305266
635.931 .0305060
636.689 .0304846
637.447 .0304625
638.204 .0304395
638.962 .0304158
639.718 .0303915
640.475 .0303665
641.231 .0303411
641.988 .0303153
642.743 .0302892
643.499 .0302629
644.254 .0302363
645.009 .0302095
645.764 .0301825
646.518 .0301553
647.272 .0301281
648.026 .0301008
648.780 .0300737
649.533 .0300468
650.286 .0300203
651.039 .0299942
651.792 .0299688
652.544 .0299439
653.296 .0299197
654.048 .0298963
654.799 .0298735
655.550 .0298515
656.301 .0298300
657.052 .0298093
657.802 .0297891
658.552 .0297695
659.302 .0297504
660.052 .0297318
660.801 .0297137
661.550 .0296959
662.299 .0296786
663.048 .0296616
663.796 .0296451
664.544 .0296291
665.292 .0296136
666.040 .0295987
666.787 .0295842
667.534 .0295704
668.281 .0295570
669.028 .0295442
669.774 .0295318
670.521 .0295200
671.266 .0295088
672.012 .0294981
672.758 .0294880
673.503 .0294785
674.248 .0294697
674.992 .0294616
675.737 .0294540
676.481 .0294470
677.225 .0294404
677.969 .0294342
678.712 .0294283
679.455 .0294225
680.199 .0294169
680.941 .0294114
681.684 .0294059
682.426 .0294004
683.168 .0293949
683.910 .0293894
684.652 .0293837
685.393 .0293779
686.134 .0293719
686.875 .0293657
687.616 .0293593
688.356 .0293525
689.097 .0293454
689.837 .0293379
690.576 .0293299
691.316 .0293214
692.055 .0293124
692.794 .0293029
693.533 .0292929
694.272 .0292824
695.010 .0292716
695.748 .0292604
696.486 .0292490
697.224 .0292373
697.962 .0292254
698.699 .0292133
699.436 .0292011
700.173 .0291887
700.909 .0291761
701.646 .0291634
702.382 .0291504
703.118 .0291372
703.853 .0291238
704.589 .0291102
705.324 .0290965
706.059 .0290825
706.794 .0290684
707.529 .0290541
708.263 .0290395
708.997 .0290249
709.731 .0290100
710.465 .0289949
711.198 .0289797
711.931 .0289643
712.664 .0289487
713.397 .0289330
714.130 .0289171
714.862 .0289009
715.594 .0288844
716.326 .0288677
717.058 .0288507
717.789 .0288335
718.520 .0288161
719.251 .0287986
719.982 .0287810
720.713 .0287634
721.443 .0287460
722.173 .0287286
722.903 .0287115
723.633 .0286946
724.362 .0286780
725.091 .0286619
725.820 .0286462
726.549 .0286311
727.278 .0286167
728.006 .0286030
728.734 .0285902
729.462 .0285782
730.190 .0285670
730.917 .0285568
731.644 .0285475
732.371 .0285391
733.098 .0285317
733.825 .0285252
734.551 .0285196
735.277 .0285149
736.003 .0285110
736.728 .0285078
737.454 .0285053
738.179 .0285033
738.904 .0285019
739.629 .0285010
740.353 .0285005
741.077 .0285004
741.801 .0285006
742.525 .0285009
743.249 .0285013
743.972 .0285016
744.695 .0285018
745.418 .0285017
746.141 .0285013
746.863 .0285005
747.585 .0284995
748.307 .0284981
749.029 .0284963
749.750 .0284941
750.472 .0284915
751.193 .0284884
751.913 .0284849
752.634 .0284810
753.354 .0284766
754.074 .0284718
754.794 .0284667
755.514 .0284613
756.233 .0284556
756.952 .0284496
757.671 .0284434
758.390 .0284370
759.108 .0284304
759.826 .0284237
760.544 .0284168
761.262 .0284099
761.979 .0284027
762.697 .0283954
763.414 .0283879
764.130 .0283802
764.847 .0283723
765.563 .0283642
766.279 .0283561
766.995 .0283479
767.710 .0283397
768.426 .0283317
769.141 .0283237
769.855 .0283158
770.570 .0283079
771.284 .0283001
771.998 .0282923
772.712 .0282845
773.426 .0282767
774.139 .0282689
774.852 .0282611
775.565 .0282534
776.277 .0282456
776.990 .0282380
777.702 .0282303
778.414 .0282227
779.125 .0282150
779.836 .0282073
780.547 .0281995
781.258 .0281916
781.969 .0281836
782.679 .0281754
783.389 .0281617
784.099 .0281527
784.808 .0281434
785.517 .0281336
786.226 .0281234
786.935 .0281128
787.643 .0281017
788.352 .0280902
789.060 .0280783
789.767 .0280661
790.475 .0280535
791.182 .0280406
791.889 .0280333
792.595 .0280202
793.301 .0280068
794.008 .0279933
794.713 .0279796
795.419 .0279658
796.124 .0279520
796.829 .0279383
797.534 .0279246
798.238 .0279112
798.942 .0278980
799.646 .0278852
800.350 .0278728
801.053 .0278608
801.756 .0278492
802.459 .0278380
803.162 .0278274
803.864 .0278173
804.566 .0278078
805.267 .0277989
805.969 .0277905
806.670 .0277828
807.371 .0277756
808.071 .0277689
808.772 .0277626
809.472 .0277567
810.171 .0277512
810.871 .0277459
811.570 .0277408
812.269 .0277359
812.967 .0277313
813.666 .0277269
814.364 .0277227
815.061 .0277185
815.759 .0277144
816.456 .0277103
817.153 .0277061
817.849 .0277017
818.545 .0276971
819.241 .0276924
819.937 .0276875
820.632 .0276825
821.327 .0276775
822.022 .0276725
822.717 .0276677
823.411 .0276630
824.105 .0276584
824.798 .0276541
825.491 .0276500
826.184 .0276461
826.877 .0276424
827.569 .0276391
828.261 .0276361
828.953 .0276335
829.645 .0276313
830.336 .0276295
831.027 .0276282
831.717 .0276273
832.407 .0276267
833.097 .0276265
833.787 .0276266
834.476 .0276269
835.165 .0276274
835.854 .0276279
836.542 .0276284
837.230 .0276290
837.918 .0276294
838.605 .0276297
839.292 .0276297
839.979 .0276294
840.665 .0276287
841.352 .0276276
842.037 .0276260
842.723 .0276238
843.408 .0276209
844.093 .0276175
844.777 .0276133
845.462 .0276085
846.145 .0276030
846.829 .0275968
847.512 .0275899
848.195 .0275823
848.878 .0275739
849.560 .0275646
850.242 .0275546
850.923 .0275438
851.605 .0275324
852.286 .0275203
852.966 .0275077
853.646 .0274948
854.326 .0274814
855.006 .0274679
855.685 .0274540
856.364 .0274399
857.043 .0274256
857.721 .0274111
858.399 .0273965
859.077 .0273817
859.754 .0273671
860.431 .0273525
861.107 .0273382
861.784 .0273241
862.459 .0273101
863.135 .0272963
863.810 .0272825
864.485 .0272688
865.160 .0272550
865.834 .0272412
866.508 .0272273
867.181 .0272135
867.854 .0271996
868.527 .0271859
869.199 .0271721
869.872 .0271583
870.543 .0271444
871.215 .0271302
871.886 .0271157
872.557 .0271009
873.227 .0270858
873.897 .0270703
874.567 .0270546
875.236 .0270387
875.905 .0270225
876.573 .0270061
877.242 .0269894
877.909 .0269725
878.577 .0269553
879.244 .0269378
879.911 .0269201
880.577 .0269023
881.243 .0268844
881.909 .0268665
882.575 .0268487
883.240 .0268310
883.904 .0268136
884.569 .0267964
885.232 .0267795
885.896 .0267629
886.559 .0267467
887.222 .0267309
887.885 .0267155
888.547 .0267006
889.208 .0266863
889.870 .0266725
890.531 .0266592
891.192 .0266465
891.852 .0266343
892.512 .0266227
893.171 .0266116
893.830 .0266012
894.489 .0265912
895.148 .0265818
895.806 .0265728
896.464 .0265643
897.121 .0265562
897.778 .0265484
898.434 .0265410
899.091 .0265309
899.747 .0265240
900.402 .0265174
901.057 .0265110
901.712 .0265046
902.366 .0264984
903.020 .0264921
903.674 .0264858
904.327 .0264795
904.980 .0264731
905.633 .0264668
906.285 .0264605
906.936 .0264542
907.588 .0264505
908.239 .0264442
908.889 .0264379
909.540 .0264314
910.190 .0264249
910.839 .0264182
911.488 .0264115
912.137 .0264047
912.785 .0263979
913.433 .0263911
914.081 .0263843
914.728 .0263776
915.375 .0263709
916.021 .0263641
916.668 .0263573
917.313 .0263503
917.959 .0263431
918.604 .0263358
919.248 .0263283
919.892 .0263207
920.536 .0263130
921.180 .0263053
921.823 .0262974
922.465 .0262895
923.108 .0262815
923.750 .0262733
924.391 .0262651
925.032 .0262567
925.673 .0262482
926.313 .0262395
926.953 .0262308
927.593 .0262219
928.232 .0262130
928.871 .0262040
929.510 .0261948
930.148 .0261855
930.786 .0261762
931.423 .0261667
932.060 .0261572
932.697 .0261475
933.333 .0261379
933.969 .0261283
934.604 .0261186
935.239 .0261091
935.874 .0260995
936.508 .0260901
937.142 .0260808
937.776 .0260715
938.409 .0260623
939.042 .0260531
939.674 .0260439
940.306 .0260347
940.938 .0260255
941.569 .0260163
942.200 .0260071
942.830 .0259978
943.460 .0259885
944.090 .0259792
944.720 .0259700
945.349 .0259607
945.977 .0259514
946.606 .0259420
947.233 .0259325
947.861 .0259229
948.488 .0259132
949.115 .0259034
949.741 .0258936
950.367 .0258837
950.993 .0258739
951.618 .0258642
952.243 .0258545
952.868 .0258449
953.492 .0258354
954.115 .0258260
954.739 .0258166
955.362 .0258074
955.984 .0257982
956.607 .0257892
957.229 .0257803
957.850 .0257717
958.471 .0257633
959.092 .0257552
959.713 .0257473
960.333 .0257396
960.952 .0257320
961.572 .0257245
962.191 .0257171
962.809 .0257097
963.428 .0257024
964.045 .0256950
964.663 .0256877
965.280 .0256804
965.897 .0256730
966.513 .0256656
967.129 .0256580
967.745 .0256502
968.361 .0256422
968.976 .0256339
969.590 .0256254
970.205 .0256165
970.818 .0256075
971.432 .0255983
972.045 .0255890
972.658 .0255794
973.271 .0255697
973.883 .0255598
974.495 .0255496
975.106 .0255391
975.717 .0255283
976.328 .0255171
976.938 .0255055
977.548 .0254937
978.158 .0254815
978.768 .0254621
979.377 .0254491
979.985 .0254357
980.594 .0254220
981.202 .0254080
981.809 .0253938
982.417 .0253794
983.024 .0253649
983.631 .0253505
984.237 .0253360
984.843 .0253216
985.449 .0253072
986.054 .0252930
986.659 .0252788
987.264 .0252717
987.868 .0252577
988.472 .0252439
989.076 .0252302
989.679 .0252167
990.282 .0252033
990.885 .0251902
991.487 .0251772
992.090 .0251644
992.691 .0251517
993.293 .0251391
993.894 .0251266
994.495 .0251142
995.095 .0251021
995.696 .0250901
996.296 .0250785
996.895 .0250671
997.494 .0250561
998.093 .0250455
998.692 .0250351
999.291 .0250251
999.889 .0250153
1000.487 .0250058
1001.084 .0249964
1001.681 .0249872
1002.278 .0249781
1002.875 .0249693
1003.471 .0249605
1004.067 .0249518
1004.663 .0249432
1005.258 .0249345
1005.854 .0249259
1006.449 .0249172
1007.043 .0249084
1007.638 .0248997
1008.232 .0248911
1008.826 .0248826
1009.419 .0248743
1010.012 .0248663
1010.605 .0248586
1011.198 .0248513
1011.791 .0248442
1012.383 .0248375
1012.975 .0248311
1013.566 .0248250
1014.158 .0248192
1014.749 .0248137
1015.340 .0248085
1015.931 .0248036
1016.521 .0247991
1017.111 .0247950
1017.701 .0247911
1018.291 .0247876
1018.880 .0247844
1019.470 .0247814
1020.059 .0247787
1020.647 .0247763
1021.236 .0247742
1021.824 .0247723
1022.412 .0247706
1023.000 .0247691
1023.588 .0247679
1024.175 .0247667
1024.762 .0247657
1025.349 .0247648
1025.936 .0247639
1026.523 .0247629
1027.109 .0247619
1027.695 .0247607
1028.281 .0247593
1028.867 .0247577
1029.452 .0247560
1030.038 .0247541
1030.623 .0247521
1031.208 .0247500
1031.792 .0247478
1032.377 .0247455
1032.961 .0247434
1033.546 .0247413
1034.130 .0247393
1034.714 .0247375
1035.297 .0247359
1035.881 .0247344
1036.464 .0247332
1037.047 .0247320
1037.630 .0247310
1038.213 .0247301
1038.796 .0247293
1039.378 .0247287
1039.961 .0247282
1040.543 .0247280
1041.125 .0247280
1041.707 .0247283
1042.289 .0247289
1042.871 .0247297
1043.452 .0247308
1044.034 .0247320
1044.615 .0247335
1045.196 .0247351
1045.777 .0247369
1046.358 .0247389
1046.939 .0247412
1047.520 .0247438
1048.101 .0247466
1048.681 .0247495
1049.262 .0247526
1049.842 .0247556
1050.422 .0247586
1051.002 .0247614
1051.582 .0247641
1052.162 .0247666
1052.742 .0247689
1053.322 .0247712
1053.902 .0247735
1054.482 .0247760
1055.061 .0247787
1055.641 .0247819
1056.220 .0247854
1056.800 .0247894
1057.379 .0247937
1057.958 .0247984
1058.538 .0248034
1059.117 .0248086
1059.696 .0248141
1060.275 .0248197
1060.854 .0248254
1061.433 .0248312
1062.012 .0248372
1062.592 .0248432
1063.171 .0248492
1063.750 .0248550
1064.329 .0248606
1064.908 .0248659
1065.487 .0248708
1066.066 .0248754
1066.645 .0248797
1067.224 .0248837
1067.803 .0248876
1068.382 .0248914
1068.961 .0248951
1069.540 .0248988
1070.119 .0249024
1070.698 .0249060
1071.278 .0249093
1071.857 .0249122
1072.436 .0249147
1073.016 .0249167
1073.595 .0249181
1074.175 .0249190
1074.754 .0249194
1075.334 .0249193
1075.913 .0249188
1076.493 .0249180
1077.073 .0249169
1077.653 .0249155
1078.233 .0249140
1078.813 .0249126
1079.393 .0249111
1079.974 .0249099
1080.554 .0249090
1081.135 .0249087
1081.716 .0249089
1082.296 .0249099
1082.877 .0249117
1083.458 .0249142
1084.040 .0249173
1084.621 .0249208
1085.202 .0249247
1085.784 .0249288
1086.366 .0249331
1086.948 .0249376
1087.530 .0249421
1088.112 .0249467
1088.695 .0249515
1089.277 .0249563
1089.860 .0249613
1090.443 .0249662
1091.026 .0249710
1091.610 .0249758
1092.193 .0249805
1092.777 .0249852
1093.361 .0249900
1093.946 .0249950
1094.530 .0250004
1095.115 .0250061
1095.700 .0250121
1096.285 .0250182
1096.871 .0250243
1097.456 .0250302
1098.042 .0250356
1098.628 .0250402
1099.215 .0250441
1099.802 .0250471
1100.389 .0250493
1100.976 .0250509
1101.564 .0250520
1102.152 .0250528
1102.740 .0250533
1103.329 .0250537
1103.917 .0250540
1104.507 .0250543
1105.096 .0250545
1105.686 .0250548
1106.276 .0250552
1106.867 .0250558
1107.457 .0250568
1108.049 .0250581
1108.640 .0250600
1109.232 .0250623
1109.825 .0250649
1110.417 .0250675
1111.010 .0250700
1111.604 .0250723
1112.198 .0250741
1112.792 .0250755
1113.387 .0250765
1113.982 .0250772
1114.577 .0250778
1115.173 .0250786
1115.769 .0250797
1116.366 .0250813
1116.963 .0250835
1117.561 .0250863
1118.159 .0250897
1118.758 .0250939
1119.357 .0250991
1119.957 .0251053
1120.557 .0251127
1121.157 .0251216
1121.758 .0251318
1122.360 .0251433
1122.962 .0251559
1123.564 .0251693
1124.167 .0251730
1124.771 .0251870
1125.375 .0252011
1125.980 .0252150
1126.585 .0252288
1127.191 .0252427
1127.797 .0252570
1128.404 .0252722
1129.012 .0252888
1129.620 .0253071
1130.229 .0253274
1130.838 .0253498
1131.448 .0253742
1132.058 .0254008
1132.669 .0254416
1133.281 .0254741
1133.894 .0255098
1134.507 .0255440
1135.120 .0255873
1135.735 .0256367
1136.350 .0256868
1136.965 .0255849
1137.582 .0256328
1138.199 .0256846
1138.816 .0257370
1139.435 .0257926
1140.054 .0258531
1140.674 .0259191
1141.294 .0259928
1141.916 .0260859
1142.538 .0260554
1143.160 .0263116
1143.784 .0264964
1144.408 .0265415
1145.033 .0268310
