Measurement Sequence started on: 14-45-04-498
Integration time: 36
Scans to Average: 2 
>>>>>Begin Spectral Data<<<<<
433.946 .0440789
434.870 .0446354
435.793 .0422935
436.715 .0399350
437.635 .0394270
438.555 .0402729
439.473 .0398673
440.389 .0395385
441.305 .0393299
442.219 .0391920
443.132 .0394559
444.044 .0391079
444.954 .0388784
445.863 .0387682
446.771 .0386793
447.678 .0385400
448.584 .0384163
449.488 .0383039
450.391 .0381969
451.293 .0380916
452.194 .0379883
453.094 .0378881
453.992 .0377912
454.890 .0376969
455.786 .0376042
456.681 .0375122
457.575 .0374197
458.468 .0373266
459.360 .0372324
460.250 .0371369
461.140 .0370405
462.028 .0369438
462.915 .0368471
463.801 .0367513
464.687 .0366570
465.571 .0365644
466.454 .0364739
467.335 .0363854
468.216 .0362993
469.096 .0362155
469.975 .0361342
470.853 .0360555
471.729 .0359793
472.605 .0359060
473.479 .0358359
474.353 .0357693
475.226 .0357065
476.097 .0356476
476.968 .0355927
477.838 .0355418
478.706 .0354950
479.574 .0354520
480.441 .0354130
481.306 .0353778
482.171 .0353462
483.035 .0353178
483.898 .0352920
484.760 .0352680
485.621 .0352448
486.481 .0352217
487.340 .0351979
488.198 .0351727
489.055 .0351458
489.912 .0351173
490.767 .0350874
491.622 .0350376
492.476 .0350062
493.329 .0349745
494.180 .0349427
495.032 .0349106
495.882 .0348776
496.731 .0348436
497.580 .0348084
498.427 .0347719
499.274 .0347341
500.120 .0347159
500.965 .0346775
501.809 .0346390
502.653 .0346010
503.495 .0345643
504.337 .0345290
505.178 .0344955
506.018 .0344639
506.858 .0344338
507.696 .0344049
508.534 .0343771
509.371 .0343501
510.208 .0343240
511.043 .0342986
511.878 .0342739
512.712 .0342499
513.545 .0342268
514.377 .0342048
515.209 .0341835
516.040 .0341632
516.870 .0341436
517.699 .0341245
518.528 .0341057
519.356 .0340863
520.183 .0340656
521.010 .0340428
521.836 .0340175
522.661 .0339890
523.485 .0339569
524.309 .0339213
525.132 .0338824
525.954 .0338405
526.776 .0337956
527.597 .0337479
528.417 .0336975
529.237 .0336449
530.056 .0335899
530.874 .0335328
531.692 .0334740
532.508 .0334138
533.325 .0333527
534.140 .0332913
534.955 .0332302
535.770 .0331694
536.583 .0331095
537.397 .0330509
538.209 .0329938
539.021 .0329384
539.832 .0328852
540.643 .0328347
541.453 .0327873
542.262 .0327429
543.071 .0327015
543.879 .0326630
544.687 .0326274
545.494 .0325942
546.300 .0325627
547.106 .0325325
547.911 .0325033
548.716 .0324744
549.520 .0324459
550.323 .0324175
551.126 .0323893
551.929 .0323611
552.731 .0323333
553.532 .0323059
554.332 .0322789
555.133 .0322525
555.932 .0322269
556.731 .0322020
557.530 .0321774
558.328 .0321528
559.125 .0321281
559.922 .0321031
560.719 .0320776
561.515 .0320517
562.310 .0320256
563.105 .0319995
563.899 .0319735
564.693 .0319479
565.487 .0319227
566.280 .0318978
567.072 .0318730
567.864 .0318478
568.655 .0318217
569.446 .0317946
570.236 .0317665
571.026 .0317372
571.816 .0317069
572.605 .0316758
573.393 .0316442
574.181 .0316123
574.969 .0315801
575.756 .0315478
576.543 .0315154
577.329 .0314829
578.115 .0314503
578.900 .0314175
579.685 .0313847
580.469 .0313522
581.253 .0313202
582.036 .0312888
582.820 .0312581
583.602 .0312282
584.384 .0311991
585.166 .0311707
585.947 .0311431
586.728 .0311162
587.509 .0310901
588.289 .0310649
589.069 .0310403
589.848 .0310163
590.627 .0309928
591.405 .0309698
592.183 .0309470
592.961 .0309242
593.738 .0309013
594.515 .0308782
595.291 .0308551
596.067 .0308317
596.843 .0308083
597.618 .0307846
598.393 .0307481
599.167 .0307242
599.941 .0307000
600.715 .0306756
601.488 .0306510
602.261 .0306263
603.034 .0306018
603.806 .0305774
604.578 .0305533
605.349 .0305296
606.121 .0305064
606.891 .0304962
607.662 .0304738
608.432 .0304519
609.201 .0304304
609.971 .0304095
610.740 .0303892
611.508 .0303695
612.277 .0303506
613.045 .0303323
613.812 .0303147
614.579 .0302977
615.346 .0302812
616.113 .0302652
616.879 .0302497
617.645 .0302345
618.411 .0302196
619.176 .0302051
619.941 .0301907
620.705 .0301765
621.470 .0301622
622.233 .0301479
622.997 .0301335
623.760 .0301190
624.523 .0301044
625.286 .0300898
626.048 .0300753
626.810 .0300608
627.572 .0300464
628.333 .0300321
629.095 .0300177
629.855 .0300033
630.616 .0299887
631.376 .0299740
632.136 .0299591
632.895 .0299440
633.655 .0299289
634.414 .0299137
635.172 .0298985
635.931 .0298832
636.689 .0298679
637.447 .0298524
638.204 .0298366
638.962 .0298207
639.718 .0298046
640.475 .0297882
641.231 .0297716
641.988 .0297547
642.743 .0297376
643.499 .0297202
644.254 .0297025
645.009 .0296847
645.764 .0296667
646.518 .0296487
647.272 .0296306
648.026 .0296125
648.780 .0295945
649.533 .0295767
650.286 .0295591
651.039 .0295416
651.792 .0295242
652.544 .0295071
653.296 .0294903
654.048 .0294737
654.799 .0294576
655.550 .0294420
656.301 .0294270
657.052 .0294125
657.802 .0293987
658.552 .0293855
659.302 .0293728
660.052 .0293606
660.801 .0293489
661.550 .0293375
662.299 .0293264
663.048 .0293155
663.796 .0293047
664.544 .0292940
665.292 .0292834
666.040 .0292727
666.787 .0292618
667.534 .0292509
668.281 .0292397
669.028 .0292284
669.774 .0292170
670.521 .0292054
671.266 .0291937
672.012 .0291819
672.758 .0291701
673.503 .0291584
674.248 .0291466
674.992 .0291348
675.737 .0291230
676.481 .0291112
677.225 .0290995
677.969 .0290878
678.712 .0290763
679.455 .0290650
680.199 .0290539
680.941 .0290430
681.684 .0290323
682.426 .0290217
683.168 .0290113
683.910 .0290008
684.652 .0289903
685.393 .0289798
686.134 .0289692
686.875 .0289586
687.616 .0289480
688.356 .0289375
689.097 .0289269
689.837 .0289162
690.576 .0289055
691.316 .0288946
692.055 .0288835
692.794 .0288723
693.533 .0288608
694.272 .0288492
695.010 .0288374
695.748 .0288255
696.486 .0288135
697.224 .0288014
697.962 .0287893
698.699 .0287771
699.436 .0287649
700.173 .0287527
700.909 .0287405
701.646 .0287283
702.382 .0287161
703.118 .0287039
703.853 .0286915
704.589 .0286791
705.324 .0286665
706.059 .0286537
706.794 .0286408
707.529 .0286278
708.263 .0286147
708.997 .0286015
709.731 .0285883
710.465 .0285751
711.198 .0285618
711.931 .0285484
712.664 .0285349
713.397 .0285212
714.130 .0285074
714.862 .0284935
715.594 .0284795
716.326 .0284653
717.058 .0284511
717.789 .0284369
718.520 .0284228
719.251 .0284088
719.982 .0283949
720.713 .0283812
721.443 .0283677
722.173 .0283544
722.903 .0283414
723.633 .0283285
724.362 .0283159
725.091 .0283036
725.820 .0282915
726.549 .0282797
727.278 .0282683
728.006 .0282572
728.734 .0282465
729.462 .0282362
730.190 .0282263
730.917 .0282168
731.644 .0282077
732.371 .0281990
733.098 .0281907
733.825 .0281828
734.551 .0281752
735.277 .0281678
736.003 .0281606
736.728 .0281535
737.454 .0281466
738.179 .0281398
738.904 .0281331
739.629 .0281264
740.353 .0281198
741.077 .0281131
741.801 .0281064
742.525 .0280996
743.249 .0280926
743.972 .0280854
744.695 .0280778
745.418 .0280699
746.141 .0280615
746.863 .0280527
747.585 .0280435
748.307 .0280339
749.029 .0280238
749.750 .0280132
750.472 .0280023
751.193 .0279911
751.913 .0279795
752.634 .0279677
753.354 .0279556
754.074 .0279433
754.794 .0279309
755.514 .0279183
756.233 .0279055
756.952 .0278924
757.671 .0278791
758.390 .0278657
759.108 .0278520
759.826 .0278382
760.544 .0278244
761.262 .0278105
761.979 .0277967
762.697 .0277830
763.414 .0277693
764.130 .0277558
764.847 .0277423
765.563 .0277290
766.279 .0277157
766.995 .0277026
767.710 .0276896
768.426 .0276767
769.141 .0276640
769.855 .0276515
770.570 .0276392
771.284 .0276271
771.998 .0276153
772.712 .0276038
773.426 .0275926
774.139 .0275817
774.852 .0275712
775.565 .0275610
776.277 .0275511
776.990 .0275416
777.702 .0275323
778.414 .0275234
779.125 .0275148
779.836 .0275065
780.547 .0274986
781.258 .0274912
781.969 .0274842
782.679 .0274778
783.389 .0274697
784.099 .0274642
784.808 .0274591
785.517 .0274543
786.226 .0274497
786.935 .0274453
787.643 .0274411
788.352 .0274371
789.060 .0274333
789.767 .0274297
790.475 .0274263
791.182 .0274230
791.889 .0274215
792.595 .0274183
793.301 .0274152
794.008 .0274121
794.713 .0274090
795.419 .0274057
796.124 .0274024
796.829 .0273989
797.534 .0273952
798.238 .0273912
798.942 .0273870
799.646 .0273825
800.350 .0273778
801.053 .0273729
801.756 .0273677
802.459 .0273623
803.162 .0273566
803.864 .0273507
804.566 .0273444
805.267 .0273379
805.969 .0273310
806.670 .0273238
807.371 .0273162
808.071 .0273081
808.772 .0272997
809.472 .0272909
810.171 .0272817
810.871 .0272720
811.570 .0272620
812.269 .0272516
812.967 .0272409
813.666 .0272299
814.364 .0272186
815.061 .0272069
815.759 .0271950
816.456 .0271826
817.153 .0271698
817.849 .0271567
818.545 .0271431
819.241 .0271291
819.937 .0271148
820.632 .0271002
821.327 .0270854
822.022 .0270704
822.717 .0270552
823.411 .0270398
824.105 .0270241
824.798 .0270083
825.491 .0269922
826.184 .0269759
826.877 .0269595
827.569 .0269431
828.261 .0269266
828.953 .0269102
829.645 .0268940
830.336 .0268778
831.027 .0268617
831.717 .0268457
832.407 .0268299
833.097 .0268141
833.787 .0267985
834.476 .0267831
835.165 .0267678
835.854 .0267527
836.542 .0267379
837.230 .0267232
837.918 .0267088
838.605 .0266945
839.292 .0266804
839.979 .0266665
840.665 .0266527
841.352 .0266391
842.037 .0266258
842.723 .0266129
843.408 .0266003
844.093 .0265881
844.777 .0265762
845.462 .0265647
846.145 .0265535
846.829 .0265426
847.512 .0265320
848.195 .0265216
848.878 .0265116
849.560 .0265020
850.242 .0264928
850.923 .0264841
851.605 .0264758
852.286 .0264679
852.966 .0264605
853.646 .0264533
854.326 .0264465
855.006 .0264399
855.685 .0264337
856.364 .0264277
857.043 .0264221
857.721 .0264169
858.399 .0264120
859.077 .0264075
859.754 .0264033
860.431 .0263993
861.107 .0263956
861.784 .0263921
862.459 .0263887
863.135 .0263854
863.810 .0263822
864.485 .0263789
865.160 .0263757
865.834 .0263724
866.508 .0263690
867.181 .0263655
867.854 .0263618
868.527 .0263581
869.199 .0263542
869.872 .0263502
870.543 .0263462
871.215 .0263420
871.886 .0263377
872.557 .0263332
873.227 .0263285
873.897 .0263234
874.567 .0263181
875.236 .0263124
875.905 .0263064
876.573 .0263000
877.242 .0262934
877.909 .0262864
878.577 .0262792
879.244 .0262716
879.911 .0262638
880.577 .0262556
881.243 .0262472
881.909 .0262384
882.575 .0262293
883.240 .0262198
883.904 .0262101
884.569 .0262001
885.232 .0261899
885.896 .0261794
886.559 .0261688
887.222 .0261580
887.885 .0261472
888.547 .0261363
889.208 .0261254
889.870 .0261145
890.531 .0261036
891.192 .0260926
891.852 .0260815
892.512 .0260703
893.171 .0260589
893.830 .0260473
894.489 .0260355
895.148 .0260234
895.806 .0260110
896.464 .0259985
897.121 .0259856
897.778 .0259726
898.434 .0259593
899.091 .0259382
899.747 .0259243
900.402 .0259103
901.057 .0258961
901.712 .0258817
902.366 .0258672
903.020 .0258524
903.674 .0258375
904.327 .0258224
904.980 .0258070
905.633 .0257916
906.285 .0257760
906.936 .0257604
907.588 .0257529
908.239 .0257374
908.889 .0257220
909.540 .0257066
910.190 .0256912
910.839 .0256759
911.488 .0256606
912.137 .0256454
912.785 .0256301
913.433 .0256149
914.081 .0255997
914.728 .0255847
915.375 .0255697
916.021 .0255548
916.668 .0255400
917.313 .0255253
917.959 .0255105
918.604 .0254957
919.248 .0254808
919.892 .0254658
920.536 .0254508
921.180 .0254357
921.823 .0254204
922.465 .0254052
923.108 .0253898
923.750 .0253744
924.391 .0253588
925.032 .0253431
925.673 .0253273
926.313 .0253114
926.953 .0252954
927.593 .0252794
928.232 .0252634
928.871 .0252474
929.510 .0252316
930.148 .0252159
930.786 .0252005
931.423 .0251852
932.060 .0251701
932.697 .0251552
933.333 .0251407
933.969 .0251264
934.604 .0251124
935.239 .0250989
935.874 .0250857
936.508 .0250729
937.142 .0250605
937.776 .0250485
938.409 .0250369
939.042 .0250257
939.674 .0250149
940.306 .0250044
940.938 .0249943
941.569 .0249846
942.200 .0249751
942.830 .0249661
943.460 .0249573
944.090 .0249489
944.720 .0249408
945.349 .0249331
945.977 .0249256
946.606 .0249184
947.233 .0249115
947.861 .0249047
948.488 .0248982
949.115 .0248918
949.741 .0248857
950.367 .0248797
950.993 .0248739
951.618 .0248683
952.243 .0248628
952.868 .0248574
953.492 .0248521
954.115 .0248468
954.739 .0248415
955.362 .0248362
955.984 .0248310
956.607 .0248257
957.229 .0248206
957.850 .0248156
958.471 .0248108
959.092 .0248063
959.713 .0248021
960.333 .0247982
960.952 .0247946
961.572 .0247912
962.191 .0247882
962.809 .0247853
963.428 .0247826
964.045 .0247801
964.663 .0247778
965.280 .0247757
965.897 .0247737
966.513 .0247719
967.129 .0247701
967.745 .0247683
968.361 .0247665
968.976 .0247646
969.590 .0247626
970.205 .0247604
970.818 .0247580
971.432 .0247555
972.045 .0247527
972.658 .0247497
973.271 .0247464
973.883 .0247429
974.495 .0247391
975.106 .0247349
975.717 .0247304
976.328 .0247256
976.938 .0247204
977.548 .0247149
978.158 .0247090
978.768 .0246986
979.377 .0246918
979.985 .0246847
980.594 .0246772
981.202 .0246693
981.809 .0246610
982.417 .0246524
983.024 .0246435
983.631 .0246343
984.237 .0246248
984.843 .0246149
985.449 .0246048
986.054 .0245944
986.659 .0245838
987.264 .0245779
987.868 .0245670
988.472 .0245559
989.076 .0245449
989.679 .0245338
990.282 .0245227
990.885 .0245116
991.487 .0245005
992.090 .0244892
992.691 .0244778
993.293 .0244662
993.894 .0244544
994.495 .0244424
995.095 .0244302
995.696 .0244179
996.296 .0244055
996.895 .0243930
997.494 .0243806
998.093 .0243681
998.692 .0243557
999.291 .0243432
999.889 .0243307
1000.487 .0243182
1001.084 .0243057
1001.681 .0242932
1002.278 .0242807
1002.875 .0242684
1003.471 .0242561
1004.067 .0242441
1004.663 .0242322
1005.258 .0242206
1005.854 .0242091
1006.449 .0241977
1007.043 .0241866
1007.638 .0241755
1008.232 .0241646
1008.826 .0241539
1009.419 .0241434
1010.012 .0241331
1010.605 .0241230
1011.198 .0241133
1011.791 .0241037
1012.383 .0240945
1012.975 .0240856
1013.566 .0240769
1014.158 .0240686
1014.749 .0240605
1015.340 .0240529
1015.931 .0240455
1016.521 .0240385
1017.111 .0240317
1017.701 .0240253
1018.291 .0240192
1018.880 .0240133
1019.470 .0240078
1020.059 .0240024
1020.647 .0239974
1021.236 .0239926
1021.824 .0239880
1022.412 .0239838
1023.000 .0239799
1023.588 .0239762
1024.175 .0239729
1024.762 .0239698
1025.349 .0239669
1025.936 .0239643
1026.523 .0239620
1027.109 .0239599
1027.695 .0239581
1028.281 .0239565
1028.867 .0239551
1029.452 .0239540
1030.038 .0239531
1030.623 .0239524
1031.208 .0239519
1031.792 .0239516
1032.377 .0239514
1032.961 .0239513
1033.546 .0239515
1034.130 .0239518
1034.714 .0239523
1035.297 .0239530
1035.881 .0239541
1036.464 .0239555
1037.047 .0239573
1037.630 .0239594
1038.213 .0239618
1038.796 .0239646
1039.378 .0239676
1039.961 .0239708
1040.543 .0239742
1041.125 .0239779
1041.707 .0239818
1042.289 .0239861
1042.871 .0239906
1043.452 .0239954
1044.034 .0240005
1044.615 .0240059
1045.196 .0240115
1045.777 .0240172
1046.358 .0240231
1046.939 .0240290
1047.520 .0240350
1048.101 .0240412
1048.681 .0240475
1049.262 .0240540
1049.842 .0240606
1050.422 .0240675
1051.002 .0240746
1051.582 .0240818
1052.162 .0240891
1052.742 .0240964
1053.322 .0241037
1053.902 .0241110
1054.482 .0241183
1055.061 .0241256
1055.641 .0241331
1056.220 .0241406
1056.800 .0241482
1057.379 .0241558
1057.958 .0241633
1058.538 .0241706
1059.117 .0241776
1059.696 .0241842
1060.275 .0241905
1060.854 .0241963
1061.433 .0242018
1062.012 .0242071
1062.592 .0242120
1063.171 .0242168
1063.750 .0242213
1064.329 .0242254
1064.908 .0242293
1065.487 .0242327
1066.066 .0242356
1066.645 .0242380
1067.224 .0242400
1067.803 .0242414
1068.382 .0242424
1068.961 .0242429
1069.540 .0242430
1070.119 .0242427
1070.698 .0242420
1071.278 .0242408
1071.857 .0242391
1072.436 .0242369
1073.016 .0242342
1073.595 .0242311
1074.175 .0242277
1074.754 .0242239
1075.334 .0242200
1075.913 .0242159
1076.493 .0242117
1077.073 .0242074
1077.653 .0242031
1078.233 .0241987
1078.813 .0241943
1079.393 .0241900
1079.974 .0241860
1080.554 .0241822
1081.135 .0241789
1081.716 .0241761
1082.296 .0241737
1082.877 .0241717
1083.458 .0241701
1084.040 .0241688
1084.621 .0241678
1085.202 .0241670
1085.784 .0241666
1086.366 .0241664
1086.948 .0241665
1087.530 .0241671
1088.112 .0241680
1088.695 .0241692
1089.277 .0241707
1089.860 .0241723
1090.443 .0241741
1091.026 .0241758
1091.610 .0241774
1092.193 .0241790
1092.777 .0241804
1093.361 .0241817
1093.946 .0241828
1094.530 .0241838
1095.115 .0241845
1095.700 .0241849
1096.285 .0241847
1096.871 .0241837
1097.456 .0241818
1098.042 .0241789
1098.628 .0241748
1099.215 .0241698
1099.802 .0241639
1100.389 .0241573
1100.976 .0241501
1101.564 .0241427
1102.152 .0241350
1102.740 .0241273
1103.329 .0241196
1103.917 .0241120
1104.507 .0241045
1105.096 .0240972
1105.686 .0240902
1106.276 .0240838
1106.867 .0240781
1107.457 .0240732
1108.049 .0240693
1108.640 .0240665
1109.232 .0240649
1109.825 .0240644
1110.417 .0240650
1111.010 .0240666
1111.604 .0240690
1112.198 .0240722
1112.792 .0240760
1113.387 .0240804
1113.982 .0240855
1114.577 .0240913
1115.173 .0240979
1115.769 .0241054
1116.366 .0241136
1116.963 .0241226
1117.561 .0241321
1118.159 .0241422
1118.758 .0241526
1119.357 .0241631
1119.957 .0241737
1120.557 .0241843
1121.157 .0241951
1121.758 .0242062
1122.360 .0242176
1122.962 .0242294
1123.564 .0242415
1124.167 .0242484
1124.771 .0242604
1125.375 .0242725
1125.980 .0242845
1126.585 .0242965
1127.191 .0243085
1127.797 .0243204
1128.404 .0243327
1129.012 .0243455
1129.620 .0243590
1130.229 .0243736
1130.838 .0243892
1131.448 .0244059
1132.058 .0244237
1132.669 .0244491
1133.281 .0244698
1133.894 .0244926
1134.507 .0245137
1135.120 .0245354
1135.735 .0245625
1136.350 .0245967
1136.965 .0245957
1137.582 .0246279
1138.199 .0246622
1138.816 .0246967
1139.435 .0247297
1140.054 .0247588
1140.674 .0247884
1141.294 .0248256
1141.916 .0248851
1142.538 .0248426
1143.160 .0248635
1143.784 .0250061
1144.408 .0252018
1145.033 .0257378
