Measurement Sequence started on: 14-45-04-498
Integration time: 36
Scans to Average: 2 
>>>>>Begin Spectral Data<<<<<
433.946 .0500140
434.870 .0475078
435.793 .0450360
436.715 .0423613
437.635 .0418171
438.555 .0437695
439.473 .0435912
440.389 .0436625
441.305 .0438863
442.219 .0441864
443.132 .0447278
444.044 .0446538
444.954 .0447084
445.863 .0449003
446.771 .0451165
447.678 .0452251
448.584 .0453379
449.488 .0454420
450.391 .0455293
451.293 .0455958
452.194 .0456421
453.094 .0456698
453.992 .0456794
454.890 .0456716
455.786 .0456460
456.681 .0456029
457.575 .0455428
458.468 .0454681
459.360 .0453815
460.250 .0452863
461.140 .0451855
462.028 .0450820
462.915 .0449783
463.801 .0448754
464.687 .0447737
465.571 .0446734
466.454 .0445740
467.335 .0444754
468.216 .0443775
469.096 .0442805
469.975 .0441853
470.853 .0440933
471.729 .0440054
472.605 .0439229
473.479 .0438464
474.353 .0437759
475.226 .0437108
476.097 .0436505
476.968 .0435938
477.838 .0435393
478.706 .0434866
479.574 .0434351
480.441 .0433851
481.306 .0433371
482.171 .0432919
483.035 .0432503
483.898 .0432129
484.760 .0431795
485.621 .0431495
486.481 .0431224
487.340 .0430968
488.198 .0430718
489.055 .0430466
489.912 .0430208
490.767 .0429944
491.622 .0429553
492.476 .0429288
493.329 .0429024
494.180 .0428761
495.032 .0428496
495.882 .0428223
496.731 .0427938
497.580 .0427634
498.427 .0427309
499.274 .0426963
500.120 .0426740
500.965 .0426378
501.809 .0426005
502.653 .0425629
503.495 .0425254
504.337 .0424889
505.178 .0424535
506.018 .0424197
506.858 .0423875
507.696 .0423573
508.534 .0423292
509.371 .0423036
510.208 .0422802
511.043 .0422594
511.878 .0422414
512.712 .0422260
513.545 .0422133
514.377 .0422031
515.209 .0421947
516.040 .0421873
516.870 .0421799
517.699 .0421717
518.528 .0421620
519.356 .0421506
520.183 .0421373
521.010 .0421224
521.836 .0421061
522.661 .0420887
523.485 .0420705
524.309 .0420515
525.132 .0420316
525.954 .0420100
526.776 .0419863
527.597 .0419601
528.417 .0419312
529.237 .0418998
530.056 .0418665
530.874 .0418319
531.692 .0417963
532.508 .0417603
533.325 .0417240
534.140 .0416873
534.955 .0416501
535.770 .0416121
536.583 .0415729
537.397 .0415321
538.209 .0414893
539.021 .0414442
539.832 .0413966
540.643 .0413463
541.453 .0412928
542.262 .0412361
543.071 .0411760
543.879 .0411131
544.687 .0410475
545.494 .0409799
546.300 .0409109
547.106 .0408411
547.911 .0407712
548.716 .0407019
549.520 .0406335
550.323 .0405669
551.126 .0405029
551.929 .0404420
552.731 .0403845
553.532 .0403305
554.332 .0402802
555.133 .0402332
555.932 .0401895
556.731 .0401488
557.530 .0401107
558.328 .0400754
559.125 .0400428
559.922 .0400129
560.719 .0399856
561.515 .0399609
562.310 .0399383
563.105 .0399173
563.899 .0398974
564.693 .0398775
565.487 .0398573
566.280 .0398364
567.072 .0398146
567.864 .0397915
568.655 .0397670
569.446 .0397413
570.236 .0397143
571.026 .0396861
571.816 .0396568
572.605 .0396266
573.393 .0395956
574.181 .0395641
574.969 .0395322
575.756 .0395000
576.543 .0394679
577.329 .0394361
578.115 .0394047
578.900 .0393737
579.685 .0393432
580.469 .0393134
581.253 .0392845
582.036 .0392567
582.820 .0392300
583.602 .0392042
584.384 .0391798
585.166 .0391567
585.947 .0391349
586.728 .0391146
587.509 .0390957
588.289 .0390781
589.069 .0390617
589.848 .0390463
590.627 .0390317
591.405 .0390179
592.183 .0390046
592.961 .0389916
593.738 .0389789
594.515 .0389665
595.291 .0389540
596.067 .0389414
596.843 .0389287
597.618 .0389155
598.393 .0388931
599.167 .0388784
599.941 .0388630
600.715 .0388468
601.488 .0388300
602.261 .0388124
603.034 .0387942
603.806 .0387756
604.578 .0387564
605.349 .0387370
606.121 .0387174
606.891 .0387071
607.662 .0386874
608.432 .0386677
609.201 .0386479
609.971 .0386282
610.740 .0386087
611.508 .0385895
612.277 .0385708
613.045 .0385527
613.812 .0385351
614.579 .0385183
615.346 .0385022
616.113 .0384868
616.879 .0384722
617.645 .0384581
618.411 .0384447
619.176 .0384319
619.941 .0384196
620.705 .0384078
621.470 .0383965
622.233 .0383856
622.997 .0383751
623.760 .0383648
624.523 .0383547
625.286 .0383448
626.048 .0383347
626.810 .0383246
627.572 .0383143
628.333 .0383036
629.095 .0382924
629.855 .0382806
630.616 .0382682
631.376 .0382550
632.136 .0382409
632.895 .0382260
633.655 .0382103
634.414 .0381937
635.172 .0381764
635.931 .0381585
636.689 .0381399
637.447 .0381208
638.204 .0381012
638.962 .0380812
639.718 .0380606
640.475 .0380397
641.231 .0380184
641.988 .0379968
642.743 .0379749
643.499 .0379529
644.254 .0379307
645.009 .0379087
645.764 .0378867
646.518 .0378649
647.272 .0378433
648.026 .0378220
648.780 .0378010
649.533 .0377803
650.286 .0377599
651.039 .0377398
651.792 .0377200
652.544 .0377004
653.296 .0376811
654.048 .0376620
654.799 .0376432
655.550 .0376246
656.301 .0376064
657.052 .0375886
657.802 .0375711
658.552 .0375540
659.302 .0375372
660.052 .0375207
660.801 .0375044
661.550 .0374884
662.299 .0374725
663.048 .0374568
663.796 .0374413
664.544 .0374260
665.292 .0374109
666.040 .0373960
666.787 .0373814
667.534 .0373669
668.281 .0373525
669.028 .0373383
669.774 .0373242
670.521 .0373102
671.266 .0372964
672.012 .0372827
672.758 .0372691
673.503 .0372556
674.248 .0372422
674.992 .0372288
675.737 .0372155
676.481 .0372023
677.225 .0371890
677.969 .0371757
678.712 .0371626
679.455 .0371495
680.199 .0371367
680.941 .0371240
681.684 .0371114
682.426 .0370990
683.168 .0370868
683.910 .0370746
684.652 .0370625
685.393 .0370505
686.134 .0370385
686.875 .0370267
687.616 .0370149
688.356 .0370032
689.097 .0369916
689.837 .0369800
690.576 .0369684
691.316 .0369567
692.055 .0369449
692.794 .0369330
693.533 .0369208
694.272 .0369084
695.010 .0368956
695.748 .0368825
696.486 .0368689
697.224 .0368547
697.962 .0368399
698.699 .0368245
699.436 .0368084
700.173 .0367918
700.909 .0367746
701.646 .0367570
702.382 .0367388
703.118 .0367202
703.853 .0367011
704.589 .0366815
705.324 .0366614
706.059 .0366407
706.794 .0366196
707.529 .0365982
708.263 .0365764
708.997 .0365546
709.731 .0365327
710.465 .0365110
711.198 .0364895
711.931 .0364683
712.664 .0364473
713.397 .0364267
714.130 .0364063
714.862 .0363861
715.594 .0363663
716.326 .0363468
717.058 .0363278
717.789 .0363093
718.520 .0362914
719.251 .0362742
719.982 .0362577
720.713 .0362419
721.443 .0362268
722.173 .0362122
722.903 .0361981
723.633 .0361844
724.362 .0361709
725.091 .0361578
725.820 .0361448
726.549 .0361320
727.278 .0361194
728.006 .0361070
728.734 .0360949
729.462 .0360831
730.190 .0360717
730.917 .0360606
731.644 .0360499
732.371 .0360394
733.098 .0360291
733.825 .0360191
734.551 .0360091
735.277 .0359993
736.003 .0359895
736.728 .0359798
737.454 .0359704
738.179 .0359611
738.904 .0359522
739.629 .0359435
740.353 .0359350
741.077 .0359267
741.801 .0359185
742.525 .0359102
743.249 .0359017
743.972 .0358929
744.695 .0358839
745.418 .0358744
746.141 .0358646
746.863 .0358543
747.585 .0358437
748.307 .0358326
749.029 .0358211
749.750 .0358090
750.472 .0357963
751.193 .0357830
751.913 .0357689
752.634 .0357542
753.354 .0357388
754.074 .0357228
754.794 .0357061
755.514 .0356888
756.233 .0356710
756.952 .0356527
757.671 .0356341
758.390 .0356152
759.108 .0355960
759.826 .0355767
760.544 .0355574
761.262 .0355381
761.979 .0355188
762.697 .0354996
763.414 .0354806
764.130 .0354616
764.847 .0354429
765.563 .0354243
766.279 .0354059
766.995 .0353878
767.710 .0353699
768.426 .0353523
769.141 .0353349
769.855 .0353177
770.570 .0353007
771.284 .0352837
771.998 .0352668
772.712 .0352501
773.426 .0352335
774.139 .0352171
774.852 .0352010
775.565 .0351853
776.277 .0351699
776.990 .0351549
777.702 .0351403
778.414 .0351259
779.125 .0351119
779.836 .0350982
780.547 .0350846
781.258 .0350714
781.969 .0350584
782.679 .0350458
783.389 .0350280
784.099 .0350159
784.808 .0350040
785.517 .0349924
786.226 .0349809
786.935 .0349696
787.643 .0349584
788.352 .0349473
789.060 .0349364
789.767 .0349256
790.475 .0349150
791.182 .0349045
791.889 .0348991
792.595 .0348887
793.301 .0348784
794.008 .0348682
794.713 .0348579
795.419 .0348476
796.124 .0348373
796.829 .0348271
797.534 .0348168
798.238 .0348065
798.942 .0347962
799.646 .0347859
800.350 .0347755
801.053 .0347651
801.756 .0347547
802.459 .0347442
803.162 .0347337
803.864 .0347232
804.566 .0347127
805.267 .0347021
805.969 .0346916
806.670 .0346812
807.371 .0346708
808.071 .0346604
808.772 .0346500
809.472 .0346395
810.171 .0346289
810.871 .0346182
811.570 .0346072
812.269 .0345960
812.967 .0345845
813.666 .0345727
814.364 .0345607
815.061 .0345483
815.759 .0345358
816.456 .0345230
817.153 .0345100
817.849 .0344968
818.545 .0344834
819.241 .0344697
819.937 .0344556
820.632 .0344413
821.327 .0344265
822.022 .0344114
822.717 .0343959
823.411 .0343800
824.105 .0343637
824.798 .0343470
825.491 .0343300
826.184 .0343126
826.877 .0342948
827.569 .0342767
828.261 .0342583
828.953 .0342397
829.645 .0342208
830.336 .0342017
831.027 .0341824
831.717 .0341630
832.407 .0341434
833.097 .0341236
833.787 .0341037
834.476 .0340836
835.165 .0340635
835.854 .0340432
836.542 .0340229
837.230 .0340026
837.918 .0339823
838.605 .0339620
839.292 .0339418
839.979 .0339217
840.665 .0339017
841.352 .0338819
842.037 .0338621
842.723 .0338424
843.408 .0338227
844.093 .0338030
844.777 .0337833
845.462 .0337636
846.145 .0337440
846.829 .0337243
847.512 .0337047
848.195 .0336851
848.878 .0336656
849.560 .0336460
850.242 .0336265
850.923 .0336070
851.605 .0335874
852.286 .0335678
852.966 .0335481
853.646 .0335285
854.326 .0335089
855.006 .0334894
855.685 .0334702
856.364 .0334512
857.043 .0334324
857.721 .0334140
858.399 .0333960
859.077 .0333783
859.754 .0333610
860.431 .0333441
861.107 .0333276
861.784 .0333115
862.459 .0332959
863.135 .0332806
863.810 .0332658
864.485 .0332514
865.160 .0332374
865.834 .0332237
866.508 .0332104
867.181 .0331974
867.854 .0331847
868.527 .0331724
869.199 .0331605
869.872 .0331489
870.543 .0331377
871.215 .0331269
871.886 .0331163
872.557 .0331059
873.227 .0330957
873.897 .0330857
874.567 .0330758
875.236 .0330660
875.905 .0330563
876.573 .0330467
877.242 .0330372
877.909 .0330279
878.577 .0330189
879.244 .0330101
879.911 .0330016
880.577 .0329934
881.243 .0329854
881.909 .0329778
882.575 .0329704
883.240 .0329633
883.904 .0329565
884.569 .0329500
885.232 .0329438
885.896 .0329379
886.559 .0329323
887.222 .0329268
887.885 .0329216
888.547 .0329164
889.208 .0329113
889.870 .0329062
890.531 .0329009
891.192 .0328955
891.852 .0328899
892.512 .0328841
893.171 .0328780
893.830 .0328715
894.489 .0328646
895.148 .0328572
895.806 .0328493
896.464 .0328410
897.121 .0328322
897.778 .0328230
898.434 .0328134
899.091 .0327973
899.747 .0327870
900.402 .0327762
901.057 .0327651
901.712 .0327535
902.366 .0327413
903.020 .0327286
903.674 .0327154
904.327 .0327015
904.980 .0326870
905.633 .0326720
906.285 .0326564
906.936 .0326401
907.588 .0326306
908.239 .0326133
908.889 .0325953
909.540 .0325768
910.190 .0325575
910.839 .0325376
911.488 .0325171
912.137 .0324960
912.785 .0324742
913.433 .0324519
914.081 .0324290
914.728 .0324057
915.375 .0323818
916.021 .0323575
916.668 .0323329
917.313 .0323079
917.959 .0322826
918.604 .0322571
919.248 .0322314
919.892 .0322055
920.536 .0321794
921.180 .0321531
921.823 .0321268
922.465 .0321003
923.108 .0320739
923.750 .0320475
924.391 .0320211
925.032 .0319948
925.673 .0319685
926.313 .0319423
926.953 .0319161
927.593 .0318899
928.232 .0318638
928.871 .0318379
929.510 .0318121
930.148 .0317865
930.786 .0317611
931.423 .0317360
932.060 .0317110
932.697 .0316861
933.333 .0316612
933.969 .0316365
934.604 .0316117
935.239 .0315870
935.874 .0315625
936.508 .0315381
937.142 .0315140
937.776 .0314901
938.409 .0314666
939.042 .0314433
939.674 .0314202
940.306 .0313972
940.938 .0313744
941.569 .0313518
942.200 .0313294
942.830 .0313074
943.460 .0312857
944.090 .0312646
944.720 .0312440
945.349 .0312239
945.977 .0312044
946.606 .0311853
947.233 .0311666
947.861 .0311482
948.488 .0311300
949.115 .0311122
949.741 .0310948
950.367 .0310777
950.993 .0310611
951.618 .0310450
952.243 .0310293
952.868 .0310139
953.492 .0309990
954.115 .0309844
954.739 .0309701
955.362 .0309562
955.984 .0309428
956.607 .0309299
957.229 .0309177
957.850 .0309060
958.471 .0308951
959.092 .0308847
959.713 .0308750
960.333 .0308658
960.952 .0308570
961.572 .0308487
962.191 .0308407
962.809 .0308332
963.428 .0308261
964.045 .0308194
964.663 .0308131
965.280 .0308072
965.897 .0308016
966.513 .0307962
967.129 .0307910
967.745 .0307859
968.361 .0307808
968.976 .0307759
969.590 .0307711
970.205 .0307664
970.818 .0307619
971.432 .0307574
972.045 .0307531
972.658 .0307489
973.271 .0307447
973.883 .0307406
974.495 .0307367
975.106 .0307329
975.717 .0307293
976.328 .0307259
976.938 .0307227
977.548 .0307198
978.158 .0307170
978.768 .0307138
979.377 .0307112
979.985 .0307087
980.594 .0307063
981.202 .0307041
981.809 .0307022
982.417 .0307005
983.024 .0306991
983.631 .0306981
984.237 .0306972
984.843 .0306964
985.449 .0306958
986.054 .0306950
986.659 .0306942
987.264 .0306936
987.868 .0306926
988.472 .0306916
989.076 .0306907
989.679 .0306899
990.282 .0306893
990.885 .0306886
991.487 .0306880
992.090 .0306871
992.691 .0306859
993.293 .0306844
993.894 .0306824
994.495 .0306800
995.095 .0306772
995.696 .0306742
996.296 .0306709
996.895 .0306676
997.494 .0306642
998.093 .0306606
998.692 .0306569
999.291 .0306529
999.889 .0306486
1000.487 .0306438
1001.084 .0306387
1001.681 .0306333
1002.278 .0306276
1002.875 .0306217
1003.471 .0306158
1004.067 .0306097
1004.663 .0306035
1005.258 .0305971
1005.854 .0305904
1006.449 .0305832
1007.043 .0305755
1007.638 .0305672
1008.232 .0305584
1008.826 .0305491
1009.419 .0305395
1010.012 .0305296
1010.605 .0305193
1011.198 .0305089
1011.791 .0304983
1012.383 .0304873
1012.975 .0304761
1013.566 .0304646
1014.158 .0304528
1014.749 .0304406
1015.340 .0304283
1015.931 .0304158
1016.521 .0304032
1017.111 .0303905
1017.701 .0303778
1018.291 .0303651
1018.880 .0303522
1019.470 .0303392
1020.059 .0303262
1020.647 .0303130
1021.236 .0302997
1021.824 .0302862
1022.412 .0302728
1023.000 .0302593
1023.588 .0302459
1024.175 .0302326
1024.762 .0302193
1025.349 .0302061
1025.936 .0301930
1026.523 .0301800
1027.109 .0301671
1027.695 .0301544
1028.281 .0301419
1028.867 .0301298
1029.452 .0301179
1030.038 .0301063
1030.623 .0300950
1031.208 .0300840
1031.792 .0300732
1032.377 .0300625
1032.961 .0300519
1033.546 .0300412
1034.130 .0300306
1034.714 .0300198
1035.297 .0300091
1035.881 .0299982
1036.464 .0299874
1037.047 .0299765
1037.630 .0299658
1038.213 .0299550
1038.796 .0299444
1039.378 .0299339
1039.961 .0299235
1040.543 .0299130
1041.125 .0299026
1041.707 .0298921
1042.289 .0298815
1042.871 .0298708
1043.452 .0298600
1044.034 .0298492
1044.615 .0298383
1045.196 .0298275
1045.777 .0298167
1046.358 .0298058
1046.939 .0297948
1047.520 .0297836
1048.101 .0297721
1048.681 .0297603
1049.262 .0297480
1049.842 .0297355
1050.422 .0297227
1051.002 .0297099
1051.582 .0296971
1052.162 .0296846
1052.742 .0296723
1053.322 .0296603
1053.902 .0296487
1054.482 .0296375
1055.061 .0296265
1055.641 .0296159
1056.220 .0296057
1056.800 .0295959
1057.379 .0295866
1057.958 .0295778
1058.538 .0295697
1059.117 .0295622
1059.696 .0295552
1060.275 .0295486
1060.854 .0295424
1061.433 .0295362
1062.012 .0295300
1062.592 .0295239
1063.171 .0295176
1063.750 .0295114
1064.329 .0295052
1064.908 .0294994
1065.487 .0294939
1066.066 .0294888
1066.645 .0294843
1067.224 .0294802
1067.803 .0294766
1068.382 .0294734
1068.961 .0294704
1069.540 .0294677
1070.119 .0294654
1070.698 .0294635
1071.278 .0294620
1071.857 .0294612
1072.436 .0294610
1073.016 .0294615
1073.595 .0294625
1074.175 .0294638
1074.754 .0294653
1075.334 .0294669
1075.913 .0294683
1076.493 .0294696
1077.073 .0294707
1077.653 .0294717
1078.233 .0294727
1078.813 .0294740
1079.393 .0294756
1079.974 .0294777
1080.554 .0294803
1081.135 .0294834
1081.716 .0294869
1082.296 .0294907
1082.877 .0294948
1083.458 .0294992
1084.040 .0295040
1084.621 .0295093
1085.202 .0295150
1085.784 .0295214
1086.366 .0295284
1086.948 .0295359
1087.530 .0295440
1088.112 .0295525
1088.695 .0295611
1089.277 .0295698
1089.860 .0295784
1090.443 .0295869
1091.026 .0295953
1091.610 .0296038
1092.193 .0296124
1092.777 .0296211
1093.361 .0296301
1093.946 .0296392
1094.530 .0296485
1095.115 .0296578
1095.700 .0296671
1096.285 .0296761
1096.871 .0296848
1097.456 .0296931
1098.042 .0297010
1098.628 .0297086
1099.215 .0297157
1099.802 .0297226
1100.389 .0297292
1100.976 .0297356
1101.564 .0297419
1102.152 .0297481
1102.740 .0297542
1103.329 .0297602
1103.917 .0297662
1104.507 .0297722
1105.096 .0297782
1105.686 .0297844
1106.276 .0297908
1106.867 .0297976
1107.457 .0298050
1108.049 .0298131
1108.640 .0298222
1109.232 .0298324
1109.825 .0298438
1110.417 .0298564
1111.010 .0298704
1111.604 .0298856
1112.198 .0299020
1112.792 .0299197
1113.387 .0299385
1113.982 .0299585
1114.577 .0299796
1115.173 .0300016
1115.769 .0300246
1116.366 .0300484
1116.963 .0300729
1117.561 .0300980
1118.159 .0301236
1118.758 .0301495
1119.357 .0301757
1119.957 .0302020
1120.557 .0302285
1121.157 .0302549
1121.758 .0302814
1122.360 .0303079
1122.962 .0303341
1123.564 .0303602
1124.167 .0303747
1124.771 .0304002
1125.375 .0304252
1125.980 .0304499
1126.585 .0304744
1127.191 .0304988
1127.797 .0305237
1128.404 .0305491
1129.012 .0305755
1129.620 .0306028
1130.229 .0306312
1130.838 .0306605
1131.448 .0306910
1132.058 .0307229
1132.669 .0307691
1133.281 .0308056
1133.894 .0308447
1134.507 .0308855
1135.120 .0309325
1135.735 .0309878
1136.350 .0310360
1136.965 .0309751
1137.582 .0310356
1138.199 .0310964
1138.816 .0311524
1139.435 .0312103
1140.054 .0312728
1140.674 .0313459
1141.294 .0314206
1141.916 .0315100
1142.538 .0315678
1143.160 .0317530
1143.784 .0319946
1144.408 .0318220
1145.033 .0320663
