Measurement Sequence started on: 14-45-04-498
Integration time: 36
Scans to Average: 2 
>>>>>Begin Spectral Data<<<<<
433.946 .0488378
434.870 .0509843
435.793 .0504742
436.715 .0507497
437.635 .0498124
438.555 .0499070
439.473 .0497931
440.389 .0496031
441.305 .0494181
442.219 .0492181
443.132 .0491395
444.044 .0489708
444.954 .0488248
445.863 .0486605
446.771 .0485420
447.678 .0484151
448.584 .0482907
449.488 .0481725
450.391 .0480596
451.293 .0479526
452.194 .0478505
453.094 .0477526
453.992 .0476590
454.890 .0475688
455.786 .0474804
456.681 .0473926
457.575 .0473047
458.468 .0472155
459.360 .0471252
460.250 .0470336
461.140 .0469406
462.028 .0468467
462.915 .0467525
463.801 .0466584
464.687 .0465650
465.571 .0464730
466.454 .0463826
467.335 .0462944
468.216 .0462084
469.096 .0461246
469.975 .0460432
470.853 .0459644
471.729 .0458883
472.605 .0458153
473.479 .0457463
474.353 .0456815
475.226 .0456212
476.097 .0455653
476.968 .0455132
477.838 .0454641
478.706 .0454170
479.574 .0453708
480.441 .0453251
481.306 .0452791
482.171 .0452326
483.035 .0451860
483.898 .0451397
484.760 .0450939
485.621 .0450490
486.481 .0450052
487.340 .0449625
488.198 .0449207
489.055 .0448794
489.912 .0448385
490.767 .0447980
491.622 .0447409
492.476 .0447017
493.329 .0446628
494.180 .0446242
495.032 .0445856
495.882 .0445469
496.731 .0445075
497.580 .0444669
498.427 .0444246
499.274 .0443800
500.120 .0443513
500.965 .0443024
501.809 .0442510
502.653 .0441970
503.495 .0441408
504.337 .0440826
505.178 .0440227
506.018 .0439618
506.858 .0438999
507.696 .0438376
508.534 .0437749
509.371 .0437123
510.208 .0436509
511.043 .0435911
511.878 .0435339
512.712 .0434802
513.545 .0434306
514.377 .0433855
515.209 .0433449
516.040 .0433089
516.870 .0432771
517.699 .0432490
518.528 .0432242
519.356 .0432023
520.183 .0431829
521.010 .0431657
521.836 .0431501
522.661 .0431355
523.485 .0431211
524.309 .0431060
525.132 .0430897
525.954 .0430714
526.776 .0430505
527.597 .0430261
528.417 .0429979
529.237 .0429658
530.056 .0429291
530.874 .0428878
531.692 .0428413
532.508 .0427898
533.325 .0427333
534.140 .0426721
534.955 .0426069
535.770 .0425383
536.583 .0424669
537.397 .0423932
538.209 .0423176
539.021 .0422409
539.832 .0421635
540.643 .0420862
541.453 .0420094
542.262 .0419337
543.071 .0418596
543.879 .0417880
544.687 .0417194
545.494 .0416542
546.300 .0415921
547.106 .0415333
547.911 .0414778
548.716 .0414261
549.520 .0413784
550.323 .0413353
551.126 .0412974
551.929 .0412647
552.731 .0412373
553.532 .0412150
554.332 .0411972
555.133 .0411832
555.932 .0411723
556.731 .0411635
557.530 .0411558
558.328 .0411484
559.125 .0411407
559.922 .0411323
560.719 .0411224
561.515 .0411109
562.310 .0410975
563.105 .0410823
563.899 .0410653
564.693 .0410465
565.487 .0410263
566.280 .0410046
567.072 .0409810
567.864 .0409555
568.655 .0409275
569.446 .0408971
570.236 .0408640
571.026 .0408286
571.816 .0407910
572.605 .0407516
573.393 .0407110
574.181 .0406699
574.969 .0406287
575.756 .0405880
576.543 .0405480
577.329 .0405085
578.115 .0404697
578.900 .0404312
579.685 .0403931
580.469 .0403551
581.253 .0403174
582.036 .0402799
582.820 .0402425
583.602 .0402053
584.384 .0401682
585.166 .0401313
585.947 .0400947
586.728 .0400584
587.509 .0400222
588.289 .0399863
589.069 .0399505
589.848 .0399148
590.627 .0398792
591.405 .0398437
592.183 .0398083
592.961 .0397731
593.738 .0397382
594.515 .0397037
595.291 .0396698
596.067 .0396365
596.843 .0396037
597.618 .0395715
598.393 .0395242
599.167 .0394931
599.941 .0394622
600.715 .0394318
601.488 .0394017
602.261 .0393719
603.034 .0393427
603.806 .0393140
604.578 .0392859
605.349 .0392584
606.121 .0392315
606.891 .0392197
607.662 .0391933
608.432 .0391673
609.201 .0391417
609.971 .0391164
610.740 .0390914
611.508 .0390666
612.277 .0390419
613.045 .0390173
613.812 .0389928
614.579 .0389682
615.346 .0389437
616.113 .0389189
616.879 .0388941
617.645 .0388690
618.411 .0388435
619.176 .0388177
619.941 .0387913
620.705 .0387643
621.470 .0387368
622.233 .0387087
622.997 .0386801
623.760 .0386513
624.523 .0386222
625.286 .0385930
626.048 .0385638
626.810 .0385346
627.572 .0385055
628.333 .0384765
629.095 .0384477
629.855 .0384192
630.616 .0383909
631.376 .0383631
632.136 .0383358
632.895 .0383090
633.655 .0382827
634.414 .0382569
635.172 .0382316
635.931 .0382067
636.689 .0381823
637.447 .0381582
638.204 .0381347
638.962 .0381116
639.718 .0380891
640.475 .0380671
641.231 .0380457
641.988 .0380246
642.743 .0380039
643.499 .0379834
644.254 .0379630
645.009 .0379425
645.764 .0379220
646.518 .0379013
647.272 .0378805
648.026 .0378596
648.780 .0378385
649.533 .0378173
650.286 .0377960
651.039 .0377746
651.792 .0377532
652.544 .0377317
653.296 .0377102
654.048 .0376888
654.799 .0376673
655.550 .0376460
656.301 .0376247
657.052 .0376034
657.802 .0375821
658.552 .0375609
659.302 .0375397
660.052 .0375187
660.801 .0374979
661.550 .0374772
662.299 .0374567
663.048 .0374365
663.796 .0374163
664.544 .0373963
665.292 .0373764
666.040 .0373564
666.787 .0373364
667.534 .0373163
668.281 .0372962
669.028 .0372761
669.774 .0372561
670.521 .0372362
671.266 .0372166
672.012 .0371972
672.758 .0371781
673.503 .0371592
674.248 .0371405
674.992 .0371220
675.737 .0371037
676.481 .0370855
677.225 .0370674
677.969 .0370494
678.712 .0370315
679.455 .0370138
680.199 .0369963
680.941 .0369791
681.684 .0369620
682.426 .0369453
683.168 .0369287
683.910 .0369124
684.652 .0368962
685.393 .0368802
686.134 .0368644
686.875 .0368487
687.616 .0368332
688.356 .0368179
689.097 .0368026
689.837 .0367875
690.576 .0367725
691.316 .0367576
692.055 .0367427
692.794 .0367280
693.533 .0367132
694.272 .0366986
695.010 .0366840
695.748 .0366694
696.486 .0366549
697.224 .0366404
697.962 .0366259
698.699 .0366112
699.436 .0365963
700.173 .0365813
700.909 .0365661
701.646 .0365507
702.382 .0365352
703.118 .0365194
703.853 .0365033
704.589 .0364870
705.324 .0364704
706.059 .0364536
706.794 .0364364
707.529 .0364189
708.263 .0364011
708.997 .0363832
709.731 .0363651
710.465 .0363468
711.198 .0363284
711.931 .0363098
712.664 .0362910
713.397 .0362719
714.130 .0362526
714.862 .0362329
715.594 .0362130
716.326 .0361929
717.058 .0361726
717.789 .0361521
718.520 .0361314
719.251 .0361106
719.982 .0360896
720.713 .0360683
721.443 .0360467
722.173 .0360249
722.903 .0360030
723.633 .0359809
724.362 .0359588
725.091 .0359368
725.820 .0359151
726.549 .0358936
727.278 .0358725
728.006 .0358517
728.734 .0358314
729.462 .0358116
730.190 .0357922
730.917 .0357733
731.644 .0357549
732.371 .0357371
733.098 .0357198
733.825 .0357030
734.551 .0356868
735.277 .0356711
736.003 .0356558
736.728 .0356411
737.454 .0356269
738.179 .0356132
738.904 .0355999
739.629 .0355869
740.353 .0355742
741.077 .0355615
741.801 .0355489
742.525 .0355360
743.249 .0355230
743.972 .0355097
744.695 .0354961
745.418 .0354823
746.141 .0354681
746.863 .0354538
747.585 .0354392
748.307 .0354244
749.029 .0354094
749.750 .0353942
750.472 .0353787
751.193 .0353632
751.913 .0353476
752.634 .0353320
753.354 .0353164
754.074 .0353008
754.794 .0352854
755.514 .0352701
756.233 .0352551
756.952 .0352403
757.671 .0352258
758.390 .0352117
759.108 .0351981
759.826 .0351849
760.544 .0351721
761.262 .0351598
761.979 .0351477
762.697 .0351360
763.414 .0351244
764.130 .0351131
764.847 .0351018
765.563 .0350908
766.279 .0350798
766.995 .0350690
767.710 .0350582
768.426 .0350473
769.141 .0350364
769.855 .0350253
770.570 .0350139
771.284 .0350021
771.998 .0349901
772.712 .0349776
773.426 .0349646
774.139 .0349512
774.852 .0349374
775.565 .0349231
776.277 .0349084
776.990 .0348933
777.702 .0348779
778.414 .0348622
779.125 .0348463
779.836 .0348303
780.547 .0348143
781.258 .0347982
781.969 .0347821
782.679 .0347659
783.389 .0347418
784.099 .0347256
784.808 .0347094
785.517 .0346933
786.226 .0346771
786.935 .0346610
787.643 .0346449
788.352 .0346288
789.060 .0346128
789.767 .0345968
790.475 .0345809
791.182 .0345648
791.889 .0345565
792.595 .0345404
793.301 .0345242
794.008 .0345080
794.713 .0344917
795.419 .0344753
796.124 .0344588
796.829 .0344422
797.534 .0344255
798.238 .0344087
798.942 .0343918
799.646 .0343748
800.350 .0343578
801.053 .0343408
801.756 .0343238
802.459 .0343067
803.162 .0342898
803.864 .0342729
804.566 .0342562
805.267 .0342397
805.969 .0342233
806.670 .0342072
807.371 .0341913
808.071 .0341757
808.772 .0341603
809.472 .0341453
810.171 .0341305
810.871 .0341160
811.570 .0341018
812.269 .0340878
812.967 .0340741
813.666 .0340606
814.364 .0340473
815.061 .0340341
815.759 .0340211
816.456 .0340083
817.153 .0339956
817.849 .0339829
818.545 .0339703
819.241 .0339577
819.937 .0339451
820.632 .0339324
821.327 .0339196
822.022 .0339066
822.717 .0338934
823.411 .0338800
824.105 .0338663
824.798 .0338525
825.491 .0338385
826.184 .0338244
826.877 .0338101
827.569 .0337958
828.261 .0337815
828.953 .0337673
829.645 .0337531
830.336 .0337391
831.027 .0337252
831.717 .0337115
832.407 .0336981
833.097 .0336850
833.787 .0336723
834.476 .0336601
835.165 .0336482
835.854 .0336368
836.542 .0336259
837.230 .0336153
837.918 .0336050
838.605 .0335950
839.292 .0335852
839.979 .0335758
840.665 .0335665
841.352 .0335575
842.037 .0335487
842.723 .0335399
843.408 .0335311
844.093 .0335221
844.777 .0335128
845.462 .0335031
846.145 .0334929
846.829 .0334821
847.512 .0334709
848.195 .0334591
848.878 .0334468
849.560 .0334339
850.242 .0334204
850.923 .0334062
851.605 .0333913
852.286 .0333756
852.966 .0333590
853.646 .0333416
854.326 .0333235
855.006 .0333047
855.685 .0332855
856.364 .0332658
857.043 .0332458
857.721 .0332256
858.399 .0332052
859.077 .0331846
859.754 .0331640
860.431 .0331434
861.107 .0331228
861.784 .0331024
862.459 .0330822
863.135 .0330624
863.810 .0330429
864.485 .0330236
865.160 .0330047
865.834 .0329859
866.508 .0329673
867.181 .0329488
867.854 .0329304
868.527 .0329121
869.199 .0328940
869.872 .0328760
870.543 .0328582
871.215 .0328405
871.886 .0328229
872.557 .0328052
873.227 .0327875
873.897 .0327697
874.567 .0327518
875.236 .0327337
875.905 .0327156
876.573 .0326976
877.242 .0326795
877.909 .0326614
878.577 .0326434
879.244 .0326254
879.911 .0326075
880.577 .0325896
881.243 .0325717
881.909 .0325540
882.575 .0325365
883.240 .0325191
883.904 .0325021
884.569 .0324853
885.232 .0324687
885.896 .0324526
886.559 .0324367
887.222 .0324213
887.885 .0324063
888.547 .0323918
889.208 .0323778
889.870 .0323642
890.531 .0323512
891.192 .0323386
891.852 .0323264
892.512 .0323146
893.171 .0323032
893.830 .0322920
894.489 .0322810
895.148 .0322702
895.806 .0322595
896.464 .0322490
897.121 .0322385
897.778 .0322280
898.434 .0322175
899.091 .0322020
899.747 .0321918
900.402 .0321817
901.057 .0321718
901.712 .0321621
902.366 .0321525
903.020 .0321431
903.674 .0321337
904.327 .0321245
904.980 .0321152
905.633 .0321061
906.285 .0320970
906.936 .0320879
907.588 .0320835
908.239 .0320744
908.889 .0320652
909.540 .0320559
910.190 .0320465
910.839 .0320369
911.488 .0320271
912.137 .0320173
912.785 .0320073
913.433 .0319972
914.081 .0319871
914.728 .0319770
915.375 .0319669
916.021 .0319567
916.668 .0319464
917.313 .0319359
917.959 .0319251
918.604 .0319140
919.248 .0319025
919.892 .0318906
920.536 .0318782
921.180 .0318654
921.823 .0318521
922.465 .0318382
923.108 .0318239
923.750 .0318089
924.391 .0317934
925.032 .0317772
925.673 .0317605
926.313 .0317432
926.953 .0317254
927.593 .0317071
928.232 .0316883
928.871 .0316692
929.510 .0316497
930.148 .0316300
930.786 .0316100
931.423 .0315899
932.060 .0315695
932.697 .0315490
933.333 .0315282
933.969 .0315074
934.604 .0314864
935.239 .0314652
935.874 .0314440
936.508 .0314228
937.142 .0314016
937.776 .0313804
938.409 .0313594
939.042 .0313385
939.674 .0313178
940.306 .0312973
940.938 .0312770
941.569 .0312567
942.200 .0312366
942.830 .0312166
943.460 .0311966
944.090 .0311767
944.720 .0311569
945.349 .0311372
945.977 .0311175
946.606 .0310979
947.233 .0310782
947.861 .0310584
948.488 .0310385
949.115 .0310185
949.741 .0309984
950.367 .0309782
950.993 .0309580
951.618 .0309378
952.243 .0309176
952.868 .0308974
953.492 .0308774
954.115 .0308573
954.739 .0308373
955.362 .0308173
955.984 .0307973
956.607 .0307773
957.229 .0307573
957.850 .0307374
958.471 .0307177
959.092 .0306982
959.713 .0306789
960.333 .0306601
960.952 .0306415
961.572 .0306234
962.191 .0306057
962.809 .0305883
963.428 .0305712
964.045 .0305545
964.663 .0305380
965.280 .0305219
965.897 .0305060
966.513 .0304903
967.129 .0304748
967.745 .0304593
968.361 .0304439
968.976 .0304285
969.590 .0304132
970.205 .0303978
970.818 .0303825
971.432 .0303673
972.045 .0303522
972.658 .0303371
973.271 .0303221
973.883 .0303072
974.495 .0302926
975.106 .0302781
975.717 .0302639
976.328 .0302500
976.938 .0302366
977.548 .0302235
978.158 .0302109
978.768 .0301935
979.377 .0301817
979.985 .0301701
980.594 .0301587
981.202 .0301474
981.809 .0301364
982.417 .0301256
983.024 .0301150
983.631 .0301048
984.237 .0300949
984.843 .0300853
985.449 .0300760
986.054 .0300668
986.659 .0300578
987.264 .0300539
987.868 .0300451
988.472 .0300365
989.076 .0300282
989.679 .0300203
990.282 .0300128
990.885 .0300056
991.487 .0299988
992.090 .0299924
992.691 .0299862
993.293 .0299802
993.894 .0299743
994.495 .0299685
995.095 .0299627
995.696 .0299570
996.296 .0299514
996.895 .0299460
997.494 .0299409
998.093 .0299360
998.692 .0299314
999.291 .0299271
999.889 .0299229
1000.487 .0299188
1001.084 .0299149
1001.681 .0299110
1002.278 .0299072
1002.875 .0299036
1003.471 .0299003
1004.067 .0298973
1004.663 .0298946
1005.258 .0298923
1005.854 .0298903
1006.449 .0298887
1007.043 .0298872
1007.638 .0298859
1008.232 .0298847
1008.826 .0298835
1009.419 .0298824
1010.012 .0298814
1010.605 .0298806
1011.198 .0298799
1011.791 .0298795
1012.383 .0298792
1012.975 .0298791
1013.566 .0298791
1014.158 .0298792
1014.749 .0298792
1015.340 .0298791
1015.931 .0298791
1016.521 .0298791
1017.111 .0298793
1017.701 .0298797
1018.291 .0298804
1018.880 .0298814
1019.470 .0298827
1020.059 .0298843
1020.647 .0298861
1021.236 .0298880
1021.824 .0298898
1022.412 .0298916
1023.000 .0298934
1023.588 .0298951
1024.175 .0298968
1024.762 .0298985
1025.349 .0299003
1025.936 .0299021
1026.523 .0299039
1027.109 .0299055
1027.695 .0299070
1028.281 .0299081
1028.867 .0299089
1029.452 .0299092
1030.038 .0299092
1030.623 .0299089
1031.208 .0299083
1031.792 .0299075
1032.377 .0299066
1032.961 .0299055
1033.546 .0299042
1034.130 .0299025
1034.714 .0299005
1035.297 .0298979
1035.881 .0298948
1036.464 .0298910
1037.047 .0298867
1037.630 .0298819
1038.213 .0298766
1038.796 .0298710
1039.378 .0298652
1039.961 .0298592
1040.543 .0298530
1041.125 .0298465
1041.707 .0298396
1042.289 .0298323
1042.871 .0298246
1043.452 .0298163
1044.034 .0298076
1044.615 .0297986
1045.196 .0297892
1045.777 .0297797
1046.358 .0297701
1046.939 .0297605
1047.520 .0297508
1048.101 .0297412
1048.681 .0297314
1049.262 .0297216
1049.842 .0297117
1050.422 .0297018
1051.002 .0296918
1051.582 .0296818
1052.162 .0296719
1052.742 .0296621
1053.322 .0296524
1053.902 .0296428
1054.482 .0296333
1055.061 .0296240
1055.641 .0296146
1056.220 .0296053
1056.800 .0295959
1057.379 .0295865
1057.958 .0295769
1058.538 .0295672
1059.117 .0295574
1059.696 .0295473
1060.275 .0295370
1060.854 .0295265
1061.433 .0295159
1062.012 .0295051
1062.592 .0294942
1063.171 .0294831
1063.750 .0294719
1064.329 .0294605
1064.908 .0294488
1065.487 .0294368
1066.066 .0294245
1066.645 .0294118
1067.224 .0293988
1067.803 .0293855
1068.382 .0293720
1068.961 .0293585
1069.540 .0293450
1070.119 .0293317
1070.698 .0293186
1071.278 .0293057
1071.857 .0292930
1072.436 .0292807
1073.016 .0292686
1073.595 .0292570
1074.175 .0292458
1074.754 .0292353
1075.334 .0292254
1075.913 .0292165
1076.493 .0292083
1077.073 .0292011
1077.653 .0291945
1078.233 .0291885
1078.813 .0291830
1079.393 .0291778
1079.974 .0291728
1080.554 .0291680
1081.135 .0291632
1081.716 .0291586
1082.296 .0291541
1082.877 .0291497
1083.458 .0291453
1084.040 .0291410
1084.621 .0291366
1085.202 .0291321
1085.784 .0291274
1086.366 .0291226
1086.948 .0291176
1087.530 .0291124
1088.112 .0291070
1088.695 .0291015
1089.277 .0290957
1089.860 .0290897
1090.443 .0290835
1091.026 .0290770
1091.610 .0290701
1092.193 .0290629
1092.777 .0290552
1093.361 .0290473
1093.946 .0290392
1094.530 .0290310
1095.115 .0290228
1095.700 .0290149
1096.285 .0290073
1096.871 .0290001
1097.456 .0289935
1098.042 .0289875
1098.628 .0289824
1099.215 .0289780
1099.802 .0289744
1100.389 .0289718
1100.976 .0289701
1101.564 .0289694
1102.152 .0289698
1102.740 .0289711
1103.329 .0289734
1103.917 .0289765
1104.507 .0289802
1105.096 .0289847
1105.686 .0289897
1106.276 .0289952
1106.867 .0290013
1107.457 .0290080
1108.049 .0290154
1108.640 .0290236
1109.232 .0290327
1109.825 .0290426
1110.417 .0290531
1111.010 .0290642
1111.604 .0290756
1112.198 .0290872
1112.792 .0290991
1113.387 .0291112
1113.982 .0291238
1114.577 .0291369
1115.173 .0291507
1115.769 .0291655
1116.366 .0291814
1116.963 .0291984
1117.561 .0292164
1118.159 .0292355
1118.758 .0292557
1119.357 .0292770
1119.957 .0292997
1120.557 .0293239
1121.157 .0293501
1121.758 .0293785
1122.360 .0294093
1122.962 .0294429
1123.564 .0294791
1124.167 .0294915
1124.771 .0295313
1125.375 .0295735
1125.980 .0296179
1126.585 .0296641
1127.191 .0297121
1127.797 .0297618
1128.404 .0298133
1129.012 .0298665
1129.620 .0299214
1130.229 .0299781
1130.838 .0300361
1131.448 .0300954
1132.058 .0301558
1132.669 .0302473
1133.281 .0303102
1133.894 .0303735
1134.507 .0304376
1135.120 .0305024
1135.735 .0305708
1136.350 .0306357
1136.965 .0307570
1137.582 .0308135
1138.199 .0308672
1138.816 .0309193
1139.435 .0309718
1140.054 .0310262
1140.674 .0310842
1141.294 .0311413
1141.916 .0311934
1142.538 .0312579
1143.160 .0313150
1143.784 .0314576
1144.408 .0314104
1145.033 .0313209
