Measurement Sequence started on: 14-45-04-498
Integration time: 36
Scans to Average: 2 
>>>>>Begin Spectral Data<<<<<
433.946 .0670382
434.870 .0611986
435.793 .0546181
436.715 .0542804
437.635 .0531653
438.555 .0534717
439.473 .0523564
440.389 .0516137
441.305 .0511503
442.219 .0507380
443.132 .0514288
444.044 .0507697
444.954 .0504516
445.863 .0501455
446.771 .0498921
447.678 .0496154
448.584 .0493896
449.488 .0491949
450.391 .0490162
451.293 .0488510
452.194 .0486961
453.094 .0485492
453.992 .0484087
454.890 .0482741
455.786 .0481437
456.681 .0480172
457.575 .0478937
458.468 .0477727
459.360 .0476536
460.250 .0475362
461.140 .0474201
462.028 .0473059
462.915 .0471945
463.801 .0470867
464.687 .0469834
465.571 .0468856
466.454 .0467936
467.335 .0467075
468.216 .0466272
469.096 .0465517
469.975 .0464810
470.853 .0464144
471.729 .0463512
472.605 .0462914
473.479 .0462348
474.353 .0461813
475.226 .0461307
476.097 .0460828
476.968 .0460370
477.838 .0459929
478.706 .0459501
479.574 .0459078
480.441 .0458659
481.306 .0458244
482.171 .0457833
483.035 .0457427
483.898 .0457027
484.760 .0456635
485.621 .0456249
486.481 .0455868
487.340 .0455485
488.198 .0455100
489.055 .0454707
489.912 .0454306
490.767 .0453896
491.622 .0453266
492.476 .0452853
493.329 .0452446
494.180 .0452044
495.032 .0451649
495.882 .0451259
496.731 .0450871
497.580 .0450482
498.427 .0450086
499.274 .0449678
500.120 .0449463
500.965 .0449031
501.809 .0448584
502.653 .0448124
503.495 .0447654
504.337 .0447176
505.178 .0446689
506.018 .0446194
506.858 .0445686
507.696 .0445159
508.534 .0444608
509.371 .0444028
510.208 .0443414
511.043 .0442765
511.878 .0442078
512.712 .0441354
513.545 .0440595
514.377 .0439804
515.209 .0438977
516.040 .0438116
516.870 .0437223
517.699 .0436291
518.528 .0435326
519.356 .0434333
520.183 .0433313
521.010 .0432276
521.836 .0431228
522.661 .0430184
523.485 .0429154
524.309 .0428150
525.132 .0427184
525.954 .0426265
526.776 .0425403
527.597 .0424602
528.417 .0423866
529.237 .0423203
530.056 .0422615
530.874 .0422104
531.692 .0421670
532.508 .0421313
533.325 .0421034
534.140 .0420832
534.955 .0420707
535.770 .0420653
536.583 .0420663
537.397 .0420726
538.209 .0420829
539.021 .0420956
539.832 .0421093
540.643 .0421222
541.453 .0421333
542.262 .0421413
543.071 .0421459
543.879 .0421467
544.687 .0421440
545.494 .0421377
546.300 .0421279
547.106 .0421148
547.911 .0420985
548.716 .0420795
549.520 .0420585
550.323 .0420357
551.126 .0420117
551.929 .0419870
552.731 .0419617
553.532 .0419364
554.332 .0419115
555.133 .0418874
555.932 .0418643
556.731 .0418426
557.530 .0418226
558.328 .0418040
559.125 .0417870
559.922 .0417712
560.719 .0417560
561.515 .0417409
562.310 .0417252
563.105 .0417084
563.899 .0416899
564.693 .0416696
565.487 .0416472
566.280 .0416225
567.072 .0415954
567.864 .0415661
568.655 .0415348
569.446 .0415017
570.236 .0414667
571.026 .0414300
571.816 .0413917
572.605 .0413521
573.393 .0413114
574.181 .0412700
574.969 .0412284
575.756 .0411869
576.543 .0411459
577.329 .0411056
578.115 .0410662
578.900 .0410276
579.685 .0409900
580.469 .0409531
581.253 .0409170
582.036 .0408813
582.820 .0408460
583.602 .0408109
584.384 .0407760
585.166 .0407410
585.947 .0407058
586.728 .0406705
587.509 .0406350
588.289 .0405993
589.069 .0405636
589.848 .0405276
590.627 .0404916
591.405 .0404554
592.183 .0404191
592.961 .0403829
593.738 .0403467
594.515 .0403106
595.291 .0402749
596.067 .0402395
596.843 .0402047
597.618 .0401706
598.393 .0401226
599.167 .0400908
599.941 .0400598
600.715 .0400298
601.488 .0400008
602.261 .0399728
603.034 .0399456
603.806 .0399194
604.578 .0398939
605.349 .0398694
606.121 .0398457
606.891 .0398356
607.662 .0398127
608.432 .0397904
609.201 .0397687
609.971 .0397475
610.740 .0397266
611.508 .0397060
612.277 .0396855
613.045 .0396649
613.812 .0396441
614.579 .0396231
615.346 .0396018
616.113 .0395800
616.879 .0395577
617.645 .0395348
618.411 .0395111
619.176 .0394867
619.941 .0394613
620.705 .0394349
621.470 .0394077
622.233 .0393795
622.997 .0393505
623.760 .0393206
624.523 .0392901
625.286 .0392589
626.048 .0392273
626.810 .0391953
627.572 .0391629
628.333 .0391303
629.095 .0390975
629.855 .0390647
630.616 .0390319
631.376 .0389993
632.136 .0389669
632.895 .0389349
633.655 .0389034
634.414 .0388724
635.172 .0388421
635.931 .0388124
636.689 .0387835
637.447 .0387553
638.204 .0387281
638.962 .0387017
639.718 .0386763
640.475 .0386518
641.231 .0386281
641.988 .0386053
642.743 .0385833
643.499 .0385619
644.254 .0385412
645.009 .0385210
645.764 .0385013
646.518 .0384821
647.272 .0384633
648.026 .0384448
648.780 .0384266
649.533 .0384086
650.286 .0383909
651.039 .0383732
651.792 .0383556
652.544 .0383380
653.296 .0383204
654.048 .0383027
654.799 .0382850
655.550 .0382672
656.301 .0382494
657.052 .0382317
657.802 .0382139
658.552 .0381962
659.302 .0381785
660.052 .0381607
660.801 .0381428
661.550 .0381248
662.299 .0381064
663.048 .0380878
663.796 .0380688
664.544 .0380495
665.292 .0380298
666.040 .0380097
666.787 .0379893
667.534 .0379686
668.281 .0379475
669.028 .0379262
669.774 .0379047
670.521 .0378831
671.266 .0378614
672.012 .0378396
672.758 .0378179
673.503 .0377961
674.248 .0377744
674.992 .0377528
675.737 .0377311
676.481 .0377096
677.225 .0376882
677.969 .0376670
678.712 .0376460
679.455 .0376253
680.199 .0376048
680.941 .0375847
681.684 .0375649
682.426 .0375453
683.168 .0375259
683.910 .0375067
684.652 .0374875
685.393 .0374686
686.134 .0374500
686.875 .0374316
687.616 .0374136
688.356 .0373960
689.097 .0373786
689.837 .0373617
690.576 .0373450
691.316 .0373285
692.055 .0373122
692.794 .0372961
693.533 .0372800
694.272 .0372640
695.010 .0372482
695.748 .0372326
696.486 .0372171
697.224 .0372018
697.962 .0371866
698.699 .0371717
699.436 .0371570
700.173 .0371426
700.909 .0371285
701.646 .0371145
702.382 .0371008
703.118 .0370871
703.853 .0370735
704.589 .0370599
705.324 .0370462
706.059 .0370326
706.794 .0370189
707.529 .0370052
708.263 .0369915
708.997 .0369780
709.731 .0369646
710.465 .0369513
711.198 .0369382
711.931 .0369251
712.664 .0369119
713.397 .0368987
714.130 .0368853
714.862 .0368716
715.594 .0368575
716.326 .0368432
717.058 .0368284
717.789 .0368133
718.520 .0367977
719.251 .0367818
719.982 .0367653
720.713 .0367483
721.443 .0367307
722.173 .0367123
722.903 .0366931
723.633 .0366732
724.362 .0366524
725.091 .0366309
725.820 .0366088
726.549 .0365861
727.278 .0365629
728.006 .0365395
728.734 .0365158
729.462 .0364920
730.190 .0364682
730.917 .0364444
731.644 .0364209
732.371 .0363976
733.098 .0363746
733.825 .0363521
734.551 .0363301
735.277 .0363085
736.003 .0362876
736.728 .0362672
737.454 .0362474
738.179 .0362282
738.904 .0362097
739.629 .0361919
740.353 .0361747
741.077 .0361582
741.801 .0361423
742.525 .0361269
743.249 .0361119
743.972 .0360971
744.695 .0360826
745.418 .0360681
746.141 .0360537
746.863 .0360394
747.585 .0360250
748.307 .0360107
749.029 .0359965
749.750 .0359823
750.472 .0359681
751.193 .0359540
751.913 .0359400
752.634 .0359261
753.354 .0359122
754.074 .0358984
754.794 .0358848
755.514 .0358714
756.233 .0358582
756.952 .0358453
757.671 .0358327
758.390 .0358203
759.108 .0358082
759.826 .0357964
760.544 .0357848
761.262 .0357734
761.979 .0357622
762.697 .0357511
763.414 .0357402
764.130 .0357293
764.847 .0357185
765.563 .0357078
766.279 .0356970
766.995 .0356861
767.710 .0356752
768.426 .0356641
769.141 .0356528
769.855 .0356415
770.570 .0356300
771.284 .0356183
771.998 .0356065
772.712 .0355945
773.426 .0355824
774.139 .0355700
774.852 .0355573
775.565 .0355443
776.277 .0355310
776.990 .0355173
777.702 .0355033
778.414 .0354891
779.125 .0354747
779.836 .0354602
780.547 .0354456
781.258 .0354310
781.969 .0354165
782.679 .0354020
783.389 .0353802
784.099 .0353657
784.808 .0353511
785.517 .0353364
786.226 .0353216
786.935 .0353066
787.643 .0352916
788.352 .0352764
789.060 .0352611
789.767 .0352456
790.475 .0352300
791.182 .0352142
791.889 .0352060
792.595 .0351898
793.301 .0351733
794.008 .0351565
794.713 .0351394
795.419 .0351219
796.124 .0351042
796.829 .0350862
797.534 .0350678
798.238 .0350491
798.942 .0350301
799.646 .0350108
800.350 .0349912
801.053 .0349714
801.756 .0349514
802.459 .0349314
803.162 .0349113
803.864 .0348913
804.566 .0348712
805.267 .0348512
805.969 .0348312
806.670 .0348113
807.371 .0347914
808.071 .0347716
808.772 .0347519
809.472 .0347324
810.171 .0347132
810.871 .0346943
811.570 .0346757
812.269 .0346575
812.967 .0346398
813.666 .0346224
814.364 .0346052
815.061 .0345883
815.759 .0345716
816.456 .0345551
817.153 .0345387
817.849 .0345223
818.545 .0345061
819.241 .0344900
819.937 .0344739
820.632 .0344579
821.327 .0344420
822.022 .0344260
822.717 .0344101
823.411 .0343941
824.105 .0343782
824.798 .0343623
825.491 .0343465
826.184 .0343308
826.877 .0343153
827.569 .0343000
828.261 .0342849
828.953 .0342700
829.645 .0342554
830.336 .0342410
831.027 .0342269
831.717 .0342132
832.407 .0341998
833.097 .0341868
833.787 .0341743
834.476 .0341623
835.165 .0341508
835.854 .0341397
836.542 .0341290
837.230 .0341186
837.918 .0341085
838.605 .0340986
839.292 .0340889
839.979 .0340793
840.665 .0340699
841.352 .0340606
842.037 .0340515
842.723 .0340425
843.408 .0340336
844.093 .0340248
844.777 .0340158
845.462 .0340067
846.145 .0339974
846.829 .0339878
847.512 .0339778
848.195 .0339675
848.878 .0339568
849.560 .0339458
850.242 .0339344
850.923 .0339225
851.605 .0339101
852.286 .0338972
852.966 .0338836
853.646 .0338695
854.326 .0338548
855.006 .0338396
855.685 .0338240
856.364 .0338080
857.043 .0337916
857.721 .0337748
858.399 .0337576
859.077 .0337402
859.754 .0337224
860.431 .0337042
861.107 .0336859
861.784 .0336673
862.459 .0336487
863.135 .0336300
863.810 .0336112
864.485 .0335924
865.160 .0335735
865.834 .0335543
866.508 .0335350
867.181 .0335153
867.854 .0334953
868.527 .0334751
869.199 .0334547
869.872 .0334341
870.543 .0334133
871.215 .0333924
871.886 .0333714
872.557 .0333502
873.227 .0333290
873.897 .0333076
874.567 .0332861
875.236 .0332644
875.905 .0332426
876.573 .0332207
877.242 .0331988
877.909 .0331767
878.577 .0331546
879.244 .0331325
879.911 .0331103
880.577 .0330881
881.243 .0330660
881.909 .0330439
882.575 .0330219
883.240 .0330002
883.904 .0329787
884.569 .0329575
885.232 .0329367
885.896 .0329163
886.559 .0328964
887.222 .0328771
887.885 .0328583
888.547 .0328401
889.208 .0328226
889.870 .0328058
890.531 .0327896
891.192 .0327740
891.852 .0327591
892.512 .0327448
893.171 .0327311
893.830 .0327177
894.489 .0327048
895.148 .0326922
895.806 .0326799
896.464 .0326678
897.121 .0326560
897.778 .0326444
898.434 .0326331
899.091 .0326167
899.747 .0326057
900.402 .0325948
901.057 .0325840
901.712 .0325732
902.366 .0325623
903.020 .0325513
903.674 .0325401
904.327 .0325287
904.980 .0325170
905.633 .0325051
906.285 .0324929
906.936 .0324804
907.588 .0324733
908.239 .0324605
908.889 .0324474
909.540 .0324342
910.190 .0324207
910.839 .0324071
911.488 .0323934
912.137 .0323796
912.785 .0323658
913.433 .0323521
914.081 .0323384
914.728 .0323248
915.375 .0323113
916.021 .0322979
916.668 .0322846
917.313 .0322714
917.959 .0322584
918.604 .0322456
919.248 .0322329
919.892 .0322204
920.536 .0322080
921.180 .0321958
921.823 .0321836
922.465 .0321716
923.108 .0321596
923.750 .0321476
924.391 .0321355
925.032 .0321234
925.673 .0321113
926.313 .0320990
926.953 .0320867
927.593 .0320742
928.232 .0320616
928.871 .0320487
929.510 .0320356
930.148 .0320223
930.786 .0320087
931.423 .0319948
932.060 .0319806
932.697 .0319661
933.333 .0319514
933.969 .0319363
934.604 .0319210
935.239 .0319055
935.874 .0318896
936.508 .0318735
937.142 .0318572
937.776 .0318406
938.409 .0318238
939.042 .0318069
939.674 .0317898
940.306 .0317725
940.938 .0317551
941.569 .0317376
942.200 .0317198
942.830 .0317019
943.460 .0316837
944.090 .0316653
944.720 .0316468
945.349 .0316280
945.977 .0316091
946.606 .0315902
947.233 .0315712
947.861 .0315521
948.488 .0315331
949.115 .0315139
949.741 .0314947
950.367 .0314754
950.993 .0314561
951.618 .0314365
952.243 .0314169
952.868 .0313972
953.492 .0313773
954.115 .0313573
954.739 .0313373
955.362 .0313172
955.984 .0312971
956.607 .0312770
957.229 .0312569
957.850 .0312367
958.471 .0312166
959.092 .0311965
959.713 .0311764
960.333 .0311562
960.952 .0311361
961.572 .0311160
962.191 .0310958
962.809 .0310757
963.428 .0310556
964.045 .0310356
964.663 .0310155
965.280 .0309955
965.897 .0309754
966.513 .0309552
967.129 .0309349
967.745 .0309146
968.361 .0308941
968.976 .0308736
969.590 .0308531
970.205 .0308326
970.818 .0308121
971.432 .0307916
972.045 .0307712
972.658 .0307509
973.271 .0307307
973.883 .0307106
974.495 .0306906
975.106 .0306709
975.717 .0306514
976.328 .0306324
976.938 .0306137
977.548 .0305954
978.158 .0305775
978.768 .0305524
979.377 .0305355
979.985 .0305190
980.594 .0305030
981.202 .0304874
981.809 .0304722
982.417 .0304574
983.024 .0304432
983.631 .0304293
984.237 .0304159
984.843 .0304029
985.449 .0303903
986.054 .0303780
986.659 .0303661
987.264 .0303610
987.868 .0303496
988.472 .0303385
989.076 .0303278
989.679 .0303173
990.282 .0303070
990.885 .0302969
991.487 .0302869
992.090 .0302771
992.691 .0302673
993.293 .0302577
993.894 .0302481
994.495 .0302388
995.095 .0302296
995.696 .0302206
996.296 .0302119
996.895 .0302033
997.494 .0301949
998.093 .0301866
998.692 .0301785
999.291 .0301704
999.889 .0301624
1000.487 .0301546
1001.084 .0301470
1001.681 .0301398
1002.278 .0301330
1002.875 .0301265
1003.471 .0301205
1004.067 .0301150
1004.663 .0301098
1005.258 .0301049
1005.854 .0301004
1006.449 .0300962
1007.043 .0300923
1007.638 .0300888
1008.232 .0300857
1008.826 .0300831
1009.419 .0300810
1010.012 .0300795
1010.605 .0300785
1011.198 .0300780
1011.791 .0300779
1012.383 .0300782
1012.975 .0300787
1013.566 .0300795
1014.158 .0300805
1014.749 .0300817
1015.340 .0300830
1015.931 .0300845
1016.521 .0300863
1017.111 .0300884
1017.701 .0300906
1018.291 .0300932
1018.880 .0300960
1019.470 .0300990
1020.059 .0301021
1020.647 .0301054
1021.236 .0301089
1021.824 .0301125
1022.412 .0301162
1023.000 .0301202
1023.588 .0301244
1024.175 .0301289
1024.762 .0301337
1025.349 .0301389
1025.936 .0301444
1026.523 .0301501
1027.109 .0301561
1027.695 .0301621
1028.281 .0301683
1028.867 .0301745
1029.452 .0301809
1030.038 .0301872
1030.623 .0301937
1031.208 .0302002
1031.792 .0302068
1032.377 .0302134
1032.961 .0302200
1033.546 .0302265
1034.130 .0302328
1034.714 .0302389
1035.297 .0302445
1035.881 .0302497
1036.464 .0302544
1037.047 .0302585
1037.630 .0302621
1038.213 .0302651
1038.796 .0302676
1039.378 .0302695
1039.961 .0302708
1040.543 .0302713
1041.125 .0302712
1041.707 .0302702
1042.289 .0302683
1042.871 .0302656
1043.452 .0302620
1044.034 .0302576
1044.615 .0302524
1045.196 .0302465
1045.777 .0302400
1046.358 .0302329
1046.939 .0302253
1047.520 .0302172
1048.101 .0302089
1048.681 .0302002
1049.262 .0301914
1049.842 .0301824
1050.422 .0301733
1051.002 .0301643
1051.582 .0301552
1052.162 .0301462
1052.742 .0301371
1053.322 .0301280
1053.902 .0301189
1054.482 .0301097
1055.061 .0301006
1055.641 .0300916
1056.220 .0300828
1056.800 .0300741
1057.379 .0300656
1057.958 .0300572
1058.538 .0300490
1059.117 .0300409
1059.696 .0300328
1060.275 .0300246
1060.854 .0300163
1061.433 .0300081
1062.012 .0300000
1062.592 .0299920
1063.171 .0299843
1063.750 .0299769
1064.329 .0299696
1064.908 .0299625
1065.487 .0299553
1066.066 .0299480
1066.645 .0299404
1067.224 .0299326
1067.803 .0299244
1068.382 .0299158
1068.961 .0299070
1069.540 .0298982
1070.119 .0298894
1070.698 .0298806
1071.278 .0298719
1071.857 .0298633
1072.436 .0298546
1073.016 .0298457
1073.595 .0298367
1074.175 .0298276
1074.754 .0298185
1075.334 .0298093
1075.913 .0298001
1076.493 .0297911
1077.073 .0297823
1077.653 .0297736
1078.233 .0297649
1078.813 .0297560
1079.393 .0297468
1079.974 .0297370
1080.554 .0297266
1081.135 .0297155
1081.716 .0297038
1082.296 .0296916
1082.877 .0296789
1083.458 .0296657
1084.040 .0296524
1084.621 .0296390
1085.202 .0296257
1085.784 .0296126
1086.366 .0295997
1086.948 .0295872
1087.530 .0295752
1088.112 .0295635
1088.695 .0295522
1089.277 .0295414
1089.860 .0295309
1090.443 .0295208
1091.026 .0295109
1091.610 .0295014
1092.193 .0294921
1092.777 .0294832
1093.361 .0294745
1093.946 .0294661
1094.530 .0294577
1095.115 .0294495
1095.700 .0294414
1096.285 .0294333
1096.871 .0294254
1097.456 .0294177
1098.042 .0294103
1098.628 .0294034
1099.215 .0293970
1099.802 .0293912
1100.389 .0293862
1100.976 .0293820
1101.564 .0293785
1102.152 .0293756
1102.740 .0293733
1103.329 .0293717
1103.917 .0293706
1104.507 .0293701
1105.096 .0293701
1105.686 .0293706
1106.276 .0293717
1106.867 .0293734
1107.457 .0293756
1108.049 .0293783
1108.640 .0293817
1109.232 .0293858
1109.825 .0293907
1110.417 .0293965
1111.010 .0294035
1111.604 .0294116
1112.198 .0294210
1112.792 .0294318
1113.387 .0294440
1113.982 .0294575
1114.577 .0294722
1115.173 .0294882
1115.769 .0295054
1116.366 .0295236
1116.963 .0295428
1117.561 .0295631
1118.159 .0295844
1118.758 .0296066
1119.357 .0296300
1119.957 .0296545
1120.557 .0296802
1121.157 .0297072
1121.758 .0297353
1122.360 .0297648
1122.962 .0297956
1123.564 .0298277
1124.167 .0298407
1124.771 .0298747
1125.375 .0299100
1125.980 .0299465
1126.585 .0299841
1127.191 .0300227
1127.797 .0300624
1128.404 .0301033
1129.012 .0301454
1129.620 .0301891
1130.229 .0302342
1130.838 .0302808
1131.448 .0303288
1132.058 .0303782
1132.669 .0304519
1133.281 .0305055
1133.894 .0305614
1134.507 .0306151
1135.120 .0306714
1135.735 .0307332
1136.350 .0308079
1136.965 .0308173
1137.582 .0308868
1138.199 .0309563
1138.816 .0310230
1139.435 .0310877
1140.054 .0311483
1140.674 .0312117
1141.294 .0312869
1141.916 .0313719
1142.538 .0313464
1143.160 .0314487
1143.784 .0316292
1144.408 .0320202
1145.033 .0321171
