Measurement Sequence started on: 14-45-04-498
Integration time: 36
Scans to Average: 2 
>>>>>Begin Spectral Data<<<<<
433.946 .0344995
434.870 .0434088
435.793 .0432513
436.715 .0425324
437.635 .0408948
438.555 .0406671
439.473 .0405266
440.389 .0401287
441.305 .0398038
442.219 .0395552
443.132 .0400444
444.044 .0397955
444.954 .0395518
445.863 .0393425
446.771 .0392161
447.678 .0390980
448.584 .0389829
449.488 .0388842
450.391 .0387977
451.293 .0387193
452.194 .0386448
453.094 .0385721
453.992 .0385003
454.890 .0384286
455.786 .0383560
456.681 .0382826
457.575 .0382073
458.468 .0381300
459.360 .0380506
460.250 .0379688
461.140 .0378845
462.028 .0377984
462.915 .0377111
463.801 .0376227
464.687 .0375338
465.571 .0374451
466.454 .0373569
467.335 .0372696
468.216 .0371832
469.096 .0370976
469.975 .0370127
470.853 .0369287
471.729 .0368452
472.605 .0367630
473.479 .0366829
474.353 .0366056
475.226 .0365316
476.097 .0364618
476.968 .0363962
477.838 .0363350
478.706 .0362780
479.574 .0362251
480.441 .0361759
481.306 .0361304
482.171 .0360882
483.035 .0360494
483.898 .0360139
484.760 .0359818
485.621 .0359528
486.481 .0359270
487.340 .0359038
488.198 .0358825
489.055 .0358623
489.912 .0358425
490.767 .0358223
491.622 .0357871
492.476 .0357636
493.329 .0357387
494.180 .0357125
495.032 .0356846
495.882 .0356548
496.731 .0356229
497.580 .0355887
498.427 .0355516
499.274 .0355115
500.120 .0354852
500.965 .0354402
501.809 .0353924
502.653 .0353420
503.495 .0352893
504.337 .0352347
505.178 .0351786
506.018 .0351208
506.858 .0350615
507.696 .0350008
508.534 .0349388
509.371 .0348757
510.208 .0348119
511.043 .0347478
511.878 .0346839
512.712 .0346210
513.545 .0345599
514.377 .0345011
515.209 .0344450
516.040 .0343920
516.870 .0343418
517.699 .0342942
518.528 .0342485
519.356 .0342042
520.183 .0341608
521.010 .0341179
521.836 .0340752
522.661 .0340324
523.485 .0339896
524.309 .0339469
525.132 .0339042
525.954 .0338614
526.776 .0338177
527.597 .0337727
528.417 .0337257
529.237 .0336765
530.056 .0336243
530.874 .0335690
531.692 .0335106
532.508 .0334495
533.325 .0333860
534.140 .0333206
534.955 .0332544
535.770 .0331881
536.583 .0331226
537.397 .0330585
538.209 .0329965
539.021 .0329371
539.832 .0328808
540.643 .0328281
541.453 .0327792
542.262 .0327344
543.071 .0326937
543.879 .0326577
544.687 .0326266
545.494 .0326005
546.300 .0325792
547.106 .0325628
547.911 .0325510
548.716 .0325434
549.520 .0325397
550.323 .0325396
551.126 .0325428
551.929 .0325489
552.731 .0325573
553.532 .0325674
554.332 .0325788
555.133 .0325908
555.932 .0326028
556.731 .0326144
557.530 .0326249
558.328 .0326340
559.125 .0326413
559.922 .0326465
560.719 .0326491
561.515 .0326488
562.310 .0326455
563.105 .0326385
563.899 .0326274
564.693 .0326121
565.487 .0325925
566.280 .0325687
567.072 .0325408
567.864 .0325091
568.655 .0324740
569.446 .0324361
570.236 .0323958
571.026 .0323536
571.816 .0323101
572.605 .0322656
573.393 .0322205
574.181 .0321751
574.969 .0321297
575.756 .0320847
576.543 .0320404
577.329 .0319974
578.115 .0319560
578.900 .0319165
579.685 .0318794
580.469 .0318451
581.253 .0318138
582.036 .0317853
582.820 .0317596
583.602 .0317363
584.384 .0317151
585.166 .0316955
585.947 .0316771
586.728 .0316595
587.509 .0316423
588.289 .0316253
589.069 .0316080
589.848 .0315903
590.627 .0315721
591.405 .0315534
592.183 .0315341
592.961 .0315141
593.738 .0314932
594.515 .0314716
595.291 .0314491
596.067 .0314259
596.843 .0314017
597.618 .0313767
598.393 .0313379
599.167 .0313123
599.941 .0312867
600.715 .0312613
601.488 .0312362
602.261 .0312117
603.034 .0311878
603.806 .0311647
604.578 .0311424
605.349 .0311209
606.121 .0311002
606.891 .0310923
607.662 .0310726
608.432 .0310536
609.201 .0310352
609.971 .0310175
610.740 .0310004
611.508 .0309839
612.277 .0309678
613.045 .0309521
613.812 .0309368
614.579 .0309217
615.346 .0309067
616.113 .0308917
616.879 .0308765
617.645 .0308611
618.411 .0308451
619.176 .0308287
619.941 .0308116
620.705 .0307939
621.470 .0307756
622.233 .0307567
622.997 .0307373
623.760 .0307174
624.523 .0306971
625.286 .0306766
626.048 .0306559
626.810 .0306352
627.572 .0306144
628.333 .0305937
629.095 .0305731
629.855 .0305527
630.616 .0305326
631.376 .0305127
632.136 .0304931
632.895 .0304739
633.655 .0304551
634.414 .0304367
635.172 .0304188
635.931 .0304015
636.689 .0303847
637.447 .0303684
638.204 .0303527
638.962 .0303374
639.718 .0303225
640.475 .0303080
641.231 .0302938
641.988 .0302797
642.743 .0302658
643.499 .0302520
644.254 .0302383
645.009 .0302246
645.764 .0302109
646.518 .0301974
647.272 .0301838
648.026 .0301703
648.780 .0301567
649.533 .0301431
650.286 .0301295
651.039 .0301158
651.792 .0301020
652.544 .0300882
653.296 .0300742
654.048 .0300602
654.799 .0300462
655.550 .0300321
656.301 .0300181
657.052 .0300042
657.802 .0299903
658.552 .0299766
659.302 .0299631
660.052 .0299498
660.801 .0299367
661.550 .0299238
662.299 .0299110
663.048 .0298984
663.796 .0298859
664.544 .0298734
665.292 .0298610
666.040 .0298487
666.787 .0298365
667.534 .0298244
668.281 .0298124
669.028 .0298006
669.774 .0297890
670.521 .0297776
671.266 .0297664
672.012 .0297553
672.758 .0297443
673.503 .0297333
674.248 .0297224
674.992 .0297114
675.737 .0297005
676.481 .0296894
677.225 .0296783
677.969 .0296670
678.712 .0296558
679.455 .0296444
680.199 .0296330
680.941 .0296215
681.684 .0296099
682.426 .0295982
683.168 .0295863
683.910 .0295742
684.652 .0295619
685.393 .0295494
686.134 .0295367
686.875 .0295237
687.616 .0295105
688.356 .0294972
689.097 .0294838
689.837 .0294704
690.576 .0294571
691.316 .0294439
692.055 .0294308
692.794 .0294179
693.533 .0294053
694.272 .0293929
695.010 .0293807
695.748 .0293688
696.486 .0293572
697.224 .0293458
697.962 .0293347
698.699 .0293239
699.436 .0293134
700.173 .0293033
700.909 .0292935
701.646 .0292841
702.382 .0292750
703.118 .0292662
703.853 .0292575
704.589 .0292489
705.324 .0292403
706.059 .0292316
706.794 .0292227
707.529 .0292137
708.263 .0292044
708.997 .0291949
709.731 .0291852
710.465 .0291752
711.198 .0291649
711.931 .0291543
712.664 .0291434
713.397 .0291320
714.130 .0291201
714.862 .0291078
715.594 .0290949
716.326 .0290816
717.058 .0290679
717.789 .0290537
718.520 .0290393
719.251 .0290246
719.982 .0290098
720.713 .0289948
721.443 .0289797
722.173 .0289645
722.903 .0289493
723.633 .0289342
724.362 .0289191
725.091 .0289041
725.820 .0288892
726.549 .0288746
727.278 .0288602
728.006 .0288461
728.734 .0288323
729.462 .0288189
730.190 .0288059
730.917 .0287934
731.644 .0287813
732.371 .0287696
733.098 .0287584
733.825 .0287475
734.551 .0287370
735.277 .0287268
736.003 .0287168
736.728 .0287070
737.454 .0286974
738.179 .0286879
738.904 .0286786
739.629 .0286693
740.353 .0286601
741.077 .0286510
741.801 .0286419
742.525 .0286327
743.249 .0286234
743.972 .0286139
744.695 .0286041
745.418 .0285941
746.141 .0285839
746.863 .0285734
747.585 .0285628
748.307 .0285522
749.029 .0285415
749.750 .0285308
750.472 .0285201
751.193 .0285095
751.913 .0284988
752.634 .0284883
753.354 .0284778
754.074 .0284675
754.794 .0284573
755.514 .0284473
756.233 .0284376
756.952 .0284282
757.671 .0284191
758.390 .0284102
759.108 .0284016
759.826 .0283933
760.544 .0283852
761.262 .0283775
761.979 .0283701
762.697 .0283629
763.414 .0283561
764.130 .0283495
764.847 .0283430
765.563 .0283368
766.279 .0283306
766.995 .0283245
767.710 .0283186
768.426 .0283127
769.141 .0283070
769.855 .0283012
770.570 .0282956
771.284 .0282899
771.998 .0282842
772.712 .0282784
773.426 .0282724
774.139 .0282663
774.852 .0282600
775.565 .0282534
776.277 .0282467
776.990 .0282396
777.702 .0282323
778.414 .0282247
779.125 .0282167
779.836 .0282083
780.547 .0281996
781.258 .0281906
781.969 .0281812
782.679 .0281715
783.389 .0281557
784.099 .0281454
784.808 .0281347
785.517 .0281237
786.226 .0281123
786.935 .0281007
787.643 .0280888
788.352 .0280767
789.060 .0280644
789.767 .0280521
790.475 .0280397
791.182 .0280273
791.889 .0280212
792.595 .0280088
793.301 .0279964
794.008 .0279840
794.713 .0279717
795.419 .0279594
796.124 .0279472
796.829 .0279352
797.534 .0279232
798.238 .0279113
798.942 .0278994
799.646 .0278875
800.350 .0278757
801.053 .0278640
801.756 .0278523
802.459 .0278407
803.162 .0278292
803.864 .0278179
804.566 .0278068
805.267 .0277959
805.969 .0277852
806.670 .0277747
807.371 .0277643
808.071 .0277541
808.772 .0277442
809.472 .0277346
810.171 .0277253
810.871 .0277163
811.570 .0277077
812.269 .0276993
812.967 .0276911
813.666 .0276831
814.364 .0276752
815.061 .0276674
815.759 .0276597
816.456 .0276522
817.153 .0276447
817.849 .0276375
818.545 .0276303
819.241 .0276233
819.937 .0276164
820.632 .0276095
821.327 .0276026
822.022 .0275957
822.717 .0275889
823.411 .0275821
824.105 .0275754
824.798 .0275689
825.491 .0275624
826.184 .0275559
826.877 .0275495
827.569 .0275431
828.261 .0275366
828.953 .0275300
829.645 .0275233
830.336 .0275166
831.027 .0275098
831.717 .0275030
832.407 .0274963
833.097 .0274895
833.787 .0274827
834.476 .0274758
835.165 .0274687
835.854 .0274615
836.542 .0274541
837.230 .0274464
837.918 .0274386
838.605 .0274307
839.292 .0274226
839.979 .0274143
840.665 .0274060
841.352 .0273975
842.037 .0273888
842.723 .0273799
843.408 .0273709
844.093 .0273616
844.777 .0273520
845.462 .0273422
846.145 .0273322
846.829 .0273220
847.512 .0273115
848.195 .0273008
848.878 .0272899
849.560 .0272786
850.242 .0272670
850.923 .0272550
851.605 .0272427
852.286 .0272299
852.966 .0272168
853.646 .0272034
854.326 .0271896
855.006 .0271756
855.685 .0271614
856.364 .0271469
857.043 .0271323
857.721 .0271174
858.399 .0271024
859.077 .0270873
859.754 .0270720
860.431 .0270568
861.107 .0270415
861.784 .0270264
862.459 .0270113
863.135 .0269964
863.810 .0269817
864.485 .0269671
865.160 .0269526
865.834 .0269383
866.508 .0269241
867.181 .0269101
867.854 .0268963
868.527 .0268827
869.199 .0268694
869.872 .0268564
870.543 .0268436
871.215 .0268311
871.886 .0268189
872.557 .0268068
873.227 .0267948
873.897 .0267829
874.567 .0267711
875.236 .0267593
875.905 .0267475
876.573 .0267356
877.242 .0267237
877.909 .0267117
878.577 .0266996
879.244 .0266873
879.911 .0266749
880.577 .0266623
881.243 .0266496
881.909 .0266369
882.575 .0266243
883.240 .0266116
883.904 .0265991
884.569 .0265867
885.232 .0265745
885.896 .0265625
886.559 .0265508
887.222 .0265394
887.885 .0265284
888.547 .0265178
889.208 .0265077
889.870 .0264980
890.531 .0264888
891.192 .0264801
891.852 .0264718
892.512 .0264640
893.171 .0264567
893.830 .0264499
894.489 .0264435
895.148 .0264378
895.806 .0264326
896.464 .0264279
897.121 .0264238
897.778 .0264201
898.434 .0264169
899.091 .0264139
899.747 .0264116
900.402 .0264096
901.057 .0264081
901.712 .0264068
902.366 .0264058
903.020 .0264050
903.674 .0264042
904.327 .0264035
904.980 .0264027
905.633 .0264017
906.285 .0264006
906.936 .0263993
907.588 .0263979
908.239 .0263961
908.889 .0263941
909.540 .0263917
910.190 .0263890
910.839 .0263859
911.488 .0263822
912.137 .0263780
912.785 .0263733
913.433 .0263681
914.081 .0263623
914.728 .0263562
915.375 .0263495
916.021 .0263424
916.668 .0263349
917.313 .0263268
917.959 .0263182
918.604 .0263090
919.248 .0262992
919.892 .0262888
920.536 .0262778
921.180 .0262664
921.823 .0262545
922.465 .0262423
923.108 .0262297
923.750 .0262168
924.391 .0262036
925.032 .0261901
925.673 .0261763
926.313 .0261623
926.953 .0261479
927.593 .0261334
928.232 .0261186
928.871 .0261038
929.510 .0260888
930.148 .0260738
930.786 .0260587
931.423 .0260435
932.060 .0260282
932.697 .0260127
933.333 .0259971
933.969 .0259813
934.604 .0259654
935.239 .0259493
935.874 .0259330
936.508 .0259165
937.142 .0258999
937.776 .0258830
938.409 .0258659
939.042 .0258486
939.674 .0258309
940.306 .0258130
940.938 .0257947
941.569 .0257760
942.200 .0257571
942.830 .0257380
943.460 .0257187
944.090 .0256992
944.720 .0256797
945.349 .0256602
945.977 .0256406
946.606 .0256210
947.233 .0256015
947.861 .0255819
948.488 .0255623
949.115 .0255428
949.741 .0255235
950.367 .0255043
950.993 .0254853
951.618 .0254666
952.243 .0254482
952.868 .0254302
953.492 .0254124
954.115 .0253950
954.739 .0253779
955.362 .0253610
955.984 .0253443
956.607 .0253278
957.229 .0253115
957.850 .0252954
958.471 .0252795
959.092 .0252638
959.713 .0252483
960.333 .0252330
960.952 .0252178
961.572 .0252027
962.191 .0251877
962.809 .0251728
963.428 .0251580
964.045 .0251434
964.663 .0251289
965.280 .0251145
965.897 .0251003
966.513 .0250863
967.129 .0250724
967.745 .0250586
968.361 .0250448
968.976 .0250312
969.590 .0250177
970.205 .0250044
970.818 .0249914
971.432 .0249788
972.045 .0249665
972.658 .0249546
973.271 .0249432
973.883 .0249322
974.495 .0249217
975.106 .0249115
975.717 .0249018
976.328 .0248926
976.938 .0248838
977.548 .0248756
978.158 .0248678
978.768 .0248578
979.377 .0248511
979.985 .0248449
980.594 .0248390
981.202 .0248334
981.809 .0248283
982.417 .0248235
983.024 .0248192
983.631 .0248153
984.237 .0248118
984.843 .0248089
985.449 .0248064
986.054 .0248044
986.659 .0248028
987.264 .0248034
987.868 .0248024
988.472 .0248018
989.076 .0248016
989.679 .0248019
990.282 .0248025
990.885 .0248036
991.487 .0248052
992.090 .0248071
992.691 .0248094
993.293 .0248121
993.894 .0248149
994.495 .0248179
995.095 .0248210
995.696 .0248241
996.296 .0248274
996.895 .0248307
997.494 .0248342
998.093 .0248379
998.692 .0248417
999.291 .0248457
999.889 .0248498
1000.487 .0248538
1001.084 .0248579
1001.681 .0248619
1002.278 .0248658
1002.875 .0248696
1003.471 .0248734
1004.067 .0248772
1004.663 .0248808
1005.258 .0248844
1005.854 .0248878
1006.449 .0248911
1007.043 .0248943
1007.638 .0248972
1008.232 .0248998
1008.826 .0249023
1009.419 .0249045
1010.012 .0249066
1010.605 .0249086
1011.198 .0249106
1011.791 .0249126
1012.383 .0249146
1012.975 .0249165
1013.566 .0249184
1014.158 .0249202
1014.749 .0249219
1015.340 .0249235
1015.931 .0249250
1016.521 .0249265
1017.111 .0249278
1017.701 .0249291
1018.291 .0249303
1018.880 .0249314
1019.470 .0249324
1020.059 .0249333
1020.647 .0249340
1021.236 .0249344
1021.824 .0249347
1022.412 .0249348
1023.000 .0249348
1023.588 .0249347
1024.175 .0249346
1024.762 .0249345
1025.349 .0249344
1025.936 .0249345
1026.523 .0249347
1027.109 .0249349
1027.695 .0249353
1028.281 .0249359
1028.867 .0249366
1029.452 .0249375
1030.038 .0249388
1030.623 .0249403
1031.208 .0249421
1031.792 .0249443
1032.377 .0249466
1032.961 .0249490
1033.546 .0249514
1034.130 .0249538
1034.714 .0249560
1035.297 .0249581
1035.881 .0249599
1036.464 .0249614
1037.047 .0249628
1037.630 .0249639
1038.213 .0249647
1038.796 .0249653
1039.378 .0249655
1039.961 .0249653
1040.543 .0249647
1041.125 .0249634
1041.707 .0249615
1042.289 .0249588
1042.871 .0249554
1043.452 .0249512
1044.034 .0249463
1044.615 .0249407
1045.196 .0249344
1045.777 .0249274
1046.358 .0249200
1046.939 .0249119
1047.520 .0249033
1048.101 .0248941
1048.681 .0248843
1049.262 .0248740
1049.842 .0248632
1050.422 .0248519
1051.002 .0248404
1051.582 .0248288
1052.162 .0248173
1052.742 .0248059
1053.322 .0247949
1053.902 .0247842
1054.482 .0247738
1055.061 .0247639
1055.641 .0247543
1056.220 .0247450
1056.800 .0247361
1057.379 .0247277
1057.958 .0247196
1058.538 .0247121
1059.117 .0247051
1059.696 .0246986
1060.275 .0246926
1060.854 .0246870
1061.433 .0246817
1062.012 .0246765
1062.592 .0246713
1063.171 .0246661
1063.750 .0246607
1064.329 .0246553
1064.908 .0246497
1065.487 .0246439
1066.066 .0246381
1066.645 .0246322
1067.224 .0246261
1067.803 .0246199
1068.382 .0246133
1068.961 .0246064
1069.540 .0245990
1070.119 .0245909
1070.698 .0245820
1071.278 .0245724
1071.857 .0245620
1072.436 .0245509
1073.016 .0245389
1073.595 .0245263
1074.175 .0245131
1074.754 .0244992
1075.334 .0244848
1075.913 .0244698
1076.493 .0244542
1077.073 .0244382
1077.653 .0244219
1078.233 .0244055
1078.813 .0243893
1079.393 .0243733
1079.974 .0243578
1080.554 .0243429
1081.135 .0243288
1081.716 .0243153
1082.296 .0243026
1082.877 .0242906
1083.458 .0242791
1084.040 .0242682
1084.621 .0242579
1085.202 .0242482
1085.784 .0242393
1086.366 .0242311
1086.948 .0242239
1087.530 .0242174
1088.112 .0242117
1088.695 .0242067
1089.277 .0242023
1089.860 .0241985
1090.443 .0241951
1091.026 .0241922
1091.610 .0241900
1092.193 .0241885
1092.777 .0241878
1093.361 .0241879
1093.946 .0241888
1094.530 .0241904
1095.115 .0241923
1095.700 .0241945
1096.285 .0241966
1096.871 .0241984
1097.456 .0242000
1098.042 .0242012
1098.628 .0242023
1099.215 .0242034
1099.802 .0242045
1100.389 .0242060
1100.976 .0242080
1101.564 .0242104
1102.152 .0242132
1102.740 .0242165
1103.329 .0242203
1103.917 .0242246
1104.507 .0242295
1105.096 .0242353
1105.686 .0242421
1106.276 .0242501
1106.867 .0242594
1107.457 .0242700
1108.049 .0242819
1108.640 .0242950
1109.232 .0243092
1109.825 .0243242
1110.417 .0243400
1111.010 .0243565
1111.604 .0243738
1112.198 .0243917
1112.792 .0244103
1113.387 .0244294
1113.982 .0244490
1114.577 .0244688
1115.173 .0244887
1115.769 .0245085
1116.366 .0245278
1116.963 .0245468
1117.561 .0245653
1118.159 .0245830
1118.758 .0246001
1119.357 .0246166
1119.957 .0246324
1120.557 .0246476
1121.157 .0246620
1121.758 .0246758
1122.360 .0246890
1122.962 .0247019
1123.564 .0247144
1124.167 .0247228
1124.771 .0247348
1125.375 .0247471
1125.980 .0247602
1126.585 .0247743
1127.191 .0247895
1127.797 .0248062
1128.404 .0248244
1129.012 .0248442
1129.620 .0248656
1130.229 .0248889
1130.838 .0249142
1131.448 .0249418
1132.058 .0249719
1132.669 .0250130
1133.281 .0250493
1133.894 .0250885
1134.507 .0251321
1135.120 .0251757
1135.735 .0252201
1136.350 .0252621
1136.965 .0252575
1137.582 .0253245
1138.199 .0253943
1138.816 .0254652
1139.435 .0255402
1140.054 .0256141
1140.674 .0256857
1141.294 .0257505
1141.916 .0258239
1142.538 .0259456
1143.160 .0259377
1143.784 .0259615
1144.408 .0258966
1145.033 .0263669
