Measurement Sequence started on: 14-45-04-498
Integration time: 36
Scans to Average: 2 
>>>>>Begin Spectral Data<<<<<
433.946 .0455558
434.870 .0424406
435.793 .0397357
436.715 .0405012
437.635 .0415686
438.555 .0418113
439.473 .0417989
440.389 .0419046
441.305 .0420457
442.219 .0421219
443.132 .0419186
444.044 .0419039
444.954 .0420273
445.863 .0421059
446.771 .0421237
447.678 .0421235
448.584 .0421188
449.488 .0421033
450.391 .0420748
451.293 .0420361
452.194 .0419888
453.094 .0419330
453.992 .0418683
454.890 .0417944
455.786 .0417114
456.681 .0416200
457.575 .0415220
458.468 .0414189
459.360 .0413130
460.250 .0412058
461.140 .0410986
462.028 .0409924
462.915 .0408877
463.801 .0407846
464.687 .0406836
465.571 .0405847
466.454 .0404879
467.335 .0403937
468.216 .0403027
469.096 .0402154
469.975 .0401325
470.853 .0400542
471.729 .0399808
472.605 .0399122
473.479 .0398482
474.353 .0397881
475.226 .0397314
476.097 .0396773
476.968 .0396252
477.838 .0395745
478.706 .0395249
479.574 .0394760
480.441 .0394278
481.306 .0393805
482.171 .0393340
483.035 .0392884
483.898 .0392437
484.760 .0391998
485.621 .0391568
486.481 .0391145
487.340 .0390728
488.198 .0390317
489.055 .0389911
489.912 .0389512
490.767 .0389121
491.622 .0388579
492.476 .0388230
493.329 .0387902
494.180 .0387595
495.032 .0387314
495.882 .0387061
496.731 .0386834
497.580 .0386634
498.427 .0386458
499.274 .0386303
500.120 .0386283
500.965 .0386144
501.809 .0386010
502.653 .0385880
503.495 .0385750
504.337 .0385618
505.178 .0385482
506.018 .0385339
506.858 .0385184
507.696 .0385014
508.534 .0384824
509.371 .0384611
510.208 .0384370
511.043 .0384098
511.878 .0383794
512.712 .0383458
513.545 .0383089
514.377 .0382691
515.209 .0382264
516.040 .0381810
516.870 .0381330
517.699 .0380827
518.528 .0380302
519.356 .0379763
520.183 .0379207
521.010 .0378639
521.836 .0378059
522.661 .0377469
523.485 .0376871
524.309 .0376271
525.132 .0375671
525.954 .0375077
526.776 .0374489
527.597 .0373909
528.417 .0373340
529.237 .0372784
530.056 .0372236
530.874 .0371693
531.692 .0371148
532.508 .0370597
533.325 .0370034
534.140 .0369460
534.955 .0368875
535.770 .0368280
536.583 .0367675
537.397 .0367063
538.209 .0366447
539.021 .0365831
539.832 .0365217
540.643 .0364605
541.453 .0363993
542.262 .0363381
543.071 .0362764
543.879 .0362146
544.687 .0361524
545.494 .0360898
546.300 .0360266
547.106 .0359630
547.911 .0358996
548.716 .0358369
549.520 .0357757
550.323 .0357172
551.126 .0356620
551.929 .0356106
552.731 .0355632
553.532 .0355199
554.332 .0354803
555.133 .0354439
555.932 .0354103
556.731 .0353789
557.530 .0353492
558.328 .0353213
559.125 .0352951
559.922 .0352706
560.719 .0352479
561.515 .0352267
562.310 .0352067
563.105 .0351878
563.899 .0351693
564.693 .0351507
565.487 .0351318
566.280 .0351123
567.072 .0350917
567.864 .0350701
568.655 .0350474
569.446 .0350237
570.236 .0349990
571.026 .0349736
571.816 .0349474
572.605 .0349204
573.393 .0348925
574.181 .0348637
574.969 .0348339
575.756 .0348030
576.543 .0347712
577.329 .0347385
578.115 .0347052
578.900 .0346716
579.685 .0346380
580.469 .0346047
581.253 .0345721
582.036 .0345401
582.820 .0345087
583.602 .0344777
584.384 .0344466
585.166 .0344153
585.947 .0343836
586.728 .0343515
587.509 .0343191
588.289 .0342868
589.069 .0342549
589.848 .0342234
590.627 .0341927
591.405 .0341627
592.183 .0341333
592.961 .0341043
593.738 .0340757
594.515 .0340470
595.291 .0340185
596.067 .0339900
596.843 .0339617
597.618 .0339337
598.393 .0338928
599.167 .0338659
599.941 .0338394
600.715 .0338135
601.488 .0337880
602.261 .0337629
603.034 .0337380
603.806 .0337133
604.578 .0336888
605.349 .0336645
606.121 .0336405
606.891 .0336297
607.662 .0336063
608.432 .0335832
609.201 .0335605
609.971 .0335383
610.740 .0335164
611.508 .0334949
612.277 .0334738
613.045 .0334529
613.812 .0334323
614.579 .0334119
615.346 .0333916
616.113 .0333715
616.879 .0333514
617.645 .0333312
618.411 .0333111
619.176 .0332907
619.941 .0332701
620.705 .0332492
621.470 .0332280
622.233 .0332064
622.997 .0331843
623.760 .0331618
624.523 .0331389
625.286 .0331156
626.048 .0330918
626.810 .0330678
627.572 .0330434
628.333 .0330187
629.095 .0329938
629.855 .0329688
630.616 .0329436
631.376 .0329183
632.136 .0328929
632.895 .0328675
633.655 .0328421
634.414 .0328167
635.172 .0327914
635.931 .0327662
636.689 .0327411
637.447 .0327162
638.204 .0326915
638.962 .0326670
639.718 .0326429
640.475 .0326191
641.231 .0325956
641.988 .0325725
642.743 .0325497
643.499 .0325272
644.254 .0325052
645.009 .0324835
645.764 .0324622
646.518 .0324413
647.272 .0324208
648.026 .0324008
648.780 .0323811
649.533 .0323618
650.286 .0323427
651.039 .0323240
651.792 .0323054
652.544 .0322871
653.296 .0322690
654.048 .0322511
654.799 .0322335
655.550 .0322162
656.301 .0321993
657.052 .0321827
657.802 .0321665
658.552 .0321507
659.302 .0321351
660.052 .0321198
660.801 .0321048
661.550 .0320899
662.299 .0320753
663.048 .0320608
663.796 .0320465
664.544 .0320324
665.292 .0320185
666.040 .0320047
666.787 .0319911
667.534 .0319776
668.281 .0319642
669.028 .0319509
669.774 .0319375
670.521 .0319242
671.266 .0319109
672.012 .0318976
672.758 .0318842
673.503 .0318708
674.248 .0318573
674.992 .0318438
675.737 .0318302
676.481 .0318165
677.225 .0318026
677.969 .0317886
678.712 .0317745
679.455 .0317601
680.199 .0317456
680.941 .0317308
681.684 .0317159
682.426 .0317008
683.168 .0316855
683.910 .0316699
684.652 .0316540
685.393 .0316378
686.134 .0316213
686.875 .0316045
687.616 .0315876
688.356 .0315704
689.097 .0315531
689.837 .0315358
690.576 .0315184
691.316 .0315010
692.055 .0314836
692.794 .0314661
693.533 .0314486
694.272 .0314311
695.010 .0314136
695.748 .0313962
696.486 .0313791
697.224 .0313621
697.962 .0313455
698.699 .0313293
699.436 .0313134
700.173 .0312980
700.909 .0312829
701.646 .0312683
702.382 .0312540
703.118 .0312401
703.853 .0312266
704.589 .0312132
705.324 .0312000
706.059 .0311869
706.794 .0311740
707.529 .0311610
708.263 .0311481
708.997 .0311354
709.731 .0311228
710.465 .0311104
711.198 .0310982
711.931 .0310863
712.664 .0310747
713.397 .0310632
714.130 .0310518
714.862 .0310405
715.594 .0310291
716.326 .0310178
717.058 .0310065
717.789 .0309952
718.520 .0309841
719.251 .0309732
719.982 .0309625
720.713 .0309519
721.443 .0309416
722.173 .0309314
722.903 .0309212
723.633 .0309112
724.362 .0309012
725.091 .0308913
725.820 .0308814
726.549 .0308716
727.278 .0308619
728.006 .0308523
728.734 .0308426
729.462 .0308330
730.190 .0308234
730.917 .0308137
731.644 .0308039
732.371 .0307940
733.098 .0307840
733.825 .0307739
734.551 .0307637
735.277 .0307533
736.003 .0307429
736.728 .0307323
737.454 .0307218
738.179 .0307112
738.904 .0307007
739.629 .0306902
740.353 .0306798
741.077 .0306694
741.801 .0306589
742.525 .0306484
743.249 .0306379
743.972 .0306272
744.695 .0306164
745.418 .0306055
746.141 .0305944
746.863 .0305832
747.585 .0305717
748.307 .0305600
749.029 .0305479
749.750 .0305354
750.472 .0305224
751.193 .0305088
751.913 .0304947
752.634 .0304801
753.354 .0304651
754.074 .0304497
754.794 .0304340
755.514 .0304180
756.233 .0304018
756.952 .0303853
757.671 .0303688
758.390 .0303521
759.108 .0303353
759.826 .0303184
760.544 .0303016
761.262 .0302847
761.979 .0302679
762.697 .0302513
763.414 .0302347
764.130 .0302185
764.847 .0302025
765.563 .0301870
766.279 .0301721
766.995 .0301578
767.710 .0301442
768.426 .0301313
769.141 .0301192
769.855 .0301077
770.570 .0300968
771.284 .0300864
771.998 .0300766
772.712 .0300674
773.426 .0300586
774.139 .0300505
774.852 .0300429
775.565 .0300360
776.277 .0300296
776.990 .0300237
777.702 .0300182
778.414 .0300130
779.125 .0300080
779.836 .0300031
780.547 .0299984
781.258 .0299939
781.969 .0299894
782.679 .0299851
783.389 .0299787
784.099 .0299745
784.808 .0299705
785.517 .0299664
786.226 .0299624
786.935 .0299583
787.643 .0299542
788.352 .0299501
789.060 .0299459
789.767 .0299418
790.475 .0299378
791.182 .0299338
791.889 .0299320
792.595 .0299282
793.301 .0299246
794.008 .0299210
794.713 .0299174
795.419 .0299139
796.124 .0299104
796.829 .0299069
797.534 .0299034
798.238 .0298997
798.942 .0298960
799.646 .0298921
800.350 .0298881
801.053 .0298839
801.756 .0298796
802.459 .0298752
803.162 .0298707
803.864 .0298661
804.566 .0298613
805.267 .0298563
805.969 .0298511
806.670 .0298457
807.371 .0298401
808.071 .0298343
808.772 .0298283
809.472 .0298220
810.171 .0298156
810.871 .0298088
811.570 .0298018
812.269 .0297945
812.967 .0297868
813.666 .0297788
814.364 .0297704
815.061 .0297616
815.759 .0297524
816.456 .0297429
817.153 .0297329
817.849 .0297225
818.545 .0297115
819.241 .0297000
819.937 .0296880
820.632 .0296753
821.327 .0296622
822.022 .0296487
822.717 .0296347
823.411 .0296205
824.105 .0296061
824.798 .0295913
825.491 .0295763
826.184 .0295610
826.877 .0295453
827.569 .0295293
828.261 .0295131
828.953 .0294966
829.645 .0294801
830.336 .0294635
831.027 .0294471
831.717 .0294308
832.407 .0294149
833.097 .0293991
833.787 .0293837
834.476 .0293685
835.165 .0293536
835.854 .0293390
836.542 .0293246
837.230 .0293105
837.918 .0292966
838.605 .0292829
839.292 .0292693
839.979 .0292558
840.665 .0292423
841.352 .0292288
842.037 .0292152
842.723 .0292015
843.408 .0291876
844.093 .0291735
844.777 .0291592
845.462 .0291446
846.145 .0291298
846.829 .0291148
847.512 .0290996
848.195 .0290842
848.878 .0290685
849.560 .0290528
850.242 .0290368
850.923 .0290208
851.605 .0290047
852.286 .0289885
852.966 .0289723
853.646 .0289561
854.326 .0289399
855.006 .0289239
855.685 .0289081
856.364 .0288924
857.043 .0288771
857.721 .0288619
858.399 .0288471
859.077 .0288326
859.754 .0288185
860.431 .0288049
861.107 .0287917
861.784 .0287791
862.459 .0287671
863.135 .0287557
863.810 .0287447
864.485 .0287343
865.160 .0287243
865.834 .0287147
866.508 .0287055
867.181 .0286965
867.854 .0286878
868.527 .0286795
869.199 .0286716
869.872 .0286640
870.543 .0286567
871.215 .0286498
871.886 .0286432
872.557 .0286369
873.227 .0286307
873.897 .0286248
874.567 .0286191
875.236 .0286136
875.905 .0286082
876.573 .0286030
877.242 .0285979
877.909 .0285928
878.577 .0285879
879.244 .0285830
879.911 .0285781
880.577 .0285733
881.243 .0285685
881.909 .0285638
882.575 .0285591
883.240 .0285545
883.904 .0285500
884.569 .0285456
885.232 .0285413
885.896 .0285371
886.559 .0285331
887.222 .0285294
887.885 .0285259
888.547 .0285227
889.208 .0285198
889.870 .0285173
890.531 .0285152
891.192 .0285133
891.852 .0285118
892.512 .0285105
893.171 .0285094
893.830 .0285084
894.489 .0285076
895.148 .0285069
895.806 .0285063
896.464 .0285057
897.121 .0285050
897.778 .0285043
898.434 .0285035
899.091 .0285017
899.747 .0285003
900.402 .0284988
901.057 .0284970
901.712 .0284950
902.366 .0284925
903.020 .0284896
903.674 .0284861
904.327 .0284820
904.980 .0284772
905.633 .0284717
906.285 .0284655
906.936 .0284585
907.588 .0284529
908.239 .0284448
908.889 .0284359
909.540 .0284263
910.190 .0284160
910.839 .0284049
911.488 .0283931
912.137 .0283806
912.785 .0283674
913.433 .0283536
914.081 .0283393
914.728 .0283244
915.375 .0283091
916.021 .0282932
916.668 .0282770
917.313 .0282602
917.959 .0282430
918.604 .0282253
919.248 .0282072
919.892 .0281887
920.536 .0281697
921.180 .0281504
921.823 .0281307
922.465 .0281107
923.108 .0280903
923.750 .0280696
924.391 .0280486
925.032 .0280272
925.673 .0280056
926.313 .0279837
926.953 .0279616
927.593 .0279393
928.232 .0279169
928.871 .0278943
929.510 .0278717
930.148 .0278490
930.786 .0278263
931.423 .0278036
932.060 .0277808
932.697 .0277580
933.333 .0277352
933.969 .0277123
934.604 .0276894
935.239 .0276666
935.874 .0276437
936.508 .0276208
937.142 .0275980
937.776 .0275751
938.409 .0275522
939.042 .0275293
939.674 .0275064
940.306 .0274834
940.938 .0274605
941.569 .0274376
942.200 .0274147
942.830 .0273918
943.460 .0273690
944.090 .0273462
944.720 .0273234
945.349 .0273007
945.977 .0272780
946.606 .0272553
947.233 .0272327
947.861 .0272101
948.488 .0271877
949.115 .0271654
949.741 .0271434
950.367 .0271215
950.993 .0270999
951.618 .0270786
952.243 .0270576
952.868 .0270369
953.492 .0270167
954.115 .0269969
954.739 .0269776
955.362 .0269589
955.984 .0269408
956.607 .0269234
957.229 .0269065
957.850 .0268903
958.471 .0268748
959.092 .0268599
959.713 .0268457
960.333 .0268322
960.952 .0268194
961.572 .0268073
962.191 .0267959
962.809 .0267853
963.428 .0267753
964.045 .0267659
964.663 .0267573
965.280 .0267492
965.897 .0267417
966.513 .0267347
967.129 .0267283
967.745 .0267225
968.361 .0267171
968.976 .0267123
969.590 .0267078
970.205 .0267037
970.818 .0266999
971.432 .0266963
972.045 .0266929
972.658 .0266897
973.271 .0266865
973.883 .0266834
974.495 .0266803
975.106 .0266772
975.717 .0266742
976.328 .0266713
976.938 .0266685
977.548 .0266658
978.158 .0266633
978.768 .0266596
979.377 .0266574
979.985 .0266553
980.594 .0266532
981.202 .0266512
981.809 .0266492
982.417 .0266473
983.024 .0266456
983.631 .0266440
984.237 .0266425
984.843 .0266413
985.449 .0266401
986.054 .0266392
986.659 .0266383
987.264 .0266388
987.868 .0266382
988.472 .0266378
989.076 .0266376
989.679 .0266376
990.282 .0266379
990.885 .0266385
991.487 .0266395
992.090 .0266409
992.691 .0266425
993.293 .0266445
993.894 .0266466
994.495 .0266490
995.095 .0266514
995.696 .0266539
996.296 .0266564
996.895 .0266589
997.494 .0266614
998.093 .0266639
998.692 .0266664
999.291 .0266689
999.889 .0266713
1000.487 .0266738
1001.084 .0266761
1001.681 .0266783
1002.278 .0266804
1002.875 .0266824
1003.471 .0266844
1004.067 .0266862
1004.663 .0266879
1005.258 .0266896
1005.854 .0266913
1006.449 .0266931
1007.043 .0266948
1007.638 .0266966
1008.232 .0266984
1008.826 .0267003
1009.419 .0267022
1010.012 .0267042
1010.605 .0267062
1011.198 .0267084
1011.791 .0267107
1012.383 .0267132
1012.975 .0267160
1013.566 .0267191
1014.158 .0267225
1014.749 .0267262
1015.340 .0267302
1015.931 .0267344
1016.521 .0267387
1017.111 .0267431
1017.701 .0267475
1018.291 .0267519
1018.880 .0267563
1019.470 .0267606
1020.059 .0267649
1020.647 .0267691
1021.236 .0267733
1021.824 .0267773
1022.412 .0267812
1023.000 .0267849
1023.588 .0267883
1024.175 .0267914
1024.762 .0267941
1025.349 .0267965
1025.936 .0267984
1026.523 .0267999
1027.109 .0268011
1027.695 .0268017
1028.281 .0268019
1028.867 .0268015
1029.452 .0268006
1030.038 .0267991
1030.623 .0267970
1031.208 .0267945
1031.792 .0267914
1032.377 .0267879
1032.961 .0267840
1033.546 .0267796
1034.130 .0267748
1034.714 .0267696
1035.297 .0267639
1035.881 .0267577
1036.464 .0267509
1037.047 .0267436
1037.630 .0267357
1038.213 .0267272
1038.796 .0267182
1039.378 .0267086
1039.961 .0266985
1040.543 .0266877
1041.125 .0266763
1041.707 .0266643
1042.289 .0266517
1042.871 .0266386
1043.452 .0266250
1044.034 .0266110
1044.615 .0265967
1045.196 .0265823
1045.777 .0265679
1046.358 .0265534
1046.939 .0265389
1047.520 .0265245
1048.101 .0265100
1048.681 .0264956
1049.262 .0264812
1049.842 .0264671
1050.422 .0264531
1051.002 .0264394
1051.582 .0264260
1052.162 .0264130
1052.742 .0264002
1053.322 .0263877
1053.902 .0263755
1054.482 .0263633
1055.061 .0263513
1055.641 .0263393
1056.220 .0263275
1056.800 .0263158
1057.379 .0263043
1057.958 .0262932
1058.538 .0262823
1059.117 .0262717
1059.696 .0262613
1060.275 .0262511
1060.854 .0262409
1061.433 .0262307
1062.012 .0262204
1062.592 .0262102
1063.171 .0261999
1063.750 .0261897
1064.329 .0261796
1064.908 .0261697
1065.487 .0261599
1066.066 .0261501
1066.645 .0261403
1067.224 .0261304
1067.803 .0261203
1068.382 .0261101
1068.961 .0260998
1069.540 .0260894
1070.119 .0260790
1070.698 .0260688
1071.278 .0260589
1071.857 .0260492
1072.436 .0260398
1073.016 .0260307
1073.595 .0260218
1074.175 .0260131
1074.754 .0260048
1075.334 .0259967
1075.913 .0259891
1076.493 .0259819
1077.073 .0259752
1077.653 .0259689
1078.233 .0259631
1078.813 .0259577
1079.393 .0259524
1079.974 .0259473
1080.554 .0259422
1081.135 .0259372
1081.716 .0259321
1082.296 .0259271
1082.877 .0259222
1083.458 .0259174
1084.040 .0259129
1084.621 .0259085
1085.202 .0259043
1085.784 .0259003
1086.366 .0258963
1086.948 .0258925
1087.530 .0258888
1088.112 .0258851
1088.695 .0258817
1089.277 .0258786
1089.860 .0258759
1090.443 .0258735
1091.026 .0258714
1091.610 .0258696
1092.193 .0258677
1092.777 .0258657
1093.361 .0258635
1093.946 .0258609
1094.530 .0258579
1095.115 .0258546
1095.700 .0258512
1096.285 .0258478
1096.871 .0258446
1097.456 .0258415
1098.042 .0258387
1098.628 .0258361
1099.215 .0258336
1099.802 .0258310
1100.389 .0258284
1100.976 .0258257
1101.564 .0258230
1102.152 .0258206
1102.740 .0258187
1103.329 .0258175
1103.917 .0258172
1104.507 .0258179
1105.096 .0258196
1105.686 .0258222
1106.276 .0258256
1106.867 .0258297
1107.457 .0258344
1108.049 .0258396
1108.640 .0258457
1109.232 .0258527
1109.825 .0258609
1110.417 .0258704
1111.010 .0258815
1111.604 .0258940
1112.198 .0259081
1112.792 .0259234
1113.387 .0259398
1113.982 .0259571
1114.577 .0259752
1115.173 .0259938
1115.769 .0260129
1116.366 .0260328
1116.963 .0260534
1117.561 .0260750
1118.159 .0260977
1118.758 .0261215
1119.357 .0261464
1119.957 .0261722
1120.557 .0261989
1121.157 .0262264
1121.758 .0262546
1122.360 .0262835
1122.962 .0263130
1123.564 .0263434
1124.167 .0263567
1124.771 .0263883
1125.375 .0264209
1125.980 .0264547
1126.585 .0264894
1127.191 .0265249
1127.797 .0265610
1128.404 .0265977
1129.012 .0266349
1129.620 .0266725
1130.229 .0267106
1130.838 .0267492
1131.448 .0267885
1132.058 .0268285
1132.669 .0268890
1133.281 .0269319
1133.894 .0269765
1134.507 .0270207
1135.120 .0270666
1135.735 .0271166
1136.350 .0271652
1136.965 .0272039
1137.582 .0272485
1138.199 .0272937
1138.816 .0273358
1139.435 .0273822
1140.054 .0274281
1140.674 .0274773
1141.294 .0275303
1141.916 .0275964
1142.538 .0276124
1143.160 .0276905
1143.784 .0278353
1144.408 .0278365
1145.033 .0281586
