Measurement Sequence started on: 14-45-04-498
Integration time: 36
Scans to Average: 2 
>>>>>Begin Spectral Data<<<<<
433.946 .0535922
434.870 .0438920
435.793 .0420282
436.715 .0413182
437.635 .0402387
438.555 .0417286
439.473 .0411724
440.389 .0410230
441.305 .0409499
442.219 .0408904
443.132 .0410125
444.044 .0408157
444.954 .0407121
445.863 .0406416
446.771 .0406250
447.678 .0405283
448.584 .0404600
449.488 .0403989
450.391 .0403409
451.293 .0402847
452.194 .0402284
453.094 .0401727
453.992 .0401169
454.890 .0400599
455.786 .0400014
456.681 .0399417
457.575 .0398819
458.468 .0398226
459.360 .0397646
460.250 .0397078
461.140 .0396519
462.028 .0395964
462.915 .0395403
463.801 .0394822
464.687 .0394209
465.571 .0393559
466.454 .0392870
467.335 .0392147
468.216 .0391394
469.096 .0390622
469.975 .0389837
470.853 .0389044
471.729 .0388251
472.605 .0387465
473.479 .0386697
474.353 .0385953
475.226 .0385240
476.097 .0384562
476.968 .0383922
477.838 .0383320
478.706 .0382755
479.574 .0382223
480.441 .0381723
481.306 .0381251
482.171 .0380805
483.035 .0380387
483.898 .0379998
484.760 .0379642
485.621 .0379321
486.481 .0379034
487.340 .0378778
488.198 .0378543
489.055 .0378322
489.912 .0378101
490.767 .0377869
491.622 .0377462
492.476 .0377176
493.329 .0376874
494.180 .0376560
495.032 .0376242
495.882 .0375927
496.731 .0375617
497.580 .0375310
498.427 .0374999
499.274 .0374673
500.120 .0374465
500.965 .0374085
501.809 .0373666
502.653 .0373204
503.495 .0372703
504.337 .0372167
505.178 .0371607
506.018 .0371038
506.858 .0370470
507.696 .0369915
508.534 .0369380
509.371 .0368868
510.208 .0368379
511.043 .0367909
511.878 .0367459
512.712 .0367033
513.545 .0366634
514.377 .0366273
515.209 .0365964
516.040 .0365717
516.870 .0365537
517.699 .0365425
518.528 .0365380
519.356 .0365387
520.183 .0365428
521.010 .0365483
521.836 .0365533
522.661 .0365560
523.485 .0365551
524.309 .0365497
525.132 .0365394
525.954 .0365241
526.776 .0365037
527.597 .0364780
528.417 .0364470
529.237 .0364105
530.056 .0363679
530.874 .0363191
531.692 .0362637
532.508 .0362016
533.325 .0361333
534.140 .0360606
534.955 .0359846
535.770 .0359067
536.583 .0358287
537.397 .0357523
538.209 .0356788
539.021 .0356090
539.832 .0355436
540.643 .0354828
541.453 .0354268
542.262 .0353753
543.071 .0353277
543.879 .0352844
544.687 .0352453
545.494 .0352107
546.300 .0351805
547.106 .0351545
547.911 .0351323
548.716 .0351133
549.520 .0350966
550.323 .0350809
551.126 .0350648
551.929 .0350472
552.731 .0350280
553.532 .0350068
554.332 .0349840
555.133 .0349600
555.932 .0349356
556.731 .0349109
557.530 .0348860
558.328 .0348605
559.125 .0348341
559.922 .0348068
560.719 .0347781
561.515 .0347477
562.310 .0347153
563.105 .0346807
563.899 .0346441
564.693 .0346050
565.487 .0345636
566.280 .0345200
567.072 .0344739
567.864 .0344255
568.655 .0343750
569.446 .0343223
570.236 .0342675
571.026 .0342105
571.816 .0341514
572.605 .0340900
573.393 .0340266
574.181 .0339615
574.969 .0338954
575.756 .0338290
576.543 .0337626
577.329 .0336969
578.115 .0336325
578.900 .0335697
579.685 .0335087
580.469 .0334498
581.253 .0333932
582.036 .0333390
582.820 .0332873
583.602 .0332386
584.384 .0331930
585.166 .0331506
585.947 .0331117
586.728 .0330761
587.509 .0330439
588.289 .0330148
589.069 .0329888
589.848 .0329653
590.627 .0329442
591.405 .0329252
592.183 .0329079
592.961 .0328920
593.738 .0328773
594.515 .0328635
595.291 .0328504
596.067 .0328377
596.843 .0328252
597.618 .0328128
598.393 .0327933
599.167 .0327806
599.941 .0327676
600.715 .0327543
601.488 .0327404
602.261 .0327259
603.034 .0327107
603.806 .0326947
604.578 .0326779
605.349 .0326604
606.121 .0326423
606.891 .0326322
607.662 .0326133
608.432 .0325940
609.201 .0325741
609.971 .0325535
610.740 .0325321
611.508 .0325097
612.277 .0324862
613.045 .0324615
613.812 .0324356
614.579 .0324086
615.346 .0323806
616.113 .0323516
616.879 .0323218
617.645 .0322913
618.411 .0322602
619.176 .0322284
619.941 .0321960
620.705 .0321631
621.470 .0321297
622.233 .0320960
622.997 .0320620
623.760 .0320281
624.523 .0319942
625.286 .0319607
626.048 .0319276
626.810 .0318951
627.572 .0318635
628.333 .0318328
629.095 .0318033
629.855 .0317750
630.616 .0317480
631.376 .0317224
632.136 .0316981
632.895 .0316751
633.655 .0316532
634.414 .0316324
635.172 .0316125
635.931 .0315935
636.689 .0315753
637.447 .0315577
638.204 .0315409
638.962 .0315247
639.718 .0315090
640.475 .0314940
641.231 .0314794
641.988 .0314652
642.743 .0314513
643.499 .0314376
644.254 .0314240
645.009 .0314104
645.764 .0313966
646.518 .0313825
647.272 .0313682
648.026 .0313536
648.780 .0313388
649.533 .0313237
650.286 .0313084
651.039 .0312931
651.792 .0312778
652.544 .0312625
653.296 .0312473
654.048 .0312321
654.799 .0312170
655.550 .0312019
656.301 .0311867
657.052 .0311712
657.802 .0311555
658.552 .0311394
659.302 .0311229
660.052 .0311060
660.801 .0310886
661.550 .0310708
662.299 .0310527
663.048 .0310342
663.796 .0310154
664.544 .0309962
665.292 .0309766
666.040 .0309566
666.787 .0309360
667.534 .0309149
668.281 .0308931
669.028 .0308707
669.774 .0308477
670.521 .0308242
671.266 .0308003
672.012 .0307763
672.758 .0307523
673.503 .0307284
674.248 .0307047
674.992 .0306813
675.737 .0306581
676.481 .0306352
677.225 .0306126
677.969 .0305901
678.712 .0305678
679.455 .0305458
680.199 .0305241
680.941 .0305028
681.684 .0304821
682.426 .0304619
683.168 .0304423
683.910 .0304233
684.652 .0304049
685.393 .0303872
686.134 .0303700
686.875 .0303536
687.616 .0303378
688.356 .0303226
689.097 .0303080
689.837 .0302940
690.576 .0302805
691.316 .0302675
692.055 .0302550
692.794 .0302428
693.533 .0302311
694.272 .0302198
695.010 .0302088
695.748 .0301984
696.486 .0301885
697.224 .0301790
697.962 .0301701
698.699 .0301618
699.436 .0301540
700.173 .0301468
700.909 .0301403
701.646 .0301345
702.382 .0301293
703.118 .0301249
703.853 .0301212
704.589 .0301180
705.324 .0301156
706.059 .0301136
706.794 .0301123
707.529 .0301114
708.263 .0301111
708.997 .0301112
709.731 .0301117
710.465 .0301125
711.198 .0301134
711.931 .0301144
712.664 .0301152
713.397 .0301157
714.130 .0301158
714.862 .0301152
715.594 .0301139
716.326 .0301118
717.058 .0301088
717.789 .0301048
718.520 .0300999
719.251 .0300939
719.982 .0300868
720.713 .0300785
721.443 .0300691
722.173 .0300586
722.903 .0300470
723.633 .0300344
724.362 .0300209
725.091 .0300066
725.820 .0299915
726.549 .0299760
727.278 .0299601
728.006 .0299440
728.734 .0299278
729.462 .0299116
730.190 .0298955
730.917 .0298795
731.644 .0298638
732.371 .0298482
733.098 .0298330
733.825 .0298180
734.551 .0298032
735.277 .0297887
736.003 .0297744
736.728 .0297604
737.454 .0297467
738.179 .0297331
738.904 .0297197
739.629 .0297065
740.353 .0296934
741.077 .0296803
741.801 .0296673
742.525 .0296542
743.249 .0296410
743.972 .0296278
744.695 .0296145
745.418 .0296011
746.141 .0295877
746.863 .0295742
747.585 .0295607
748.307 .0295472
749.029 .0295336
749.750 .0295199
750.472 .0295061
751.193 .0294922
751.913 .0294781
752.634 .0294640
753.354 .0294498
754.074 .0294356
754.794 .0294216
755.514 .0294079
756.233 .0293945
756.952 .0293816
757.671 .0293692
758.390 .0293573
759.108 .0293460
759.826 .0293354
760.544 .0293255
761.262 .0293163
761.979 .0293078
762.697 .0293001
763.414 .0292931
764.130 .0292870
764.847 .0292818
765.563 .0292775
766.279 .0292743
766.995 .0292720
767.710 .0292709
768.426 .0292708
769.141 .0292716
769.855 .0292734
770.570 .0292760
771.284 .0292792
771.998 .0292829
772.712 .0292871
773.426 .0292917
774.139 .0292966
774.852 .0293018
775.565 .0293073
776.277 .0293130
776.990 .0293190
777.702 .0293252
778.414 .0293314
779.125 .0293377
779.836 .0293438
780.547 .0293498
781.258 .0293556
781.969 .0293611
782.679 .0293662
783.389 .0293727
784.099 .0293768
784.808 .0293804
785.517 .0293836
786.226 .0293862
786.935 .0293883
787.643 .0293898
788.352 .0293907
789.060 .0293911
789.767 .0293909
790.475 .0293900
791.182 .0293885
791.889 .0293856
792.595 .0293829
793.301 .0293796
794.008 .0293755
794.713 .0293705
795.419 .0293649
796.124 .0293586
796.829 .0293517
797.534 .0293442
798.238 .0293362
798.942 .0293277
799.646 .0293187
800.350 .0293094
801.053 .0292996
801.756 .0292894
802.459 .0292788
803.162 .0292679
803.864 .0292566
804.566 .0292450
805.267 .0292331
805.969 .0292208
806.670 .0292083
807.371 .0291955
808.071 .0291825
808.772 .0291692
809.472 .0291557
810.171 .0291419
810.871 .0291279
811.570 .0291134
812.269 .0290986
812.967 .0290832
813.666 .0290673
814.364 .0290508
815.061 .0290337
815.759 .0290162
816.456 .0289981
817.153 .0289796
817.849 .0289607
818.545 .0289414
819.241 .0289217
819.937 .0289015
820.632 .0288810
821.327 .0288601
822.022 .0288388
822.717 .0288173
823.411 .0287957
824.105 .0287741
824.798 .0287526
825.491 .0287313
826.184 .0287102
826.877 .0286894
827.569 .0286688
828.261 .0286486
828.953 .0286289
829.645 .0286096
830.336 .0285911
831.027 .0285733
831.717 .0285563
832.407 .0285402
833.097 .0285250
833.787 .0285106
834.476 .0284971
835.165 .0284844
835.854 .0284724
836.542 .0284613
837.230 .0284511
837.918 .0284418
838.605 .0284335
839.292 .0284261
839.979 .0284195
840.665 .0284137
841.352 .0284085
842.037 .0284037
842.723 .0283993
843.408 .0283953
844.093 .0283915
844.777 .0283880
845.462 .0283847
846.145 .0283817
846.829 .0283791
847.512 .0283766
848.195 .0283744
848.878 .0283722
849.560 .0283700
850.242 .0283678
850.923 .0283655
851.605 .0283632
852.286 .0283608
852.966 .0283585
853.646 .0283562
854.326 .0283540
855.006 .0283519
855.685 .0283498
856.364 .0283479
857.043 .0283461
857.721 .0283444
858.399 .0283428
859.077 .0283415
859.754 .0283404
860.431 .0283395
861.107 .0283389
861.784 .0283386
862.459 .0283383
863.135 .0283382
863.810 .0283381
864.485 .0283380
865.160 .0283378
865.834 .0283375
866.508 .0283372
867.181 .0283368
867.854 .0283363
868.527 .0283357
869.199 .0283349
869.872 .0283339
870.543 .0283326
871.215 .0283309
871.886 .0283286
872.557 .0283259
873.227 .0283227
873.897 .0283190
874.567 .0283149
875.236 .0283105
875.905 .0283057
876.573 .0283005
877.242 .0282950
877.909 .0282890
878.577 .0282827
879.244 .0282760
879.911 .0282689
880.577 .0282616
881.243 .0282540
881.909 .0282462
882.575 .0282383
883.240 .0282302
883.904 .0282221
884.569 .0282137
885.232 .0282053
885.896 .0281966
886.559 .0281878
887.222 .0281789
887.885 .0281700
888.547 .0281610
889.208 .0281522
889.870 .0281433
890.531 .0281346
891.192 .0281258
891.852 .0281170
892.512 .0281081
893.171 .0280991
893.830 .0280900
894.489 .0280807
895.148 .0280714
895.806 .0280619
896.464 .0280523
897.121 .0280427
897.778 .0280328
898.434 .0280227
899.091 .0280068
899.747 .0279961
900.402 .0279850
901.057 .0279737
901.712 .0279621
902.366 .0279503
903.020 .0279382
903.674 .0279259
904.327 .0279132
904.980 .0279001
905.633 .0278868
906.285 .0278731
906.936 .0278590
907.588 .0278508
908.239 .0278362
908.889 .0278213
909.540 .0278060
910.190 .0277903
910.839 .0277742
911.488 .0277575
912.137 .0277404
912.785 .0277227
913.433 .0277045
914.081 .0276858
914.728 .0276666
915.375 .0276469
916.021 .0276268
916.668 .0276062
917.313 .0275853
917.959 .0275639
918.604 .0275422
919.248 .0275201
919.892 .0274977
920.536 .0274750
921.180 .0274520
921.823 .0274288
922.465 .0274054
923.108 .0273817
923.750 .0273577
924.391 .0273335
925.032 .0273090
925.673 .0272842
926.313 .0272592
926.953 .0272340
927.593 .0272087
928.232 .0271833
928.871 .0271578
929.510 .0271325
930.148 .0271073
930.786 .0270822
931.423 .0270574
932.060 .0270328
932.697 .0270085
933.333 .0269844
933.969 .0269607
934.604 .0269374
935.239 .0269145
935.874 .0268920
936.508 .0268701
937.142 .0268486
937.776 .0268276
938.409 .0268072
939.042 .0267873
939.674 .0267679
940.306 .0267490
940.938 .0267307
941.569 .0267131
942.200 .0266960
942.830 .0266797
943.460 .0266641
944.090 .0266491
944.720 .0266349
945.349 .0266212
945.977 .0266082
946.606 .0265957
947.233 .0265837
947.861 .0265723
948.488 .0265613
949.115 .0265508
949.741 .0265409
950.367 .0265315
950.993 .0265227
951.618 .0265144
952.243 .0265066
952.868 .0264992
953.492 .0264923
954.115 .0264859
954.739 .0264799
955.362 .0264744
955.984 .0264694
956.607 .0264650
957.229 .0264611
957.850 .0264576
958.471 .0264547
959.092 .0264521
959.713 .0264498
960.333 .0264479
960.952 .0264463
961.572 .0264450
962.191 .0264441
962.809 .0264436
963.428 .0264434
964.045 .0264436
964.663 .0264441
965.280 .0264449
965.897 .0264460
966.513 .0264474
967.129 .0264491
967.745 .0264511
968.361 .0264534
968.976 .0264560
969.590 .0264588
970.205 .0264619
970.818 .0264652
971.432 .0264686
972.045 .0264720
972.658 .0264754
973.271 .0264786
973.883 .0264817
974.495 .0264847
975.106 .0264874
975.717 .0264900
976.328 .0264923
976.938 .0264943
977.548 .0264961
978.158 .0264975
978.768 .0264979
979.377 .0264982
979.985 .0264981
980.594 .0264977
981.202 .0264970
981.809 .0264962
982.417 .0264952
983.024 .0264941
983.631 .0264929
984.237 .0264916
984.843 .0264902
985.449 .0264889
986.054 .0264875
986.659 .0264862
987.264 .0264861
987.868 .0264853
988.472 .0264846
989.076 .0264841
989.679 .0264839
990.282 .0264840
990.885 .0264844
991.487 .0264852
992.090 .0264864
992.691 .0264880
993.293 .0264899
993.894 .0264923
994.495 .0264949
995.095 .0264977
995.696 .0265006
996.296 .0265036
996.895 .0265066
997.494 .0265096
998.093 .0265125
998.692 .0265152
999.291 .0265178
999.889 .0265201
1000.487 .0265221
1001.084 .0265235
1001.681 .0265245
1002.278 .0265247
1002.875 .0265242
1003.471 .0265228
1004.067 .0265207
1004.663 .0265177
1005.258 .0265141
1005.854 .0265099
1006.449 .0265051
1007.043 .0264999
1007.638 .0264942
1008.232 .0264882
1008.826 .0264817
1009.419 .0264749
1010.012 .0264678
1010.605 .0264603
1011.198 .0264526
1011.791 .0264449
1012.383 .0264371
1012.975 .0264296
1013.566 .0264223
1014.158 .0264153
1014.749 .0264087
1015.340 .0264024
1015.931 .0263963
1016.521 .0263903
1017.111 .0263843
1017.701 .0263783
1018.291 .0263724
1018.880 .0263667
1019.470 .0263612
1020.059 .0263560
1020.647 .0263513
1021.236 .0263469
1021.824 .0263427
1022.412 .0263386
1023.000 .0263345
1023.588 .0263301
1024.175 .0263255
1024.762 .0263204
1025.349 .0263150
1025.936 .0263091
1026.523 .0263030
1027.109 .0262967
1027.695 .0262902
1028.281 .0262834
1028.867 .0262762
1029.452 .0262685
1030.038 .0262601
1030.623 .0262511
1031.208 .0262413
1031.792 .0262308
1032.377 .0262197
1032.961 .0262080
1033.546 .0261961
1034.130 .0261839
1034.714 .0261715
1035.297 .0261589
1035.881 .0261461
1036.464 .0261330
1037.047 .0261194
1037.630 .0261055
1038.213 .0260912
1038.796 .0260765
1039.378 .0260616
1039.961 .0260464
1040.543 .0260312
1041.125 .0260159
1041.707 .0260006
1042.289 .0259854
1042.871 .0259701
1043.452 .0259548
1044.034 .0259396
1044.615 .0259244
1045.196 .0259094
1045.777 .0258946
1046.358 .0258803
1046.939 .0258665
1047.520 .0258533
1048.101 .0258407
1048.681 .0258288
1049.262 .0258175
1049.842 .0258068
1050.422 .0257967
1051.002 .0257872
1051.582 .0257783
1052.162 .0257701
1052.742 .0257624
1053.322 .0257553
1053.902 .0257487
1054.482 .0257424
1055.061 .0257365
1055.641 .0257309
1056.220 .0257256
1056.800 .0257205
1057.379 .0257157
1057.958 .0257113
1058.538 .0257072
1059.117 .0257034
1059.696 .0256997
1060.275 .0256959
1060.854 .0256920
1061.433 .0256879
1062.012 .0256835
1062.592 .0256786
1063.171 .0256734
1063.750 .0256680
1064.329 .0256622
1064.908 .0256561
1065.487 .0256497
1066.066 .0256428
1066.645 .0256353
1067.224 .0256273
1067.803 .0256187
1068.382 .0256095
1068.961 .0255999
1069.540 .0255901
1070.119 .0255802
1070.698 .0255703
1071.278 .0255606
1071.857 .0255510
1072.436 .0255416
1073.016 .0255322
1073.595 .0255227
1074.175 .0255131
1074.754 .0255034
1075.334 .0254938
1075.913 .0254842
1076.493 .0254748
1077.073 .0254658
1077.653 .0254570
1078.233 .0254486
1078.813 .0254405
1079.393 .0254327
1079.974 .0254253
1080.554 .0254181
1081.135 .0254114
1081.716 .0254052
1082.296 .0253997
1082.877 .0253952
1083.458 .0253917
1084.040 .0253893
1084.621 .0253880
1085.202 .0253878
1085.784 .0253884
1086.366 .0253899
1086.948 .0253923
1087.530 .0253956
1088.112 .0253998
1088.695 .0254050
1089.277 .0254114
1089.860 .0254188
1090.443 .0254274
1091.026 .0254370
1091.610 .0254474
1092.193 .0254585
1092.777 .0254703
1093.361 .0254827
1093.946 .0254958
1094.530 .0255097
1095.115 .0255245
1095.700 .0255403
1096.285 .0255569
1096.871 .0255742
1097.456 .0255919
1098.042 .0256099
1098.628 .0256280
1099.215 .0256459
1099.802 .0256638
1100.389 .0256815
1100.976 .0256992
1101.564 .0257169
1102.152 .0257348
1102.740 .0257530
1103.329 .0257714
1103.917 .0257900
1104.507 .0258086
1105.096 .0258272
1105.686 .0258458
1106.276 .0258644
1106.867 .0258831
1107.457 .0259020
1108.049 .0259211
1108.640 .0259406
1109.232 .0259605
1109.825 .0259807
1110.417 .0260010
1111.010 .0260214
1111.604 .0260415
1112.198 .0260612
1112.792 .0260802
1113.387 .0260989
1113.982 .0261172
1114.577 .0261354
1115.173 .0261537
1115.769 .0261721
1116.366 .0261911
1116.963 .0262106
1117.561 .0262309
1118.159 .0262519
1118.758 .0262737
1119.357 .0262960
1119.957 .0263189
1120.557 .0263425
1121.157 .0263668
1121.758 .0263920
1122.360 .0264182
1122.962 .0264453
1123.564 .0264732
1124.167 .0264842
1124.771 .0265124
1125.375 .0265408
1125.980 .0265692
1126.585 .0265972
1127.191 .0266248
1127.797 .0266520
1128.404 .0266791
1129.012 .0267066
1129.620 .0267349
1130.229 .0267641
1130.838 .0267946
1131.448 .0268264
1132.058 .0268598
1132.669 .0269131
1133.281 .0269508
1133.894 .0269905
1134.507 .0270304
1135.120 .0270770
1135.735 .0271312
1136.350 .0271731
1136.965 .0271174
1137.582 .0271492
1138.199 .0271857
1138.816 .0272255
1139.435 .0272707
1140.054 .0273249
1140.674 .0273896
1141.294 .0274533
1141.916 .0275334
1142.538 .0275699
1143.160 .0277910
1143.784 .0280324
1144.408 .0277425
1145.033 .0280538
