Measurement Sequence started on: 14-45-04-498
Integration time: 36
Scans to Average: 2 
>>>>>Begin Spectral Data<<<<<
433.946 .0608405
434.870 .0635401
435.793 .0538656
436.715 .0513925
437.635 .0507227
438.555 .0521052
439.473 .0512515
440.389 .0505903
441.305 .0503379
442.219 .0501820
443.132 .0511466
444.044 .0503999
444.954 .0501551
445.863 .0500340
446.771 .0499412
447.678 .0497693
448.584 .0496357
449.488 .0495308
450.391 .0494325
451.293 .0493365
452.194 .0492403
453.094 .0491438
453.992 .0490457
454.890 .0489447
455.786 .0488410
456.681 .0487355
457.575 .0486282
458.468 .0485205
459.360 .0484144
460.250 .0483109
461.140 .0482105
462.028 .0481142
462.915 .0480211
463.801 .0479312
464.687 .0478438
465.571 .0477590
466.454 .0476762
467.335 .0475954
468.216 .0475159
469.096 .0474380
469.975 .0473611
470.853 .0472849
471.729 .0472088
472.605 .0471335
473.479 .0470588
474.353 .0469846
475.226 .0469111
476.097 .0468384
476.968 .0467665
477.838 .0466963
478.706 .0466272
479.574 .0465599
480.441 .0464947
481.306 .0464318
482.171 .0463713
483.035 .0463138
483.898 .0462596
484.760 .0462090
485.621 .0461620
486.481 .0461190
487.340 .0460796
488.198 .0460437
489.055 .0460109
489.912 .0459806
490.767 .0459528
491.622 .0459164
492.476 .0458917
493.329 .0458675
494.180 .0458430
495.032 .0458178
495.882 .0457912
496.731 .0457624
497.580 .0457314
498.427 .0456979
499.274 .0456617
500.120 .0456361
500.965 .0455949
501.809 .0455504
502.653 .0455026
503.495 .0454515
504.337 .0453971
505.178 .0453397
506.018 .0452797
506.858 .0452178
507.696 .0451548
508.534 .0450921
509.371 .0450310
510.208 .0449729
511.043 .0449188
511.878 .0448692
512.712 .0448251
513.545 .0447868
514.377 .0447544
515.209 .0447278
516.040 .0447062
516.870 .0446887
517.699 .0446744
518.528 .0446623
519.356 .0446517
520.183 .0446416
521.010 .0446316
521.836 .0446211
522.661 .0446095
523.485 .0445965
524.309 .0445817
525.132 .0445645
525.954 .0445443
526.776 .0445198
527.597 .0444898
528.417 .0444536
529.237 .0444114
530.056 .0443634
530.874 .0443099
531.692 .0442512
532.508 .0441884
533.325 .0441223
534.140 .0440535
534.955 .0439826
535.770 .0439101
536.583 .0438362
537.397 .0437615
538.209 .0436864
539.021 .0436117
539.832 .0435379
540.643 .0434654
541.453 .0433939
542.262 .0433236
543.071 .0432541
543.879 .0431856
544.687 .0431185
545.494 .0430535
546.300 .0429902
547.106 .0429288
547.911 .0428693
548.716 .0428120
549.520 .0427569
550.323 .0427042
551.126 .0426540
551.929 .0426069
552.731 .0425634
553.532 .0425241
554.332 .0424893
555.133 .0424593
555.932 .0424341
556.731 .0424127
557.530 .0423943
558.328 .0423784
559.125 .0423639
559.922 .0423502
560.719 .0423366
561.515 .0423228
562.310 .0423077
563.105 .0422913
563.899 .0422731
564.693 .0422528
565.487 .0422303
566.280 .0422054
567.072 .0421776
567.864 .0421470
568.655 .0421136
569.446 .0420773
570.236 .0420385
571.026 .0419977
571.816 .0419549
572.605 .0419106
573.393 .0418656
574.181 .0418205
574.969 .0417757
575.756 .0417320
576.543 .0416898
577.329 .0416494
578.115 .0416110
578.900 .0415742
579.685 .0415393
580.469 .0415062
581.253 .0414747
582.036 .0414448
582.820 .0414163
583.602 .0413892
584.384 .0413637
585.166 .0413398
585.947 .0413171
586.728 .0412957
587.509 .0412749
588.289 .0412545
589.069 .0412338
589.848 .0412123
590.627 .0411898
591.405 .0411663
592.183 .0411416
592.961 .0411159
593.738 .0410895
594.515 .0410624
595.291 .0410350
596.067 .0410075
596.843 .0409797
597.618 .0409516
598.393 .0409082
599.167 .0408792
599.941 .0408500
600.715 .0408207
601.488 .0407914
602.261 .0407626
603.034 .0407344
603.806 .0407070
604.578 .0406805
605.349 .0406552
606.121 .0406312
606.891 .0406220
607.662 .0405997
608.432 .0405784
609.201 .0405579
609.971 .0405385
610.740 .0405199
611.508 .0405024
612.277 .0404858
613.045 .0404701
613.812 .0404551
614.579 .0404409
615.346 .0404274
616.113 .0404143
616.879 .0404017
617.645 .0403894
618.411 .0403772
619.176 .0403648
619.941 .0403521
620.705 .0403388
621.470 .0403250
622.233 .0403104
622.997 .0402949
623.760 .0402786
624.523 .0402616
625.286 .0402440
626.048 .0402258
626.810 .0402072
627.572 .0401881
628.333 .0401685
629.095 .0401481
629.855 .0401271
630.616 .0401052
631.376 .0400827
632.136 .0400597
632.895 .0400363
633.655 .0400127
634.414 .0399892
635.172 .0399658
635.931 .0399426
636.689 .0399196
637.447 .0398967
638.204 .0398739
638.962 .0398510
639.718 .0398281
640.475 .0398051
641.231 .0397822
641.988 .0397592
642.743 .0397363
643.499 .0397133
644.254 .0396900
645.009 .0396666
645.764 .0396429
646.518 .0396190
647.272 .0395948
648.026 .0395705
648.780 .0395459
649.533 .0395211
650.286 .0394960
651.039 .0394705
651.792 .0394448
652.544 .0394185
653.296 .0393918
654.048 .0393647
654.799 .0393374
655.550 .0393100
656.301 .0392827
657.052 .0392557
657.802 .0392290
658.552 .0392027
659.302 .0391767
660.052 .0391511
660.801 .0391259
661.550 .0391013
662.299 .0390771
663.048 .0390537
663.796 .0390310
664.544 .0390091
665.292 .0389883
666.040 .0389684
666.787 .0389496
667.534 .0389318
668.281 .0389149
669.028 .0388990
669.774 .0388839
670.521 .0388697
671.266 .0388563
672.012 .0388436
672.758 .0388315
673.503 .0388199
674.248 .0388087
674.992 .0387979
675.737 .0387873
676.481 .0387769
677.225 .0387665
677.969 .0387561
678.712 .0387456
679.455 .0387350
680.199 .0387243
680.941 .0387134
681.684 .0387021
682.426 .0386904
683.168 .0386780
683.910 .0386649
684.652 .0386511
685.393 .0386365
686.134 .0386212
686.875 .0386052
687.616 .0385887
688.356 .0385718
689.097 .0385545
689.837 .0385368
690.576 .0385188
691.316 .0385005
692.055 .0384818
692.794 .0384626
693.533 .0384429
694.272 .0384229
695.010 .0384025
695.748 .0383817
696.486 .0383606
697.224 .0383393
697.962 .0383177
698.699 .0382959
699.436 .0382741
700.173 .0382522
700.909 .0382304
701.646 .0382086
702.382 .0381869
703.118 .0381654
703.853 .0381439
704.589 .0381225
705.324 .0381011
706.059 .0380797
706.794 .0380584
707.529 .0380372
708.263 .0380162
708.997 .0379956
709.731 .0379754
710.465 .0379558
711.198 .0379366
711.931 .0379179
712.664 .0378998
713.397 .0378820
714.130 .0378647
714.862 .0378476
715.594 .0378309
716.326 .0378144
717.058 .0377983
717.789 .0377823
718.520 .0377667
719.251 .0377514
719.982 .0377363
720.713 .0377215
721.443 .0377069
722.173 .0376926
722.903 .0376784
723.633 .0376643
724.362 .0376502
725.091 .0376360
725.820 .0376217
726.549 .0376072
727.278 .0375926
728.006 .0375779
728.734 .0375632
729.462 .0375485
730.190 .0375338
730.917 .0375191
731.644 .0375046
732.371 .0374902
733.098 .0374759
733.825 .0374617
734.551 .0374476
735.277 .0374335
736.003 .0374196
736.728 .0374057
737.454 .0373919
738.179 .0373782
738.904 .0373645
739.629 .0373510
740.353 .0373374
741.077 .0373240
741.801 .0373106
742.525 .0372971
743.249 .0372837
743.972 .0372701
744.695 .0372564
745.418 .0372425
746.141 .0372283
746.863 .0372139
747.585 .0371993
748.307 .0371844
749.029 .0371692
749.750 .0371536
750.472 .0371378
751.193 .0371216
751.913 .0371052
752.634 .0370886
753.354 .0370717
754.074 .0370547
754.794 .0370375
755.514 .0370203
756.233 .0370029
756.952 .0369855
757.671 .0369680
758.390 .0369504
759.108 .0369327
759.826 .0369150
760.544 .0368972
761.262 .0368795
761.979 .0368619
762.697 .0368444
763.414 .0368270
764.130 .0368097
764.847 .0367926
765.563 .0367757
766.279 .0367590
766.995 .0367425
767.710 .0367263
768.426 .0367103
769.141 .0366945
769.855 .0366789
770.570 .0366634
771.284 .0366481
771.998 .0366330
772.712 .0366180
773.426 .0366033
774.139 .0365889
774.852 .0365748
775.565 .0365610
776.277 .0365476
776.990 .0365343
777.702 .0365212
778.414 .0365081
779.125 .0364950
779.836 .0364819
780.547 .0364689
781.258 .0364560
781.969 .0364433
782.679 .0364308
783.389 .0364128
784.099 .0364010
784.808 .0363895
785.517 .0363782
786.226 .0363670
786.935 .0363561
787.643 .0363453
788.352 .0363347
789.060 .0363243
789.767 .0363141
790.475 .0363040
791.182 .0362939
791.889 .0362895
792.595 .0362796
793.301 .0362698
794.008 .0362601
794.713 .0362505
795.419 .0362412
796.124 .0362320
796.829 .0362229
797.534 .0362139
798.238 .0362047
798.942 .0361954
799.646 .0361858
800.350 .0361761
801.053 .0361662
801.756 .0361562
802.459 .0361461
803.162 .0361360
803.864 .0361257
804.566 .0361153
805.267 .0361047
805.969 .0360938
806.670 .0360826
807.371 .0360712
808.071 .0360594
808.772 .0360473
809.472 .0360349
810.171 .0360222
810.871 .0360091
811.570 .0359957
812.269 .0359819
812.967 .0359676
813.666 .0359530
814.364 .0359381
815.061 .0359229
815.759 .0359075
816.456 .0358921
817.153 .0358765
817.849 .0358609
818.545 .0358451
819.241 .0358290
819.937 .0358127
820.632 .0357961
821.327 .0357791
822.022 .0357619
822.717 .0357443
823.411 .0357265
824.105 .0357085
824.798 .0356902
825.491 .0356717
826.184 .0356528
826.877 .0356336
827.569 .0356141
828.261 .0355942
828.953 .0355739
829.645 .0355533
830.336 .0355325
831.027 .0355114
831.717 .0354901
832.407 .0354687
833.097 .0354472
833.787 .0354257
834.476 .0354041
835.165 .0353825
835.854 .0353611
836.542 .0353398
837.230 .0353187
837.918 .0352979
838.605 .0352775
839.292 .0352575
839.979 .0352379
840.665 .0352187
841.352 .0351998
842.037 .0351815
842.723 .0351635
843.408 .0351460
844.093 .0351288
844.777 .0351121
845.462 .0350959
846.145 .0350800
846.829 .0350645
847.512 .0350493
848.195 .0350343
848.878 .0350194
849.560 .0350046
850.242 .0349897
850.923 .0349746
851.605 .0349593
852.286 .0349436
852.966 .0349275
853.646 .0349108
854.326 .0348937
855.006 .0348761
855.685 .0348582
856.364 .0348398
857.043 .0348213
857.721 .0348025
858.399 .0347836
859.077 .0347648
859.754 .0347460
860.431 .0347273
861.107 .0347089
861.784 .0346909
862.459 .0346734
863.135 .0346566
863.810 .0346404
864.485 .0346251
865.160 .0346108
865.834 .0345973
866.508 .0345847
867.181 .0345731
867.854 .0345625
868.527 .0345528
869.199 .0345440
869.872 .0345361
870.543 .0345290
871.215 .0345227
871.886 .0345170
872.557 .0345118
873.227 .0345070
873.897 .0345024
874.567 .0344980
875.236 .0344937
875.905 .0344893
876.573 .0344848
877.242 .0344801
877.909 .0344751
878.577 .0344699
879.244 .0344643
879.911 .0344583
880.577 .0344519
881.243 .0344451
881.909 .0344380
882.575 .0344305
883.240 .0344226
883.904 .0344145
884.569 .0344061
885.232 .0343975
885.896 .0343888
886.559 .0343800
887.222 .0343712
887.885 .0343624
888.547 .0343537
889.208 .0343451
889.870 .0343365
890.531 .0343281
891.192 .0343198
891.852 .0343115
892.512 .0343032
893.171 .0342950
893.830 .0342868
894.489 .0342784
895.148 .0342699
895.806 .0342610
896.464 .0342519
897.121 .0342424
897.778 .0342324
898.434 .0342221
899.091 .0342044
899.747 .0341932
900.402 .0341817
901.057 .0341698
901.712 .0341574
902.366 .0341444
903.020 .0341309
903.674 .0341167
904.327 .0341018
904.980 .0340862
905.633 .0340699
906.285 .0340529
906.936 .0340353
907.588 .0340254
908.239 .0340069
908.889 .0339877
909.540 .0339678
910.190 .0339471
910.839 .0339259
911.488 .0339040
912.137 .0338815
912.785 .0338586
913.433 .0338353
914.081 .0338117
914.728 .0337877
915.375 .0337632
916.021 .0337384
916.668 .0337131
917.313 .0336874
917.959 .0336611
918.604 .0336344
919.248 .0336074
919.892 .0335800
920.536 .0335524
921.180 .0335245
921.823 .0334964
922.465 .0334681
923.108 .0334396
923.750 .0334108
924.391 .0333818
925.032 .0333527
925.673 .0333234
926.313 .0332940
926.953 .0332647
927.593 .0332354
928.232 .0332063
928.871 .0331773
929.510 .0331484
930.148 .0331198
930.786 .0330913
931.423 .0330630
932.060 .0330348
932.697 .0330068
933.333 .0329790
933.969 .0329513
934.604 .0329238
935.239 .0328965
935.874 .0328694
936.508 .0328425
937.142 .0328159
937.776 .0327896
938.409 .0327638
939.042 .0327384
939.674 .0327135
940.306 .0326891
940.938 .0326654
941.569 .0326422
942.200 .0326197
942.830 .0325978
943.460 .0325765
944.090 .0325559
944.720 .0325359
945.349 .0325165
945.977 .0324977
946.606 .0324795
947.233 .0324619
947.861 .0324448
948.488 .0324282
949.115 .0324120
949.741 .0323963
950.367 .0323808
950.993 .0323656
951.618 .0323507
952.243 .0323360
952.868 .0323215
953.492 .0323073
954.115 .0322934
954.739 .0322798
955.362 .0322666
955.984 .0322538
956.607 .0322415
957.229 .0322297
957.850 .0322185
958.471 .0322077
959.092 .0321975
959.713 .0321879
960.333 .0321787
960.952 .0321700
961.572 .0321619
962.191 .0321542
962.809 .0321470
963.428 .0321402
964.045 .0321339
964.663 .0321279
965.280 .0321223
965.897 .0321170
966.513 .0321120
967.129 .0321073
967.745 .0321028
968.361 .0320985
968.976 .0320945
969.590 .0320909
970.205 .0320877
970.818 .0320849
971.432 .0320825
972.045 .0320804
972.658 .0320786
973.271 .0320771
973.883 .0320756
974.495 .0320742
975.106 .0320728
975.717 .0320714
976.328 .0320701
976.938 .0320688
977.548 .0320675
978.158 .0320662
978.768 .0320648
979.377 .0320634
979.985 .0320618
980.594 .0320601
981.202 .0320584
981.809 .0320566
982.417 .0320549
983.024 .0320533
983.631 .0320519
984.237 .0320506
984.843 .0320495
985.449 .0320485
986.054 .0320475
986.659 .0320465
987.264 .0320452
987.868 .0320440
988.472 .0320428
989.076 .0320415
989.679 .0320400
990.282 .0320384
990.885 .0320365
991.487 .0320342
992.090 .0320316
992.691 .0320285
993.293 .0320249
993.894 .0320208
994.495 .0320161
995.095 .0320110
995.696 .0320055
996.296 .0319996
996.895 .0319932
997.494 .0319865
998.093 .0319795
998.692 .0319720
999.291 .0319642
999.889 .0319560
1000.487 .0319476
1001.084 .0319388
1001.681 .0319300
1002.278 .0319210
1002.875 .0319121
1003.471 .0319033
1004.067 .0318946
1004.663 .0318859
1005.258 .0318772
1005.854 .0318685
1006.449 .0318595
1007.043 .0318504
1007.638 .0318409
1008.232 .0318312
1008.826 .0318213
1009.419 .0318111
1010.012 .0318006
1010.605 .0317900
1011.198 .0317793
1011.791 .0317684
1012.383 .0317574
1012.975 .0317462
1013.566 .0317350
1014.158 .0317236
1014.749 .0317122
1015.340 .0317006
1015.931 .0316890
1016.521 .0316773
1017.111 .0316655
1017.701 .0316536
1018.291 .0316415
1018.880 .0316293
1019.470 .0316168
1020.059 .0316040
1020.647 .0315909
1021.236 .0315772
1021.824 .0315629
1022.412 .0315481
1023.000 .0315327
1023.588 .0315167
1024.175 .0315003
1024.762 .0314835
1025.349 .0314666
1025.936 .0314496
1026.523 .0314328
1027.109 .0314163
1027.695 .0314001
1028.281 .0313843
1028.867 .0313689
1029.452 .0313540
1030.038 .0313395
1030.623 .0313256
1031.208 .0313122
1031.792 .0312993
1032.377 .0312870
1032.961 .0312751
1033.546 .0312637
1034.130 .0312528
1034.714 .0312421
1035.297 .0312317
1035.881 .0312214
1036.464 .0312111
1037.047 .0312008
1037.630 .0311905
1038.213 .0311802
1038.796 .0311699
1039.378 .0311596
1039.961 .0311495
1040.543 .0311394
1041.125 .0311295
1041.707 .0311197
1042.289 .0311101
1042.871 .0311005
1043.452 .0310908
1044.034 .0310811
1044.615 .0310711
1045.196 .0310608
1045.777 .0310502
1046.358 .0310393
1046.939 .0310280
1047.520 .0310162
1048.101 .0310041
1048.681 .0309917
1049.262 .0309790
1049.842 .0309662
1050.422 .0309531
1051.002 .0309399
1051.582 .0309267
1052.162 .0309135
1052.742 .0309005
1053.322 .0308879
1053.902 .0308757
1054.482 .0308642
1055.061 .0308535
1055.641 .0308438
1056.220 .0308351
1056.800 .0308276
1057.379 .0308210
1057.958 .0308154
1058.538 .0308107
1059.117 .0308066
1059.696 .0308032
1060.275 .0308003
1060.854 .0307979
1061.433 .0307958
1062.012 .0307942
1062.592 .0307930
1063.171 .0307920
1063.750 .0307913
1064.329 .0307908
1064.908 .0307902
1065.487 .0307896
1066.066 .0307890
1066.645 .0307884
1067.224 .0307877
1067.803 .0307871
1068.382 .0307866
1068.961 .0307861
1069.540 .0307856
1070.119 .0307850
1070.698 .0307842
1071.278 .0307831
1071.857 .0307816
1072.436 .0307796
1073.016 .0307773
1073.595 .0307746
1074.175 .0307718
1074.754 .0307691
1075.334 .0307665
1075.913 .0307639
1076.493 .0307615
1077.073 .0307593
1077.653 .0307573
1078.233 .0307555
1078.813 .0307540
1079.393 .0307530
1079.974 .0307526
1080.554 .0307532
1081.135 .0307550
1081.716 .0307580
1082.296 .0307625
1082.877 .0307683
1083.458 .0307753
1084.040 .0307834
1084.621 .0307925
1085.202 .0308025
1085.784 .0308133
1086.366 .0308246
1086.948 .0308365
1087.530 .0308489
1088.112 .0308617
1088.695 .0308749
1089.277 .0308885
1089.860 .0309024
1090.443 .0309166
1091.026 .0309308
1091.610 .0309449
1092.193 .0309587
1092.777 .0309723
1093.361 .0309853
1093.946 .0309978
1094.530 .0310095
1095.115 .0310205
1095.700 .0310307
1096.285 .0310402
1096.871 .0310487
1097.456 .0310565
1098.042 .0310632
1098.628 .0310686
1099.215 .0310728
1099.802 .0310754
1100.389 .0310766
1100.976 .0310762
1101.564 .0310743
1102.152 .0310710
1102.740 .0310668
1103.329 .0310618
1103.917 .0310568
1104.507 .0310521
1105.096 .0310485
1105.686 .0310463
1106.276 .0310460
1106.867 .0310479
1107.457 .0310520
1108.049 .0310584
1108.640 .0310668
1109.232 .0310770
1109.825 .0310888
1110.417 .0311023
1111.010 .0311173
1111.604 .0311340
1112.198 .0311525
1112.792 .0311728
1113.387 .0311950
1113.982 .0312191
1114.577 .0312450
1115.173 .0312722
1115.769 .0313007
1116.366 .0313299
1116.963 .0313595
1117.561 .0313894
1118.159 .0314196
1118.758 .0314503
1119.357 .0314816
1119.957 .0315138
1120.557 .0315470
1121.157 .0315814
1121.758 .0316168
1122.360 .0316525
1122.962 .0316882
1123.564 .0317231
1124.167 .0317430
1124.771 .0317746
1125.375 .0318041
1125.980 .0318317
1126.585 .0318575
1127.191 .0318822
1127.797 .0319065
1128.404 .0319308
1129.012 .0319559
1129.620 .0319819
1130.229 .0320090
1130.838 .0320368
1131.448 .0320652
1132.058 .0320938
1132.669 .0321319
1133.281 .0321608
1133.894 .0321889
1134.507 .0322218
1135.120 .0322523
1135.735 .0322829
1136.350 .0323071
1136.965 .0322991
1137.582 .0323622
1138.199 .0324297
1138.816 .0324949
1139.435 .0325562
1140.054 .0326025
1140.674 .0326374
1141.294 .0326545
1141.916 .0326304
1142.538 .0327500
1143.160 .0326766
1143.784 .0326685
1144.408 .0324952
1145.033 .0317324
