Measurement Sequence started on: 14-45-04-498
Integration time: 36
Scans to Average: 2 
>>>>>Begin Spectral Data<<<<<
433.946 .0412075
434.870 .0453520
435.793 .0441010
436.715 .0432881
437.635 .0428075
438.555 .0425237
439.473 .0422470
440.389 .0418614
441.305 .0415545
442.219 .0412976
443.132 .0417608
444.044 .0415141
444.954 .0413297
445.863 .0411847
446.771 .0410620
447.678 .0409521
448.584 .0408550
449.488 .0407763
450.391 .0407118
451.293 .0406582
452.194 .0406117
453.094 .0405683
453.992 .0405251
454.890 .0404790
455.786 .0404276
456.681 .0403702
457.575 .0403069
458.468 .0402390
459.360 .0401679
460.250 .0400954
461.140 .0400224
462.028 .0399499
462.915 .0398781
463.801 .0398064
464.687 .0397342
465.571 .0396609
466.454 .0395865
467.335 .0395114
468.216 .0394362
469.096 .0393621
469.975 .0392904
470.853 .0392220
471.729 .0391578
472.605 .0390981
473.479 .0390428
474.353 .0389918
475.226 .0389443
476.097 .0388993
476.968 .0388563
477.838 .0388146
478.706 .0387740
479.574 .0387347
480.441 .0386971
481.306 .0386614
482.171 .0386278
483.035 .0385962
483.898 .0385663
484.760 .0385376
485.621 .0385094
486.481 .0384812
487.340 .0384526
488.198 .0384235
489.055 .0383940
489.912 .0383644
490.767 .0383354
491.622 .0382944
492.476 .0382669
493.329 .0382394
494.180 .0382115
495.032 .0381826
495.882 .0381520
496.731 .0381193
497.580 .0380845
498.427 .0380478
499.274 .0380096
500.120 .0379877
500.965 .0379484
501.809 .0379084
502.653 .0378681
503.495 .0378276
504.337 .0377866
505.178 .0377451
506.018 .0377033
506.858 .0376609
507.696 .0376178
508.534 .0375746
509.371 .0375316
510.208 .0374891
511.043 .0374478
511.878 .0374079
512.712 .0373696
513.545 .0373333
514.377 .0372988
515.209 .0372661
516.040 .0372350
516.870 .0372052
517.699 .0371763
518.528 .0371480
519.356 .0371201
520.183 .0370916
521.010 .0370627
521.836 .0370330
522.661 .0370016
523.485 .0369684
524.309 .0369335
525.132 .0368967
525.954 .0368581
526.776 .0368178
527.597 .0367758
528.417 .0367322
529.237 .0366870
530.056 .0366401
530.874 .0365914
531.692 .0365410
532.508 .0364890
533.325 .0364355
534.140 .0363810
534.955 .0363259
535.770 .0362703
536.583 .0362150
537.397 .0361604
538.209 .0361066
539.021 .0360537
539.832 .0360021
540.643 .0359519
541.453 .0359028
542.262 .0358547
543.071 .0358077
543.879 .0357619
544.687 .0357172
545.494 .0356735
546.300 .0356309
547.106 .0355895
547.911 .0355490
548.716 .0355090
549.520 .0354693
550.323 .0354299
551.126 .0353905
551.929 .0353514
552.731 .0353130
553.532 .0352755
554.332 .0352393
555.133 .0352046
555.932 .0351718
556.731 .0351408
557.530 .0351113
558.328 .0350831
559.125 .0350558
559.922 .0350288
560.719 .0350019
561.515 .0349748
562.310 .0349477
563.105 .0349206
563.899 .0348937
564.693 .0348672
565.487 .0348414
566.280 .0348166
567.072 .0347926
567.864 .0347692
568.655 .0347459
569.446 .0347220
570.236 .0346970
571.026 .0346708
571.816 .0346430
572.605 .0346138
573.393 .0345832
574.181 .0345515
574.969 .0345189
575.756 .0344856
576.543 .0344517
577.329 .0344174
578.115 .0343827
578.900 .0343476
579.685 .0343119
580.469 .0342757
581.253 .0342391
582.036 .0342023
582.820 .0341652
583.602 .0341279
584.384 .0340903
585.166 .0340526
585.947 .0340151
586.728 .0339777
587.509 .0339406
588.289 .0339037
589.069 .0338672
589.848 .0338311
590.627 .0337954
591.405 .0337602
592.183 .0337255
592.961 .0336915
593.738 .0336581
594.515 .0336254
595.291 .0335936
596.067 .0335626
596.843 .0335325
597.618 .0335033
598.393 .0334621
599.167 .0334348
599.941 .0334081
600.715 .0333821
601.488 .0333567
602.261 .0333320
603.034 .0333079
603.806 .0332845
604.578 .0332618
605.349 .0332397
606.121 .0332184
606.891 .0332092
607.662 .0331886
608.432 .0331684
609.201 .0331486
609.971 .0331291
610.740 .0331097
611.508 .0330905
612.277 .0330713
613.045 .0330522
613.812 .0330331
614.579 .0330140
615.346 .0329949
616.113 .0329757
616.879 .0329565
617.645 .0329372
618.411 .0329178
619.176 .0328983
619.941 .0328784
620.705 .0328583
621.470 .0328379
622.233 .0328171
622.997 .0327960
623.760 .0327746
624.523 .0327529
625.286 .0327310
626.048 .0327090
626.810 .0326868
627.572 .0326645
628.333 .0326422
629.095 .0326197
629.855 .0325972
630.616 .0325745
631.376 .0325518
632.136 .0325290
632.895 .0325061
633.655 .0324832
634.414 .0324601
635.172 .0324369
635.931 .0324135
636.689 .0323901
637.447 .0323666
638.204 .0323431
638.962 .0323196
639.718 .0322962
640.475 .0322730
641.231 .0322499
641.988 .0322271
642.743 .0322045
643.499 .0321820
644.254 .0321598
645.009 .0321376
645.764 .0321155
646.518 .0320935
647.272 .0320716
648.026 .0320499
648.780 .0320285
649.533 .0320073
650.286 .0319866
651.039 .0319661
651.792 .0319462
652.544 .0319266
653.296 .0319075
654.048 .0318888
654.799 .0318705
655.550 .0318525
656.301 .0318348
657.052 .0318174
657.802 .0318002
658.552 .0317832
659.302 .0317664
660.052 .0317498
660.801 .0317334
661.550 .0317173
662.299 .0317015
663.048 .0316860
663.796 .0316708
664.544 .0316558
665.292 .0316410
666.040 .0316263
666.787 .0316116
667.534 .0315968
668.281 .0315819
669.028 .0315668
669.774 .0315515
670.521 .0315362
671.266 .0315207
672.012 .0315053
672.758 .0314898
673.503 .0314744
674.248 .0314591
674.992 .0314439
675.737 .0314287
676.481 .0314135
677.225 .0313981
677.969 .0313826
678.712 .0313670
679.455 .0313513
680.199 .0313354
680.941 .0313195
681.684 .0313036
682.426 .0312878
683.168 .0312720
683.910 .0312564
684.652 .0312408
685.393 .0312252
686.134 .0312096
686.875 .0311939
687.616 .0311781
688.356 .0311621
689.097 .0311461
689.837 .0311300
690.576 .0311138
691.316 .0310976
692.055 .0310814
692.794 .0310651
693.533 .0310488
694.272 .0310325
695.010 .0310161
695.748 .0309997
696.486 .0309832
697.224 .0309667
697.962 .0309502
698.699 .0309336
699.436 .0309171
700.173 .0309006
700.909 .0308842
701.646 .0308679
702.382 .0308517
703.118 .0308359
703.853 .0308203
704.589 .0308052
705.324 .0307905
706.059 .0307763
706.794 .0307624
707.529 .0307490
708.263 .0307358
708.997 .0307230
709.731 .0307105
710.465 .0306982
711.198 .0306862
711.931 .0306746
712.664 .0306634
713.397 .0306525
714.130 .0306420
714.862 .0306318
715.594 .0306218
716.326 .0306119
717.058 .0306020
717.789 .0305920
718.520 .0305819
719.251 .0305717
719.982 .0305614
720.713 .0305510
721.443 .0305404
722.173 .0305296
722.903 .0305188
723.633 .0305078
724.362 .0304967
725.091 .0304854
725.820 .0304740
726.549 .0304624
727.278 .0304507
728.006 .0304389
728.734 .0304269
729.462 .0304148
730.190 .0304027
730.917 .0303904
731.644 .0303782
732.371 .0303660
733.098 .0303540
733.825 .0303423
734.551 .0303308
735.277 .0303197
736.003 .0303088
736.728 .0302981
737.454 .0302876
738.179 .0302773
738.904 .0302670
739.629 .0302567
740.353 .0302464
741.077 .0302362
741.801 .0302260
742.525 .0302160
743.249 .0302060
743.972 .0301960
744.695 .0301861
745.418 .0301760
746.141 .0301659
746.863 .0301555
747.585 .0301448
748.307 .0301338
749.029 .0301225
749.750 .0301109
750.472 .0300989
751.193 .0300866
751.913 .0300740
752.634 .0300612
753.354 .0300481
754.074 .0300348
754.794 .0300213
755.514 .0300076
756.233 .0299937
756.952 .0299796
757.671 .0299654
758.390 .0299510
759.108 .0299365
759.826 .0299220
760.544 .0299074
761.262 .0298928
761.979 .0298783
762.697 .0298640
763.414 .0298499
764.130 .0298360
764.847 .0298224
765.563 .0298091
766.279 .0297960
766.995 .0297833
767.710 .0297708
768.426 .0297587
769.141 .0297469
769.855 .0297353
770.570 .0297240
771.284 .0297131
771.998 .0297025
772.712 .0296921
773.426 .0296821
774.139 .0296723
774.852 .0296627
775.565 .0296533
776.277 .0296441
776.990 .0296350
777.702 .0296262
778.414 .0296175
779.125 .0296089
779.836 .0296006
780.547 .0295925
781.258 .0295847
781.969 .0295771
782.679 .0295697
783.389 .0295590
784.099 .0295519
784.808 .0295449
785.517 .0295379
786.226 .0295310
786.935 .0295242
787.643 .0295175
788.352 .0295109
789.060 .0295045
789.767 .0294982
790.475 .0294921
791.182 .0294860
791.889 .0294833
792.595 .0294773
793.301 .0294713
794.008 .0294653
794.713 .0294592
795.419 .0294532
796.124 .0294472
796.829 .0294411
797.534 .0294350
798.238 .0294287
798.942 .0294223
799.646 .0294158
800.350 .0294090
801.053 .0294022
801.756 .0293951
802.459 .0293880
803.162 .0293807
803.864 .0293732
804.566 .0293656
805.267 .0293578
805.969 .0293497
806.670 .0293414
807.371 .0293327
808.071 .0293238
808.772 .0293147
809.472 .0293055
810.171 .0292961
810.871 .0292867
811.570 .0292772
812.269 .0292677
812.967 .0292582
813.666 .0292486
814.364 .0292388
815.061 .0292288
815.759 .0292187
816.456 .0292084
817.153 .0291980
817.849 .0291875
818.545 .0291769
819.241 .0291662
819.937 .0291554
820.632 .0291443
821.327 .0291331
822.022 .0291216
822.717 .0291098
823.411 .0290978
824.105 .0290855
824.798 .0290731
825.491 .0290605
826.184 .0290477
826.877 .0290347
827.569 .0290216
828.261 .0290082
828.953 .0289947
829.645 .0289811
830.336 .0289673
831.027 .0289536
831.717 .0289398
832.407 .0289263
833.097 .0289129
833.787 .0288996
834.476 .0288866
835.165 .0288737
835.854 .0288609
836.542 .0288481
837.230 .0288354
837.918 .0288228
838.605 .0288102
839.292 .0287978
839.979 .0287855
840.665 .0287734
841.352 .0287615
842.037 .0287498
842.723 .0287384
843.408 .0287271
844.093 .0287159
844.777 .0287048
845.462 .0286936
846.145 .0286824
846.829 .0286711
847.512 .0286597
848.195 .0286483
848.878 .0286368
849.560 .0286251
850.242 .0286134
850.923 .0286014
851.605 .0285893
852.286 .0285770
852.966 .0285645
853.646 .0285518
854.326 .0285389
855.006 .0285260
855.685 .0285130
856.364 .0284999
857.043 .0284869
857.721 .0284738
858.399 .0284606
859.077 .0284474
859.754 .0284340
860.431 .0284206
861.107 .0284071
861.784 .0283937
862.459 .0283804
863.135 .0283673
863.810 .0283543
864.485 .0283414
865.160 .0283287
865.834 .0283160
866.508 .0283033
867.181 .0282907
867.854 .0282781
868.527 .0282656
869.199 .0282533
869.872 .0282412
870.543 .0282295
871.215 .0282180
871.886 .0282067
872.557 .0281957
873.227 .0281849
873.897 .0281742
874.567 .0281637
875.236 .0281532
875.905 .0281428
876.573 .0281325
877.242 .0281223
877.909 .0281122
878.577 .0281021
879.244 .0280920
879.911 .0280820
880.577 .0280718
881.243 .0280617
881.909 .0280514
882.575 .0280411
883.240 .0280308
883.904 .0280204
884.569 .0280099
885.232 .0279993
885.896 .0279887
886.559 .0279780
887.222 .0279673
887.885 .0279566
888.547 .0279459
889.208 .0279353
889.870 .0279247
890.531 .0279143
891.192 .0279042
891.852 .0278942
892.512 .0278844
893.171 .0278748
893.830 .0278654
894.489 .0278561
895.148 .0278469
895.806 .0278378
896.464 .0278289
897.121 .0278200
897.778 .0278113
898.434 .0278028
899.091 .0277906
899.747 .0277824
900.402 .0277743
901.057 .0277663
901.712 .0277583
902.366 .0277504
903.020 .0277425
903.674 .0277346
904.327 .0277266
904.980 .0277186
905.633 .0277105
906.285 .0277024
906.936 .0276941
907.588 .0276896
908.239 .0276811
908.889 .0276725
909.540 .0276637
910.190 .0276547
910.839 .0276455
911.488 .0276361
912.137 .0276265
912.785 .0276167
913.433 .0276066
914.081 .0275963
914.728 .0275857
915.375 .0275749
916.021 .0275637
916.668 .0275522
917.313 .0275404
917.959 .0275283
918.604 .0275159
919.248 .0275032
919.892 .0274903
920.536 .0274770
921.180 .0274633
921.823 .0274494
922.465 .0274350
923.108 .0274203
923.750 .0274052
924.391 .0273897
925.032 .0273740
925.673 .0273579
926.313 .0273416
926.953 .0273251
927.593 .0273084
928.232 .0272915
928.871 .0272743
929.510 .0272570
930.148 .0272395
930.786 .0272218
931.423 .0272040
932.060 .0271862
932.697 .0271683
933.333 .0271504
933.969 .0271324
934.604 .0271145
935.239 .0270965
935.874 .0270785
936.508 .0270604
937.142 .0270423
937.776 .0270242
938.409 .0270061
939.042 .0269881
939.674 .0269702
940.306 .0269523
940.938 .0269346
941.569 .0269169
942.200 .0268992
942.830 .0268814
943.460 .0268637
944.090 .0268459
944.720 .0268282
945.349 .0268105
945.977 .0267930
946.606 .0267755
947.233 .0267582
947.861 .0267410
948.488 .0267238
949.115 .0267065
949.741 .0266893
950.367 .0266719
950.993 .0266544
951.618 .0266368
952.243 .0266192
952.868 .0266014
953.492 .0265837
954.115 .0265660
954.739 .0265483
955.362 .0265306
955.984 .0265130
956.607 .0264954
957.229 .0264780
957.850 .0264607
958.471 .0264436
959.092 .0264268
959.713 .0264105
960.333 .0263947
960.952 .0263793
961.572 .0263645
962.191 .0263502
962.809 .0263363
963.428 .0263230
964.045 .0263101
964.663 .0262977
965.280 .0262858
965.897 .0262744
966.513 .0262635
967.129 .0262533
967.745 .0262436
968.361 .0262345
968.976 .0262260
969.590 .0262180
970.205 .0262105
970.818 .0262035
971.432 .0261970
972.045 .0261909
972.658 .0261853
973.271 .0261800
973.883 .0261749
974.495 .0261702
975.106 .0261655
975.717 .0261610
976.328 .0261564
976.938 .0261519
977.548 .0261472
978.158 .0261424
978.768 .0261346
979.377 .0261293
979.985 .0261238
980.594 .0261181
981.202 .0261121
981.809 .0261059
982.417 .0260996
983.024 .0260932
983.631 .0260867
984.237 .0260801
984.843 .0260736
985.449 .0260671
986.054 .0260605
986.659 .0260540
987.264 .0260506
987.868 .0260441
988.472 .0260376
989.076 .0260310
989.679 .0260245
990.282 .0260179
990.885 .0260113
991.487 .0260048
992.090 .0259984
992.691 .0259921
993.293 .0259858
993.894 .0259795
994.495 .0259733
995.095 .0259671
995.696 .0259609
996.296 .0259548
996.895 .0259489
997.494 .0259432
998.093 .0259377
998.692 .0259324
999.291 .0259274
999.889 .0259226
1000.487 .0259179
1001.084 .0259134
1001.681 .0259089
1002.278 .0259046
1002.875 .0259003
1003.471 .0258963
1004.067 .0258924
1004.663 .0258888
1005.258 .0258855
1005.854 .0258825
1006.449 .0258798
1007.043 .0258772
1007.638 .0258747
1008.232 .0258723
1008.826 .0258700
1009.419 .0258676
1010.012 .0258652
1010.605 .0258629
1011.198 .0258607
1011.791 .0258586
1012.383 .0258566
1012.975 .0258547
1013.566 .0258528
1014.158 .0258511
1014.749 .0258493
1015.340 .0258474
1015.931 .0258454
1016.521 .0258434
1017.111 .0258413
1017.701 .0258391
1018.291 .0258370
1018.880 .0258350
1019.470 .0258331
1020.059 .0258313
1020.647 .0258296
1021.236 .0258279
1021.824 .0258263
1022.412 .0258246
1023.000 .0258228
1023.588 .0258211
1024.175 .0258193
1024.762 .0258176
1025.349 .0258161
1025.936 .0258147
1026.523 .0258136
1027.109 .0258127
1027.695 .0258119
1028.281 .0258113
1028.867 .0258108
1029.452 .0258105
1030.038 .0258102
1030.623 .0258101
1031.208 .0258101
1031.792 .0258104
1032.377 .0258109
1032.961 .0258117
1033.546 .0258127
1034.130 .0258138
1034.714 .0258151
1035.297 .0258164
1035.881 .0258176
1036.464 .0258186
1037.047 .0258196
1037.630 .0258204
1038.213 .0258211
1038.796 .0258216
1039.378 .0258220
1039.961 .0258222
1040.543 .0258222
1041.125 .0258219
1041.707 .0258213
1042.289 .0258204
1042.871 .0258191
1043.452 .0258174
1044.034 .0258153
1044.615 .0258127
1045.196 .0258097
1045.777 .0258062
1046.358 .0258022
1046.939 .0257978
1047.520 .0257927
1048.101 .0257872
1048.681 .0257812
1049.262 .0257748
1049.842 .0257681
1050.422 .0257611
1051.002 .0257540
1051.582 .0257469
1052.162 .0257396
1052.742 .0257323
1053.322 .0257250
1053.902 .0257177
1054.482 .0257103
1055.061 .0257030
1055.641 .0256958
1056.220 .0256889
1056.800 .0256824
1057.379 .0256763
1057.958 .0256707
1058.538 .0256655
1059.117 .0256606
1059.696 .0256558
1060.275 .0256511
1060.854 .0256463
1061.433 .0256415
1062.012 .0256367
1062.592 .0256320
1063.171 .0256277
1063.750 .0256239
1064.329 .0256207
1064.908 .0256181
1065.487 .0256161
1066.066 .0256146
1066.645 .0256136
1067.224 .0256128
1067.803 .0256121
1068.382 .0256115
1068.961 .0256110
1069.540 .0256105
1070.119 .0256100
1070.698 .0256096
1071.278 .0256093
1071.857 .0256088
1072.436 .0256082
1073.016 .0256072
1073.595 .0256056
1074.175 .0256036
1074.754 .0256009
1075.334 .0255977
1075.913 .0255939
1076.493 .0255897
1077.073 .0255852
1077.653 .0255804
1078.233 .0255756
1078.813 .0255707
1079.393 .0255657
1079.974 .0255605
1080.554 .0255549
1081.135 .0255489
1081.716 .0255424
1082.296 .0255353
1082.877 .0255276
1083.458 .0255193
1084.040 .0255106
1084.621 .0255015
1085.202 .0254923
1085.784 .0254830
1086.366 .0254738
1086.948 .0254647
1087.530 .0254557
1088.112 .0254470
1088.695 .0254386
1089.277 .0254305
1089.860 .0254229
1090.443 .0254160
1091.026 .0254097
1091.610 .0254044
1092.193 .0254000
1092.777 .0253968
1093.361 .0253946
1093.946 .0253933
1094.530 .0253929
1095.115 .0253929
1095.700 .0253934
1096.285 .0253943
1096.871 .0253953
1097.456 .0253966
1098.042 .0253984
1098.628 .0254005
1099.215 .0254032
1099.802 .0254065
1100.389 .0254103
1100.976 .0254147
1101.564 .0254196
1102.152 .0254247
1102.740 .0254302
1103.329 .0254359
1103.917 .0254419
1104.507 .0254481
1105.096 .0254549
1105.686 .0254620
1106.276 .0254696
1106.867 .0254776
1107.457 .0254858
1108.049 .0254940
1108.640 .0255023
1109.232 .0255104
1109.825 .0255183
1110.417 .0255261
1111.010 .0255339
1111.604 .0255416
1112.198 .0255496
1112.792 .0255577
1113.387 .0255660
1113.982 .0255744
1114.577 .0255829
1115.173 .0255912
1115.769 .0255993
1116.366 .0256072
1116.963 .0256148
1117.561 .0256221
1118.159 .0256292
1118.758 .0256361
1119.357 .0256429
1119.957 .0256496
1120.557 .0256563
1121.157 .0256631
1121.758 .0256703
1122.360 .0256778
1122.962 .0256859
1123.564 .0256946
1124.167 .0256980
1124.771 .0257072
1125.375 .0257176
1125.980 .0257291
1126.585 .0257419
1127.191 .0257562
1127.797 .0257721
1128.404 .0257895
1129.012 .0258088
1129.620 .0258302
1130.229 .0258541
1130.838 .0258802
1131.448 .0259088
1132.058 .0259397
1132.669 .0259830
1133.281 .0260198
1133.894 .0260590
1134.507 .0261008
1135.120 .0261425
1135.735 .0261868
1136.350 .0262368
1136.965 .0262305
1137.582 .0262965
1138.199 .0263666
1138.816 .0264349
1139.435 .0265050
1140.054 .0265706
1140.674 .0266335
1141.294 .0266945
1141.916 .0267534
1142.538 .0268201
1143.160 .0268173
1143.784 .0268853
1144.408 .0270368
1145.033 .0270787
