Measurement Sequence started on: 14-45-04-498
Integration time: 36
Scans to Average: 2 
>>>>>Begin Spectral Data<<<<<
433.946 .0366643
434.870 .0404778
435.793 .0403583
436.715 .0400004
437.635 .0389891
438.555 .0396800
439.473 .0397339
440.389 .0396601
441.305 .0395856
442.219 .0395045
443.132 .0395276
444.044 .0394733
444.954 .0394280
445.863 .0394043
446.771 .0394366
447.678 .0394349
448.584 .0394324
449.488 .0394355
450.391 .0394427
451.293 .0394534
452.194 .0394664
453.094 .0394822
453.992 .0394990
454.890 .0395156
455.786 .0395299
456.681 .0395411
457.575 .0395473
458.468 .0395473
459.360 .0395405
460.250 .0395263
461.140 .0395037
462.028 .0394730
462.915 .0394342
463.801 .0393879
464.687 .0393345
465.571 .0392754
466.454 .0392118
467.335 .0391452
468.216 .0390772
469.096 .0390084
469.975 .0389394
470.853 .0388709
471.729 .0388026
472.605 .0387350
473.479 .0386684
474.353 .0386033
475.226 .0385400
476.097 .0384797
476.968 .0384229
477.838 .0383704
478.706 .0383225
479.574 .0382791
480.441 .0382399
481.306 .0382046
482.171 .0381723
483.035 .0381420
483.898 .0381134
484.760 .0380858
485.621 .0380589
486.481 .0380326
487.340 .0380065
488.198 .0379807
489.055 .0379549
489.912 .0379292
490.767 .0379031
491.622 .0378597
492.476 .0378310
493.329 .0378009
494.180 .0377691
495.032 .0377349
495.882 .0376985
496.731 .0376594
497.580 .0376178
498.427 .0375739
499.274 .0375282
500.120 .0375018
500.965 .0374553
501.809 .0374084
502.653 .0373617
503.495 .0373153
504.337 .0372694
505.178 .0372242
506.018 .0371800
506.858 .0371368
507.696 .0370947
508.534 .0370539
509.371 .0370144
510.208 .0369765
511.043 .0369401
511.878 .0369052
512.712 .0368716
513.545 .0368390
514.377 .0368070
515.209 .0367753
516.040 .0367432
516.870 .0367101
517.699 .0366757
518.528 .0366397
519.356 .0366017
520.183 .0365613
521.010 .0365183
521.836 .0364723
522.661 .0364231
523.485 .0363703
524.309 .0363134
525.132 .0362530
525.954 .0361898
526.776 .0361244
527.597 .0360582
528.417 .0359925
529.237 .0359292
530.056 .0358690
530.874 .0358130
531.692 .0357611
532.508 .0357135
533.325 .0356699
534.140 .0356299
534.955 .0355928
535.770 .0355586
536.583 .0355276
537.397 .0355004
538.209 .0354769
539.021 .0354579
539.832 .0354433
540.643 .0354335
541.453 .0354278
542.262 .0354252
543.071 .0354242
543.879 .0354238
544.687 .0354225
545.494 .0354192
546.300 .0354128
547.106 .0354031
547.911 .0353899
548.716 .0353736
549.520 .0353542
550.323 .0353321
551.126 .0353079
551.929 .0352820
552.731 .0352542
553.532 .0352242
554.332 .0351917
555.133 .0351568
555.932 .0351196
556.731 .0350803
557.530 .0350394
558.328 .0349977
559.125 .0349562
559.922 .0349153
560.719 .0348752
561.515 .0348363
562.310 .0347985
563.105 .0347612
563.899 .0347237
564.693 .0346860
565.487 .0346478
566.280 .0346093
567.072 .0345709
567.864 .0345326
568.655 .0344943
569.446 .0344564
570.236 .0344187
571.026 .0343813
571.816 .0343440
572.605 .0343066
573.393 .0342692
574.181 .0342316
574.969 .0341939
575.756 .0341559
576.543 .0341179
577.329 .0340800
578.115 .0340421
578.900 .0340043
579.685 .0339667
580.469 .0339295
581.253 .0338929
582.036 .0338571
582.820 .0338219
583.602 .0337875
584.384 .0337537
585.166 .0337206
585.947 .0336883
586.728 .0336568
587.509 .0336263
588.289 .0335970
589.069 .0335689
589.848 .0335420
590.627 .0335163
591.405 .0334919
592.183 .0334686
592.961 .0334461
593.738 .0334243
594.515 .0334030
595.291 .0333821
596.067 .0333616
596.843 .0333414
597.618 .0333216
598.393 .0332939
599.167 .0332752
599.941 .0332571
600.715 .0332393
601.488 .0332220
602.261 .0332049
603.034 .0331880
603.806 .0331711
604.578 .0331539
605.349 .0331365
606.121 .0331187
606.891 .0331087
607.662 .0330902
608.432 .0330712
609.201 .0330517
609.971 .0330317
610.740 .0330114
611.508 .0329907
612.277 .0329697
613.045 .0329482
613.812 .0329263
614.579 .0329039
615.346 .0328809
616.113 .0328573
616.879 .0328332
617.645 .0328088
618.411 .0327840
619.176 .0327591
619.941 .0327341
620.705 .0327091
621.470 .0326842
622.233 .0326594
622.997 .0326347
623.760 .0326103
624.523 .0325860
625.286 .0325620
626.048 .0325385
626.810 .0325153
627.572 .0324928
628.333 .0324708
629.095 .0324495
629.855 .0324290
630.616 .0324093
631.376 .0323903
632.136 .0323721
632.895 .0323545
633.655 .0323375
634.414 .0323209
635.172 .0323045
635.931 .0322882
636.689 .0322719
637.447 .0322555
638.204 .0322390
638.962 .0322222
639.718 .0322053
640.475 .0321881
641.231 .0321708
641.988 .0321532
642.743 .0321352
643.499 .0321169
644.254 .0320983
645.009 .0320793
645.764 .0320599
646.518 .0320404
647.272 .0320206
648.026 .0320008
648.780 .0319810
649.533 .0319612
650.286 .0319416
651.039 .0319223
651.792 .0319032
652.544 .0318845
653.296 .0318662
654.048 .0318484
654.799 .0318311
655.550 .0318143
656.301 .0317978
657.052 .0317817
657.802 .0317659
658.552 .0317504
659.302 .0317350
660.052 .0317198
660.801 .0317046
661.550 .0316895
662.299 .0316744
663.048 .0316592
663.796 .0316439
664.544 .0316284
665.292 .0316125
666.040 .0315963
666.787 .0315797
667.534 .0315627
668.281 .0315453
669.028 .0315274
669.774 .0315092
670.521 .0314907
671.266 .0314719
672.012 .0314530
672.758 .0314341
673.503 .0314152
674.248 .0313964
674.992 .0313778
675.737 .0313594
676.481 .0313414
677.225 .0313235
677.969 .0313060
678.712 .0312888
679.455 .0312719
680.199 .0312554
680.941 .0312393
681.684 .0312235
682.426 .0312080
683.168 .0311927
683.910 .0311778
684.652 .0311630
685.393 .0311485
686.134 .0311341
686.875 .0311198
687.616 .0311058
688.356 .0310918
689.097 .0310781
689.837 .0310644
690.576 .0310508
691.316 .0310373
692.055 .0310237
692.794 .0310100
693.533 .0309964
694.272 .0309827
695.010 .0309690
695.748 .0309554
696.486 .0309418
697.224 .0309281
697.962 .0309145
698.699 .0309009
699.436 .0308874
700.173 .0308739
700.909 .0308605
701.646 .0308472
702.382 .0308342
703.118 .0308213
703.853 .0308086
704.589 .0307962
705.324 .0307840
706.059 .0307720
706.794 .0307601
707.529 .0307485
708.263 .0307370
708.997 .0307258
709.731 .0307148
710.465 .0307039
711.198 .0306932
711.931 .0306826
712.664 .0306721
713.397 .0306615
714.130 .0306510
714.862 .0306404
715.594 .0306298
716.326 .0306191
717.058 .0306084
717.789 .0305977
718.520 .0305869
719.251 .0305761
719.982 .0305653
720.713 .0305545
721.443 .0305436
722.173 .0305329
722.903 .0305222
723.633 .0305117
724.362 .0305012
725.091 .0304909
725.820 .0304806
726.549 .0304704
727.278 .0304601
728.006 .0304498
728.734 .0304394
729.462 .0304289
730.190 .0304183
730.917 .0304075
731.644 .0303967
732.371 .0303858
733.098 .0303749
733.825 .0303639
734.551 .0303530
735.277 .0303421
736.003 .0303312
736.728 .0303203
737.454 .0303094
738.179 .0302985
738.904 .0302875
739.629 .0302764
740.353 .0302652
741.077 .0302539
741.801 .0302425
742.525 .0302312
743.249 .0302199
743.972 .0302087
744.695 .0301977
745.418 .0301867
746.141 .0301758
746.863 .0301649
747.585 .0301542
748.307 .0301434
749.029 .0301326
749.750 .0301218
750.472 .0301108
751.193 .0300998
751.913 .0300887
752.634 .0300774
753.354 .0300661
754.074 .0300546
754.794 .0300430
755.514 .0300313
756.233 .0300194
756.952 .0300073
757.671 .0299949
758.390 .0299822
759.108 .0299691
759.826 .0299556
760.544 .0299419
761.262 .0299280
761.979 .0299140
762.697 .0299000
763.414 .0298861
764.130 .0298722
764.847 .0298586
765.563 .0298450
766.279 .0298317
766.995 .0298185
767.710 .0298055
768.426 .0297926
769.141 .0297800
769.855 .0297676
770.570 .0297555
771.284 .0297436
771.998 .0297320
772.712 .0297207
773.426 .0297097
774.139 .0296991
774.852 .0296888
775.565 .0296789
776.277 .0296693
776.990 .0296600
777.702 .0296511
778.414 .0296425
779.125 .0296341
779.836 .0296260
780.547 .0296181
781.258 .0296105
781.969 .0296031
782.679 .0295960
783.389 .0295859
784.099 .0295792
784.808 .0295726
785.517 .0295660
786.226 .0295595
786.935 .0295529
787.643 .0295464
788.352 .0295397
789.060 .0295331
789.767 .0295264
790.475 .0295198
791.182 .0295131
791.889 .0295096
792.595 .0295029
793.301 .0294962
794.008 .0294895
794.713 .0294829
795.419 .0294763
796.124 .0294696
796.829 .0294629
797.534 .0294561
798.238 .0294493
798.942 .0294424
799.646 .0294354
800.350 .0294284
801.053 .0294213
801.756 .0294142
802.459 .0294071
803.162 .0294000
803.864 .0293928
804.566 .0293857
805.267 .0293786
805.969 .0293714
806.670 .0293641
807.371 .0293568
808.071 .0293493
808.772 .0293418
809.472 .0293340
810.171 .0293261
810.871 .0293178
811.570 .0293093
812.269 .0293004
812.967 .0292911
813.666 .0292815
814.364 .0292714
815.061 .0292609
815.759 .0292500
816.456 .0292386
817.153 .0292267
817.849 .0292143
818.545 .0292014
819.241 .0291882
819.937 .0291745
820.632 .0291604
821.327 .0291460
822.022 .0291314
822.717 .0291165
823.411 .0291015
824.105 .0290864
824.798 .0290711
825.491 .0290559
826.184 .0290408
826.877 .0290257
827.569 .0290108
828.261 .0289961
828.953 .0289817
829.645 .0289674
830.336 .0289535
831.027 .0289398
831.717 .0289264
832.407 .0289133
833.097 .0289007
833.787 .0288884
834.476 .0288766
835.165 .0288651
835.854 .0288540
836.542 .0288432
837.230 .0288327
837.918 .0288223
838.605 .0288120
839.292 .0288017
839.979 .0287915
840.665 .0287813
841.352 .0287711
842.037 .0287609
842.723 .0287506
843.408 .0287402
844.093 .0287296
844.777 .0287189
845.462 .0287079
846.145 .0286967
846.829 .0286852
847.512 .0286735
848.195 .0286616
848.878 .0286495
849.560 .0286371
850.242 .0286245
850.923 .0286116
851.605 .0285985
852.286 .0285851
852.966 .0285715
853.646 .0285577
854.326 .0285437
855.006 .0285296
855.685 .0285155
856.364 .0285013
857.043 .0284873
857.721 .0284733
858.399 .0284595
859.077 .0284457
859.754 .0284321
860.431 .0284187
861.107 .0284054
861.784 .0283923
862.459 .0283794
863.135 .0283668
863.810 .0283543
864.485 .0283421
865.160 .0283301
865.834 .0283181
866.508 .0283063
867.181 .0282944
867.854 .0282825
868.527 .0282707
869.199 .0282589
869.872 .0282471
870.543 .0282354
871.215 .0282237
871.886 .0282120
872.557 .0282003
873.227 .0281884
873.897 .0281765
874.567 .0281645
875.236 .0281523
875.905 .0281401
876.573 .0281278
877.242 .0281155
877.909 .0281032
878.577 .0280910
879.244 .0280788
879.911 .0280666
880.577 .0280545
881.243 .0280425
881.909 .0280306
882.575 .0280190
883.240 .0280077
883.904 .0279968
884.569 .0279863
885.232 .0279761
885.896 .0279664
886.559 .0279571
887.222 .0279481
887.885 .0279395
888.547 .0279313
889.208 .0279234
889.870 .0279159
890.531 .0279089
891.192 .0279022
891.852 .0278959
892.512 .0278898
893.171 .0278839
893.830 .0278781
894.489 .0278723
895.148 .0278665
895.806 .0278607
896.464 .0278548
897.121 .0278489
897.778 .0278429
898.434 .0278369
899.091 .0278272
899.747 .0278210
900.402 .0278146
901.057 .0278081
901.712 .0278014
902.366 .0277946
903.020 .0277875
903.674 .0277803
904.327 .0277729
904.980 .0277652
905.633 .0277573
906.285 .0277492
906.936 .0277408
907.588 .0277359
908.239 .0277271
908.889 .0277181
909.540 .0277087
910.190 .0276991
910.839 .0276893
911.488 .0276793
912.137 .0276690
912.785 .0276586
913.433 .0276481
914.081 .0276373
914.728 .0276264
915.375 .0276153
916.021 .0276039
916.668 .0275923
917.313 .0275804
917.959 .0275682
918.604 .0275557
919.248 .0275430
919.892 .0275300
920.536 .0275167
921.180 .0275032
921.823 .0274895
922.465 .0274755
923.108 .0274614
923.750 .0274469
924.391 .0274322
925.032 .0274173
925.673 .0274021
926.313 .0273867
926.953 .0273711
927.593 .0273553
928.232 .0273394
928.871 .0273234
929.510 .0273073
930.148 .0272911
930.786 .0272748
931.423 .0272583
932.060 .0272417
932.697 .0272249
933.333 .0272078
933.969 .0271905
934.604 .0271729
935.239 .0271550
935.874 .0271368
936.508 .0271183
937.142 .0270995
937.776 .0270804
938.409 .0270611
939.042 .0270416
939.674 .0270219
940.306 .0270020
940.938 .0269820
941.569 .0269620
942.200 .0269418
942.830 .0269215
943.460 .0269012
944.090 .0268808
944.720 .0268604
945.349 .0268399
945.977 .0268194
946.606 .0267990
947.233 .0267787
947.861 .0267585
948.488 .0267384
949.115 .0267186
949.741 .0266990
950.367 .0266797
950.993 .0266608
951.618 .0266421
952.243 .0266239
952.868 .0266060
953.492 .0265886
954.115 .0265717
954.739 .0265552
955.362 .0265393
955.984 .0265238
956.607 .0265088
957.229 .0264943
957.850 .0264803
958.471 .0264667
959.092 .0264536
959.713 .0264409
960.333 .0264286
960.952 .0264167
961.572 .0264051
962.191 .0263939
962.809 .0263829
963.428 .0263722
964.045 .0263616
964.663 .0263513
965.280 .0263411
965.897 .0263312
966.513 .0263214
967.129 .0263118
967.745 .0263023
968.361 .0262931
968.976 .0262840
969.590 .0262752
970.205 .0262666
970.818 .0262584
971.432 .0262504
972.045 .0262427
972.658 .0262352
973.271 .0262280
973.883 .0262210
974.495 .0262141
975.106 .0262074
975.717 .0262006
976.328 .0261940
976.938 .0261873
977.548 .0261808
978.158 .0261742
978.768 .0261646
979.377 .0261579
979.985 .0261513
980.594 .0261445
981.202 .0261376
981.809 .0261305
982.417 .0261234
983.024 .0261162
983.631 .0261090
984.237 .0261019
984.843 .0260949
985.449 .0260881
986.054 .0260814
986.659 .0260749
987.264 .0260717
987.868 .0260656
988.472 .0260595
989.076 .0260535
989.679 .0260474
990.282 .0260413
990.885 .0260353
991.487 .0260292
992.090 .0260232
992.691 .0260174
993.293 .0260116
993.894 .0260061
994.495 .0260007
995.095 .0259955
995.696 .0259904
996.296 .0259856
996.895 .0259809
997.494 .0259765
998.093 .0259723
998.692 .0259684
999.291 .0259647
999.889 .0259612
1000.487 .0259579
1001.084 .0259546
1001.681 .0259514
1002.278 .0259481
1002.875 .0259447
1003.471 .0259411
1004.067 .0259374
1004.663 .0259334
1005.258 .0259292
1005.854 .0259246
1006.449 .0259198
1007.043 .0259147
1007.638 .0259093
1008.232 .0259038
1008.826 .0258982
1009.419 .0258925
1010.012 .0258869
1010.605 .0258813
1011.198 .0258759
1011.791 .0258705
1012.383 .0258652
1012.975 .0258600
1013.566 .0258547
1014.158 .0258494
1014.749 .0258442
1015.340 .0258390
1015.931 .0258339
1016.521 .0258289
1017.111 .0258242
1017.701 .0258197
1018.291 .0258153
1018.880 .0258112
1019.470 .0258073
1020.059 .0258036
1020.647 .0258001
1021.236 .0257969
1021.824 .0257939
1022.412 .0257914
1023.000 .0257894
1023.588 .0257880
1024.175 .0257871
1024.762 .0257869
1025.349 .0257872
1025.936 .0257881
1026.523 .0257893
1027.109 .0257908
1027.695 .0257926
1028.281 .0257946
1028.867 .0257969
1029.452 .0257993
1030.038 .0258020
1030.623 .0258050
1031.208 .0258082
1031.792 .0258115
1032.377 .0258150
1032.961 .0258185
1033.546 .0258218
1034.130 .0258249
1034.714 .0258278
1035.297 .0258303
1035.881 .0258325
1036.464 .0258344
1037.047 .0258361
1037.630 .0258374
1038.213 .0258385
1038.796 .0258393
1039.378 .0258398
1039.961 .0258397
1040.543 .0258391
1041.125 .0258379
1041.707 .0258360
1042.289 .0258335
1042.871 .0258304
1043.452 .0258267
1044.034 .0258226
1044.615 .0258182
1045.196 .0258135
1045.777 .0258086
1046.358 .0258035
1046.939 .0257982
1047.520 .0257928
1048.101 .0257871
1048.681 .0257813
1049.262 .0257755
1049.842 .0257697
1050.422 .0257639
1051.002 .0257585
1051.582 .0257532
1052.162 .0257482
1052.742 .0257433
1053.322 .0257384
1053.902 .0257335
1054.482 .0257285
1055.061 .0257233
1055.641 .0257179
1056.220 .0257124
1056.800 .0257069
1057.379 .0257014
1057.958 .0256959
1058.538 .0256904
1059.117 .0256849
1059.696 .0256792
1060.275 .0256735
1060.854 .0256675
1061.433 .0256614
1062.012 .0256552
1062.592 .0256490
1063.171 .0256428
1063.750 .0256368
1064.329 .0256310
1064.908 .0256254
1065.487 .0256199
1066.066 .0256144
1066.645 .0256087
1067.224 .0256029
1067.803 .0255970
1068.382 .0255909
1068.961 .0255849
1069.540 .0255791
1070.119 .0255737
1070.698 .0255687
1071.278 .0255642
1071.857 .0255602
1072.436 .0255565
1073.016 .0255532
1073.595 .0255501
1074.175 .0255474
1074.754 .0255449
1075.334 .0255428
1075.913 .0255411
1076.493 .0255400
1077.073 .0255394
1077.653 .0255393
1078.233 .0255395
1078.813 .0255399
1079.393 .0255404
1079.974 .0255407
1080.554 .0255408
1081.135 .0255407
1081.716 .0255405
1082.296 .0255403
1082.877 .0255402
1083.458 .0255402
1084.040 .0255405
1084.621 .0255411
1085.202 .0255421
1085.784 .0255434
1086.366 .0255449
1086.948 .0255465
1087.530 .0255481
1088.112 .0255498
1088.695 .0255513
1089.277 .0255529
1089.860 .0255543
1090.443 .0255557
1091.026 .0255569
1091.610 .0255580
1092.193 .0255589
1092.777 .0255596
1093.361 .0255599
1093.946 .0255598
1094.530 .0255591
1095.115 .0255577
1095.700 .0255557
1096.285 .0255532
1096.871 .0255505
1097.456 .0255476
1098.042 .0255449
1098.628 .0255424
1099.215 .0255403
1099.802 .0255385
1100.389 .0255370
1100.976 .0255357
1101.564 .0255340
1102.152 .0255320
1102.740 .0255295
1103.329 .0255265
1103.917 .0255233
1104.507 .0255199
1105.096 .0255165
1105.686 .0255131
1106.276 .0255098
1106.867 .0255064
1107.457 .0255030
1108.049 .0254995
1108.640 .0254958
1109.232 .0254922
1109.825 .0254887
1110.417 .0254857
1111.010 .0254835
1111.604 .0254826
1112.198 .0254831
1112.792 .0254850
1113.387 .0254883
1113.982 .0254927
1114.577 .0254979
1115.173 .0255037
1115.769 .0255097
1116.366 .0255158
1116.963 .0255220
1117.561 .0255283
1118.159 .0255348
1118.758 .0255416
1119.357 .0255490
1119.957 .0255569
1120.557 .0255654
1121.157 .0255745
1121.758 .0255842
1122.360 .0255947
1122.962 .0256062
1123.564 .0256189
1124.167 .0256237
1124.771 .0256386
1125.375 .0256554
1125.980 .0256742
1126.585 .0256949
1127.191 .0257175
1127.797 .0257421
1128.404 .0257686
1129.012 .0257971
1129.620 .0258277
1130.229 .0258606
1130.838 .0258959
1131.448 .0259339
1132.058 .0259745
1132.669 .0260320
1133.281 .0260806
1133.894 .0261334
1134.507 .0261842
1135.120 .0262430
1135.735 .0263115
1136.350 .0263925
1136.965 .0262939
1137.582 .0263767
1138.199 .0264677
1138.816 .0265611
1139.435 .0266553
1140.054 .0267514
1140.674 .0268544
1141.294 .0269703
1141.916 .0270976
1142.538 .0270564
1143.160 .0272802
1143.784 .0275546
1144.408 .0279008
1145.033 .0279627
