Measurement Sequence started on: 14-45-04-498
Integration time: 36
Scans to Average: 2 
>>>>>Begin Spectral Data<<<<<
433.946 .0513530
434.870 .0487565
435.793 .0484920
436.715 .0463029
437.635 .0454293
438.555 .0461079
439.473 .0455615
440.389 .0451486
441.305 .0447881
442.219 .0444975
443.132 .0447583
444.044 .0444489
444.954 .0441459
445.863 .0439504
446.771 .0437933
447.678 .0435940
448.584 .0434176
449.488 .0432582
450.391 .0431135
451.293 .0429801
452.194 .0428567
453.094 .0427433
453.992 .0426366
454.890 .0425356
455.786 .0424393
456.681 .0423472
457.575 .0422595
458.468 .0421770
459.360 .0421009
460.250 .0420322
461.140 .0419711
462.028 .0419182
462.915 .0418729
463.801 .0418348
464.687 .0418023
465.571 .0417745
466.454 .0417505
467.335 .0417295
468.216 .0417109
469.096 .0416939
469.975 .0416778
470.853 .0416615
471.729 .0416439
472.605 .0416239
473.479 .0416000
474.353 .0415712
475.226 .0415366
476.097 .0414960
476.968 .0414495
477.838 .0413978
478.706 .0413414
479.574 .0412815
480.441 .0412190
481.306 .0411546
482.171 .0410886
483.035 .0410214
483.898 .0409533
484.760 .0408847
485.621 .0408160
486.481 .0407481
487.340 .0406819
488.198 .0406186
489.055 .0405588
489.912 .0405034
490.767 .0404531
491.622 .0403941
492.476 .0403547
493.329 .0403188
494.180 .0402853
495.032 .0402534
495.882 .0402222
496.731 .0401906
497.580 .0401582
498.427 .0401244
499.274 .0400887
500.120 .0400652
500.965 .0400256
501.809 .0399841
502.653 .0399412
503.495 .0398966
504.337 .0398503
505.178 .0398018
506.018 .0397512
506.858 .0396983
507.696 .0396424
508.534 .0395838
509.371 .0395228
510.208 .0394600
511.043 .0393961
511.878 .0393320
512.712 .0392691
513.545 .0392085
514.377 .0391511
515.209 .0390975
516.040 .0390475
516.870 .0390008
517.699 .0389568
518.528 .0389146
519.356 .0388735
520.183 .0388327
521.010 .0387924
521.836 .0387527
522.661 .0387146
523.485 .0386789
524.309 .0386459
525.132 .0386166
525.954 .0385910
526.776 .0385677
527.597 .0385458
528.417 .0385238
529.237 .0385005
530.056 .0384749
530.874 .0384461
531.692 .0384142
532.508 .0383795
533.325 .0383434
534.140 .0383070
534.955 .0382713
535.770 .0382374
536.583 .0382051
537.397 .0381742
538.209 .0381434
539.021 .0381115
539.832 .0380773
540.643 .0380402
541.453 .0380000
542.262 .0379564
543.071 .0379100
543.879 .0378625
544.687 .0378149
545.494 .0377683
546.300 .0377230
547.106 .0376788
547.911 .0376358
548.716 .0375933
549.520 .0375506
550.323 .0375071
551.126 .0374627
551.929 .0374177
552.731 .0373725
553.532 .0373281
554.332 .0372856
555.133 .0372461
555.932 .0372106
556.731 .0371791
557.530 .0371510
558.328 .0371256
559.125 .0371022
559.922 .0370799
560.719 .0370577
561.515 .0370346
562.310 .0370104
563.105 .0369848
563.899 .0369577
564.693 .0369289
565.487 .0368981
566.280 .0368651
567.072 .0368295
567.864 .0367908
568.655 .0367486
569.446 .0367028
570.236 .0366536
571.026 .0366009
571.816 .0365451
572.605 .0364868
573.393 .0364267
574.181 .0363657
574.969 .0363045
575.756 .0362437
576.543 .0361839
577.329 .0361257
578.115 .0360698
578.900 .0360166
579.685 .0359667
580.469 .0359205
581.253 .0358784
582.036 .0358409
582.820 .0358081
583.602 .0357797
584.384 .0357558
585.166 .0357357
585.947 .0357189
586.728 .0357048
587.509 .0356928
588.289 .0356822
589.069 .0356725
589.848 .0356630
590.627 .0356533
591.405 .0356430
592.183 .0356319
592.961 .0356197
593.738 .0356062
594.515 .0355911
595.291 .0355742
596.067 .0355557
596.843 .0355354
597.618 .0355135
598.393 .0354756
599.167 .0354505
599.941 .0354243
600.715 .0353973
601.488 .0353697
602.261 .0353416
603.034 .0353130
603.806 .0352841
604.578 .0352547
605.349 .0352251
606.121 .0351952
606.891 .0351800
607.662 .0351499
608.432 .0351198
609.201 .0350896
609.971 .0350594
610.740 .0350291
611.508 .0349988
612.277 .0349686
613.045 .0349387
613.812 .0349090
614.579 .0348798
615.346 .0348512
616.113 .0348232
616.879 .0347961
617.645 .0347697
618.411 .0347442
619.176 .0347195
619.941 .0346957
620.705 .0346728
621.470 .0346508
622.233 .0346300
622.997 .0346104
623.760 .0345919
624.523 .0345748
625.286 .0345588
626.048 .0345439
626.810 .0345301
627.572 .0345173
628.333 .0345053
629.095 .0344939
629.855 .0344830
630.616 .0344725
631.376 .0344623
632.136 .0344521
632.895 .0344417
633.655 .0344309
634.414 .0344195
635.172 .0344073
635.931 .0343940
636.689 .0343796
637.447 .0343639
638.204 .0343471
638.962 .0343290
639.718 .0343097
640.475 .0342891
641.231 .0342673
641.988 .0342445
642.743 .0342205
643.499 .0341956
644.254 .0341699
645.009 .0341435
645.764 .0341167
646.518 .0340898
647.272 .0340629
648.026 .0340362
648.780 .0340100
649.533 .0339842
650.286 .0339591
651.039 .0339345
651.792 .0339107
652.544 .0338876
653.296 .0338653
654.048 .0338440
654.799 .0338234
655.550 .0338038
656.301 .0337851
657.052 .0337671
657.802 .0337498
658.552 .0337330
659.302 .0337166
660.052 .0337006
660.801 .0336849
661.550 .0336694
662.299 .0336542
663.048 .0336392
663.796 .0336244
664.544 .0336098
665.292 .0335953
666.040 .0335810
666.787 .0335668
667.534 .0335527
668.281 .0335388
669.028 .0335251
669.774 .0335117
670.521 .0334985
671.266 .0334856
672.012 .0334729
672.758 .0334604
673.503 .0334480
674.248 .0334357
674.992 .0334235
675.737 .0334113
676.481 .0333991
677.225 .0333868
677.969 .0333743
678.712 .0333615
679.455 .0333483
680.199 .0333347
680.941 .0333206
681.684 .0333061
682.426 .0332911
683.168 .0332756
683.910 .0332597
684.652 .0332433
685.393 .0332264
686.134 .0332090
686.875 .0331910
687.616 .0331725
688.356 .0331535
689.097 .0331340
689.837 .0331141
690.576 .0330938
691.316 .0330731
692.055 .0330522
692.794 .0330309
693.533 .0330093
694.272 .0329875
695.010 .0329654
695.748 .0329431
696.486 .0329206
697.224 .0328980
697.962 .0328753
698.699 .0328526
699.436 .0328299
700.173 .0328072
700.909 .0327846
701.646 .0327621
702.382 .0327398
703.118 .0327178
703.853 .0326960
704.589 .0326747
705.324 .0326538
706.059 .0326334
706.794 .0326134
707.529 .0325941
708.263 .0325752
708.997 .0325570
709.731 .0325393
710.465 .0325222
711.198 .0325058
711.931 .0324900
712.664 .0324747
713.397 .0324601
714.130 .0324461
714.862 .0324326
715.594 .0324195
716.326 .0324068
717.058 .0323943
717.789 .0323819
718.520 .0323695
719.251 .0323571
719.982 .0323446
720.713 .0323319
721.443 .0323190
722.173 .0323060
722.903 .0322928
723.633 .0322794
724.362 .0322659
725.091 .0322523
725.820 .0322386
726.549 .0322247
727.278 .0322106
728.006 .0321963
728.734 .0321819
729.462 .0321673
730.190 .0321524
730.917 .0321373
731.644 .0321221
732.371 .0321066
733.098 .0320909
733.825 .0320750
734.551 .0320589
735.277 .0320426
736.003 .0320261
736.728 .0320095
737.454 .0319926
738.179 .0319755
738.904 .0319580
739.629 .0319402
740.353 .0319219
741.077 .0319032
741.801 .0318839
742.525 .0318643
743.249 .0318441
743.972 .0318236
744.695 .0318027
745.418 .0317815
746.141 .0317599
746.863 .0317380
747.585 .0317158
748.307 .0316932
749.029 .0316702
749.750 .0316469
750.472 .0316232
751.193 .0315991
751.913 .0315748
752.634 .0315503
753.354 .0315257
754.074 .0315012
754.794 .0314767
755.514 .0314524
756.233 .0314283
756.952 .0314046
757.671 .0313813
758.390 .0313583
759.108 .0313358
759.826 .0313139
760.544 .0312925
761.262 .0312717
761.979 .0312515
762.697 .0312320
763.414 .0312132
764.130 .0311949
764.847 .0311773
765.563 .0311602
766.279 .0311436
766.995 .0311276
767.710 .0311121
768.426 .0310971
769.141 .0310827
769.855 .0310688
770.570 .0310554
771.284 .0310425
771.998 .0310300
772.712 .0310179
773.426 .0310061
774.139 .0309947
774.852 .0309836
775.565 .0309729
776.277 .0309624
776.990 .0309521
777.702 .0309420
778.414 .0309321
779.125 .0309222
779.836 .0309124
780.547 .0309025
781.258 .0308928
781.969 .0308831
782.679 .0308734
783.389 .0308584
784.099 .0308484
784.808 .0308382
785.517 .0308276
786.226 .0308165
786.935 .0308048
787.643 .0307925
788.352 .0307795
789.060 .0307659
789.767 .0307517
790.475 .0307369
791.182 .0307217
791.889 .0307125
792.595 .0306967
793.301 .0306803
794.008 .0306634
794.713 .0306460
795.419 .0306279
796.124 .0306093
796.829 .0305902
797.534 .0305706
798.238 .0305506
798.942 .0305303
799.646 .0305099
800.350 .0304893
801.053 .0304687
801.756 .0304481
802.459 .0304275
803.162 .0304069
803.864 .0303864
804.566 .0303661
805.267 .0303458
805.969 .0303256
806.670 .0303055
807.371 .0302854
808.071 .0302653
808.772 .0302450
809.472 .0302246
810.171 .0302040
810.871 .0301831
811.570 .0301620
812.269 .0301406
812.967 .0301190
813.666 .0300973
814.364 .0300752
815.061 .0300529
815.759 .0300303
816.456 .0300072
817.153 .0299836
817.849 .0299595
818.545 .0299347
819.241 .0299095
819.937 .0298839
820.632 .0298580
821.327 .0298319
822.022 .0298057
822.717 .0297795
823.411 .0297535
824.105 .0297275
824.798 .0297017
825.491 .0296762
826.184 .0296508
826.877 .0296258
827.569 .0296012
828.261 .0295770
828.953 .0295534
829.645 .0295305
830.336 .0295083
831.027 .0294868
831.717 .0294662
832.407 .0294463
833.097 .0294274
833.787 .0294093
834.476 .0293921
835.165 .0293758
835.854 .0293602
836.542 .0293454
837.230 .0293312
837.918 .0293175
838.605 .0293043
839.292 .0292914
839.979 .0292787
840.665 .0292663
841.352 .0292540
842.037 .0292419
842.723 .0292300
843.408 .0292181
844.093 .0292064
844.777 .0291946
845.462 .0291828
846.145 .0291709
846.829 .0291588
847.512 .0291466
848.195 .0291343
848.878 .0291218
849.560 .0291092
850.242 .0290966
850.923 .0290839
851.605 .0290712
852.286 .0290584
852.966 .0290456
853.646 .0290328
854.326 .0290200
855.006 .0290073
855.685 .0289946
856.364 .0289821
857.043 .0289698
857.721 .0289577
858.399 .0289459
859.077 .0289344
859.754 .0289232
860.431 .0289122
861.107 .0289014
861.784 .0288909
862.459 .0288805
863.135 .0288703
863.810 .0288601
864.485 .0288500
865.160 .0288400
865.834 .0288299
866.508 .0288197
867.181 .0288093
867.854 .0287987
868.527 .0287878
869.199 .0287766
869.872 .0287648
870.543 .0287527
871.215 .0287399
871.886 .0287267
872.557 .0287129
873.227 .0286987
873.897 .0286839
874.567 .0286687
875.236 .0286529
875.905 .0286367
876.573 .0286198
877.242 .0286024
877.909 .0285844
878.577 .0285658
879.244 .0285467
879.911 .0285272
880.577 .0285073
881.243 .0284872
881.909 .0284669
882.575 .0284464
883.240 .0284257
883.904 .0284050
884.569 .0283841
885.232 .0283632
885.896 .0283423
886.559 .0283215
887.222 .0283007
887.885 .0282801
888.547 .0282596
889.208 .0282394
889.870 .0282193
890.531 .0281994
891.192 .0281797
891.852 .0281601
892.512 .0281405
893.171 .0281211
893.830 .0281019
894.489 .0280828
895.148 .0280639
895.806 .0280452
896.464 .0280267
897.121 .0280083
897.778 .0279900
898.434 .0279716
899.091 .0279437
899.747 .0279250
900.402 .0279060
901.057 .0278867
901.712 .0278673
902.366 .0278476
903.020 .0278278
903.674 .0278080
904.327 .0277881
904.980 .0277681
905.633 .0277482
906.285 .0277281
906.936 .0277080
907.588 .0276975
908.239 .0276775
908.889 .0276574
909.540 .0276373
910.190 .0276173
910.839 .0275974
911.488 .0275777
912.137 .0275582
912.785 .0275389
913.433 .0275199
914.081 .0275012
914.728 .0274828
915.375 .0274647
916.021 .0274471
916.668 .0274298
917.313 .0274131
917.959 .0273968
918.604 .0273811
919.248 .0273659
919.892 .0273511
920.536 .0273369
921.180 .0273232
921.823 .0273100
922.465 .0272972
923.108 .0272848
923.750 .0272729
924.391 .0272614
925.032 .0272501
925.673 .0272390
926.313 .0272279
926.953 .0272168
927.593 .0272056
928.232 .0271942
928.871 .0271828
929.510 .0271712
930.148 .0271596
930.786 .0271479
931.423 .0271363
932.060 .0271246
932.697 .0271128
933.333 .0271010
933.969 .0270890
934.604 .0270769
935.239 .0270646
935.874 .0270523
936.508 .0270399
937.142 .0270276
937.776 .0270152
938.409 .0270027
939.042 .0269902
939.674 .0269775
940.306 .0269645
940.938 .0269512
941.569 .0269376
942.200 .0269238
942.830 .0269099
943.460 .0268959
944.090 .0268820
944.720 .0268682
945.349 .0268546
945.977 .0268411
946.606 .0268278
947.233 .0268145
947.861 .0268014
948.488 .0267882
949.115 .0267752
949.741 .0267622
950.367 .0267494
950.993 .0267367
951.618 .0267242
952.243 .0267119
952.868 .0266998
953.492 .0266878
954.115 .0266759
954.739 .0266641
955.362 .0266523
955.984 .0266404
956.607 .0266283
957.229 .0266162
957.850 .0266039
958.471 .0265915
959.092 .0265789
959.713 .0265663
960.333 .0265535
960.952 .0265406
961.572 .0265275
962.191 .0265141
962.809 .0265005
963.428 .0264867
964.045 .0264725
964.663 .0264582
965.280 .0264437
965.897 .0264290
966.513 .0264142
967.129 .0263993
967.745 .0263844
968.361 .0263695
968.976 .0263544
969.590 .0263393
970.205 .0263241
970.818 .0263088
971.432 .0262936
972.045 .0262784
972.658 .0262634
973.271 .0262486
973.883 .0262342
974.495 .0262201
975.106 .0262065
975.717 .0261933
976.328 .0261806
976.938 .0261682
977.548 .0261563
978.158 .0261446
978.768 .0261284
979.377 .0261172
979.985 .0261062
980.594 .0260953
981.202 .0260846
981.809 .0260740
982.417 .0260635
983.024 .0260531
983.631 .0260428
984.237 .0260324
984.843 .0260219
985.449 .0260114
986.054 .0260006
986.659 .0259897
987.264 .0259835
987.868 .0259721
988.472 .0259605
989.076 .0259487
989.679 .0259369
990.282 .0259250
990.885 .0259133
991.487 .0259016
992.090 .0258901
992.691 .0258786
993.293 .0258673
993.894 .0258560
994.495 .0258447
995.095 .0258334
995.696 .0258222
996.296 .0258110
996.895 .0258000
997.494 .0257892
998.093 .0257787
998.692 .0257684
999.291 .0257584
999.889 .0257486
1000.487 .0257388
1001.084 .0257290
1001.681 .0257192
1002.278 .0257093
1002.875 .0256993
1003.471 .0256892
1004.067 .0256790
1004.663 .0256689
1005.258 .0256588
1005.854 .0256489
1006.449 .0256392
1007.043 .0256297
1007.638 .0256204
1008.232 .0256112
1008.826 .0256020
1009.419 .0255928
1010.012 .0255836
1010.605 .0255745
1011.198 .0255654
1011.791 .0255564
1012.383 .0255475
1012.975 .0255388
1013.566 .0255303
1014.158 .0255220
1014.749 .0255139
1015.340 .0255058
1015.931 .0254977
1016.521 .0254896
1017.111 .0254815
1017.701 .0254735
1018.291 .0254657
1018.880 .0254581
1019.470 .0254509
1020.059 .0254442
1020.647 .0254379
1021.236 .0254323
1021.824 .0254271
1022.412 .0254225
1023.000 .0254183
1023.588 .0254144
1024.175 .0254109
1024.762 .0254077
1025.349 .0254048
1025.936 .0254023
1026.523 .0254001
1027.109 .0253982
1027.695 .0253967
1028.281 .0253955
1028.867 .0253947
1029.452 .0253944
1030.038 .0253944
1030.623 .0253950
1031.208 .0253960
1031.792 .0253977
1032.377 .0254001
1032.961 .0254032
1033.546 .0254070
1034.130 .0254116
1034.714 .0254168
1035.297 .0254227
1035.881 .0254293
1036.464 .0254364
1037.047 .0254442
1037.630 .0254526
1038.213 .0254616
1038.796 .0254712
1039.378 .0254814
1039.961 .0254921
1040.543 .0255031
1041.125 .0255143
1041.707 .0255255
1042.289 .0255367
1042.871 .0255476
1043.452 .0255585
1044.034 .0255692
1044.615 .0255799
1045.196 .0255906
1045.777 .0256014
1046.358 .0256123
1046.939 .0256231
1047.520 .0256338
1048.101 .0256443
1048.681 .0256542
1049.262 .0256637
1049.842 .0256727
1050.422 .0256812
1051.002 .0256893
1051.582 .0256972
1052.162 .0257049
1052.742 .0257124
1053.322 .0257196
1053.902 .0257265
1054.482 .0257328
1055.061 .0257383
1055.641 .0257429
1056.220 .0257465
1056.800 .0257493
1057.379 .0257511
1057.958 .0257524
1058.538 .0257533
1059.117 .0257540
1059.696 .0257544
1060.275 .0257545
1060.854 .0257543
1061.433 .0257535
1062.012 .0257521
1062.592 .0257499
1063.171 .0257470
1063.750 .0257434
1064.329 .0257394
1064.908 .0257351
1065.487 .0257306
1066.066 .0257262
1066.645 .0257217
1067.224 .0257172
1067.803 .0257126
1068.382 .0257077
1068.961 .0257025
1069.540 .0256972
1070.119 .0256917
1070.698 .0256864
1071.278 .0256814
1071.857 .0256768
1072.436 .0256727
1073.016 .0256692
1073.595 .0256660
1074.175 .0256632
1074.754 .0256604
1075.334 .0256576
1075.913 .0256546
1076.493 .0256515
1077.073 .0256483
1077.653 .0256450
1078.233 .0256415
1078.813 .0256380
1079.393 .0256344
1079.974 .0256306
1080.554 .0256265
1081.135 .0256221
1081.716 .0256172
1082.296 .0256120
1082.877 .0256064
1083.458 .0256005
1084.040 .0255944
1084.621 .0255881
1085.202 .0255816
1085.784 .0255748
1086.366 .0255677
1086.948 .0255601
1087.530 .0255520
1088.112 .0255434
1088.695 .0255342
1089.277 .0255247
1089.860 .0255150
1090.443 .0255052
1091.026 .0254956
1091.610 .0254861
1092.193 .0254768
1092.777 .0254676
1093.361 .0254587
1093.946 .0254500
1094.530 .0254416
1095.115 .0254336
1095.700 .0254261
1096.285 .0254192
1096.871 .0254128
1097.456 .0254071
1098.042 .0254019
1098.628 .0253969
1099.215 .0253921
1099.802 .0253871
1100.389 .0253817
1100.976 .0253759
1101.564 .0253696
1102.152 .0253628
1102.740 .0253557
1103.329 .0253483
1103.917 .0253408
1104.507 .0253334
1105.096 .0253261
1105.686 .0253191
1106.276 .0253125
1106.867 .0253062
1107.457 .0253006
1108.049 .0252958
1108.640 .0252920
1109.232 .0252893
1109.825 .0252881
1110.417 .0252883
1111.010 .0252899
1111.604 .0252930
1112.198 .0252974
1112.792 .0253029
1113.387 .0253092
1113.982 .0253161
1114.577 .0253237
1115.173 .0253317
1115.769 .0253405
1116.366 .0253502
1116.963 .0253609
1117.561 .0253730
1118.159 .0253865
1118.758 .0254014
1119.357 .0254177
1119.957 .0254351
1120.557 .0254535
1121.157 .0254731
1121.758 .0254938
1122.360 .0255158
1122.962 .0255394
1123.564 .0255648
1124.167 .0255776
1124.771 .0256050
1125.375 .0256340
1125.980 .0256645
1126.585 .0256963
1127.191 .0257291
1127.797 .0257628
1128.404 .0257969
1129.012 .0258315
1129.620 .0258666
1130.229 .0259024
1130.838 .0259389
1131.448 .0259765
1132.058 .0260155
1132.669 .0260732
1133.281 .0261166
1133.894 .0261614
1134.507 .0262078
1135.120 .0262623
1135.735 .0263143
1136.350 .0263632
1136.965 .0264261
1137.582 .0264726
1138.199 .0265205
1138.816 .0265663
1139.435 .0266149
1140.054 .0266690
1140.674 .0267267
1141.294 .0267881
1141.916 .0268401
1142.538 .0269035
1143.160 .0271472
1143.784 .0270998
1144.408 .0270357
1145.033 .0267640
