Measurement Sequence started on: 14-45-04-498
Integration time: 36
Scans to Average: 2 
>>>>>Begin Spectral Data<<<<<
433.946 .0491695
434.870 .0465232
435.793 .0412124
436.715 .0407912
437.635 .0402779
438.555 .0415811
439.473 .0411405
440.389 .0409055
441.305 .0408460
442.219 .0407821
443.132 .0408920
444.044 .0405298
444.954 .0404413
445.863 .0403704
446.771 .0403223
447.678 .0402021
448.584 .0401018
449.488 .0400103
450.391 .0399182
451.293 .0398252
452.194 .0397313
453.094 .0396376
453.992 .0395444
454.890 .0394511
455.786 .0393577
456.681 .0392652
457.575 .0391742
458.468 .0390854
459.360 .0389991
460.250 .0389148
461.140 .0388318
462.028 .0387494
462.915 .0386668
463.801 .0385838
464.687 .0384998
465.571 .0384152
466.454 .0383302
467.335 .0382455
468.216 .0381616
469.096 .0380791
469.975 .0379981
470.853 .0379188
471.729 .0378413
472.605 .0377660
473.479 .0376932
474.353 .0376236
475.226 .0375575
476.097 .0374953
476.968 .0374371
477.838 .0373830
478.706 .0373326
479.574 .0372857
480.441 .0372422
481.306 .0372018
482.171 .0371643
483.035 .0371299
483.898 .0370984
484.760 .0370699
485.621 .0370445
486.481 .0370223
487.340 .0370030
488.198 .0369866
489.055 .0369728
489.912 .0369613
490.767 .0369518
491.622 .0369453
492.476 .0369398
493.329 .0369355
494.180 .0369324
495.032 .0369304
495.882 .0369291
496.731 .0369282
497.580 .0369273
498.427 .0369258
499.274 .0369232
500.120 .0369173
500.965 .0369107
501.809 .0369015
502.653 .0368895
503.495 .0368744
504.337 .0368560
505.178 .0368344
506.018 .0368100
506.858 .0367829
507.696 .0367534
508.534 .0367218
509.371 .0366886
510.208 .0366541
511.043 .0366186
511.878 .0365820
512.712 .0365446
513.545 .0365061
514.377 .0364665
515.209 .0364255
516.040 .0363827
516.870 .0363379
517.699 .0362909
518.528 .0362415
519.356 .0361900
520.183 .0361360
521.010 .0360800
521.836 .0360223
522.661 .0359632
523.485 .0359026
524.309 .0358406
525.132 .0357775
525.954 .0357135
526.776 .0356489
527.597 .0355841
528.417 .0355190
529.237 .0354544
530.056 .0353906
530.874 .0353283
531.692 .0352678
532.508 .0352102
533.325 .0351561
534.140 .0351062
534.955 .0350608
535.770 .0350203
536.583 .0349846
537.397 .0349535
538.209 .0349265
539.021 .0349027
539.832 .0348810
540.643 .0348608
541.453 .0348413
542.262 .0348216
543.071 .0348009
543.879 .0347789
544.687 .0347551
545.494 .0347292
546.300 .0347010
547.106 .0346703
547.911 .0346369
548.716 .0346007
549.520 .0345611
550.323 .0345182
551.126 .0344718
551.929 .0344221
552.731 .0343695
553.532 .0343147
554.332 .0342581
555.133 .0342006
555.932 .0341428
556.731 .0340855
557.530 .0340289
558.328 .0339733
559.125 .0339188
559.922 .0338652
560.719 .0338124
561.515 .0337604
562.310 .0337090
563.105 .0336583
563.899 .0336083
564.693 .0335592
565.487 .0335114
566.280 .0334653
567.072 .0334210
567.864 .0333787
568.655 .0333384
569.446 .0333000
570.236 .0332631
571.026 .0332274
571.816 .0331927
572.605 .0331587
573.393 .0331252
574.181 .0330923
574.969 .0330599
575.756 .0330282
576.543 .0329974
577.329 .0329675
578.115 .0329383
578.900 .0329099
579.685 .0328819
580.469 .0328543
581.253 .0328269
582.036 .0327994
582.820 .0327718
583.602 .0327441
584.384 .0327160
585.166 .0326877
585.947 .0326590
586.728 .0326300
587.509 .0326005
588.289 .0325705
589.069 .0325398
589.848 .0325084
590.627 .0324763
591.405 .0324436
592.183 .0324102
592.961 .0323764
593.738 .0323423
594.515 .0323081
595.291 .0322738
596.067 .0322396
596.843 .0322056
597.618 .0321716
598.393 .0321204
599.167 .0320869
599.941 .0320535
600.715 .0320205
601.488 .0319879
602.261 .0319557
603.034 .0319243
603.806 .0318936
604.578 .0318640
605.349 .0318356
606.121 .0318084
606.891 .0317983
607.662 .0317732
608.432 .0317492
609.201 .0317264
609.971 .0317048
610.740 .0316843
611.508 .0316649
612.277 .0316466
613.045 .0316292
613.812 .0316127
614.579 .0315971
615.346 .0315820
616.113 .0315676
616.879 .0315536
617.645 .0315400
618.411 .0315266
619.176 .0315133
619.941 .0315000
620.705 .0314865
621.470 .0314727
622.233 .0314586
622.997 .0314440
623.760 .0314291
624.523 .0314136
625.286 .0313978
626.048 .0313816
626.810 .0313651
627.572 .0313482
628.333 .0313308
629.095 .0313130
629.855 .0312946
630.616 .0312756
631.376 .0312560
632.136 .0312357
632.895 .0312148
633.655 .0311932
634.414 .0311710
635.172 .0311482
635.931 .0311247
636.689 .0311005
637.447 .0310756
638.204 .0310501
638.962 .0310239
639.718 .0309972
640.475 .0309698
641.231 .0309420
641.988 .0309138
642.743 .0308852
643.499 .0308562
644.254 .0308269
645.009 .0307972
645.764 .0307674
646.518 .0307374
647.272 .0307074
648.026 .0306776
648.780 .0306479
649.533 .0306186
650.286 .0305897
651.039 .0305613
651.792 .0305334
652.544 .0305060
653.296 .0304794
654.048 .0304535
654.799 .0304285
655.550 .0304044
656.301 .0303812
657.052 .0303590
657.802 .0303378
658.552 .0303176
659.302 .0302983
660.052 .0302799
660.801 .0302624
661.550 .0302458
662.299 .0302302
663.048 .0302156
663.796 .0302019
664.544 .0301892
665.292 .0301775
666.040 .0301667
666.787 .0301568
667.534 .0301477
668.281 .0301393
669.028 .0301316
669.774 .0301243
670.521 .0301176
671.266 .0301113
672.012 .0301054
672.758 .0300999
673.503 .0300948
674.248 .0300898
674.992 .0300850
675.737 .0300804
676.481 .0300757
677.225 .0300711
677.969 .0300663
678.712 .0300612
679.455 .0300559
680.199 .0300502
680.941 .0300441
681.684 .0300376
682.426 .0300305
683.168 .0300228
683.910 .0300146
684.652 .0300058
685.393 .0299964
686.134 .0299865
686.875 .0299761
687.616 .0299651
688.356 .0299534
689.097 .0299412
689.837 .0299284
690.576 .0299149
691.316 .0299008
692.055 .0298861
692.794 .0298708
693.533 .0298551
694.272 .0298390
695.010 .0298226
695.748 .0298061
696.486 .0297894
697.224 .0297726
697.962 .0297557
698.699 .0297388
699.436 .0297219
700.173 .0297050
700.909 .0296881
701.646 .0296713
702.382 .0296546
703.118 .0296380
703.853 .0296215
704.589 .0296051
705.324 .0295889
706.059 .0295728
706.794 .0295568
707.529 .0295409
708.263 .0295251
708.997 .0295094
709.731 .0294938
710.465 .0294783
711.198 .0294628
711.931 .0294475
712.664 .0294323
713.397 .0294172
714.130 .0294022
714.862 .0293873
715.594 .0293727
716.326 .0293582
717.058 .0293440
717.789 .0293301
718.520 .0293166
719.251 .0293033
719.982 .0292904
720.713 .0292778
721.443 .0292655
722.173 .0292535
722.903 .0292418
723.633 .0292304
724.362 .0292194
725.091 .0292089
725.820 .0291987
726.549 .0291890
727.278 .0291798
728.006 .0291710
728.734 .0291626
729.462 .0291548
730.190 .0291474
730.917 .0291406
731.644 .0291343
732.371 .0291286
733.098 .0291235
733.825 .0291191
734.551 .0291152
735.277 .0291119
736.003 .0291092
736.728 .0291070
737.454 .0291052
738.179 .0291039
738.904 .0291030
739.629 .0291025
740.353 .0291024
741.077 .0291025
741.801 .0291028
742.525 .0291033
743.249 .0291037
743.972 .0291041
744.695 .0291045
745.418 .0291047
746.141 .0291047
746.863 .0291046
747.585 .0291041
748.307 .0291032
749.029 .0291019
749.750 .0291000
750.472 .0290976
751.193 .0290945
751.913 .0290908
752.634 .0290864
753.354 .0290816
754.074 .0290762
754.794 .0290704
755.514 .0290641
756.233 .0290575
756.952 .0290506
757.671 .0290434
758.390 .0290360
759.108 .0290283
759.826 .0290205
760.544 .0290127
761.262 .0290048
761.979 .0289969
762.697 .0289891
763.414 .0289814
764.130 .0289738
764.847 .0289664
765.563 .0289590
766.279 .0289517
766.995 .0289445
767.710 .0289374
768.426 .0289302
769.141 .0289230
769.855 .0289157
770.570 .0289083
771.284 .0289007
771.998 .0288929
772.712 .0288848
773.426 .0288766
774.139 .0288681
774.852 .0288592
775.565 .0288501
776.277 .0288406
776.990 .0288306
777.702 .0288203
778.414 .0288095
779.125 .0287983
779.836 .0287868
780.547 .0287749
781.258 .0287628
781.969 .0287505
782.679 .0287381
783.389 .0287193
784.099 .0287066
784.808 .0286940
785.517 .0286813
786.226 .0286687
786.935 .0286562
787.643 .0286440
788.352 .0286319
789.060 .0286202
789.767 .0286087
790.475 .0285976
791.182 .0285868
791.889 .0285821
792.595 .0285717
793.301 .0285616
794.008 .0285518
794.713 .0285422
795.419 .0285329
796.124 .0285238
796.829 .0285148
797.534 .0285060
798.238 .0284973
798.942 .0284887
799.646 .0284803
800.350 .0284722
801.053 .0284643
801.756 .0284567
802.459 .0284495
803.162 .0284427
803.864 .0284362
804.566 .0284301
805.267 .0284243
805.969 .0284188
806.670 .0284137
807.371 .0284090
808.071 .0284047
808.772 .0284010
809.472 .0283977
810.171 .0283950
810.871 .0283927
811.570 .0283908
812.269 .0283892
812.967 .0283879
813.666 .0283867
814.364 .0283858
815.061 .0283850
815.759 .0283844
816.456 .0283839
817.153 .0283835
817.849 .0283831
818.545 .0283826
819.241 .0283820
819.937 .0283811
820.632 .0283800
821.327 .0283786
822.022 .0283769
822.717 .0283749
823.411 .0283727
824.105 .0283702
824.798 .0283674
825.491 .0283644
826.184 .0283611
826.877 .0283574
827.569 .0283535
828.261 .0283494
828.953 .0283451
829.645 .0283407
830.336 .0283361
831.027 .0283316
831.717 .0283270
832.407 .0283225
833.097 .0283180
833.787 .0283134
834.476 .0283089
835.165 .0283044
835.854 .0282998
836.542 .0282953
837.230 .0282908
837.918 .0282862
838.605 .0282816
839.292 .0282769
839.979 .0282720
840.665 .0282671
841.352 .0282620
842.037 .0282566
842.723 .0282510
843.408 .0282451
844.093 .0282388
844.777 .0282321
845.462 .0282250
846.145 .0282173
846.829 .0282092
847.512 .0282005
848.195 .0281913
848.878 .0281816
849.560 .0281713
850.242 .0281606
850.923 .0281493
851.605 .0281376
852.286 .0281255
852.966 .0281129
853.646 .0281000
854.326 .0280868
855.006 .0280734
855.685 .0280598
856.364 .0280461
857.043 .0280323
857.721 .0280184
858.399 .0280045
859.077 .0279905
859.754 .0279765
860.431 .0279625
861.107 .0279484
861.784 .0279344
862.459 .0279204
863.135 .0279065
863.810 .0278925
864.485 .0278786
865.160 .0278646
865.834 .0278505
866.508 .0278363
867.181 .0278220
867.854 .0278076
868.527 .0277931
869.199 .0277785
869.872 .0277638
870.543 .0277489
871.215 .0277339
871.886 .0277188
872.557 .0277034
873.227 .0276878
873.897 .0276719
874.567 .0276557
875.236 .0276392
875.905 .0276223
876.573 .0276052
877.242 .0275879
877.909 .0275704
878.577 .0275528
879.244 .0275351
879.911 .0275174
880.577 .0274996
881.243 .0274819
881.909 .0274644
882.575 .0274469
883.240 .0274297
883.904 .0274129
884.569 .0273963
885.232 .0273802
885.896 .0273646
886.559 .0273494
887.222 .0273347
887.885 .0273205
888.547 .0273067
889.208 .0272935
889.870 .0272809
890.531 .0272687
891.192 .0272571
891.852 .0272461
892.512 .0272355
893.171 .0272255
893.830 .0272160
894.489 .0272070
895.148 .0271985
895.806 .0271904
896.464 .0271828
897.121 .0271758
897.778 .0271692
898.434 .0271632
899.091 .0271556
899.747 .0271507
900.402 .0271461
901.057 .0271420
901.712 .0271382
902.366 .0271347
903.020 .0271313
903.674 .0271282
904.327 .0271252
904.980 .0271224
905.633 .0271195
906.285 .0271167
906.936 .0271139
907.588 .0271124
908.239 .0271093
908.889 .0271061
909.540 .0271027
910.190 .0270991
910.839 .0270954
911.488 .0270915
912.137 .0270874
912.785 .0270832
913.433 .0270788
914.081 .0270743
914.728 .0270696
915.375 .0270647
916.021 .0270597
916.668 .0270545
917.313 .0270490
917.959 .0270433
918.604 .0270374
919.248 .0270312
919.892 .0270249
920.536 .0270183
921.180 .0270115
921.823 .0270045
922.465 .0269972
923.108 .0269897
923.750 .0269820
924.391 .0269740
925.032 .0269658
925.673 .0269574
926.313 .0269488
926.953 .0269400
927.593 .0269310
928.232 .0269218
928.871 .0269124
929.510 .0269028
930.148 .0268929
930.786 .0268828
931.423 .0268725
932.060 .0268618
932.697 .0268509
933.333 .0268398
933.969 .0268284
934.604 .0268167
935.239 .0268049
935.874 .0267928
936.508 .0267806
937.142 .0267682
937.776 .0267557
938.409 .0267431
939.042 .0267306
939.674 .0267181
940.306 .0267056
940.938 .0266934
941.569 .0266812
942.200 .0266693
942.830 .0266576
943.460 .0266460
944.090 .0266346
944.720 .0266234
945.349 .0266123
945.977 .0266013
946.606 .0265903
947.233 .0265794
947.861 .0265686
948.488 .0265577
949.115 .0265469
949.741 .0265361
950.367 .0265253
950.993 .0265146
951.618 .0265040
952.243 .0264933
952.868 .0264827
953.492 .0264722
954.115 .0264616
954.739 .0264510
955.362 .0264405
955.984 .0264300
956.607 .0264196
957.229 .0264092
957.850 .0263990
958.471 .0263889
959.092 .0263790
959.713 .0263692
960.333 .0263596
960.952 .0263500
961.572 .0263406
962.191 .0263313
962.809 .0263220
963.428 .0263129
964.045 .0263039
964.663 .0262951
965.280 .0262864
965.897 .0262778
966.513 .0262693
967.129 .0262607
967.745 .0262521
968.361 .0262432
968.976 .0262341
969.590 .0262247
970.205 .0262150
970.818 .0262050
971.432 .0261946
972.045 .0261838
972.658 .0261726
973.271 .0261609
973.883 .0261488
974.495 .0261361
975.106 .0261228
975.717 .0261091
976.328 .0260950
976.938 .0260804
977.548 .0260655
978.158 .0260503
978.768 .0260261
979.377 .0260101
979.985 .0259938
980.594 .0259772
981.202 .0259603
981.809 .0259432
982.417 .0259259
983.024 .0259086
983.631 .0258911
984.237 .0258737
984.843 .0258563
985.449 .0258390
986.054 .0258218
986.659 .0258048
987.264 .0257969
987.868 .0257804
988.472 .0257643
989.076 .0257485
989.679 .0257332
990.282 .0257184
990.885 .0257040
991.487 .0256900
992.090 .0256764
992.691 .0256632
993.293 .0256503
993.894 .0256377
994.495 .0256255
995.095 .0256135
995.696 .0256018
996.296 .0255904
996.895 .0255793
997.494 .0255685
998.093 .0255580
998.692 .0255478
999.291 .0255378
999.889 .0255280
1000.487 .0255186
1001.084 .0255094
1001.681 .0255005
1002.278 .0254920
1002.875 .0254838
1003.471 .0254760
1004.067 .0254684
1004.663 .0254610
1005.258 .0254539
1005.854 .0254468
1006.449 .0254398
1007.043 .0254330
1007.638 .0254262
1008.232 .0254195
1008.826 .0254129
1009.419 .0254066
1010.012 .0254004
1010.605 .0253944
1011.198 .0253886
1011.791 .0253830
1012.383 .0253776
1012.975 .0253723
1013.566 .0253673
1014.158 .0253627
1014.749 .0253584
1015.340 .0253547
1015.931 .0253514
1016.521 .0253487
1017.111 .0253465
1017.701 .0253447
1018.291 .0253432
1018.880 .0253421
1019.470 .0253411
1020.059 .0253403
1020.647 .0253397
1021.236 .0253392
1021.824 .0253389
1022.412 .0253389
1023.000 .0253392
1023.588 .0253397
1024.175 .0253405
1024.762 .0253414
1025.349 .0253424
1025.936 .0253433
1026.523 .0253442
1027.109 .0253450
1027.695 .0253456
1028.281 .0253462
1028.867 .0253469
1029.452 .0253476
1030.038 .0253485
1030.623 .0253496
1031.208 .0253508
1031.792 .0253520
1032.377 .0253532
1032.961 .0253544
1033.546 .0253555
1034.130 .0253566
1034.714 .0253577
1035.297 .0253590
1035.881 .0253604
1036.464 .0253621
1037.047 .0253641
1037.630 .0253665
1038.213 .0253692
1038.796 .0253721
1039.378 .0253751
1039.961 .0253781
1040.543 .0253812
1041.125 .0253844
1041.707 .0253878
1042.289 .0253913
1042.871 .0253950
1043.452 .0253990
1044.034 .0254032
1044.615 .0254077
1045.196 .0254124
1045.777 .0254173
1046.358 .0254222
1046.939 .0254273
1047.520 .0254324
1048.101 .0254377
1048.681 .0254432
1049.262 .0254488
1049.842 .0254545
1050.422 .0254602
1051.002 .0254660
1051.582 .0254719
1052.162 .0254777
1052.742 .0254834
1053.322 .0254892
1053.902 .0254948
1054.482 .0255003
1055.061 .0255057
1055.641 .0255109
1056.220 .0255159
1056.800 .0255207
1057.379 .0255253
1057.958 .0255297
1058.538 .0255339
1059.117 .0255380
1059.696 .0255421
1060.275 .0255460
1060.854 .0255500
1061.433 .0255541
1062.012 .0255581
1062.592 .0255621
1063.171 .0255661
1063.750 .0255700
1064.329 .0255739
1064.908 .0255776
1065.487 .0255814
1066.066 .0255853
1066.645 .0255895
1067.224 .0255938
1067.803 .0255985
1068.382 .0256032
1068.961 .0256081
1069.540 .0256129
1070.119 .0256175
1070.698 .0256218
1071.278 .0256256
1071.857 .0256291
1072.436 .0256323
1073.016 .0256353
1073.595 .0256381
1074.175 .0256409
1074.754 .0256437
1075.334 .0256466
1075.913 .0256494
1076.493 .0256522
1077.073 .0256547
1077.653 .0256570
1078.233 .0256590
1078.813 .0256607
1079.393 .0256622
1079.974 .0256635
1080.554 .0256646
1081.135 .0256657
1081.716 .0256667
1082.296 .0256674
1082.877 .0256678
1083.458 .0256678
1084.040 .0256673
1084.621 .0256661
1085.202 .0256645
1085.784 .0256624
1086.366 .0256599
1086.948 .0256574
1087.530 .0256548
1088.112 .0256527
1088.695 .0256510
1089.277 .0256499
1089.860 .0256495
1090.443 .0256499
1091.026 .0256509
1091.610 .0256525
1092.193 .0256545
1092.777 .0256567
1093.361 .0256592
1093.946 .0256617
1094.530 .0256641
1095.115 .0256665
1095.700 .0256687
1096.285 .0256707
1096.871 .0256722
1097.456 .0256733
1098.042 .0256738
1098.628 .0256738
1099.215 .0256732
1099.802 .0256721
1100.389 .0256708
1100.976 .0256694
1101.564 .0256681
1102.152 .0256671
1102.740 .0256665
1103.329 .0256666
1103.917 .0256673
1104.507 .0256687
1105.096 .0256709
1105.686 .0256738
1106.276 .0256774
1106.867 .0256817
1107.457 .0256866
1108.049 .0256921
1108.640 .0256981
1109.232 .0257044
1109.825 .0257111
1110.417 .0257179
1111.010 .0257247
1111.604 .0257314
1112.198 .0257379
1112.792 .0257441
1113.387 .0257503
1113.982 .0257564
1114.577 .0257625
1115.173 .0257688
1115.769 .0257754
1116.366 .0257821
1116.963 .0257890
1117.561 .0257960
1118.159 .0258029
1118.758 .0258096
1119.357 .0258159
1119.957 .0258218
1120.557 .0258273
1121.157 .0258325
1121.758 .0258372
1122.360 .0258418
1122.962 .0258462
1123.564 .0258504
1124.167 .0258525
1124.771 .0258554
1125.375 .0258582
1125.980 .0258608
1126.585 .0258635
1127.191 .0258666
1127.797 .0258704
1128.404 .0258755
1129.012 .0258823
1129.620 .0258912
1130.229 .0259028
1130.838 .0259173
1131.448 .0259347
1132.058 .0259551
1132.669 .0259836
1133.281 .0260107
1133.894 .0260401
1134.507 .0260715
1135.120 .0261023
1135.735 .0261414
1136.350 .0261838
1136.965 .0261142
1137.582 .0261616
1138.199 .0262176
1138.816 .0262823
1139.435 .0263510
1140.054 .0264183
1140.674 .0264876
1141.294 .0265565
1141.916 .0266149
1142.538 .0266624
1143.160 .0266420
1143.784 .0268559
1144.408 .0269399
1145.033 .0267608
