Measurement Sequence started on: 14-45-04-498
Integration time: 36
Scans to Average: 2 
>>>>>Begin Spectral Data<<<<<
433.946 .0402120
434.870 .0429388
435.793 .0397263
436.715 .0395560
437.635 .0386763
438.555 .0389785
439.473 .0386792
440.389 .0383777
441.305 .0382247
442.219 .0381134
443.132 .0386851
444.044 .0384492
444.954 .0383841
445.863 .0383291
446.771 .0383210
447.678 .0382966
448.584 .0382868
449.488 .0382913
450.391 .0383012
451.293 .0383144
452.194 .0383280
453.094 .0383409
453.992 .0383506
454.890 .0383558
455.786 .0383553
456.681 .0383484
457.575 .0383341
458.468 .0383122
459.360 .0382828
460.250 .0382466
461.140 .0382044
462.028 .0381571
462.915 .0381058
463.801 .0380512
464.687 .0379940
465.571 .0379348
466.454 .0378733
467.335 .0378100
468.216 .0377444
469.096 .0376762
469.975 .0376054
470.853 .0375322
471.729 .0374568
472.605 .0373800
473.479 .0373028
474.353 .0372256
475.226 .0371489
476.097 .0370730
476.968 .0369976
477.838 .0369225
478.706 .0368477
479.574 .0367729
480.441 .0366987
481.306 .0366257
482.171 .0365546
483.035 .0364865
483.898 .0364221
484.760 .0363621
485.621 .0363065
486.481 .0362555
487.340 .0362085
488.198 .0361650
489.055 .0361243
489.912 .0360856
490.767 .0360485
491.622 .0359963
492.476 .0359601
493.329 .0359242
494.180 .0358882
495.032 .0358515
495.882 .0358136
496.731 .0357736
497.580 .0357309
498.427 .0356851
499.274 .0356358
500.120 .0356025
500.965 .0355492
501.809 .0354939
502.653 .0354372
503.495 .0353801
504.337 .0353237
505.178 .0352684
506.018 .0352150
506.858 .0351638
507.696 .0351156
508.534 .0350706
509.371 .0350292
510.208 .0349918
511.043 .0349588
511.878 .0349304
512.712 .0349071
513.545 .0348890
514.377 .0348759
515.209 .0348673
516.040 .0348624
516.870 .0348601
517.699 .0348590
518.528 .0348577
519.356 .0348551
520.183 .0348499
521.010 .0348414
521.836 .0348287
522.661 .0348116
523.485 .0347904
524.309 .0347649
525.132 .0347348
525.954 .0347000
526.776 .0346601
527.597 .0346152
528.417 .0345648
529.237 .0345096
530.056 .0344499
530.874 .0343865
531.692 .0343202
532.508 .0342519
533.325 .0341828
534.140 .0341143
534.955 .0340469
535.770 .0339815
536.583 .0339186
537.397 .0338586
538.209 .0338020
539.021 .0337489
539.832 .0336994
540.643 .0336534
541.453 .0336108
542.262 .0335719
543.071 .0335365
543.879 .0335046
544.687 .0334762
545.494 .0334509
546.300 .0334284
547.106 .0334080
547.911 .0333892
548.716 .0333718
549.520 .0333555
550.323 .0333397
551.126 .0333242
551.929 .0333087
552.731 .0332935
553.532 .0332784
554.332 .0332632
555.133 .0332477
555.932 .0332318
556.731 .0332153
557.530 .0331978
558.328 .0331789
559.125 .0331588
559.922 .0331374
560.719 .0331147
561.515 .0330906
562.310 .0330654
563.105 .0330392
563.899 .0330121
564.693 .0329838
565.487 .0329543
566.280 .0329236
567.072 .0328917
567.864 .0328586
568.655 .0328247
569.446 .0327901
570.236 .0327547
571.026 .0327189
571.816 .0326825
572.605 .0326455
573.393 .0326080
574.181 .0325699
574.969 .0325317
575.756 .0324933
576.543 .0324550
577.329 .0324170
578.115 .0323797
578.900 .0323430
579.685 .0323071
580.469 .0322719
581.253 .0322377
582.036 .0322042
582.820 .0321717
583.602 .0321400
584.384 .0321094
585.166 .0320798
585.947 .0320512
586.728 .0320238
587.509 .0319975
588.289 .0319725
589.069 .0319485
589.848 .0319255
590.627 .0319032
591.405 .0318817
592.183 .0318605
592.961 .0318394
593.738 .0318184
594.515 .0317972
595.291 .0317757
596.067 .0317539
596.843 .0317319
597.618 .0317096
598.393 .0316754
599.167 .0316530
599.941 .0316306
600.715 .0316082
601.488 .0315856
602.261 .0315629
603.034 .0315401
603.806 .0315170
604.578 .0314938
605.349 .0314704
606.121 .0314472
606.891 .0314363
607.662 .0314136
608.432 .0313913
609.201 .0313695
609.971 .0313483
610.740 .0313277
611.508 .0313076
612.277 .0312882
613.045 .0312694
613.812 .0312511
614.579 .0312334
615.346 .0312163
616.113 .0311997
616.879 .0311837
617.645 .0311682
618.411 .0311533
619.176 .0311388
619.941 .0311246
620.705 .0311108
621.470 .0310972
622.233 .0310837
622.997 .0310703
623.760 .0310569
624.523 .0310433
625.286 .0310297
626.048 .0310158
626.810 .0310018
627.572 .0309876
628.333 .0309731
629.095 .0309584
629.855 .0309434
630.616 .0309281
631.376 .0309126
632.136 .0308967
632.895 .0308804
633.655 .0308637
634.414 .0308467
635.172 .0308293
635.931 .0308116
636.689 .0307936
637.447 .0307756
638.204 .0307574
638.962 .0307393
639.718 .0307213
640.475 .0307034
641.231 .0306856
641.988 .0306679
642.743 .0306504
643.499 .0306330
644.254 .0306159
645.009 .0305989
645.764 .0305823
646.518 .0305659
647.272 .0305498
648.026 .0305339
648.780 .0305183
649.533 .0305028
650.286 .0304874
651.039 .0304722
651.792 .0304570
652.544 .0304419
653.296 .0304270
654.048 .0304122
654.799 .0303975
655.550 .0303831
656.301 .0303688
657.052 .0303548
657.802 .0303410
658.552 .0303275
659.302 .0303141
660.052 .0303011
660.801 .0302883
661.550 .0302758
662.299 .0302635
663.048 .0302515
663.796 .0302397
664.544 .0302281
665.292 .0302168
666.040 .0302058
666.787 .0301950
667.534 .0301845
668.281 .0301742
669.028 .0301641
669.774 .0301541
670.521 .0301442
671.266 .0301344
672.012 .0301247
672.758 .0301151
673.503 .0301056
674.248 .0300962
674.992 .0300867
675.737 .0300771
676.481 .0300673
677.225 .0300572
677.969 .0300467
678.712 .0300357
679.455 .0300242
680.199 .0300124
680.941 .0300001
681.684 .0299876
682.426 .0299747
683.168 .0299615
683.910 .0299480
684.652 .0299342
685.393 .0299202
686.134 .0299059
686.875 .0298914
687.616 .0298769
688.356 .0298623
689.097 .0298478
689.837 .0298334
690.576 .0298192
691.316 .0298050
692.055 .0297910
692.794 .0297771
693.533 .0297633
694.272 .0297498
695.010 .0297365
695.748 .0297235
696.486 .0297109
697.224 .0296986
697.962 .0296866
698.699 .0296749
699.436 .0296634
700.173 .0296522
700.909 .0296411
701.646 .0296303
702.382 .0296198
703.118 .0296095
703.853 .0295995
704.589 .0295896
705.324 .0295798
706.059 .0295700
706.794 .0295602
707.529 .0295501
708.263 .0295400
708.997 .0295297
709.731 .0295194
710.465 .0295091
711.198 .0294988
711.931 .0294884
712.664 .0294779
713.397 .0294672
714.130 .0294563
714.862 .0294450
715.594 .0294335
716.326 .0294216
717.058 .0294094
717.789 .0293970
718.520 .0293844
719.251 .0293716
719.982 .0293585
720.713 .0293453
721.443 .0293318
722.173 .0293180
722.903 .0293040
723.633 .0292898
724.362 .0292753
725.091 .0292608
725.820 .0292461
726.549 .0292314
727.278 .0292168
728.006 .0292022
728.734 .0291878
729.462 .0291735
730.190 .0291596
730.917 .0291460
731.644 .0291328
732.371 .0291202
733.098 .0291079
733.825 .0290962
734.551 .0290849
735.277 .0290739
736.003 .0290632
736.728 .0290528
737.454 .0290428
738.179 .0290331
738.904 .0290237
739.629 .0290148
740.353 .0290063
741.077 .0289981
741.801 .0289902
742.525 .0289824
743.249 .0289747
743.972 .0289669
744.695 .0289590
745.418 .0289509
746.141 .0289427
746.863 .0289344
747.585 .0289258
748.307 .0289172
749.029 .0289084
749.750 .0288995
750.472 .0288903
751.193 .0288810
751.913 .0288714
752.634 .0288617
753.354 .0288518
754.074 .0288418
754.794 .0288317
755.514 .0288217
756.233 .0288117
756.952 .0288018
757.671 .0287919
758.390 .0287822
759.108 .0287726
759.826 .0287631
760.544 .0287538
761.262 .0287447
761.979 .0287358
762.697 .0287269
763.414 .0287182
764.130 .0287095
764.847 .0287009
765.563 .0286922
766.279 .0286835
766.995 .0286748
767.710 .0286661
768.426 .0286575
769.141 .0286489
769.855 .0286402
770.570 .0286316
771.284 .0286228
771.998 .0286139
772.712 .0286048
773.426 .0285956
774.139 .0285861
774.852 .0285765
775.565 .0285669
776.277 .0285572
776.990 .0285475
777.702 .0285378
778.414 .0285281
779.125 .0285184
779.836 .0285087
780.547 .0284991
781.258 .0284894
781.969 .0284797
782.679 .0284701
783.389 .0284560
784.099 .0284467
784.808 .0284376
785.517 .0284287
786.226 .0284199
786.935 .0284114
787.643 .0284029
788.352 .0283946
789.060 .0283865
789.767 .0283785
790.475 .0283707
791.182 .0283629
791.889 .0283594
792.595 .0283517
793.301 .0283440
794.008 .0283363
794.713 .0283285
795.419 .0283207
796.124 .0283128
796.829 .0283047
797.534 .0282966
798.238 .0282884
798.942 .0282801
799.646 .0282717
800.350 .0282632
801.053 .0282548
801.756 .0282463
802.459 .0282378
803.162 .0282294
803.864 .0282210
804.566 .0282128
805.267 .0282046
805.969 .0281965
806.670 .0281885
807.371 .0281806
808.071 .0281728
808.772 .0281651
809.472 .0281575
810.171 .0281499
810.871 .0281424
811.570 .0281349
812.269 .0281274
812.967 .0281199
813.666 .0281124
814.364 .0281048
815.061 .0280971
815.759 .0280893
816.456 .0280813
817.153 .0280732
817.849 .0280650
818.545 .0280565
819.241 .0280479
819.937 .0280390
820.632 .0280298
821.327 .0280204
822.022 .0280106
822.717 .0280006
823.411 .0279904
824.105 .0279799
824.798 .0279693
825.491 .0279585
826.184 .0279477
826.877 .0279369
827.569 .0279260
828.261 .0279153
828.953 .0279046
829.645 .0278940
830.336 .0278836
831.027 .0278733
831.717 .0278632
832.407 .0278533
833.097 .0278436
833.787 .0278342
834.476 .0278250
835.165 .0278160
835.854 .0278072
836.542 .0277985
837.230 .0277898
837.918 .0277813
838.605 .0277727
839.292 .0277642
839.979 .0277556
840.665 .0277470
841.352 .0277384
842.037 .0277296
842.723 .0277206
843.408 .0277115
844.093 .0277021
844.777 .0276924
845.462 .0276825
846.145 .0276724
846.829 .0276620
847.512 .0276514
848.195 .0276406
848.878 .0276295
849.560 .0276182
850.242 .0276067
850.923 .0275948
851.605 .0275826
852.286 .0275700
852.966 .0275570
853.646 .0275438
854.326 .0275301
855.006 .0275163
855.685 .0275022
856.364 .0274879
857.043 .0274735
857.721 .0274589
858.399 .0274443
859.077 .0274295
859.754 .0274147
860.431 .0273999
861.107 .0273850
861.784 .0273702
862.459 .0273555
863.135 .0273409
863.810 .0273265
864.485 .0273123
865.160 .0272984
865.834 .0272847
866.508 .0272713
867.181 .0272582
867.854 .0272455
868.527 .0272333
869.199 .0272215
869.872 .0272103
870.543 .0271995
871.215 .0271892
871.886 .0271793
872.557 .0271699
873.227 .0271610
873.897 .0271524
874.567 .0271443
875.236 .0271365
875.905 .0271291
876.573 .0271219
877.242 .0271150
877.909 .0271084
878.577 .0271019
879.244 .0270955
879.911 .0270891
880.577 .0270829
881.243 .0270766
881.909 .0270703
882.575 .0270640
883.240 .0270576
883.904 .0270511
884.569 .0270444
885.232 .0270375
885.896 .0270306
886.559 .0270236
887.222 .0270165
887.885 .0270094
888.547 .0270023
889.208 .0269952
889.870 .0269881
890.531 .0269810
891.192 .0269739
891.852 .0269668
892.512 .0269598
893.171 .0269528
893.830 .0269459
894.489 .0269391
895.148 .0269324
895.806 .0269259
896.464 .0269196
897.121 .0269134
897.778 .0269074
898.434 .0269017
899.091 .0268941
899.747 .0268889
900.402 .0268840
901.057 .0268793
901.712 .0268749
902.366 .0268705
903.020 .0268662
903.674 .0268620
904.327 .0268579
904.980 .0268536
905.633 .0268493
906.285 .0268450
906.936 .0268404
907.588 .0268376
908.239 .0268326
908.889 .0268272
909.540 .0268213
910.190 .0268150
910.839 .0268082
911.488 .0268009
912.137 .0267931
912.785 .0267849
913.433 .0267761
914.081 .0267669
914.728 .0267572
915.375 .0267470
916.021 .0267363
916.668 .0267251
917.313 .0267132
917.959 .0267009
918.604 .0266880
919.248 .0266746
919.892 .0266607
920.536 .0266464
921.180 .0266315
921.823 .0266162
922.465 .0266003
923.108 .0265839
923.750 .0265670
924.391 .0265496
925.032 .0265317
925.673 .0265135
926.313 .0264950
926.953 .0264762
927.593 .0264572
928.232 .0264379
928.871 .0264184
929.510 .0263986
930.148 .0263787
930.786 .0263585
931.423 .0263382
932.060 .0263179
932.697 .0262975
933.333 .0262771
933.969 .0262568
934.604 .0262365
935.239 .0262163
935.874 .0261960
936.508 .0261758
937.142 .0261557
937.776 .0261356
938.409 .0261157
939.042 .0260959
939.674 .0260762
940.306 .0260568
940.938 .0260377
941.569 .0260187
942.200 .0260001
942.830 .0259818
943.460 .0259638
944.090 .0259461
944.720 .0259289
945.349 .0259122
945.977 .0258958
946.606 .0258799
947.233 .0258643
947.861 .0258490
948.488 .0258338
949.115 .0258189
949.741 .0258041
950.367 .0257895
950.993 .0257751
951.618 .0257609
952.243 .0257469
952.868 .0257332
953.492 .0257196
954.115 .0257063
954.739 .0256932
955.362 .0256803
955.984 .0256675
956.607 .0256550
957.229 .0256427
957.850 .0256307
958.471 .0256189
959.092 .0256074
959.713 .0255961
960.333 .0255851
960.952 .0255743
961.572 .0255637
962.191 .0255534
962.809 .0255433
963.428 .0255336
964.045 .0255243
964.663 .0255154
965.280 .0255069
965.897 .0254988
966.513 .0254910
967.129 .0254836
967.745 .0254764
968.361 .0254695
968.976 .0254629
969.590 .0254566
970.205 .0254507
970.818 .0254451
971.432 .0254398
972.045 .0254348
972.658 .0254300
973.271 .0254254
973.883 .0254209
974.495 .0254165
975.106 .0254121
975.717 .0254080
976.328 .0254040
976.938 .0254004
977.548 .0253971
978.158 .0253941
978.768 .0253906
979.377 .0253883
979.985 .0253861
980.594 .0253842
981.202 .0253825
981.809 .0253812
982.417 .0253802
983.024 .0253797
983.631 .0253796
984.237 .0253799
984.843 .0253806
985.449 .0253814
986.054 .0253824
986.659 .0253834
987.264 .0253846
987.868 .0253854
988.472 .0253861
989.076 .0253869
989.679 .0253878
990.282 .0253889
990.885 .0253903
991.487 .0253919
992.090 .0253937
992.691 .0253956
993.293 .0253974
993.894 .0253990
994.495 .0254005
995.095 .0254017
995.696 .0254027
996.296 .0254035
996.895 .0254043
997.494 .0254050
998.093 .0254057
998.692 .0254063
999.291 .0254068
999.889 .0254071
1000.487 .0254071
1001.084 .0254067
1001.681 .0254060
1002.278 .0254051
1002.875 .0254039
1003.471 .0254026
1004.067 .0254013
1004.663 .0254000
1005.258 .0253987
1005.854 .0253974
1006.449 .0253961
1007.043 .0253946
1007.638 .0253930
1008.232 .0253912
1008.826 .0253891
1009.419 .0253869
1010.012 .0253846
1010.605 .0253821
1011.198 .0253795
1011.791 .0253769
1012.383 .0253741
1012.975 .0253712
1013.566 .0253681
1014.158 .0253649
1014.749 .0253615
1015.340 .0253580
1015.931 .0253544
1016.521 .0253506
1017.111 .0253467
1017.701 .0253427
1018.291 .0253386
1018.880 .0253344
1019.470 .0253300
1020.059 .0253256
1020.647 .0253210
1021.236 .0253165
1021.824 .0253118
1022.412 .0253072
1023.000 .0253025
1023.588 .0252978
1024.175 .0252931
1024.762 .0252882
1025.349 .0252833
1025.936 .0252783
1026.523 .0252734
1027.109 .0252685
1027.695 .0252637
1028.281 .0252592
1028.867 .0252549
1029.452 .0252509
1030.038 .0252471
1030.623 .0252436
1031.208 .0252403
1031.792 .0252370
1032.377 .0252339
1032.961 .0252309
1033.546 .0252279
1034.130 .0252250
1034.714 .0252222
1035.297 .0252194
1035.881 .0252167
1036.464 .0252140
1037.047 .0252112
1037.630 .0252083
1038.213 .0252052
1038.796 .0252019
1039.378 .0251984
1039.961 .0251948
1040.543 .0251910
1041.125 .0251870
1041.707 .0251829
1042.289 .0251786
1042.871 .0251742
1043.452 .0251697
1044.034 .0251651
1044.615 .0251602
1045.196 .0251552
1045.777 .0251500
1046.358 .0251446
1046.939 .0251392
1047.520 .0251336
1048.101 .0251280
1048.681 .0251222
1049.262 .0251163
1049.842 .0251103
1050.422 .0251041
1051.002 .0250977
1051.582 .0250910
1052.162 .0250841
1052.742 .0250769
1053.322 .0250695
1053.902 .0250619
1054.482 .0250543
1055.061 .0250467
1055.641 .0250390
1056.220 .0250313
1056.800 .0250237
1057.379 .0250159
1057.958 .0250081
1058.538 .0250001
1059.117 .0249918
1059.696 .0249833
1060.275 .0249745
1060.854 .0249655
1061.433 .0249564
1062.012 .0249471
1062.592 .0249377
1063.171 .0249282
1063.750 .0249186
1064.329 .0249089
1064.908 .0248990
1065.487 .0248889
1066.066 .0248788
1066.645 .0248687
1067.224 .0248586
1067.803 .0248488
1068.382 .0248395
1068.961 .0248306
1069.540 .0248222
1070.119 .0248145
1070.698 .0248074
1071.278 .0248008
1071.857 .0247949
1072.436 .0247895
1073.016 .0247848
1073.595 .0247807
1074.175 .0247774
1074.754 .0247748
1075.334 .0247731
1075.913 .0247723
1076.493 .0247722
1077.073 .0247729
1077.653 .0247742
1078.233 .0247760
1078.813 .0247782
1079.393 .0247805
1079.974 .0247831
1080.554 .0247856
1081.135 .0247882
1081.716 .0247907
1082.296 .0247931
1082.877 .0247954
1083.458 .0247975
1084.040 .0247995
1084.621 .0248012
1085.202 .0248027
1085.784 .0248041
1086.366 .0248054
1086.948 .0248067
1087.530 .0248080
1088.112 .0248093
1088.695 .0248108
1089.277 .0248126
1089.860 .0248147
1090.443 .0248171
1091.026 .0248200
1091.610 .0248234
1092.193 .0248272
1092.777 .0248314
1093.361 .0248360
1093.946 .0248406
1094.530 .0248451
1095.115 .0248495
1095.700 .0248536
1096.285 .0248573
1096.871 .0248608
1097.456 .0248641
1098.042 .0248674
1098.628 .0248707
1099.215 .0248742
1099.802 .0248778
1100.389 .0248816
1100.976 .0248855
1101.564 .0248894
1102.152 .0248930
1102.740 .0248964
1103.329 .0248995
1103.917 .0249024
1104.507 .0249052
1105.096 .0249080
1105.686 .0249108
1106.276 .0249137
1106.867 .0249166
1107.457 .0249195
1108.049 .0249222
1108.640 .0249246
1109.232 .0249268
1109.825 .0249289
1110.417 .0249312
1111.010 .0249340
1111.604 .0249377
1112.198 .0249424
1112.792 .0249485
1113.387 .0249559
1113.982 .0249647
1114.577 .0249744
1115.173 .0249850
1115.769 .0249963
1116.366 .0250081
1116.963 .0250206
1117.561 .0250339
1118.159 .0250481
1118.758 .0250636
1119.357 .0250803
1119.957 .0250984
1120.557 .0251179
1121.157 .0251388
1121.758 .0251607
1122.360 .0251838
1122.962 .0252078
1123.564 .0252325
1124.167 .0252434
1124.771 .0252693
1125.375 .0252960
1125.980 .0253237
1126.585 .0253522
1127.191 .0253813
1127.797 .0254108
1128.404 .0254404
1129.012 .0254699
1129.620 .0254992
1130.229 .0255283
1130.838 .0255570
1131.448 .0255855
1132.058 .0256138
1132.669 .0256570
1133.281 .0256870
1133.894 .0257177
1134.507 .0257453
1135.120 .0257734
1135.735 .0258127
1136.350 .0258521
1136.965 .0259079
1137.582 .0259328
1138.199 .0259555
1138.816 .0259759
1139.435 .0259947
1140.054 .0260108
1140.674 .0260368
1141.294 .0260674
1141.916 .0261035
1142.538 .0260333
1143.160 .0260726
1143.784 .0263985
1144.408 .0264318
1145.033 .0263797
