Measurement Sequence started on: 14-45-04-498
Integration time: 36
Scans to Average: 2 
>>>>>Begin Spectral Data<<<<<
433.946 .0632411
434.870 .0552680
435.793 .0530426
436.715 .0501267
437.635 .0496152
438.555 .0499580
439.473 .0488480
440.389 .0481242
441.305 .0475510
442.219 .0471044
443.132 .0477352
444.044 .0471937
444.954 .0467655
445.863 .0464878
446.771 .0462342
447.678 .0459598
448.584 .0457407
449.488 .0455564
450.391 .0453985
451.293 .0452595
452.194 .0451359
453.094 .0450240
453.992 .0449208
454.890 .0448237
455.786 .0447297
456.681 .0446379
457.575 .0445478
458.468 .0444590
459.360 .0443710
460.250 .0442829
461.140 .0441940
462.028 .0441040
462.915 .0440124
463.801 .0439195
464.687 .0438254
465.571 .0437309
466.454 .0436365
467.335 .0435431
468.216 .0434517
469.096 .0433634
469.975 .0432790
470.853 .0431990
471.729 .0431236
472.605 .0430532
473.479 .0429881
474.353 .0429282
475.226 .0428734
476.097 .0428238
476.968 .0427790
477.838 .0427389
478.706 .0427027
479.574 .0426703
480.441 .0426409
481.306 .0426142
482.171 .0425896
483.035 .0425665
483.898 .0425442
484.760 .0425221
485.621 .0424994
486.481 .0424757
487.340 .0424504
488.198 .0424231
489.055 .0423935
489.912 .0423620
490.767 .0423283
491.622 .0422701
492.476 .0422326
493.329 .0421937
494.180 .0421537
495.032 .0421126
495.882 .0420704
496.731 .0420271
497.580 .0419828
498.427 .0419377
499.274 .0418920
500.120 .0418702
500.965 .0418244
501.809 .0417786
502.653 .0417331
503.495 .0416880
504.337 .0416430
505.178 .0415978
506.018 .0415520
506.858 .0415048
507.696 .0414562
508.534 .0414062
509.371 .0413548
510.208 .0413026
511.043 .0412499
511.878 .0411972
512.712 .0411452
513.545 .0410941
514.377 .0410440
515.209 .0409948
516.040 .0409463
516.870 .0408981
517.699 .0408499
518.528 .0408021
519.356 .0407547
520.183 .0407084
521.010 .0406635
521.836 .0406204
522.661 .0405795
523.485 .0405408
524.309 .0405041
525.132 .0404688
525.954 .0404338
526.776 .0403980
527.597 .0403599
528.417 .0403185
529.237 .0402732
530.056 .0402236
530.874 .0401698
531.692 .0401124
532.508 .0400521
533.325 .0399896
534.140 .0399260
534.955 .0398614
535.770 .0397960
536.583 .0397293
537.397 .0396611
538.209 .0395910
539.021 .0395194
539.832 .0394470
540.643 .0393747
541.453 .0393042
542.262 .0392365
543.071 .0391729
543.879 .0391141
544.687 .0390606
545.494 .0390122
546.300 .0389680
547.106 .0389275
547.911 .0388896
548.716 .0388536
549.520 .0388190
550.323 .0387856
551.126 .0387530
551.929 .0387213
552.731 .0386906
553.532 .0386606
554.332 .0386310
555.133 .0386015
555.932 .0385716
556.731 .0385409
557.530 .0385084
558.328 .0384737
559.125 .0384365
559.922 .0383968
560.719 .0383546
561.515 .0383103
562.310 .0382644
563.105 .0382175
563.899 .0381701
564.693 .0381225
565.487 .0380750
566.280 .0380277
567.072 .0379804
567.864 .0379325
568.655 .0378841
569.446 .0378348
570.236 .0377848
571.026 .0377342
571.816 .0376832
572.605 .0376320
573.393 .0375808
574.181 .0375298
574.969 .0374789
575.756 .0374280
576.543 .0373770
577.329 .0373257
578.115 .0372742
578.900 .0372226
579.685 .0371711
580.469 .0371198
581.253 .0370692
582.036 .0370193
582.820 .0369701
583.602 .0369217
584.384 .0368741
585.166 .0368273
585.947 .0367812
586.728 .0367360
587.509 .0366917
588.289 .0366481
589.069 .0366054
589.848 .0365633
590.627 .0365219
591.405 .0364808
592.183 .0364401
592.961 .0363998
593.738 .0363598
594.515 .0363203
595.291 .0362812
596.067 .0362426
596.843 .0362043
597.618 .0361664
598.393 .0361103
599.167 .0360729
599.941 .0360358
600.715 .0359989
601.488 .0359623
602.261 .0359262
603.034 .0358907
603.806 .0358560
604.578 .0358219
605.349 .0357887
606.121 .0357561
606.891 .0357415
607.662 .0357101
608.432 .0356795
609.201 .0356496
609.971 .0356205
610.740 .0355922
611.508 .0355647
612.277 .0355379
613.045 .0355119
613.812 .0354866
614.579 .0354620
615.346 .0354378
616.113 .0354140
616.879 .0353907
617.645 .0353676
618.411 .0353446
619.176 .0353217
619.941 .0352986
620.705 .0352754
621.470 .0352520
622.233 .0352283
622.997 .0352043
623.760 .0351800
624.523 .0351556
625.286 .0351310
626.048 .0351063
626.810 .0350814
627.572 .0350566
628.333 .0350316
629.095 .0350066
629.855 .0349815
630.616 .0349563
631.376 .0349309
632.136 .0349054
632.895 .0348797
633.655 .0348538
634.414 .0348275
635.172 .0348010
635.931 .0347740
636.689 .0347465
637.447 .0347186
638.204 .0346902
638.962 .0346613
639.718 .0346319
640.475 .0346020
641.231 .0345715
641.988 .0345403
642.743 .0345084
643.499 .0344758
644.254 .0344424
645.009 .0344083
645.764 .0343734
646.518 .0343380
647.272 .0343022
648.026 .0342660
648.780 .0342298
649.533 .0341935
650.286 .0341575
651.039 .0341217
651.792 .0340864
652.544 .0340517
653.296 .0340176
654.048 .0339844
654.799 .0339521
655.550 .0339208
656.301 .0338907
657.052 .0338617
657.802 .0338339
658.552 .0338074
659.302 .0337821
660.052 .0337581
660.801 .0337352
661.550 .0337135
662.299 .0336927
663.048 .0336729
663.796 .0336539
664.544 .0336355
665.292 .0336177
666.040 .0336003
666.787 .0335832
667.534 .0335665
668.281 .0335500
669.028 .0335337
669.774 .0335178
670.521 .0335021
671.266 .0334866
672.012 .0334714
672.758 .0334564
673.503 .0334416
674.248 .0334268
674.992 .0334120
675.737 .0333973
676.481 .0333826
677.225 .0333678
677.969 .0333531
678.712 .0333384
679.455 .0333238
680.199 .0333094
680.941 .0332951
681.684 .0332809
682.426 .0332669
683.168 .0332530
683.910 .0332391
684.652 .0332254
685.393 .0332117
686.134 .0331981
686.875 .0331845
687.616 .0331709
688.356 .0331572
689.097 .0331433
689.837 .0331293
690.576 .0331151
691.316 .0331006
692.055 .0330859
692.794 .0330709
693.533 .0330556
694.272 .0330400
695.010 .0330242
695.748 .0330080
696.486 .0329914
697.224 .0329744
697.962 .0329570
698.699 .0329392
699.436 .0329211
700.173 .0329027
700.909 .0328842
701.646 .0328656
702.382 .0328469
703.118 .0328282
703.853 .0328095
704.589 .0327909
705.324 .0327723
706.059 .0327537
706.794 .0327351
707.529 .0327167
708.263 .0326983
708.997 .0326801
709.731 .0326619
710.465 .0326438
711.198 .0326258
711.931 .0326078
712.664 .0325898
713.397 .0325717
714.130 .0325536
714.862 .0325353
715.594 .0325169
716.326 .0324984
717.058 .0324797
717.789 .0324608
718.520 .0324416
719.251 .0324222
719.982 .0324025
720.713 .0323827
721.443 .0323627
722.173 .0323427
722.903 .0323227
723.633 .0323028
724.362 .0322832
725.091 .0322638
725.820 .0322449
726.549 .0322264
727.278 .0322084
728.006 .0321910
728.734 .0321741
729.462 .0321578
730.190 .0321421
730.917 .0321271
731.644 .0321128
732.371 .0320993
733.098 .0320866
733.825 .0320748
734.551 .0320638
735.277 .0320537
736.003 .0320444
736.728 .0320359
737.454 .0320281
738.179 .0320210
738.904 .0320144
739.629 .0320083
740.353 .0320027
741.077 .0319975
741.801 .0319926
742.525 .0319879
743.249 .0319835
743.972 .0319792
744.695 .0319750
745.418 .0319709
746.141 .0319668
746.863 .0319628
747.585 .0319587
748.307 .0319545
749.029 .0319501
749.750 .0319454
750.472 .0319403
751.193 .0319349
751.913 .0319290
752.634 .0319227
753.354 .0319159
754.074 .0319088
754.794 .0319014
755.514 .0318937
756.233 .0318857
756.952 .0318775
757.671 .0318691
758.390 .0318604
759.108 .0318514
759.826 .0318422
760.544 .0318327
761.262 .0318230
761.979 .0318131
762.697 .0318030
763.414 .0317928
764.130 .0317825
764.847 .0317722
765.563 .0317619
766.279 .0317516
766.995 .0317415
767.710 .0317314
768.426 .0317214
769.141 .0317116
769.855 .0317018
770.570 .0316919
771.284 .0316820
771.998 .0316719
772.712 .0316617
773.426 .0316512
774.139 .0316406
774.852 .0316297
775.565 .0316185
776.277 .0316071
776.990 .0315954
777.702 .0315834
778.414 .0315711
779.125 .0315585
779.836 .0315456
780.547 .0315322
781.258 .0315185
781.969 .0315043
782.679 .0314897
783.389 .0314660
784.099 .0314503
784.808 .0314342
785.517 .0314178
786.226 .0314012
786.935 .0313844
787.643 .0313675
788.352 .0313506
789.060 .0313336
789.767 .0313166
790.475 .0312997
791.182 .0312827
791.889 .0312746
792.595 .0312579
793.301 .0312414
794.008 .0312251
794.713 .0312090
795.419 .0311932
796.124 .0311777
796.829 .0311624
797.534 .0311475
798.238 .0311329
798.942 .0311188
799.646 .0311051
800.350 .0310920
801.053 .0310794
801.756 .0310674
802.459 .0310559
803.162 .0310448
803.864 .0310341
804.566 .0310236
805.267 .0310133
805.969 .0310032
806.670 .0309932
807.371 .0309835
808.071 .0309739
808.772 .0309645
809.472 .0309553
810.171 .0309461
810.871 .0309371
811.570 .0309280
812.269 .0309189
812.967 .0309097
813.666 .0309003
814.364 .0308909
815.061 .0308815
815.759 .0308720
816.456 .0308626
817.153 .0308531
817.849 .0308437
818.545 .0308342
819.241 .0308247
819.937 .0308152
820.632 .0308056
821.327 .0307961
822.022 .0307867
822.717 .0307773
823.411 .0307681
824.105 .0307591
824.798 .0307502
825.491 .0307416
826.184 .0307331
826.877 .0307249
827.569 .0307169
828.261 .0307091
828.953 .0307016
829.645 .0306945
830.336 .0306877
831.027 .0306813
831.717 .0306754
832.407 .0306699
833.097 .0306648
833.787 .0306600
834.476 .0306555
835.165 .0306513
835.854 .0306472
836.542 .0306432
837.230 .0306393
837.918 .0306354
838.605 .0306315
839.292 .0306276
839.979 .0306236
840.665 .0306195
841.352 .0306151
842.037 .0306104
842.723 .0306055
843.408 .0306002
844.093 .0305947
844.777 .0305888
845.462 .0305825
846.145 .0305760
846.829 .0305691
847.512 .0305619
848.195 .0305543
848.878 .0305464
849.560 .0305381
850.242 .0305293
850.923 .0305200
851.605 .0305102
852.286 .0304999
852.966 .0304891
853.646 .0304778
854.326 .0304661
855.006 .0304540
855.685 .0304415
856.364 .0304287
857.043 .0304155
857.721 .0304020
858.399 .0303882
859.077 .0303740
859.754 .0303596
860.431 .0303448
861.107 .0303299
861.784 .0303147
862.459 .0302994
863.135 .0302841
863.810 .0302686
864.485 .0302532
865.160 .0302376
865.834 .0302219
866.508 .0302061
867.181 .0301901
867.854 .0301740
868.527 .0301578
869.199 .0301414
869.872 .0301248
870.543 .0301080
871.215 .0300910
871.886 .0300738
872.557 .0300564
873.227 .0300387
873.897 .0300208
874.567 .0300026
875.236 .0299842
875.905 .0299656
876.573 .0299467
877.242 .0299276
877.909 .0299082
878.577 .0298884
879.244 .0298682
879.911 .0298477
880.577 .0298268
881.243 .0298057
881.909 .0297844
882.575 .0297629
883.240 .0297415
883.904 .0297202
884.569 .0296990
885.232 .0296780
885.896 .0296574
886.559 .0296372
887.222 .0296173
887.885 .0295980
888.547 .0295791
889.208 .0295609
889.870 .0295434
890.531 .0295264
891.192 .0295102
891.852 .0294946
892.512 .0294796
893.171 .0294652
893.830 .0294513
894.489 .0294379
895.148 .0294249
895.806 .0294122
896.464 .0294000
897.121 .0293880
897.778 .0293763
898.434 .0293648
899.091 .0293480
899.747 .0293373
900.402 .0293268
901.057 .0293166
901.712 .0293066
902.366 .0292968
903.020 .0292873
903.674 .0292779
904.327 .0292687
904.980 .0292597
905.633 .0292507
906.285 .0292418
906.936 .0292330
907.588 .0292293
908.239 .0292204
908.889 .0292115
909.540 .0292025
910.190 .0291934
910.839 .0291843
911.488 .0291751
912.137 .0291659
912.785 .0291568
913.433 .0291477
914.081 .0291386
914.728 .0291295
915.375 .0291203
916.021 .0291111
916.668 .0291017
917.313 .0290922
917.959 .0290826
918.604 .0290727
919.248 .0290626
919.892 .0290522
920.536 .0290415
921.180 .0290305
921.823 .0290191
922.465 .0290072
923.108 .0289949
923.750 .0289823
924.391 .0289693
925.032 .0289562
925.673 .0289429
926.313 .0289295
926.953 .0289161
927.593 .0289028
928.232 .0288896
928.871 .0288766
929.510 .0288639
930.148 .0288514
930.786 .0288394
931.423 .0288276
932.060 .0288163
932.697 .0288053
933.333 .0287945
933.969 .0287840
934.604 .0287735
935.239 .0287631
935.874 .0287526
936.508 .0287420
937.142 .0287313
937.776 .0287205
938.409 .0287095
939.042 .0286985
939.674 .0286874
940.306 .0286761
940.938 .0286646
941.569 .0286529
942.200 .0286409
942.830 .0286286
943.460 .0286160
944.090 .0286032
944.720 .0285902
945.349 .0285770
945.977 .0285637
946.606 .0285503
947.233 .0285366
947.861 .0285228
948.488 .0285086
949.115 .0284942
949.741 .0284795
950.367 .0284645
950.993 .0284492
951.618 .0284338
952.243 .0284182
952.868 .0284025
953.492 .0283868
954.115 .0283711
954.739 .0283555
955.362 .0283400
955.984 .0283246
956.607 .0283093
957.229 .0282942
957.850 .0282794
958.471 .0282649
959.092 .0282507
959.713 .0282368
960.333 .0282233
960.952 .0282100
961.572 .0281970
962.191 .0281843
962.809 .0281717
963.428 .0281594
964.045 .0281473
964.663 .0281353
965.280 .0281237
965.897 .0281124
966.513 .0281013
967.129 .0280904
967.745 .0280798
968.361 .0280693
968.976 .0280590
969.590 .0280488
970.205 .0280388
970.818 .0280288
971.432 .0280191
972.045 .0280094
972.658 .0279999
973.271 .0279905
973.883 .0279811
974.495 .0279716
975.106 .0279620
975.717 .0279522
976.328 .0279422
976.938 .0279319
977.548 .0279213
978.158 .0279104
978.768 .0278921
979.377 .0278804
979.985 .0278684
980.594 .0278560
981.202 .0278432
981.809 .0278300
982.417 .0278164
983.024 .0278024
983.631 .0277881
984.237 .0277736
984.843 .0277590
985.449 .0277442
986.054 .0277293
986.659 .0277143
987.264 .0277069
987.868 .0276919
988.472 .0276769
989.076 .0276618
989.679 .0276466
990.282 .0276315
990.885 .0276164
991.487 .0276014
992.090 .0275865
992.691 .0275718
993.293 .0275573
993.894 .0275429
994.495 .0275287
995.095 .0275147
995.696 .0275007
996.296 .0274868
996.895 .0274731
997.494 .0274595
998.093 .0274461
998.692 .0274330
999.291 .0274201
999.889 .0274074
1000.487 .0273949
1001.084 .0273826
1001.681 .0273705
1002.278 .0273584
1002.875 .0273465
1003.471 .0273348
1004.067 .0273232
1004.663 .0273117
1005.258 .0273004
1005.854 .0272892
1006.449 .0272781
1007.043 .0272671
1007.638 .0272560
1008.232 .0272448
1008.826 .0272336
1009.419 .0272222
1010.012 .0272107
1010.605 .0271990
1011.198 .0271873
1011.791 .0271756
1012.383 .0271640
1012.975 .0271524
1013.566 .0271409
1014.158 .0271295
1014.749 .0271183
1015.340 .0271073
1015.931 .0270965
1016.521 .0270860
1017.111 .0270758
1017.701 .0270661
1018.291 .0270568
1018.880 .0270481
1019.470 .0270400
1020.059 .0270325
1020.647 .0270256
1021.236 .0270193
1021.824 .0270135
1022.412 .0270083
1023.000 .0270035
1023.588 .0269993
1024.175 .0269957
1024.762 .0269927
1025.349 .0269903
1025.936 .0269887
1026.523 .0269877
1027.109 .0269874
1027.695 .0269877
1028.281 .0269885
1028.867 .0269898
1029.452 .0269916
1030.038 .0269938
1030.623 .0269963
1031.208 .0269992
1031.792 .0270022
1032.377 .0270055
1032.961 .0270087
1033.546 .0270118
1034.130 .0270146
1034.714 .0270169
1035.297 .0270187
1035.881 .0270198
1036.464 .0270201
1037.047 .0270198
1037.630 .0270189
1038.213 .0270175
1038.796 .0270157
1039.378 .0270135
1039.961 .0270110
1040.543 .0270083
1041.125 .0270053
1041.707 .0270022
1042.289 .0269989
1042.871 .0269956
1043.452 .0269923
1044.034 .0269892
1044.615 .0269862
1045.196 .0269834
1045.777 .0269809
1046.358 .0269788
1046.939 .0269769
1047.520 .0269753
1048.101 .0269740
1048.681 .0269729
1049.262 .0269722
1049.842 .0269718
1050.422 .0269718
1051.002 .0269723
1051.582 .0269733
1052.162 .0269749
1052.742 .0269770
1053.322 .0269798
1053.902 .0269830
1054.482 .0269868
1055.061 .0269909
1055.641 .0269954
1056.220 .0270000
1056.800 .0270048
1057.379 .0270095
1057.958 .0270141
1058.538 .0270185
1059.117 .0270227
1059.696 .0270266
1060.275 .0270303
1060.854 .0270338
1061.433 .0270371
1062.012 .0270403
1062.592 .0270435
1063.171 .0270467
1063.750 .0270500
1064.329 .0270534
1064.908 .0270570
1065.487 .0270608
1066.066 .0270649
1066.645 .0270693
1067.224 .0270740
1067.803 .0270790
1068.382 .0270842
1068.961 .0270896
1069.540 .0270950
1070.119 .0271002
1070.698 .0271051
1071.278 .0271096
1071.857 .0271134
1072.436 .0271165
1073.016 .0271190
1073.595 .0271209
1074.175 .0271224
1074.754 .0271234
1075.334 .0271242
1075.913 .0271247
1076.493 .0271248
1077.073 .0271245
1077.653 .0271237
1078.233 .0271222
1078.813 .0271201
1079.393 .0271173
1079.974 .0271138
1080.554 .0271098
1081.135 .0271051
1081.716 .0271000
1082.296 .0270944
1082.877 .0270883
1083.458 .0270817
1084.040 .0270748
1084.621 .0270675
1085.202 .0270602
1085.784 .0270529
1086.366 .0270458
1086.948 .0270392
1087.530 .0270330
1088.112 .0270274
1088.695 .0270226
1089.277 .0270185
1089.860 .0270153
1090.443 .0270130
1091.026 .0270116
1091.610 .0270111
1092.193 .0270114
1092.777 .0270127
1093.361 .0270147
1093.946 .0270174
1094.530 .0270205
1095.115 .0270239
1095.700 .0270276
1096.285 .0270315
1096.871 .0270357
1097.456 .0270404
1098.042 .0270456
1098.628 .0270514
1099.215 .0270578
1099.802 .0270649
1100.389 .0270725
1100.976 .0270804
1101.564 .0270884
1102.152 .0270964
1102.740 .0271044
1103.329 .0271123
1103.917 .0271204
1104.507 .0271287
1105.096 .0271375
1105.686 .0271467
1106.276 .0271564
1106.867 .0271667
1107.457 .0271773
1108.049 .0271883
1108.640 .0271995
1109.232 .0272110
1109.825 .0272228
1110.417 .0272352
1111.010 .0272482
1111.604 .0272621
1112.198 .0272769
1112.792 .0272925
1113.387 .0273087
1113.982 .0273252
1114.577 .0273416
1115.173 .0273576
1115.769 .0273730
1116.366 .0273876
1116.963 .0274014
1117.561 .0274146
1118.159 .0274273
1118.758 .0274398
1119.357 .0274520
1119.957 .0274640
1120.557 .0274760
1121.157 .0274879
1121.758 .0274999
1122.360 .0275120
1122.962 .0275243
1123.564 .0275371
1124.167 .0275436
1124.771 .0275566
1125.375 .0275704
1125.980 .0275849
1126.585 .0276001
1127.191 .0276159
1127.797 .0276323
1128.404 .0276492
1129.012 .0276669
1129.620 .0276854
1130.229 .0277050
1130.838 .0277259
1131.448 .0277483
1132.058 .0277724
1132.669 .0278069
1133.281 .0278366
1133.894 .0278695
1134.507 .0279005
1135.120 .0279382
1135.735 .0279812
1136.350 .0280295
1136.965 .0280061
1137.582 .0280516
1138.199 .0280973
1138.816 .0281465
1139.435 .0281949
1140.054 .0282473
1140.674 .0283038
1141.294 .0283697
1141.916 .0284553
1142.538 .0284004
1143.160 .0285837
1143.784 .0287300
1144.408 .0288746
1145.033 .0292704
