Measurement Sequence started on: 14-45-04-498
Integration time: 36
Scans to Average: 2 
>>>>>Begin Spectral Data<<<<<
433.946 .0491012
434.870 .0500226
435.793 .0443939
436.715 .0422839
437.635 .0424223
438.555 .0423903
439.473 .0415432
440.389 .0408181
441.305 .0403487
442.219 .0399935
443.132 .0409288
444.044 .0403631
444.954 .0400933
445.863 .0399341
446.771 .0397672
447.678 .0396015
448.584 .0394797
449.488 .0393950
450.391 .0393339
451.293 .0392904
452.194 .0392610
453.094 .0392411
453.992 .0392257
454.890 .0392113
455.786 .0391951
456.681 .0391760
457.575 .0391531
458.468 .0391264
459.360 .0390961
460.250 .0390626
461.140 .0390262
462.028 .0389875
462.915 .0389467
463.801 .0389039
464.687 .0388592
465.571 .0388124
466.454 .0387637
467.335 .0387128
468.216 .0386594
469.096 .0386034
469.975 .0385449
470.853 .0384840
471.729 .0384209
472.605 .0383563
473.479 .0382908
474.353 .0382248
475.226 .0381590
476.097 .0380936
476.968 .0380288
477.838 .0379646
478.706 .0379011
479.574 .0378384
480.441 .0377768
481.306 .0377163
482.171 .0376577
483.035 .0376014
483.898 .0375482
484.760 .0374987
485.621 .0374535
486.481 .0374131
487.340 .0373777
488.198 .0373473
489.055 .0373213
489.912 .0372991
490.767 .0372802
491.622 .0372587
492.476 .0372424
493.329 .0372266
494.180 .0372106
495.032 .0371942
495.882 .0371769
496.731 .0371583
497.580 .0371382
498.427 .0371164
499.274 .0370925
500.120 .0370732
500.965 .0370459
501.809 .0370162
502.653 .0369843
503.495 .0369503
504.337 .0369144
505.178 .0368770
506.018 .0368388
506.858 .0368004
507.696 .0367630
508.534 .0367272
509.371 .0366936
510.208 .0366631
511.043 .0366361
511.878 .0366129
512.712 .0365937
513.545 .0365787
514.377 .0365677
515.209 .0365607
516.040 .0365572
516.870 .0365564
517.699 .0365579
518.528 .0365610
519.356 .0365647
520.183 .0365679
521.010 .0365697
521.836 .0365688
522.661 .0365644
523.485 .0365555
524.309 .0365409
525.132 .0365200
525.954 .0364924
526.776 .0364576
527.597 .0364153
528.417 .0363655
529.237 .0363084
530.056 .0362444
530.874 .0361740
531.692 .0360973
532.508 .0360151
533.325 .0359281
534.140 .0358370
534.955 .0357426
535.770 .0356456
536.583 .0355470
537.397 .0354478
538.209 .0353492
539.021 .0352524
539.832 .0351585
540.643 .0350689
541.453 .0349846
542.262 .0349060
543.071 .0348336
543.879 .0347672
544.687 .0347066
545.494 .0346516
546.300 .0346017
547.106 .0345560
547.911 .0345142
548.716 .0344759
549.520 .0344410
550.323 .0344091
551.126 .0343801
551.929 .0343536
552.731 .0343291
553.532 .0343063
554.332 .0342841
555.133 .0342619
555.932 .0342393
556.731 .0342153
557.530 .0341891
558.328 .0341605
559.125 .0341292
559.922 .0340950
560.719 .0340582
561.515 .0340190
562.310 .0339777
563.105 .0339343
563.899 .0338891
564.693 .0338420
565.487 .0337934
566.280 .0337435
567.072 .0336922
567.864 .0336398
568.655 .0335868
569.446 .0335336
570.236 .0334808
571.026 .0334288
571.816 .0333782
572.605 .0333292
573.393 .0332818
574.181 .0332362
574.969 .0331924
575.756 .0331505
576.543 .0331105
577.329 .0330721
578.115 .0330354
578.900 .0330003
579.685 .0329667
580.469 .0329346
581.253 .0329039
582.036 .0328744
582.820 .0328459
583.602 .0328183
584.384 .0327913
585.166 .0327649
585.947 .0327389
586.728 .0327135
587.509 .0326885
588.289 .0326642
589.069 .0326406
589.848 .0326178
590.627 .0325957
591.405 .0325743
592.183 .0325536
592.961 .0325333
593.738 .0325134
594.515 .0324937
595.291 .0324744
596.067 .0324553
596.843 .0324367
597.618 .0324184
598.393 .0323922
599.167 .0323743
599.941 .0323566
600.715 .0323389
601.488 .0323209
602.261 .0323025
603.034 .0322835
603.806 .0322638
604.578 .0322432
605.349 .0322218
606.121 .0321996
606.891 .0321863
607.662 .0321631
608.432 .0321394
609.201 .0321151
609.971 .0320903
610.740 .0320649
611.508 .0320389
612.277 .0320123
613.045 .0319851
613.812 .0319572
614.579 .0319287
615.346 .0318995
616.113 .0318699
616.879 .0318399
617.645 .0318096
618.411 .0317793
619.176 .0317488
619.941 .0317184
620.705 .0316880
621.470 .0316577
622.233 .0316273
622.997 .0315970
623.760 .0315668
624.523 .0315366
625.286 .0315066
626.048 .0314769
626.810 .0314476
627.572 .0314187
628.333 .0313904
629.095 .0313628
629.855 .0313360
630.616 .0313099
631.376 .0312848
632.136 .0312606
632.895 .0312374
633.655 .0312150
634.414 .0311936
635.172 .0311731
635.931 .0311535
636.689 .0311347
637.447 .0311168
638.204 .0310999
638.962 .0310839
639.718 .0310689
640.475 .0310548
641.231 .0310417
641.988 .0310293
642.743 .0310176
643.499 .0310063
644.254 .0309953
645.009 .0309844
645.764 .0309736
646.518 .0309628
647.272 .0309520
648.026 .0309411
648.780 .0309301
649.533 .0309190
650.286 .0309076
651.039 .0308960
651.792 .0308839
652.544 .0308714
653.296 .0308583
654.048 .0308445
654.799 .0308302
655.550 .0308153
656.301 .0307998
657.052 .0307838
657.802 .0307672
658.552 .0307501
659.302 .0307325
660.052 .0307142
660.801 .0306953
661.550 .0306758
662.299 .0306557
663.048 .0306351
663.796 .0306141
664.544 .0305928
665.292 .0305713
666.040 .0305496
666.787 .0305276
667.534 .0305056
668.281 .0304835
669.028 .0304615
669.774 .0304394
670.521 .0304175
671.266 .0303959
672.012 .0303746
672.758 .0303536
673.503 .0303330
674.248 .0303128
674.992 .0302930
675.737 .0302736
676.481 .0302546
677.225 .0302361
677.969 .0302180
678.712 .0302003
679.455 .0301831
680.199 .0301662
680.941 .0301497
681.684 .0301335
682.426 .0301175
683.168 .0301017
683.910 .0300861
684.652 .0300707
685.393 .0300557
686.134 .0300412
686.875 .0300270
687.616 .0300134
688.356 .0300001
689.097 .0299872
689.837 .0299746
690.576 .0299622
691.316 .0299500
692.055 .0299380
692.794 .0299262
693.533 .0299146
694.272 .0299034
695.010 .0298926
695.748 .0298823
696.486 .0298725
697.224 .0298631
697.962 .0298543
698.699 .0298459
699.436 .0298379
700.173 .0298304
700.909 .0298232
701.646 .0298165
702.382 .0298102
703.118 .0298042
703.853 .0297986
704.589 .0297933
705.324 .0297883
706.059 .0297835
706.794 .0297789
707.529 .0297744
708.263 .0297702
708.997 .0297661
709.731 .0297621
710.465 .0297581
711.198 .0297541
711.931 .0297500
712.664 .0297458
713.397 .0297413
714.130 .0297366
714.862 .0297316
715.594 .0297263
716.326 .0297207
717.058 .0297147
717.789 .0297082
718.520 .0297014
719.251 .0296940
719.982 .0296861
720.713 .0296775
721.443 .0296682
722.173 .0296582
722.903 .0296476
723.633 .0296363
724.362 .0296244
725.091 .0296121
725.820 .0295992
726.549 .0295860
727.278 .0295725
728.006 .0295587
728.734 .0295448
729.462 .0295308
730.190 .0295167
730.917 .0295025
731.644 .0294884
732.371 .0294743
733.098 .0294603
733.825 .0294463
734.551 .0294324
735.277 .0294186
736.003 .0294048
736.728 .0293912
737.454 .0293776
738.179 .0293641
738.904 .0293508
739.629 .0293376
740.353 .0293246
741.077 .0293117
741.801 .0292989
742.525 .0292861
743.249 .0292734
743.972 .0292606
744.695 .0292477
745.418 .0292346
746.141 .0292214
746.863 .0292081
747.585 .0291948
748.307 .0291815
749.029 .0291683
749.750 .0291552
750.472 .0291424
751.193 .0291297
751.913 .0291172
752.634 .0291049
753.354 .0290929
754.074 .0290812
754.794 .0290700
755.514 .0290592
756.233 .0290489
756.952 .0290394
757.671 .0290305
758.390 .0290223
759.108 .0290149
759.826 .0290082
760.544 .0290021
761.262 .0289966
761.979 .0289917
762.697 .0289873
763.414 .0289834
764.130 .0289800
764.847 .0289770
765.563 .0289744
766.279 .0289721
766.995 .0289700
767.710 .0289682
768.426 .0289666
769.141 .0289653
769.855 .0289641
770.570 .0289631
771.284 .0289623
771.998 .0289615
772.712 .0289607
773.426 .0289599
774.139 .0289589
774.852 .0289578
775.565 .0289566
776.277 .0289554
776.990 .0289542
777.702 .0289531
778.414 .0289521
779.125 .0289512
779.836 .0289504
780.547 .0289497
781.258 .0289489
781.969 .0289482
782.679 .0289473
783.389 .0289460
784.099 .0289448
784.808 .0289435
785.517 .0289422
786.226 .0289407
786.935 .0289390
787.643 .0289372
788.352 .0289351
789.060 .0289326
789.767 .0289298
790.475 .0289267
791.182 .0289231
791.889 .0289199
792.595 .0289157
793.301 .0289111
794.008 .0289062
794.713 .0289010
795.419 .0288954
796.124 .0288894
796.829 .0288830
797.534 .0288763
798.238 .0288691
798.942 .0288617
799.646 .0288539
800.350 .0288458
801.053 .0288374
801.756 .0288287
802.459 .0288197
803.162 .0288104
803.864 .0288007
804.566 .0287906
805.267 .0287802
805.969 .0287693
806.670 .0287582
807.371 .0287467
808.071 .0287348
808.772 .0287226
809.472 .0287100
810.171 .0286969
810.871 .0286833
811.570 .0286693
812.269 .0286547
812.967 .0286395
813.666 .0286239
814.364 .0286077
815.061 .0285910
815.759 .0285739
816.456 .0285563
817.153 .0285383
817.849 .0285200
818.545 .0285013
819.241 .0284823
819.937 .0284630
820.632 .0284435
821.327 .0284239
822.022 .0284041
822.717 .0283842
823.411 .0283643
824.105 .0283444
824.798 .0283247
825.491 .0283051
826.184 .0282858
826.877 .0282667
827.569 .0282480
828.261 .0282296
828.953 .0282116
829.645 .0281941
830.336 .0281770
831.027 .0281605
831.717 .0281444
832.407 .0281290
833.097 .0281143
833.787 .0281002
834.476 .0280869
835.165 .0280743
835.854 .0280624
836.542 .0280511
837.230 .0280404
837.918 .0280303
838.605 .0280207
839.292 .0280117
839.979 .0280033
840.665 .0279955
841.352 .0279884
842.037 .0279818
842.723 .0279757
843.408 .0279701
844.093 .0279648
844.777 .0279597
845.462 .0279548
846.145 .0279500
846.829 .0279453
847.512 .0279407
848.195 .0279363
848.878 .0279320
849.560 .0279279
850.242 .0279238
850.923 .0279197
851.605 .0279156
852.286 .0279114
852.966 .0279071
853.646 .0279027
854.326 .0278983
855.006 .0278939
855.685 .0278897
856.364 .0278856
857.043 .0278818
857.721 .0278781
858.399 .0278746
859.077 .0278713
859.754 .0278681
860.431 .0278650
861.107 .0278621
861.784 .0278593
862.459 .0278567
863.135 .0278543
863.810 .0278519
864.485 .0278497
865.160 .0278474
865.834 .0278450
866.508 .0278424
867.181 .0278396
867.854 .0278365
868.527 .0278331
869.199 .0278294
869.872 .0278255
870.543 .0278214
871.215 .0278170
871.886 .0278123
872.557 .0278073
873.227 .0278021
873.897 .0277964
874.567 .0277904
875.236 .0277841
875.905 .0277775
876.573 .0277705
877.242 .0277633
877.909 .0277559
878.577 .0277483
879.244 .0277405
879.911 .0277325
880.577 .0277242
881.243 .0277158
881.909 .0277072
882.575 .0276984
883.240 .0276894
883.904 .0276803
884.569 .0276711
885.232 .0276618
885.896 .0276525
886.559 .0276431
887.222 .0276335
887.885 .0276238
888.547 .0276140
889.208 .0276041
889.870 .0275940
890.531 .0275838
891.192 .0275735
891.852 .0275630
892.512 .0275524
893.171 .0275417
893.830 .0275308
894.489 .0275197
895.148 .0275084
895.806 .0274970
896.464 .0274854
897.121 .0274736
897.778 .0274617
898.434 .0274497
899.091 .0274316
899.747 .0274194
900.402 .0274071
901.057 .0273947
901.712 .0273821
902.366 .0273694
903.020 .0273567
903.674 .0273439
904.327 .0273309
904.980 .0273179
905.633 .0273046
906.285 .0272911
906.936 .0272773
907.588 .0272694
908.239 .0272549
908.889 .0272400
909.540 .0272246
910.190 .0272089
910.839 .0271928
911.488 .0271764
912.137 .0271598
912.785 .0271428
913.433 .0271256
914.081 .0271082
914.728 .0270903
915.375 .0270722
916.021 .0270538
916.668 .0270351
917.313 .0270161
917.959 .0269969
918.604 .0269776
919.248 .0269581
919.892 .0269383
920.536 .0269183
921.180 .0268980
921.823 .0268774
922.465 .0268565
923.108 .0268353
923.750 .0268138
924.391 .0267920
925.032 .0267702
925.673 .0267482
926.313 .0267262
926.953 .0267042
927.593 .0266822
928.232 .0266603
928.871 .0266383
929.510 .0266164
930.148 .0265946
930.786 .0265729
931.423 .0265514
932.060 .0265300
932.697 .0265089
933.333 .0264881
933.969 .0264675
934.604 .0264472
935.239 .0264272
935.874 .0264074
936.508 .0263879
937.142 .0263687
937.776 .0263498
938.409 .0263312
939.042 .0263129
939.674 .0262950
940.306 .0262775
940.938 .0262604
941.569 .0262438
942.200 .0262275
942.830 .0262118
943.460 .0261964
944.090 .0261816
944.720 .0261672
945.349 .0261532
945.977 .0261397
946.606 .0261267
947.233 .0261142
947.861 .0261022
948.488 .0260906
949.115 .0260795
949.741 .0260689
950.367 .0260588
950.993 .0260491
951.618 .0260398
952.243 .0260309
952.868 .0260224
953.492 .0260143
954.115 .0260066
954.739 .0259995
955.362 .0259929
955.984 .0259869
956.607 .0259814
957.229 .0259764
957.850 .0259720
958.471 .0259681
959.092 .0259646
959.713 .0259615
960.333 .0259587
960.952 .0259561
961.572 .0259538
962.191 .0259517
962.809 .0259498
963.428 .0259481
964.045 .0259465
964.663 .0259451
965.280 .0259438
965.897 .0259426
966.513 .0259415
967.129 .0259403
967.745 .0259392
968.361 .0259380
968.976 .0259368
969.590 .0259356
970.205 .0259345
970.818 .0259334
971.432 .0259325
972.045 .0259317
972.658 .0259310
973.271 .0259305
973.883 .0259300
974.495 .0259295
975.106 .0259290
975.717 .0259285
976.328 .0259278
976.938 .0259272
977.548 .0259264
978.158 .0259256
978.768 .0259241
979.377 .0259232
979.985 .0259222
980.594 .0259213
981.202 .0259203
981.809 .0259194
982.417 .0259186
983.024 .0259179
983.631 .0259173
984.237 .0259169
984.843 .0259167
985.449 .0259166
986.054 .0259167
986.659 .0259169
987.264 .0259171
987.868 .0259173
988.472 .0259173
989.076 .0259172
989.679 .0259169
990.282 .0259162
990.885 .0259153
991.487 .0259142
992.090 .0259127
992.691 .0259111
993.293 .0259093
993.894 .0259073
994.495 .0259052
995.095 .0259029
995.696 .0259003
996.296 .0258977
996.895 .0258948
997.494 .0258918
998.093 .0258886
998.692 .0258852
999.291 .0258816
999.889 .0258778
1000.487 .0258737
1001.084 .0258693
1001.681 .0258646
1002.278 .0258596
1002.875 .0258543
1003.471 .0258486
1004.067 .0258428
1004.663 .0258367
1005.258 .0258304
1005.854 .0258240
1006.449 .0258176
1007.043 .0258111
1007.638 .0258047
1008.232 .0257983
1008.826 .0257920
1009.419 .0257859
1010.012 .0257799
1010.605 .0257742
1011.198 .0257685
1011.791 .0257630
1012.383 .0257575
1012.975 .0257521
1013.566 .0257466
1014.158 .0257410
1014.749 .0257352
1015.340 .0257292
1015.931 .0257231
1016.521 .0257168
1017.111 .0257105
1017.701 .0257040
1018.291 .0256976
1018.880 .0256912
1019.470 .0256848
1020.059 .0256784
1020.647 .0256721
1021.236 .0256657
1021.824 .0256594
1022.412 .0256532
1023.000 .0256471
1023.588 .0256411
1024.175 .0256354
1024.762 .0256298
1025.349 .0256244
1025.936 .0256191
1026.523 .0256136
1027.109 .0256080
1027.695 .0256022
1028.281 .0255960
1028.867 .0255895
1029.452 .0255826
1030.038 .0255755
1030.623 .0255681
1031.208 .0255606
1031.792 .0255530
1032.377 .0255453
1032.961 .0255374
1033.546 .0255293
1034.130 .0255209
1034.714 .0255121
1035.297 .0255029
1035.881 .0254933
1036.464 .0254833
1037.047 .0254730
1037.630 .0254624
1038.213 .0254515
1038.796 .0254405
1039.378 .0254294
1039.961 .0254182
1040.543 .0254070
1041.125 .0253957
1041.707 .0253844
1042.289 .0253731
1042.871 .0253618
1043.452 .0253505
1044.034 .0253395
1044.615 .0253288
1045.196 .0253186
1045.777 .0253089
1046.358 .0252999
1046.939 .0252915
1047.520 .0252838
1048.101 .0252766
1048.681 .0252698
1049.262 .0252634
1049.842 .0252573
1050.422 .0252513
1051.002 .0252455
1051.582 .0252399
1052.162 .0252346
1052.742 .0252295
1053.322 .0252247
1053.902 .0252201
1054.482 .0252157
1055.061 .0252113
1055.641 .0252069
1056.220 .0252023
1056.800 .0251974
1057.379 .0251922
1057.958 .0251866
1058.538 .0251807
1059.117 .0251746
1059.696 .0251684
1060.275 .0251621
1060.854 .0251558
1061.433 .0251495
1062.012 .0251430
1062.592 .0251365
1063.171 .0251300
1063.750 .0251234
1064.329 .0251170
1064.908 .0251107
1065.487 .0251048
1066.066 .0250995
1066.645 .0250948
1067.224 .0250909
1067.803 .0250878
1068.382 .0250854
1068.961 .0250837
1069.540 .0250826
1070.119 .0250820
1070.698 .0250819
1071.278 .0250822
1071.857 .0250832
1072.436 .0250846
1073.016 .0250866
1073.595 .0250892
1074.175 .0250923
1074.754 .0250958
1075.334 .0250994
1075.913 .0251032
1076.493 .0251069
1077.073 .0251106
1077.653 .0251142
1078.233 .0251178
1078.813 .0251213
1079.393 .0251248
1079.974 .0251283
1080.554 .0251316
1081.135 .0251348
1081.716 .0251377
1082.296 .0251403
1082.877 .0251424
1083.458 .0251442
1084.040 .0251455
1084.621 .0251464
1085.202 .0251471
1085.784 .0251475
1086.366 .0251479
1086.948 .0251482
1087.530 .0251483
1088.112 .0251484
1088.695 .0251484
1089.277 .0251482
1089.860 .0251478
1090.443 .0251474
1091.026 .0251469
1091.610 .0251464
1092.193 .0251460
1092.777 .0251457
1093.361 .0251456
1093.946 .0251456
1094.530 .0251457
1095.115 .0251457
1095.700 .0251458
1096.285 .0251457
1096.871 .0251456
1097.456 .0251455
1098.042 .0251455
1098.628 .0251459
1099.215 .0251466
1099.802 .0251480
1100.389 .0251500
1100.976 .0251528
1101.564 .0251561
1102.152 .0251599
1102.740 .0251642
1103.329 .0251688
1103.917 .0251737
1104.507 .0251791
1105.096 .0251851
1105.686 .0251918
1106.276 .0251993
1106.867 .0252079
1107.457 .0252173
1108.049 .0252276
1108.640 .0252388
1109.232 .0252507
1109.825 .0252632
1110.417 .0252764
1111.010 .0252901
1111.604 .0253047
1112.198 .0253201
1112.792 .0253364
1113.387 .0253536
1113.982 .0253718
1114.577 .0253910
1115.173 .0254108
1115.769 .0254311
1116.366 .0254516
1116.963 .0254723
1117.561 .0254929
1118.159 .0255134
1118.758 .0255338
1119.357 .0255542
1119.957 .0255749
1120.557 .0255959
1121.157 .0256175
1121.758 .0256397
1122.360 .0256626
1122.962 .0256864
1123.564 .0257110
1124.167 .0257220
1124.771 .0257473
1125.375 .0257734
1125.980 .0258006
1126.585 .0258287
1127.191 .0258580
1127.797 .0258884
1128.404 .0259200
1129.012 .0259527
1129.620 .0259867
1130.229 .0260217
1130.838 .0260577
1131.448 .0260944
1132.058 .0261318
1132.669 .0261857
1133.281 .0262246
1133.894 .0262629
1134.507 .0263030
1135.120 .0263397
1135.735 .0263819
1136.350 .0264209
1136.965 .0264879
1137.582 .0265426
1138.199 .0265929
1138.816 .0266436
1139.435 .0266930
1140.054 .0267349
1140.674 .0267730
1141.294 .0268048
1141.916 .0268111
1142.538 .0268739
1143.160 .0268031
1143.784 .0269621
1144.408 .0268978
1145.033 .0264038
