Measurement Sequence started on: 14-45-04-498
Integration time: 36
Scans to Average: 2 
>>>>>Begin Spectral Data<<<<<
433.946 .0492139
434.870 .0425991
435.793 .0408840
436.715 .0407416
437.635 .0391236
438.555 .0393865
439.473 .0386969
440.389 .0383468
441.305 .0381298
442.219 .0379739
443.132 .0386524
444.044 .0384039
444.954 .0382443
445.863 .0380898
446.771 .0380171
447.678 .0379268
448.584 .0378686
449.488 .0378248
450.391 .0377881
451.293 .0377558
452.194 .0377237
453.094 .0376894
453.992 .0376525
454.890 .0376131
455.786 .0375696
456.681 .0375210
457.575 .0374664
458.468 .0374059
459.360 .0373397
460.250 .0372687
461.140 .0371938
462.028 .0371168
462.915 .0370391
463.801 .0369619
464.687 .0368857
465.571 .0368107
466.454 .0367365
467.335 .0366627
468.216 .0365887
469.096 .0365143
469.975 .0364397
470.853 .0363654
471.729 .0362921
472.605 .0362209
473.479 .0361525
474.353 .0360873
475.226 .0360255
476.097 .0359669
476.968 .0359108
477.838 .0358563
478.706 .0358028
479.574 .0357500
480.441 .0356983
481.306 .0356478
482.171 .0355994
483.035 .0355539
483.898 .0355119
484.760 .0354735
485.621 .0354384
486.481 .0354061
487.340 .0353755
488.198 .0353458
489.055 .0353160
489.912 .0352859
490.767 .0352555
491.622 .0352103
492.476 .0351805
493.329 .0351513
494.180 .0351225
495.032 .0350941
495.882 .0350656
496.731 .0350364
497.580 .0350061
498.427 .0349744
499.274 .0349412
500.120 .0349221
500.965 .0348878
501.809 .0348529
502.653 .0348176
503.495 .0347821
504.337 .0347468
505.178 .0347119
506.018 .0346773
506.858 .0346428
507.696 .0346085
508.534 .0345743
509.371 .0345399
510.208 .0345054
511.043 .0344709
511.878 .0344366
512.712 .0344025
513.545 .0343688
514.377 .0343354
515.209 .0343018
516.040 .0342677
516.870 .0342323
517.699 .0341951
518.528 .0341558
519.356 .0341139
520.183 .0340693
521.010 .0340221
521.836 .0339730
522.661 .0339222
523.485 .0338701
524.309 .0338168
525.132 .0337624
525.954 .0337067
526.776 .0336499
527.597 .0335916
528.417 .0335321
529.237 .0334718
530.056 .0334109
530.874 .0333497
531.692 .0332886
532.508 .0332279
533.325 .0331680
534.140 .0331090
534.955 .0330510
535.770 .0329940
536.583 .0329381
537.397 .0328833
538.209 .0328297
539.021 .0327771
539.832 .0327258
540.643 .0326759
541.453 .0326273
542.262 .0325805
543.071 .0325358
543.879 .0324936
544.687 .0324546
545.494 .0324190
546.300 .0323869
547.106 .0323580
547.911 .0323323
548.716 .0323093
549.520 .0322884
550.323 .0322695
551.126 .0322526
551.929 .0322377
552.731 .0322251
553.532 .0322151
554.332 .0322077
555.133 .0322028
555.932 .0322002
556.731 .0321990
557.530 .0321985
558.328 .0321979
559.125 .0321965
559.922 .0321935
560.719 .0321884
561.515 .0321805
562.310 .0321697
563.105 .0321559
563.899 .0321389
564.693 .0321190
565.487 .0320963
566.280 .0320713
567.072 .0320441
567.864 .0320147
568.655 .0319832
569.446 .0319495
570.236 .0319138
571.026 .0318761
571.816 .0318366
572.605 .0317958
573.393 .0317542
574.181 .0317124
574.969 .0316711
575.756 .0316304
576.543 .0315909
577.329 .0315527
578.115 .0315157
578.900 .0314798
579.685 .0314450
580.469 .0314112
581.253 .0313784
582.036 .0313469
582.820 .0313165
583.602 .0312874
584.384 .0312595
585.166 .0312329
585.947 .0312073
586.728 .0311827
587.509 .0311587
588.289 .0311354
589.069 .0311126
589.848 .0310901
590.627 .0310681
591.405 .0310465
592.183 .0310252
592.961 .0310044
593.738 .0309839
594.515 .0309636
595.291 .0309434
596.067 .0309234
596.843 .0309035
597.618 .0308836
598.393 .0308549
599.167 .0308356
599.941 .0308167
600.715 .0307982
601.488 .0307803
602.261 .0307629
603.034 .0307460
603.806 .0307295
604.578 .0307134
605.349 .0306974
606.121 .0306816
606.891 .0306734
607.662 .0306576
608.432 .0306418
609.201 .0306260
609.971 .0306102
610.740 .0305946
611.508 .0305790
612.277 .0305637
613.045 .0305486
613.812 .0305338
614.579 .0305191
615.346 .0305047
616.113 .0304902
616.879 .0304757
617.645 .0304609
618.411 .0304457
619.176 .0304301
619.941 .0304140
620.705 .0303975
621.470 .0303807
622.233 .0303634
622.997 .0303459
623.760 .0303280
624.523 .0303099
625.286 .0302914
626.048 .0302725
626.810 .0302532
627.572 .0302336
628.333 .0302135
629.095 .0301930
629.855 .0301723
630.616 .0301514
631.376 .0301304
632.136 .0301093
632.895 .0300884
633.655 .0300675
634.414 .0300469
635.172 .0300265
635.931 .0300064
636.689 .0299867
637.447 .0299673
638.204 .0299483
638.962 .0299296
639.718 .0299113
640.475 .0298934
641.231 .0298757
641.988 .0298583
642.743 .0298411
643.499 .0298242
644.254 .0298075
645.009 .0297911
645.764 .0297749
646.518 .0297590
647.272 .0297433
648.026 .0297278
648.780 .0297124
649.533 .0296970
650.286 .0296817
651.039 .0296665
651.792 .0296513
652.544 .0296361
653.296 .0296211
654.048 .0296062
654.799 .0295916
655.550 .0295772
656.301 .0295629
657.052 .0295489
657.802 .0295350
658.552 .0295211
659.302 .0295073
660.052 .0294936
660.801 .0294798
661.550 .0294660
662.299 .0294523
663.048 .0294385
663.796 .0294249
664.544 .0294112
665.292 .0293977
666.040 .0293843
666.787 .0293710
667.534 .0293578
668.281 .0293446
669.028 .0293317
669.774 .0293188
670.521 .0293060
671.266 .0292934
672.012 .0292809
672.758 .0292686
673.503 .0292565
674.248 .0292446
674.992 .0292330
675.737 .0292216
676.481 .0292105
677.225 .0291996
677.969 .0291889
678.712 .0291782
679.455 .0291677
680.199 .0291571
680.941 .0291465
681.684 .0291359
682.426 .0291251
683.168 .0291144
683.910 .0291036
684.652 .0290928
685.393 .0290820
686.134 .0290712
686.875 .0290605
687.616 .0290497
688.356 .0290390
689.097 .0290283
689.837 .0290175
690.576 .0290067
691.316 .0289959
692.055 .0289850
692.794 .0289742
693.533 .0289634
694.272 .0289526
695.010 .0289420
695.748 .0289314
696.486 .0289210
697.224 .0289107
697.962 .0289004
698.699 .0288902
699.436 .0288800
700.173 .0288696
700.909 .0288592
701.646 .0288486
702.382 .0288378
703.118 .0288268
703.853 .0288156
704.589 .0288042
705.324 .0287927
706.059 .0287810
706.794 .0287693
707.529 .0287574
708.263 .0287453
708.997 .0287332
709.731 .0287208
710.465 .0287083
711.198 .0286955
711.931 .0286826
712.664 .0286694
713.397 .0286560
714.130 .0286424
714.862 .0286286
715.594 .0286147
716.326 .0286007
717.058 .0285866
717.789 .0285723
718.520 .0285578
719.251 .0285431
719.982 .0285283
720.713 .0285132
721.443 .0284979
722.173 .0284826
722.903 .0284672
723.633 .0284518
724.362 .0284365
725.091 .0284214
725.820 .0284064
726.549 .0283918
727.278 .0283774
728.006 .0283634
728.734 .0283498
729.462 .0283366
730.190 .0283240
730.917 .0283118
731.644 .0283002
732.371 .0282892
733.098 .0282789
733.825 .0282691
734.551 .0282600
735.277 .0282516
736.003 .0282438
736.728 .0282367
737.454 .0282303
738.179 .0282244
738.904 .0282190
739.629 .0282140
740.353 .0282094
741.077 .0282050
741.801 .0282008
742.525 .0281968
743.249 .0281929
743.972 .0281891
744.695 .0281855
745.418 .0281820
746.141 .0281784
746.863 .0281748
747.585 .0281710
748.307 .0281670
749.029 .0281627
749.750 .0281580
750.472 .0281529
751.193 .0281474
751.913 .0281416
752.634 .0281353
753.354 .0281287
754.074 .0281216
754.794 .0281142
755.514 .0281063
756.233 .0280980
756.952 .0280894
757.671 .0280803
758.390 .0280710
759.108 .0280612
759.826 .0280512
760.544 .0280409
761.262 .0280303
761.979 .0280194
762.697 .0280082
763.414 .0279968
764.130 .0279851
764.847 .0279733
765.563 .0279614
766.279 .0279494
766.995 .0279374
767.710 .0279254
768.426 .0279133
769.141 .0279012
769.855 .0278889
770.570 .0278766
771.284 .0278642
771.998 .0278518
772.712 .0278393
773.426 .0278269
774.139 .0278145
774.852 .0278023
775.565 .0277902
776.277 .0277783
776.990 .0277666
777.702 .0277550
778.414 .0277437
779.125 .0277326
779.836 .0277218
780.547 .0277112
781.258 .0277010
781.969 .0276911
782.679 .0276814
783.389 .0276683
784.099 .0276594
784.808 .0276508
785.517 .0276424
786.226 .0276343
786.935 .0276265
787.643 .0276190
788.352 .0276118
789.060 .0276048
789.767 .0275981
790.475 .0275917
791.182 .0275853
791.889 .0275823
792.595 .0275761
793.301 .0275701
794.008 .0275643
794.713 .0275586
795.419 .0275530
796.124 .0275477
796.829 .0275426
797.534 .0275377
798.238 .0275329
798.942 .0275283
799.646 .0275238
800.350 .0275194
801.053 .0275152
801.756 .0275111
802.459 .0275071
803.162 .0275032
803.864 .0274994
804.566 .0274956
805.267 .0274920
805.969 .0274883
806.670 .0274846
807.371 .0274809
808.071 .0274772
808.772 .0274734
809.472 .0274695
810.171 .0274655
810.871 .0274613
811.570 .0274569
812.269 .0274522
812.967 .0274472
813.666 .0274418
814.364 .0274360
815.061 .0274298
815.759 .0274232
816.456 .0274162
817.153 .0274088
817.849 .0274010
818.545 .0273928
819.241 .0273842
819.937 .0273752
820.632 .0273658
821.327 .0273560
822.022 .0273457
822.717 .0273350
823.411 .0273239
824.105 .0273125
824.798 .0273006
825.491 .0272885
826.184 .0272760
826.877 .0272633
827.569 .0272504
828.261 .0272373
828.953 .0272240
829.645 .0272105
830.336 .0271969
831.027 .0271832
831.717 .0271694
832.407 .0271555
833.097 .0271415
833.787 .0271274
834.476 .0271134
835.165 .0270993
835.854 .0270853
836.542 .0270712
837.230 .0270572
837.918 .0270431
838.605 .0270291
839.292 .0270151
839.979 .0270011
840.665 .0269872
841.352 .0269734
842.037 .0269597
842.723 .0269460
843.408 .0269323
844.093 .0269187
844.777 .0269050
845.462 .0268914
846.145 .0268777
846.829 .0268640
847.512 .0268503
848.195 .0268366
848.878 .0268228
849.560 .0268091
850.242 .0267954
850.923 .0267816
851.605 .0267678
852.286 .0267540
852.966 .0267403
853.646 .0267267
854.326 .0267132
855.006 .0266999
855.685 .0266868
856.364 .0266739
857.043 .0266612
857.721 .0266489
858.399 .0266368
859.077 .0266251
859.754 .0266139
860.431 .0266031
861.107 .0265929
861.784 .0265833
862.459 .0265743
863.135 .0265659
863.810 .0265581
864.485 .0265509
865.160 .0265442
865.834 .0265382
866.508 .0265327
867.181 .0265277
867.854 .0265232
868.527 .0265191
869.199 .0265155
869.872 .0265121
870.543 .0265091
871.215 .0265062
871.886 .0265036
872.557 .0265012
873.227 .0264990
873.897 .0264970
874.567 .0264951
875.236 .0264933
875.905 .0264916
876.573 .0264897
877.242 .0264878
877.909 .0264856
878.577 .0264831
879.244 .0264804
879.911 .0264774
880.577 .0264741
881.243 .0264706
881.909 .0264669
882.575 .0264630
883.240 .0264590
883.904 .0264549
884.569 .0264506
885.232 .0264462
885.896 .0264416
886.559 .0264369
887.222 .0264321
887.885 .0264272
888.547 .0264222
889.208 .0264173
889.870 .0264124
890.531 .0264076
891.192 .0264029
891.852 .0263983
892.512 .0263936
893.171 .0263890
893.830 .0263842
894.489 .0263793
895.148 .0263743
895.806 .0263690
896.464 .0263636
897.121 .0263579
897.778 .0263520
898.434 .0263459
899.091 .0263354
899.747 .0263284
900.402 .0263211
901.057 .0263135
901.712 .0263054
902.366 .0262971
903.020 .0262883
903.674 .0262791
904.327 .0262695
904.980 .0262595
905.633 .0262490
906.285 .0262379
906.936 .0262262
907.588 .0262190
908.239 .0262066
908.889 .0261936
909.540 .0261802
910.190 .0261663
910.839 .0261519
911.488 .0261372
912.137 .0261222
912.785 .0261068
913.433 .0260912
914.081 .0260752
914.728 .0260589
915.375 .0260423
916.021 .0260254
916.668 .0260082
917.313 .0259907
917.959 .0259728
918.604 .0259546
919.248 .0259359
919.892 .0259169
920.536 .0258974
921.180 .0258775
921.823 .0258573
922.465 .0258367
923.108 .0258159
923.750 .0257948
924.391 .0257735
925.032 .0257520
925.673 .0257303
926.313 .0257085
926.953 .0256865
927.593 .0256645
928.232 .0256423
928.871 .0256202
929.510 .0255983
930.148 .0255765
930.786 .0255550
931.423 .0255338
932.060 .0255129
932.697 .0254922
933.333 .0254719
933.969 .0254518
934.604 .0254320
935.239 .0254125
935.874 .0253933
936.508 .0253746
937.142 .0253562
937.776 .0253384
938.409 .0253212
939.042 .0253045
939.674 .0252883
940.306 .0252725
940.938 .0252572
941.569 .0252422
942.200 .0252276
942.830 .0252132
943.460 .0251993
944.090 .0251857
944.720 .0251726
945.349 .0251600
945.977 .0251480
946.606 .0251364
947.233 .0251254
947.861 .0251148
948.488 .0251046
949.115 .0250948
949.741 .0250855
950.367 .0250766
950.993 .0250681
951.618 .0250601
952.243 .0250526
952.868 .0250456
953.492 .0250391
954.115 .0250331
954.739 .0250275
955.362 .0250223
955.984 .0250175
956.607 .0250132
957.229 .0250092
957.850 .0250058
958.471 .0250028
959.092 .0250004
959.713 .0249986
960.333 .0249972
960.952 .0249963
961.572 .0249957
962.191 .0249956
962.809 .0249958
963.428 .0249962
964.045 .0249970
964.663 .0249980
965.280 .0249992
965.897 .0250006
966.513 .0250022
967.129 .0250037
967.745 .0250052
968.361 .0250066
968.976 .0250079
969.590 .0250090
970.205 .0250101
970.818 .0250111
971.432 .0250120
972.045 .0250129
972.658 .0250137
973.271 .0250145
973.883 .0250151
974.495 .0250157
975.106 .0250161
975.717 .0250164
976.328 .0250166
976.938 .0250167
977.548 .0250167
978.158 .0250166
978.768 .0250155
979.377 .0250149
979.985 .0250141
980.594 .0250129
981.202 .0250114
981.809 .0250096
982.417 .0250075
983.024 .0250053
983.631 .0250029
984.237 .0250005
984.843 .0249980
985.449 .0249954
986.054 .0249928
986.659 .0249900
987.264 .0249881
987.868 .0249850
988.472 .0249817
989.076 .0249782
989.679 .0249745
990.282 .0249707
990.885 .0249666
991.487 .0249624
992.090 .0249578
992.691 .0249530
993.293 .0249477
993.894 .0249419
994.495 .0249356
995.095 .0249288
995.696 .0249214
996.296 .0249136
996.895 .0249054
997.494 .0248969
998.093 .0248882
998.692 .0248793
999.291 .0248703
999.889 .0248611
1000.487 .0248517
1001.084 .0248421
1001.681 .0248324
1002.278 .0248225
1002.875 .0248126
1003.471 .0248027
1004.067 .0247928
1004.663 .0247830
1005.258 .0247734
1005.854 .0247639
1006.449 .0247546
1007.043 .0247453
1007.638 .0247361
1008.232 .0247269
1008.826 .0247177
1009.419 .0247086
1010.012 .0246995
1010.605 .0246905
1011.198 .0246817
1011.791 .0246729
1012.383 .0246644
1012.975 .0246559
1013.566 .0246476
1014.158 .0246393
1014.749 .0246309
1015.340 .0246225
1015.931 .0246139
1016.521 .0246052
1017.111 .0245963
1017.701 .0245871
1018.291 .0245778
1018.880 .0245682
1019.470 .0245585
1020.059 .0245485
1020.647 .0245382
1021.236 .0245277
1021.824 .0245170
1022.412 .0245059
1023.000 .0244947
1023.588 .0244832
1024.175 .0244714
1024.762 .0244596
1025.349 .0244477
1025.936 .0244359
1026.523 .0244242
1027.109 .0244127
1027.695 .0244016
1028.281 .0243909
1028.867 .0243807
1029.452 .0243710
1030.038 .0243619
1030.623 .0243534
1031.208 .0243455
1031.792 .0243381
1032.377 .0243313
1032.961 .0243249
1033.546 .0243190
1034.130 .0243135
1034.714 .0243083
1035.297 .0243035
1035.881 .0242990
1036.464 .0242948
1037.047 .0242908
1037.630 .0242870
1038.213 .0242834
1038.796 .0242800
1039.378 .0242768
1039.961 .0242738
1040.543 .0242711
1041.125 .0242686
1041.707 .0242664
1042.289 .0242645
1042.871 .0242630
1043.452 .0242618
1044.034 .0242611
1044.615 .0242607
1045.196 .0242606
1045.777 .0242609
1046.358 .0242614
1046.939 .0242621
1047.520 .0242628
1048.101 .0242636
1048.681 .0242643
1049.262 .0242650
1049.842 .0242657
1050.422 .0242663
1051.002 .0242669
1051.582 .0242676
1052.162 .0242684
1052.742 .0242695
1053.322 .0242707
1053.902 .0242721
1054.482 .0242738
1055.061 .0242757
1055.641 .0242777
1056.220 .0242800
1056.800 .0242824
1057.379 .0242850
1057.958 .0242878
1058.538 .0242907
1059.117 .0242939
1059.696 .0242971
1060.275 .0243005
1060.854 .0243039
1061.433 .0243075
1062.012 .0243111
1062.592 .0243148
1063.171 .0243187
1063.750 .0243228
1064.329 .0243272
1064.908 .0243319
1065.487 .0243369
1066.066 .0243422
1066.645 .0243479
1067.224 .0243538
1067.803 .0243601
1068.382 .0243668
1068.961 .0243739
1069.540 .0243813
1070.119 .0243892
1070.698 .0243975
1071.278 .0244061
1071.857 .0244149
1072.436 .0244238
1073.016 .0244326
1073.595 .0244415
1074.175 .0244502
1074.754 .0244589
1075.334 .0244676
1075.913 .0244764
1076.493 .0244852
1077.073 .0244941
1077.653 .0245029
1078.233 .0245116
1078.813 .0245200
1079.393 .0245278
1079.974 .0245351
1080.554 .0245416
1081.135 .0245475
1081.716 .0245528
1082.296 .0245576
1082.877 .0245619
1083.458 .0245658
1084.040 .0245692
1084.621 .0245721
1085.202 .0245743
1085.784 .0245758
1086.366 .0245765
1086.948 .0245766
1087.530 .0245760
1088.112 .0245751
1088.695 .0245740
1089.277 .0245731
1089.860 .0245724
1090.443 .0245722
1091.026 .0245724
1091.610 .0245728
1092.193 .0245733
1092.777 .0245738
1093.361 .0245742
1093.946 .0245741
1094.530 .0245738
1095.115 .0245731
1095.700 .0245721
1096.285 .0245710
1096.871 .0245698
1097.456 .0245685
1098.042 .0245671
1098.628 .0245656
1099.215 .0245638
1099.802 .0245616
1100.389 .0245592
1100.976 .0245564
1101.564 .0245534
1102.152 .0245503
1102.740 .0245472
1103.329 .0245444
1103.917 .0245420
1104.507 .0245402
1105.096 .0245390
1105.686 .0245383
1106.276 .0245382
1106.867 .0245386
1107.457 .0245394
1108.049 .0245408
1108.640 .0245428
1109.232 .0245456
1109.825 .0245492
1110.417 .0245539
1111.010 .0245598
1111.604 .0245669
1112.198 .0245754
1112.792 .0245852
1113.387 .0245961
1113.982 .0246080
1114.577 .0246210
1115.173 .0246347
1115.769 .0246491
1116.366 .0246643
1116.963 .0246801
1117.561 .0246964
1118.159 .0247133
1118.758 .0247306
1119.357 .0247482
1119.957 .0247658
1120.557 .0247832
1121.157 .0248003
1121.758 .0248173
1122.360 .0248339
1122.962 .0248504
1123.564 .0248667
1124.167 .0248780
1124.771 .0248940
1125.375 .0249101
1125.980 .0249261
1126.585 .0249421
1127.191 .0249580
1127.797 .0249737
1128.404 .0249890
1129.012 .0250040
1129.620 .0250190
1130.229 .0250340
1130.838 .0250490
1131.448 .0250641
1132.058 .0250795
1132.669 .0251001
1133.281 .0251168
1133.894 .0251353
1134.507 .0251510
1135.120 .0251737
1135.735 .0251982
1136.350 .0252176
1136.965 .0252156
1137.582 .0252488
1138.199 .0252822
1138.816 .0253124
1139.435 .0253401
1140.054 .0253726
1140.674 .0254050
1141.294 .0254334
1141.916 .0254863
1142.538 .0254153
1143.160 .0256067
1143.784 .0256524
1144.408 .0255113
1145.033 .0262592
