Measurement Sequence started on: 14-45-04-498
Integration time: 36
Scans to Average: 2 
>>>>>Begin Spectral Data<<<<<
433.946 .0426349
434.870 .0461516
435.793 .0417682
436.715 .0429016
437.635 .0415936
438.555 .0415180
439.473 .0411181
440.389 .0406826
441.305 .0404275
442.219 .0401863
443.132 .0407740
444.044 .0404381
444.954 .0403309
445.863 .0401614
446.771 .0400572
447.678 .0399523
448.584 .0398633
449.488 .0397920
450.391 .0397287
451.293 .0396729
452.194 .0396203
453.094 .0395687
453.992 .0395156
454.890 .0394591
455.786 .0393976
456.681 .0393303
457.575 .0392566
458.468 .0391769
459.360 .0390918
460.250 .0390030
461.140 .0389117
462.028 .0388195
462.915 .0387279
463.801 .0386381
464.687 .0385508
465.571 .0384663
466.454 .0383840
467.335 .0383037
468.216 .0382249
469.096 .0381473
469.975 .0380713
470.853 .0379973
471.729 .0379260
472.605 .0378582
473.479 .0377942
474.353 .0377345
475.226 .0376783
476.097 .0376250
476.968 .0375731
477.838 .0375218
478.706 .0374699
479.574 .0374167
480.441 .0373622
481.306 .0373067
482.171 .0372508
483.035 .0371954
483.898 .0371409
484.760 .0370873
485.621 .0370348
486.481 .0369828
487.340 .0369307
488.198 .0368779
489.055 .0368237
489.912 .0367682
490.767 .0367117
491.622 .0366264
492.476 .0365704
493.329 .0365157
494.180 .0364628
495.032 .0364122
495.882 .0363642
496.731 .0363187
497.580 .0362760
498.427 .0362360
499.274 .0361984
500.120 .0361872
500.965 .0361540
501.809 .0361231
502.653 .0360946
503.495 .0360684
504.337 .0360446
505.178 .0360233
506.018 .0360043
506.858 .0359874
507.696 .0359723
508.534 .0359590
509.371 .0359472
510.208 .0359362
511.043 .0359257
511.878 .0359150
512.712 .0359035
513.545 .0358906
514.377 .0358758
515.209 .0358587
516.040 .0358387
516.870 .0358157
517.699 .0357896
518.528 .0357602
519.356 .0357274
520.183 .0356911
521.010 .0356514
521.836 .0356082
522.661 .0355613
523.485 .0355107
524.309 .0354565
525.132 .0353991
525.954 .0353387
526.776 .0352756
527.597 .0352105
528.417 .0351441
529.237 .0350771
530.056 .0350105
530.874 .0349450
531.692 .0348812
532.508 .0348200
533.325 .0347618
534.140 .0347071
534.955 .0346560
535.770 .0346088
536.583 .0345655
537.397 .0345260
538.209 .0344901
539.021 .0344576
539.832 .0344283
540.643 .0344024
541.453 .0343792
542.262 .0343584
543.071 .0343396
543.879 .0343224
544.687 .0343061
545.494 .0342899
546.300 .0342728
547.106 .0342538
547.911 .0342323
548.716 .0342076
549.520 .0341790
550.323 .0341463
551.126 .0341097
551.929 .0340692
552.731 .0340252
553.532 .0339783
554.332 .0339292
555.133 .0338786
555.932 .0338271
556.731 .0337754
557.530 .0337239
558.328 .0336733
559.125 .0336240
559.922 .0335763
560.719 .0335305
561.515 .0334869
562.310 .0334457
563.105 .0334074
563.899 .0333719
564.693 .0333393
565.487 .0333093
566.280 .0332820
567.072 .0332570
567.864 .0332338
568.655 .0332122
569.446 .0331919
570.236 .0331727
571.026 .0331539
571.816 .0331352
572.605 .0331165
573.393 .0330973
574.181 .0330772
574.969 .0330560
575.756 .0330334
576.543 .0330090
577.329 .0329829
578.115 .0329550
578.900 .0329257
579.685 .0328949
580.469 .0328631
581.253 .0328305
582.036 .0327974
582.820 .0327642
583.602 .0327310
584.384 .0326980
585.166 .0326652
585.947 .0326326
586.728 .0326002
587.509 .0325681
588.289 .0325364
589.069 .0325050
589.848 .0324741
590.627 .0324438
591.405 .0324139
592.183 .0323848
592.961 .0323561
593.738 .0323278
594.515 .0323000
595.291 .0322726
596.067 .0322456
596.843 .0322191
597.618 .0321931
598.393 .0321566
599.167 .0321324
599.941 .0321088
600.715 .0320860
601.488 .0320639
602.261 .0320425
603.034 .0320217
603.806 .0320016
604.578 .0319822
605.349 .0319635
606.121 .0319455
606.891 .0319383
607.662 .0319213
608.432 .0319049
609.201 .0318891
609.971 .0318737
610.740 .0318587
611.508 .0318438
612.277 .0318289
613.045 .0318140
613.812 .0317989
614.579 .0317837
615.346 .0317683
616.113 .0317529
616.879 .0317372
617.645 .0317213
618.411 .0317050
619.176 .0316884
619.941 .0316712
620.705 .0316534
621.470 .0316350
622.233 .0316160
622.997 .0315964
623.760 .0315762
624.523 .0315556
625.286 .0315346
626.048 .0315135
626.810 .0314922
627.572 .0314709
628.333 .0314497
629.095 .0314285
629.855 .0314074
630.616 .0313864
631.376 .0313656
632.136 .0313449
632.895 .0313241
633.655 .0313034
634.414 .0312827
635.172 .0312619
635.931 .0312412
636.689 .0312206
637.447 .0312001
638.204 .0311798
638.962 .0311598
639.718 .0311399
640.475 .0311202
641.231 .0311007
641.988 .0310812
642.743 .0310618
643.499 .0310423
644.254 .0310228
645.009 .0310033
645.764 .0309840
646.518 .0309649
647.272 .0309460
648.026 .0309276
648.780 .0309095
649.533 .0308919
650.286 .0308746
651.039 .0308578
651.792 .0308413
652.544 .0308252
653.296 .0308094
654.048 .0307939
654.799 .0307788
655.550 .0307641
656.301 .0307497
657.052 .0307358
657.802 .0307222
658.552 .0307089
659.302 .0306959
660.052 .0306831
660.801 .0306706
661.550 .0306582
662.299 .0306459
663.048 .0306336
663.796 .0306211
664.544 .0306085
665.292 .0305957
666.040 .0305825
666.787 .0305690
667.534 .0305551
668.281 .0305409
669.028 .0305264
669.774 .0305118
670.521 .0304970
671.266 .0304823
672.012 .0304674
672.758 .0304526
673.503 .0304376
674.248 .0304226
674.992 .0304074
675.737 .0303922
676.481 .0303768
677.225 .0303613
677.969 .0303458
678.712 .0303303
679.455 .0303150
680.199 .0302997
680.941 .0302846
681.684 .0302697
682.426 .0302550
683.168 .0302406
683.910 .0302263
684.652 .0302123
685.393 .0301984
686.134 .0301847
686.875 .0301713
687.616 .0301580
688.356 .0301450
689.097 .0301322
689.837 .0301197
690.576 .0301074
691.316 .0300954
692.055 .0300836
692.794 .0300720
693.533 .0300606
694.272 .0300494
695.010 .0300383
695.748 .0300272
696.486 .0300162
697.224 .0300051
697.962 .0299940
698.699 .0299829
699.436 .0299717
700.173 .0299605
700.909 .0299493
701.646 .0299381
702.382 .0299269
703.118 .0299157
703.853 .0299046
704.589 .0298935
705.324 .0298822
706.059 .0298708
706.794 .0298593
707.529 .0298475
708.263 .0298354
708.997 .0298232
709.731 .0298107
710.465 .0297981
711.198 .0297854
711.931 .0297725
712.664 .0297595
713.397 .0297464
714.130 .0297330
714.862 .0297195
715.594 .0297058
716.326 .0296918
717.058 .0296777
717.789 .0296635
718.520 .0296492
719.251 .0296347
719.982 .0296201
720.713 .0296053
721.443 .0295902
722.173 .0295749
722.903 .0295595
723.633 .0295439
724.362 .0295282
725.091 .0295124
725.820 .0294967
726.549 .0294810
727.278 .0294654
728.006 .0294498
728.734 .0294343
729.462 .0294189
730.190 .0294036
730.917 .0293883
731.644 .0293732
732.371 .0293583
733.098 .0293437
733.825 .0293295
734.551 .0293155
735.277 .0293019
736.003 .0292887
736.728 .0292759
737.454 .0292637
738.179 .0292519
738.904 .0292406
739.629 .0292298
740.353 .0292195
741.077 .0292095
741.801 .0291998
742.525 .0291902
743.249 .0291809
743.972 .0291715
744.695 .0291623
745.418 .0291531
746.141 .0291440
746.863 .0291351
747.585 .0291262
748.307 .0291175
749.029 .0291088
749.750 .0290999
750.472 .0290909
751.193 .0290818
751.913 .0290723
752.634 .0290627
753.354 .0290528
754.074 .0290428
754.794 .0290328
755.514 .0290227
756.233 .0290127
756.952 .0290028
757.671 .0289930
758.390 .0289833
759.108 .0289738
759.826 .0289644
760.544 .0289552
761.262 .0289462
761.979 .0289374
762.697 .0289288
763.414 .0289204
764.130 .0289122
764.847 .0289042
765.563 .0288965
766.279 .0288890
766.995 .0288817
767.710 .0288747
768.426 .0288678
769.141 .0288612
769.855 .0288546
770.570 .0288480
771.284 .0288414
771.998 .0288347
772.712 .0288279
773.426 .0288208
774.139 .0288136
774.852 .0288062
775.565 .0287987
776.277 .0287910
776.990 .0287831
777.702 .0287751
778.414 .0287667
779.125 .0287582
779.836 .0287494
780.547 .0287404
781.258 .0287313
781.969 .0287220
782.679 .0287125
783.389 .0286980
784.099 .0286884
784.808 .0286786
785.517 .0286687
786.226 .0286587
786.935 .0286484
787.643 .0286380
788.352 .0286274
789.060 .0286166
789.767 .0286057
790.475 .0285947
791.182 .0285836
791.889 .0285777
792.595 .0285663
793.301 .0285546
794.008 .0285428
794.713 .0285308
795.419 .0285186
796.124 .0285063
796.829 .0284938
797.534 .0284812
798.238 .0284685
798.942 .0284556
799.646 .0284426
800.350 .0284294
801.053 .0284162
801.756 .0284028
802.459 .0283894
803.162 .0283761
803.864 .0283627
804.566 .0283494
805.267 .0283362
805.969 .0283231
806.670 .0283100
807.371 .0282970
808.071 .0282842
808.772 .0282717
809.472 .0282594
810.171 .0282474
810.871 .0282358
811.570 .0282245
812.269 .0282137
812.967 .0282031
813.666 .0281930
814.364 .0281830
815.061 .0281734
815.759 .0281641
816.456 .0281550
817.153 .0281462
817.849 .0281378
818.545 .0281296
819.241 .0281218
819.937 .0281142
820.632 .0281068
821.327 .0280997
822.022 .0280927
822.717 .0280858
823.411 .0280791
824.105 .0280725
824.798 .0280659
825.491 .0280593
826.184 .0280528
826.877 .0280462
827.569 .0280396
828.261 .0280330
828.953 .0280263
829.645 .0280197
830.336 .0280129
831.027 .0280062
831.717 .0279994
832.407 .0279926
833.097 .0279857
833.787 .0279787
834.476 .0279716
835.165 .0279644
835.854 .0279571
836.542 .0279498
837.230 .0279424
837.918 .0279350
838.605 .0279276
839.292 .0279201
839.979 .0279126
840.665 .0279049
841.352 .0278969
842.037 .0278887
842.723 .0278801
843.408 .0278711
844.093 .0278617
844.777 .0278518
845.462 .0278415
846.145 .0278307
846.829 .0278196
847.512 .0278080
848.195 .0277960
848.878 .0277835
849.560 .0277706
850.242 .0277572
850.923 .0277434
851.605 .0277292
852.286 .0277145
852.966 .0276995
853.646 .0276841
854.326 .0276682
855.006 .0276519
855.685 .0276353
856.364 .0276183
857.043 .0276011
857.721 .0275838
858.399 .0275664
859.077 .0275491
859.754 .0275319
860.431 .0275150
861.107 .0274983
861.784 .0274819
862.459 .0274658
863.135 .0274500
863.810 .0274343
864.485 .0274190
865.160 .0274039
865.834 .0273890
866.508 .0273744
867.181 .0273600
867.854 .0273459
868.527 .0273320
869.199 .0273184
869.872 .0273049
870.543 .0272917
871.215 .0272786
871.886 .0272655
872.557 .0272526
873.227 .0272398
873.897 .0272270
874.567 .0272144
875.236 .0272018
875.905 .0271892
876.573 .0271767
877.242 .0271643
877.909 .0271519
878.577 .0271396
879.244 .0271274
879.911 .0271154
880.577 .0271035
881.243 .0270919
881.909 .0270805
882.575 .0270695
883.240 .0270587
883.904 .0270483
884.569 .0270384
885.232 .0270289
885.896 .0270198
886.559 .0270114
887.222 .0270035
887.885 .0269962
888.547 .0269896
889.208 .0269836
889.870 .0269782
890.531 .0269735
891.192 .0269693
891.852 .0269656
892.512 .0269624
893.171 .0269595
893.830 .0269569
894.489 .0269545
895.148 .0269522
895.806 .0269500
896.464 .0269477
897.121 .0269454
897.778 .0269431
898.434 .0269408
899.091 .0269366
899.747 .0269341
900.402 .0269316
901.057 .0269288
901.712 .0269258
902.366 .0269224
903.020 .0269186
903.674 .0269144
904.327 .0269097
904.980 .0269045
905.633 .0268989
906.285 .0268929
906.936 .0268865
907.588 .0268825
908.239 .0268755
908.889 .0268680
909.540 .0268600
910.190 .0268515
910.839 .0268426
911.488 .0268333
912.137 .0268238
912.785 .0268142
913.433 .0268043
914.081 .0267944
914.728 .0267843
915.375 .0267739
916.021 .0267634
916.668 .0267525
917.313 .0267412
917.959 .0267297
918.604 .0267178
919.248 .0267056
919.892 .0266931
920.536 .0266802
921.180 .0266670
921.823 .0266533
922.465 .0266391
923.108 .0266245
923.750 .0266094
924.391 .0265938
925.032 .0265778
925.673 .0265613
926.313 .0265445
926.953 .0265273
927.593 .0265098
928.232 .0264919
928.871 .0264736
929.510 .0264550
930.148 .0264360
930.786 .0264167
931.423 .0263971
932.060 .0263773
932.697 .0263572
933.333 .0263369
933.969 .0263163
934.604 .0262955
935.239 .0262744
935.874 .0262530
936.508 .0262313
937.142 .0262094
937.776 .0261874
938.409 .0261653
939.042 .0261431
939.674 .0261210
940.306 .0260990
940.938 .0260770
941.569 .0260550
942.200 .0260331
942.830 .0260112
943.460 .0259895
944.090 .0259679
944.720 .0259466
945.349 .0259257
945.977 .0259051
946.606 .0258849
947.233 .0258652
947.861 .0258458
948.488 .0258269
949.115 .0258083
949.741 .0257901
950.367 .0257722
950.993 .0257547
951.618 .0257377
952.243 .0257212
952.868 .0257052
953.492 .0256896
954.115 .0256745
954.739 .0256599
955.362 .0256457
955.984 .0256318
956.607 .0256182
957.229 .0256050
957.850 .0255921
958.471 .0255797
959.092 .0255678
959.713 .0255564
960.333 .0255455
960.952 .0255351
961.572 .0255252
962.191 .0255157
962.809 .0255065
963.428 .0254978
964.045 .0254894
964.663 .0254813
965.280 .0254735
965.897 .0254660
966.513 .0254587
967.129 .0254518
967.745 .0254451
968.361 .0254386
968.976 .0254323
969.590 .0254262
970.205 .0254203
970.818 .0254147
971.432 .0254092
972.045 .0254040
972.658 .0253992
973.271 .0253947
973.883 .0253905
974.495 .0253867
975.106 .0253832
975.717 .0253802
976.328 .0253775
976.938 .0253752
977.548 .0253733
978.158 .0253718
978.768 .0253708
979.377 .0253701
979.985 .0253697
980.594 .0253696
981.202 .0253697
981.809 .0253701
982.417 .0253707
983.024 .0253716
983.631 .0253726
984.237 .0253738
984.843 .0253752
985.449 .0253768
986.054 .0253784
986.659 .0253803
987.264 .0253815
987.868 .0253834
988.472 .0253853
989.076 .0253874
989.679 .0253894
990.282 .0253914
990.885 .0253934
991.487 .0253952
992.090 .0253969
992.691 .0253984
993.293 .0253997
993.894 .0254007
994.495 .0254015
995.095 .0254020
995.696 .0254023
996.296 .0254024
996.895 .0254022
997.494 .0254019
998.093 .0254014
998.692 .0254006
999.291 .0253995
999.889 .0253983
1000.487 .0253968
1001.084 .0253950
1001.681 .0253932
1002.278 .0253911
1002.875 .0253890
1003.471 .0253867
1004.067 .0253842
1004.663 .0253817
1005.258 .0253789
1005.854 .0253760
1006.449 .0253729
1007.043 .0253697
1007.638 .0253663
1008.232 .0253628
1008.826 .0253592
1009.419 .0253554
1010.012 .0253515
1010.605 .0253475
1011.198 .0253434
1011.791 .0253391
1012.383 .0253348
1012.975 .0253304
1013.566 .0253259
1014.158 .0253214
1014.749 .0253168
1015.340 .0253122
1015.931 .0253076
1016.521 .0253030
1017.111 .0252983
1017.701 .0252936
1018.291 .0252889
1018.880 .0252840
1019.470 .0252792
1020.059 .0252743
1020.647 .0252695
1021.236 .0252647
1021.824 .0252599
1022.412 .0252550
1023.000 .0252502
1023.588 .0252454
1024.175 .0252405
1024.762 .0252355
1025.349 .0252304
1025.936 .0252252
1026.523 .0252200
1027.109 .0252147
1027.695 .0252093
1028.281 .0252038
1028.867 .0251983
1029.452 .0251926
1030.038 .0251869
1030.623 .0251810
1031.208 .0251750
1031.792 .0251688
1032.377 .0251624
1032.961 .0251559
1033.546 .0251492
1034.130 .0251424
1034.714 .0251353
1035.297 .0251281
1035.881 .0251207
1036.464 .0251132
1037.047 .0251056
1037.630 .0250979
1038.213 .0250902
1038.796 .0250826
1039.378 .0250751
1039.961 .0250677
1040.543 .0250603
1041.125 .0250530
1041.707 .0250457
1042.289 .0250384
1042.871 .0250310
1043.452 .0250236
1044.034 .0250162
1044.615 .0250087
1045.196 .0250013
1045.777 .0249938
1046.358 .0249862
1046.939 .0249785
1047.520 .0249707
1048.101 .0249628
1048.681 .0249546
1049.262 .0249464
1049.842 .0249381
1050.422 .0249298
1051.002 .0249216
1051.582 .0249135
1052.162 .0249055
1052.742 .0248976
1053.322 .0248897
1053.902 .0248817
1054.482 .0248737
1055.061 .0248657
1055.641 .0248575
1056.220 .0248494
1056.800 .0248414
1057.379 .0248334
1057.958 .0248257
1058.538 .0248182
1059.117 .0248110
1059.696 .0248040
1060.275 .0247974
1060.854 .0247911
1061.433 .0247852
1062.012 .0247798
1062.592 .0247750
1063.171 .0247708
1063.750 .0247673
1064.329 .0247645
1064.908 .0247622
1065.487 .0247604
1066.066 .0247591
1066.645 .0247581
1067.224 .0247575
1067.803 .0247572
1068.382 .0247573
1068.961 .0247577
1069.540 .0247585
1070.119 .0247597
1070.698 .0247614
1071.278 .0247634
1071.857 .0247657
1072.436 .0247682
1073.016 .0247710
1073.595 .0247739
1074.175 .0247772
1074.754 .0247807
1075.334 .0247846
1075.913 .0247889
1076.493 .0247935
1077.073 .0247983
1077.653 .0248032
1078.233 .0248080
1078.813 .0248127
1079.393 .0248170
1079.974 .0248210
1080.554 .0248247
1081.135 .0248281
1081.716 .0248312
1082.296 .0248342
1082.877 .0248371
1083.458 .0248398
1084.040 .0248424
1084.621 .0248450
1085.202 .0248474
1085.784 .0248497
1086.366 .0248519
1086.948 .0248539
1087.530 .0248559
1088.112 .0248578
1088.695 .0248595
1089.277 .0248612
1089.860 .0248627
1090.443 .0248639
1091.026 .0248647
1091.610 .0248651
1092.193 .0248650
1092.777 .0248646
1093.361 .0248639
1093.946 .0248629
1094.530 .0248617
1095.115 .0248605
1095.700 .0248593
1096.285 .0248581
1096.871 .0248571
1097.456 .0248561
1098.042 .0248554
1098.628 .0248549
1099.215 .0248547
1099.802 .0248550
1100.389 .0248558
1100.976 .0248572
1101.564 .0248592
1102.152 .0248620
1102.740 .0248656
1103.329 .0248700
1103.917 .0248753
1104.507 .0248816
1105.096 .0248890
1105.686 .0248975
1106.276 .0249072
1106.867 .0249183
1107.457 .0249308
1108.049 .0249446
1108.640 .0249598
1109.232 .0249763
1109.825 .0249939
1110.417 .0250125
1111.010 .0250320
1111.604 .0250524
1112.198 .0250734
1112.792 .0250951
1113.387 .0251174
1113.982 .0251402
1114.577 .0251632
1115.173 .0251861
1115.769 .0252087
1116.366 .0252304
1116.963 .0252512
1117.561 .0252708
1118.159 .0252891
1118.758 .0253061
1119.357 .0253218
1119.957 .0253363
1120.557 .0253497
1121.157 .0253621
1121.758 .0253735
1122.360 .0253840
1122.962 .0253934
1123.564 .0254018
1124.167 .0254095
1124.771 .0254159
1125.375 .0254218
1125.980 .0254274
1126.585 .0254332
1127.191 .0254396
1127.797 .0254471
1128.404 .0254561
1129.012 .0254667
1129.620 .0254791
1130.229 .0254934
1130.838 .0255095
1131.448 .0255276
1132.058 .0255477
1132.669 .0255726
1133.281 .0255989
1133.894 .0256289
1134.507 .0256604
1135.120 .0256977
1135.735 .0257368
1136.350 .0257762
1136.965 .0257221
1137.582 .0257930
1138.199 .0258647
1138.816 .0259352
1139.435 .0260033
1140.054 .0260700
1140.674 .0261370
1141.294 .0262009
1141.916 .0262848
1142.538 .0263050
1143.160 .0264431
1143.784 .0264725
1144.408 .0264676
1145.033 .0271065
