Measurement Sequence started on: 14-45-04-498
Integration time: 36
Scans to Average: 2 
>>>>>Begin Spectral Data<<<<<
433.946 .0419361
434.870 .0426850
435.793 .0401318
436.715 .0396957
437.635 .0398619
438.555 .0410516
439.473 .0411566
440.389 .0412695
441.305 .0414382
442.219 .0415649
443.132 .0413001
444.044 .0412241
444.954 .0412756
445.863 .0413430
446.771 .0413940
447.678 .0413749
448.584 .0413426
449.488 .0412966
450.391 .0412341
451.293 .0411576
452.194 .0410696
453.094 .0409732
453.992 .0408689
454.890 .0407579
455.786 .0406398
456.681 .0405156
457.575 .0403858
458.468 .0402519
459.360 .0401158
460.250 .0399791
461.140 .0398427
462.028 .0397081
462.915 .0395760
463.801 .0394470
464.687 .0393208
465.571 .0391977
466.454 .0390776
467.335 .0389602
468.216 .0388452
469.096 .0387326
469.975 .0386226
470.853 .0385156
471.729 .0384113
472.605 .0383102
473.479 .0382120
474.353 .0381165
475.226 .0380229
476.097 .0379309
476.968 .0378399
477.838 .0377496
478.706 .0376595
479.574 .0375695
480.441 .0374799
481.306 .0373910
482.171 .0373030
483.035 .0372164
483.898 .0371315
484.760 .0370484
485.621 .0369669
486.481 .0368871
487.340 .0368086
488.198 .0367316
489.055 .0366558
489.912 .0365815
490.767 .0365090
491.622 .0364085
492.476 .0363418
493.329 .0362779
494.180 .0362168
495.032 .0361585
495.882 .0361025
496.731 .0360487
497.580 .0359966
498.427 .0359459
499.274 .0358964
500.120 .0358747
500.965 .0358271
501.809 .0357809
502.653 .0357364
503.495 .0356937
504.337 .0356530
505.178 .0356142
506.018 .0355768
506.858 .0355403
507.696 .0355042
508.534 .0354681
509.371 .0354321
510.208 .0353961
511.043 .0353601
511.878 .0353243
512.712 .0352890
513.545 .0352544
514.377 .0352206
515.209 .0351872
516.040 .0351540
516.870 .0351204
517.699 .0350862
518.528 .0350511
519.356 .0350154
520.183 .0349793
521.010 .0349429
521.836 .0349063
522.661 .0348695
523.485 .0348326
524.309 .0347956
525.132 .0347585
525.954 .0347210
526.776 .0346825
527.597 .0346424
528.417 .0346006
529.237 .0345568
530.056 .0345109
530.874 .0344625
531.692 .0344117
532.508 .0343585
533.325 .0343031
534.140 .0342460
534.955 .0341877
535.770 .0341286
536.583 .0340687
537.397 .0340076
538.209 .0339453
539.021 .0338815
539.832 .0338165
540.643 .0337502
541.453 .0336826
542.262 .0336140
543.071 .0335449
543.879 .0334759
544.687 .0334076
545.494 .0333399
546.300 .0332732
547.106 .0332075
547.911 .0331433
548.716 .0330803
549.520 .0330190
550.323 .0329599
551.126 .0329028
551.929 .0328475
552.731 .0327943
553.532 .0327425
554.332 .0326926
555.133 .0326442
555.932 .0325976
556.731 .0325529
557.530 .0325102
558.328 .0324697
559.125 .0324314
559.922 .0323948
560.719 .0323592
561.515 .0323240
562.310 .0322890
563.105 .0322534
563.899 .0322170
564.693 .0321795
565.487 .0321408
566.280 .0321012
567.072 .0320606
567.864 .0320189
568.655 .0319761
569.446 .0319323
570.236 .0318871
571.026 .0318404
571.816 .0317924
572.605 .0317433
573.393 .0316933
574.181 .0316430
574.969 .0315927
575.756 .0315429
576.543 .0314942
577.329 .0314472
578.115 .0314020
578.900 .0313588
579.685 .0313176
580.469 .0312785
581.253 .0312416
582.036 .0312067
582.820 .0311741
583.602 .0311435
584.384 .0311153
585.166 .0310891
585.947 .0310647
586.728 .0310422
587.509 .0310211
588.289 .0310011
589.069 .0309817
589.848 .0309626
590.627 .0309433
591.405 .0309236
592.183 .0309033
592.961 .0308824
593.738 .0308609
594.515 .0308391
595.291 .0308171
596.067 .0307952
596.843 .0307735
597.618 .0307520
598.393 .0307201
599.167 .0306994
599.941 .0306791
600.715 .0306592
601.488 .0306399
602.261 .0306214
603.034 .0306039
603.806 .0305874
604.578 .0305722
605.349 .0305583
606.121 .0305457
606.891 .0305429
607.662 .0305320
608.432 .0305221
609.201 .0305134
609.971 .0305056
610.740 .0304988
611.508 .0304929
612.277 .0304877
613.045 .0304832
613.812 .0304792
614.579 .0304756
615.346 .0304722
616.113 .0304688
616.879 .0304653
617.645 .0304617
618.411 .0304576
619.176 .0304532
619.941 .0304482
620.705 .0304426
621.470 .0304365
622.233 .0304298
622.997 .0304227
623.760 .0304151
624.523 .0304071
625.286 .0303987
626.048 .0303901
626.810 .0303811
627.572 .0303719
628.333 .0303624
629.095 .0303528
629.855 .0303430
630.616 .0303332
631.376 .0303236
632.136 .0303143
632.895 .0303055
633.655 .0302971
634.414 .0302893
635.172 .0302819
635.931 .0302749
636.689 .0302681
637.447 .0302615
638.204 .0302549
638.962 .0302484
639.718 .0302419
640.475 .0302357
641.231 .0302296
641.988 .0302238
642.743 .0302184
643.499 .0302134
644.254 .0302087
645.009 .0302044
645.764 .0302003
646.518 .0301966
647.272 .0301930
648.026 .0301897
648.780 .0301865
649.533 .0301835
650.286 .0301807
651.039 .0301781
651.792 .0301758
652.544 .0301736
653.296 .0301717
654.048 .0301701
654.799 .0301687
655.550 .0301675
656.301 .0301665
657.052 .0301656
657.802 .0301648
658.552 .0301639
659.302 .0301630
660.052 .0301618
660.801 .0301603
661.550 .0301585
662.299 .0301563
663.048 .0301537
663.796 .0301506
664.544 .0301471
665.292 .0301432
666.040 .0301388
666.787 .0301339
667.534 .0301286
668.281 .0301228
669.028 .0301164
669.774 .0301096
670.521 .0301024
671.266 .0300948
672.012 .0300868
672.758 .0300785
673.503 .0300700
674.248 .0300612
674.992 .0300523
675.737 .0300432
676.481 .0300340
677.225 .0300247
677.969 .0300154
678.712 .0300061
679.455 .0299969
680.199 .0299878
680.941 .0299787
681.684 .0299696
682.426 .0299605
683.168 .0299514
683.910 .0299422
684.652 .0299329
685.393 .0299236
686.134 .0299142
686.875 .0299049
687.616 .0298955
688.356 .0298862
689.097 .0298770
689.837 .0298680
690.576 .0298590
691.316 .0298501
692.055 .0298413
692.794 .0298326
693.533 .0298238
694.272 .0298151
695.010 .0298063
695.748 .0297976
696.486 .0297889
697.224 .0297803
697.962 .0297719
698.699 .0297637
699.436 .0297557
700.173 .0297479
700.909 .0297404
701.646 .0297331
702.382 .0297259
703.118 .0297188
703.853 .0297118
704.589 .0297047
705.324 .0296976
706.059 .0296904
706.794 .0296831
707.529 .0296756
708.263 .0296680
708.997 .0296603
709.731 .0296525
710.465 .0296445
711.198 .0296363
711.931 .0296280
712.664 .0296194
713.397 .0296106
714.130 .0296015
714.862 .0295922
715.594 .0295825
716.326 .0295726
717.058 .0295623
717.789 .0295518
718.520 .0295410
719.251 .0295299
719.982 .0295187
720.713 .0295072
721.443 .0294955
722.173 .0294837
722.903 .0294717
723.633 .0294596
724.362 .0294473
725.091 .0294350
725.820 .0294227
726.549 .0294103
727.278 .0293980
728.006 .0293857
728.734 .0293735
729.462 .0293614
730.190 .0293495
730.917 .0293378
731.644 .0293264
732.371 .0293152
733.098 .0293043
733.825 .0292938
734.551 .0292835
735.277 .0292736
736.003 .0292640
736.728 .0292546
737.454 .0292456
738.179 .0292368
738.904 .0292282
739.629 .0292199
740.353 .0292118
741.077 .0292039
741.801 .0291961
742.525 .0291883
743.249 .0291806
743.972 .0291729
744.695 .0291651
745.418 .0291572
746.141 .0291493
746.863 .0291412
747.585 .0291330
748.307 .0291246
749.029 .0291160
749.750 .0291072
750.472 .0290981
751.193 .0290888
751.913 .0290793
752.634 .0290696
753.354 .0290599
754.074 .0290502
754.794 .0290406
755.514 .0290311
756.233 .0290217
756.952 .0290125
757.671 .0290034
758.390 .0289946
759.108 .0289859
759.826 .0289775
760.544 .0289693
761.262 .0289613
761.979 .0289535
762.697 .0289460
763.414 .0289386
764.130 .0289313
764.847 .0289241
765.563 .0289170
766.279 .0289098
766.995 .0289027
767.710 .0288955
768.426 .0288881
769.141 .0288807
769.855 .0288730
770.570 .0288652
771.284 .0288570
771.998 .0288486
772.712 .0288400
773.426 .0288310
774.139 .0288218
774.852 .0288124
775.565 .0288028
776.277 .0287930
776.990 .0287832
777.702 .0287732
778.414 .0287632
779.125 .0287530
779.836 .0287429
780.547 .0287327
781.258 .0287226
781.969 .0287127
782.679 .0287029
783.389 .0286894
784.099 .0286802
784.808 .0286712
785.517 .0286625
786.226 .0286539
786.935 .0286454
787.643 .0286370
788.352 .0286286
789.060 .0286203
789.767 .0286120
790.475 .0286036
791.182 .0285953
791.889 .0285910
792.595 .0285826
793.301 .0285742
794.008 .0285658
794.713 .0285572
795.419 .0285485
796.124 .0285398
796.829 .0285309
797.534 .0285219
798.238 .0285128
798.942 .0285036
799.646 .0284944
800.350 .0284852
801.053 .0284760
801.756 .0284668
802.459 .0284576
803.162 .0284485
803.864 .0284393
804.566 .0284302
805.267 .0284212
805.969 .0284121
806.670 .0284030
807.371 .0283938
808.071 .0283846
808.772 .0283753
809.472 .0283659
810.171 .0283564
810.871 .0283468
811.570 .0283371
812.269 .0283273
812.967 .0283174
813.666 .0283074
814.364 .0282973
815.061 .0282870
815.759 .0282765
816.456 .0282658
817.153 .0282548
817.849 .0282435
818.545 .0282319
819.241 .0282199
819.937 .0282076
820.632 .0281949
821.327 .0281819
822.022 .0281685
822.717 .0281550
823.411 .0281412
824.105 .0281272
824.798 .0281130
825.491 .0280986
826.184 .0280842
826.877 .0280696
827.569 .0280550
828.261 .0280404
828.953 .0280260
829.645 .0280117
830.336 .0279977
831.027 .0279841
831.717 .0279708
832.407 .0279579
833.097 .0279454
833.787 .0279334
834.476 .0279218
835.165 .0279106
835.854 .0278999
836.542 .0278897
837.230 .0278799
837.918 .0278705
838.605 .0278615
839.292 .0278530
839.979 .0278447
840.665 .0278367
841.352 .0278290
842.037 .0278215
842.723 .0278142
843.408 .0278070
844.093 .0277999
844.777 .0277927
845.462 .0277855
846.145 .0277779
846.829 .0277701
847.512 .0277618
848.195 .0277530
848.878 .0277438
849.560 .0277341
850.242 .0277240
850.923 .0277133
851.605 .0277021
852.286 .0276903
852.966 .0276779
853.646 .0276648
854.326 .0276511
855.006 .0276369
855.685 .0276221
856.364 .0276069
857.043 .0275914
857.721 .0275755
858.399 .0275593
859.077 .0275429
859.754 .0275263
860.431 .0275096
861.107 .0274929
861.784 .0274763
862.459 .0274598
863.135 .0274435
863.810 .0274275
864.485 .0274118
865.160 .0273964
865.834 .0273813
866.508 .0273666
867.181 .0273522
867.854 .0273382
868.527 .0273246
869.199 .0273115
869.872 .0272988
870.543 .0272866
871.215 .0272749
871.886 .0272635
872.557 .0272525
873.227 .0272418
873.897 .0272314
874.567 .0272212
875.236 .0272111
875.905 .0272014
876.573 .0271917
877.242 .0271822
877.909 .0271728
878.577 .0271635
879.244 .0271542
879.911 .0271448
880.577 .0271355
881.243 .0271262
881.909 .0271170
882.575 .0271079
883.240 .0270989
883.904 .0270900
884.569 .0270812
885.232 .0270725
885.896 .0270636
886.559 .0270548
887.222 .0270460
887.885 .0270372
888.547 .0270284
889.208 .0270198
889.870 .0270113
890.531 .0270031
891.192 .0269949
891.852 .0269868
892.512 .0269787
893.171 .0269706
893.830 .0269623
894.489 .0269539
895.148 .0269452
895.806 .0269363
896.464 .0269272
897.121 .0269179
897.778 .0269081
898.434 .0268981
899.091 .0268809
899.747 .0268696
900.402 .0268577
901.057 .0268453
901.712 .0268322
902.366 .0268187
903.020 .0268046
903.674 .0267902
904.327 .0267752
904.980 .0267598
905.633 .0267440
906.285 .0267276
906.936 .0267108
907.588 .0267013
908.239 .0266839
908.889 .0266661
909.540 .0266479
910.190 .0266296
910.839 .0266111
911.488 .0265927
912.137 .0265743
912.785 .0265561
913.433 .0265381
914.081 .0265202
914.728 .0265026
915.375 .0264851
916.021 .0264678
916.668 .0264508
917.313 .0264340
917.959 .0264176
918.604 .0264016
919.248 .0263861
919.892 .0263710
920.536 .0263565
921.180 .0263424
921.823 .0263288
922.465 .0263156
923.108 .0263027
923.750 .0262902
924.391 .0262780
925.032 .0262662
925.673 .0262546
926.313 .0262434
926.953 .0262325
927.593 .0262219
928.232 .0262117
928.871 .0262018
929.510 .0261922
930.148 .0261828
930.786 .0261737
931.423 .0261647
932.060 .0261560
932.697 .0261474
933.333 .0261391
933.969 .0261310
934.604 .0261232
935.239 .0261157
935.874 .0261083
936.508 .0261011
937.142 .0260940
937.776 .0260868
938.409 .0260796
939.042 .0260723
939.674 .0260649
940.306 .0260573
940.938 .0260497
941.569 .0260418
942.200 .0260338
942.830 .0260256
943.460 .0260170
944.090 .0260081
944.720 .0259987
945.349 .0259887
945.977 .0259782
946.606 .0259670
947.233 .0259551
947.861 .0259426
948.488 .0259294
949.115 .0259157
949.741 .0259013
950.367 .0258864
950.993 .0258709
951.618 .0258548
952.243 .0258380
952.868 .0258206
953.492 .0258025
954.115 .0257839
954.739 .0257648
955.362 .0257453
955.984 .0257255
956.607 .0257055
957.229 .0256854
957.850 .0256652
958.471 .0256450
959.092 .0256249
959.713 .0256048
960.333 .0255847
960.952 .0255648
961.572 .0255451
962.191 .0255256
962.809 .0255065
963.428 .0254877
964.045 .0254693
964.663 .0254513
965.280 .0254336
965.897 .0254163
966.513 .0253993
967.129 .0253825
967.745 .0253660
968.361 .0253497
968.976 .0253338
969.590 .0253183
970.205 .0253031
970.818 .0252885
971.432 .0252743
972.045 .0252606
972.658 .0252473
973.271 .0252346
973.883 .0252223
974.495 .0252106
975.106 .0251995
975.717 .0251891
976.328 .0251794
976.938 .0251706
977.548 .0251628
978.158 .0251559
978.768 .0251495
979.377 .0251450
979.985 .0251413
980.594 .0251385
981.202 .0251365
981.809 .0251354
982.417 .0251351
983.024 .0251357
983.631 .0251371
984.237 .0251392
984.843 .0251421
985.449 .0251455
986.054 .0251494
986.659 .0251537
987.264 .0251569
987.868 .0251613
988.472 .0251660
989.076 .0251709
989.679 .0251759
990.282 .0251812
990.885 .0251866
991.487 .0251923
992.090 .0251980
992.691 .0252039
993.293 .0252097
993.894 .0252156
994.495 .0252215
995.095 .0252274
995.696 .0252332
996.296 .0252389
996.895 .0252446
997.494 .0252502
998.093 .0252557
998.692 .0252610
999.291 .0252662
999.889 .0252711
1000.487 .0252757
1001.084 .0252800
1001.681 .0252840
1002.278 .0252876
1002.875 .0252910
1003.471 .0252940
1004.067 .0252968
1004.663 .0252993
1005.258 .0253014
1005.854 .0253032
1006.449 .0253046
1007.043 .0253056
1007.638 .0253061
1008.232 .0253061
1008.826 .0253056
1009.419 .0253046
1010.012 .0253030
1010.605 .0253009
1011.198 .0252983
1011.791 .0252950
1012.383 .0252911
1012.975 .0252866
1013.566 .0252815
1014.158 .0252757
1014.749 .0252694
1015.340 .0252625
1015.931 .0252551
1016.521 .0252473
1017.111 .0252390
1017.701 .0252303
1018.291 .0252212
1018.880 .0252117
1019.470 .0252018
1020.059 .0251916
1020.647 .0251812
1021.236 .0251706
1021.824 .0251600
1022.412 .0251494
1023.000 .0251389
1023.588 .0251285
1024.175 .0251183
1024.762 .0251082
1025.349 .0250983
1025.936 .0250886
1026.523 .0250790
1027.109 .0250697
1027.695 .0250608
1028.281 .0250522
1028.867 .0250442
1029.452 .0250366
1030.038 .0250295
1030.623 .0250229
1031.208 .0250167
1031.792 .0250109
1032.377 .0250054
1032.961 .0250000
1033.546 .0249949
1034.130 .0249901
1034.714 .0249856
1035.297 .0249815
1035.881 .0249780
1036.464 .0249751
1037.047 .0249727
1037.630 .0249709
1038.213 .0249696
1038.796 .0249687
1039.378 .0249680
1039.961 .0249676
1040.543 .0249672
1041.125 .0249670
1041.707 .0249669
1042.289 .0249669
1042.871 .0249672
1043.452 .0249676
1044.034 .0249682
1044.615 .0249690
1045.196 .0249698
1045.777 .0249704
1046.358 .0249710
1046.939 .0249715
1047.520 .0249719
1048.101 .0249724
1048.681 .0249732
1049.262 .0249743
1049.842 .0249759
1050.422 .0249782
1051.002 .0249811
1051.582 .0249847
1052.162 .0249889
1052.742 .0249937
1053.322 .0249988
1053.902 .0250044
1054.482 .0250103
1055.061 .0250166
1055.641 .0250234
1056.220 .0250306
1056.800 .0250383
1057.379 .0250465
1057.958 .0250549
1058.538 .0250637
1059.117 .0250725
1059.696 .0250813
1060.275 .0250901
1060.854 .0250987
1061.433 .0251071
1062.012 .0251155
1062.592 .0251237
1063.171 .0251320
1063.750 .0251401
1064.329 .0251481
1064.908 .0251559
1065.487 .0251632
1066.066 .0251701
1066.645 .0251764
1067.224 .0251821
1067.803 .0251872
1068.382 .0251917
1068.961 .0251957
1069.540 .0251990
1070.119 .0252019
1070.698 .0252042
1071.278 .0252060
1071.857 .0252071
1072.436 .0252076
1073.016 .0252074
1073.595 .0252065
1074.175 .0252051
1074.754 .0252032
1075.334 .0252009
1075.913 .0251981
1076.493 .0251950
1077.073 .0251915
1077.653 .0251875
1078.233 .0251832
1078.813 .0251784
1079.393 .0251732
1079.974 .0251677
1080.554 .0251619
1081.135 .0251558
1081.716 .0251496
1082.296 .0251430
1082.877 .0251361
1083.458 .0251287
1084.040 .0251209
1084.621 .0251125
1085.202 .0251037
1085.784 .0250944
1086.366 .0250846
1086.948 .0250745
1087.530 .0250641
1088.112 .0250534
1088.695 .0250424
1089.277 .0250313
1089.860 .0250200
1090.443 .0250085
1091.026 .0249970
1091.610 .0249854
1092.193 .0249738
1092.777 .0249622
1093.361 .0249507
1093.946 .0249390
1094.530 .0249273
1095.115 .0249153
1095.700 .0249029
1096.285 .0248903
1096.871 .0248773
1097.456 .0248642
1098.042 .0248511
1098.628 .0248381
1099.215 .0248254
1099.802 .0248132
1100.389 .0248014
1100.976 .0247900
1101.564 .0247792
1102.152 .0247687
1102.740 .0247588
1103.329 .0247495
1103.917 .0247408
1104.507 .0247331
1105.096 .0247263
1105.686 .0247204
1106.276 .0247156
1106.867 .0247119
1107.457 .0247089
1108.049 .0247067
1108.640 .0247052
1109.232 .0247045
1109.825 .0247045
1110.417 .0247057
1111.010 .0247079
1111.604 .0247114
1112.198 .0247164
1112.792 .0247227
1113.387 .0247304
1113.982 .0247393
1114.577 .0247491
1115.173 .0247599
1115.769 .0247715
1116.366 .0247839
1116.963 .0247969
1117.561 .0248109
1118.159 .0248258
1118.758 .0248415
1119.357 .0248577
1119.957 .0248743
1120.557 .0248910
1121.157 .0249075
1121.758 .0249234
1122.360 .0249387
1122.962 .0249535
1123.564 .0249677
1124.167 .0249755
1124.771 .0249895
1125.375 .0250038
1125.980 .0250186
1126.585 .0250344
1127.191 .0250512
1127.797 .0250692
1128.404 .0250885
1129.012 .0251087
1129.620 .0251299
1130.229 .0251521
1130.838 .0251751
1131.448 .0251992
1132.058 .0252245
1132.669 .0252609
1133.281 .0252888
1133.894 .0253172
1134.507 .0253516
1135.120 .0253877
1135.735 .0254129
1136.350 .0254412
1136.965 .0254311
1137.582 .0254771
1138.199 .0255206
1138.816 .0255642
1139.435 .0256089
1140.054 .0256600
1140.674 .0257090
1141.294 .0257585
1141.916 .0257933
1142.538 .0259800
1143.160 .0260502
1143.784 .0257745
1144.408 .0258750
1145.033 .0255961
