Measurement Sequence started on: 14-45-04-498
Integration time: 36
Scans to Average: 2 
>>>>>Begin Spectral Data<<<<<
433.946 .0476926
434.870 .0469476
435.793 .0413058
436.715 .0404506
437.635 .0390275
438.555 .0398302
439.473 .0390688
440.389 .0385025
441.305 .0381902
442.219 .0379445
443.132 .0388096
444.044 .0383220
444.954 .0381316
445.863 .0379860
446.771 .0379150
447.678 .0378010
448.584 .0377258
449.488 .0376791
450.391 .0376465
451.293 .0376238
452.194 .0376062
453.094 .0375907
453.992 .0375749
454.890 .0375555
455.786 .0375301
456.681 .0374970
457.575 .0374558
458.468 .0374065
459.360 .0373493
460.250 .0372854
461.140 .0372155
462.028 .0371408
462.915 .0370620
463.801 .0369798
464.687 .0368946
465.571 .0368071
466.454 .0367173
467.335 .0366259
468.216 .0365337
469.096 .0364418
469.975 .0363509
470.853 .0362623
471.729 .0361769
472.605 .0360960
473.479 .0360201
474.353 .0359496
475.226 .0358843
476.097 .0358242
476.968 .0357686
477.838 .0357172
478.706 .0356695
479.574 .0356254
480.441 .0355851
481.306 .0355488
482.171 .0355166
483.035 .0354889
483.898 .0354656
484.760 .0354466
485.621 .0354312
486.481 .0354187
487.340 .0354082
488.198 .0353989
489.055 .0353904
489.912 .0353824
490.767 .0353746
491.622 .0353626
492.476 .0353541
493.329 .0353450
494.180 .0353346
495.032 .0353227
495.882 .0353087
496.731 .0352923
497.580 .0352733
498.427 .0352514
499.274 .0352267
500.120 .0352089
500.965 .0351814
501.809 .0351517
502.653 .0351199
503.495 .0350862
504.337 .0350507
505.178 .0350137
506.018 .0349754
506.858 .0349360
507.696 .0348962
508.534 .0348564
509.371 .0348174
510.208 .0347794
511.043 .0347432
511.878 .0347089
512.712 .0346771
513.545 .0346473
514.377 .0346197
515.209 .0345938
516.040 .0345698
516.870 .0345475
517.699 .0345267
518.528 .0345075
519.356 .0344897
520.183 .0344731
521.010 .0344572
521.836 .0344411
522.661 .0344241
523.485 .0344053
524.309 .0343838
525.132 .0343584
525.954 .0343286
526.776 .0342941
527.597 .0342551
528.417 .0342118
529.237 .0341648
530.056 .0341142
530.874 .0340606
531.692 .0340043
532.508 .0339457
533.325 .0338847
534.140 .0338216
534.955 .0337566
535.770 .0336899
536.583 .0336218
537.397 .0335535
538.209 .0334856
539.021 .0334193
539.832 .0333553
540.643 .0332947
541.453 .0332374
542.262 .0331839
543.071 .0331340
543.879 .0330873
544.687 .0330434
545.494 .0330017
546.300 .0329613
547.106 .0329220
547.911 .0328834
548.716 .0328453
549.520 .0328077
550.323 .0327705
551.126 .0327336
551.929 .0326970
552.731 .0326607
553.532 .0326246
554.332 .0325883
555.133 .0325517
555.932 .0325145
556.731 .0324767
557.530 .0324382
558.328 .0323990
559.125 .0323597
559.922 .0323206
560.719 .0322819
561.515 .0322441
562.310 .0322072
563.105 .0321717
563.899 .0321375
564.693 .0321046
565.487 .0320729
566.280 .0320424
567.072 .0320128
567.864 .0319840
568.655 .0319559
569.446 .0319285
570.236 .0319017
571.026 .0318757
571.816 .0318506
572.605 .0318262
573.393 .0318026
574.181 .0317796
574.969 .0317573
575.756 .0317354
576.543 .0317137
577.329 .0316923
578.115 .0316710
578.900 .0316498
579.685 .0316287
580.469 .0316078
581.253 .0315873
582.036 .0315670
582.820 .0315471
583.602 .0315274
584.384 .0315079
585.166 .0314885
585.947 .0314691
586.728 .0314494
587.509 .0314295
588.289 .0314093
589.069 .0313890
589.848 .0313686
590.627 .0313483
591.405 .0313283
592.183 .0313085
592.961 .0312890
593.738 .0312699
594.515 .0312509
595.291 .0312320
596.067 .0312133
596.843 .0311945
597.618 .0311758
598.393 .0311481
599.167 .0311295
599.941 .0311111
600.715 .0310929
601.488 .0310748
602.261 .0310569
603.034 .0310389
603.806 .0310209
604.578 .0310028
605.349 .0309844
606.121 .0309658
606.891 .0309558
607.662 .0309369
608.432 .0309178
609.201 .0308986
609.971 .0308793
610.740 .0308600
611.508 .0308408
612.277 .0308215
613.045 .0308023
613.812 .0307831
614.579 .0307638
615.346 .0307444
616.113 .0307250
616.879 .0307054
617.645 .0306856
618.411 .0306656
619.176 .0306455
619.941 .0306252
620.705 .0306050
621.470 .0305848
622.233 .0305646
622.997 .0305446
623.760 .0305248
624.523 .0305051
625.286 .0304855
626.048 .0304662
626.810 .0304471
627.572 .0304283
628.333 .0304098
629.095 .0303917
629.855 .0303740
630.616 .0303568
631.376 .0303401
632.136 .0303240
632.895 .0303083
633.655 .0302930
634.414 .0302781
635.172 .0302634
635.931 .0302489
636.689 .0302345
637.447 .0302201
638.204 .0302057
638.962 .0301912
639.718 .0301766
640.475 .0301620
641.231 .0301471
641.988 .0301322
642.743 .0301170
643.499 .0301015
644.254 .0300858
645.009 .0300698
645.764 .0300535
646.518 .0300368
647.272 .0300199
648.026 .0300026
648.780 .0299851
649.533 .0299675
650.286 .0299498
651.039 .0299321
651.792 .0299145
652.544 .0298969
653.296 .0298795
654.048 .0298622
654.799 .0298452
655.550 .0298285
656.301 .0298121
657.052 .0297960
657.802 .0297803
658.552 .0297649
659.302 .0297498
660.052 .0297351
660.801 .0297205
661.550 .0297062
662.299 .0296920
663.048 .0296779
663.796 .0296638
664.544 .0296498
665.292 .0296359
666.040 .0296220
666.787 .0296082
667.534 .0295945
668.281 .0295807
669.028 .0295669
669.774 .0295532
670.521 .0295396
671.266 .0295260
672.012 .0295127
672.758 .0294995
673.503 .0294865
674.248 .0294737
674.992 .0294613
675.737 .0294491
676.481 .0294371
677.225 .0294254
677.969 .0294139
678.712 .0294026
679.455 .0293916
680.199 .0293806
680.941 .0293699
681.684 .0293592
682.426 .0293486
683.168 .0293380
683.910 .0293274
684.652 .0293167
685.393 .0293061
686.134 .0292955
686.875 .0292850
687.616 .0292745
688.356 .0292642
689.097 .0292539
689.837 .0292437
690.576 .0292336
691.316 .0292234
692.055 .0292132
692.794 .0292029
693.533 .0291925
694.272 .0291821
695.010 .0291717
695.748 .0291614
696.486 .0291511
697.224 .0291410
697.962 .0291309
698.699 .0291209
699.436 .0291109
700.173 .0291009
700.909 .0290908
701.646 .0290807
702.382 .0290704
703.118 .0290601
703.853 .0290496
704.589 .0290391
705.324 .0290284
706.059 .0290176
706.794 .0290065
707.529 .0289952
708.263 .0289837
708.997 .0289719
709.731 .0289599
710.465 .0289475
711.198 .0289349
711.931 .0289221
712.664 .0289089
713.397 .0288956
714.130 .0288820
714.862 .0288681
715.594 .0288540
716.326 .0288397
717.058 .0288251
717.789 .0288104
718.520 .0287956
719.251 .0287807
719.982 .0287657
720.713 .0287507
721.443 .0287356
722.173 .0287204
722.903 .0287053
723.633 .0286901
724.362 .0286748
725.091 .0286596
725.820 .0286443
726.549 .0286290
727.278 .0286138
728.006 .0285987
728.734 .0285836
729.462 .0285688
730.190 .0285543
730.917 .0285400
731.644 .0285260
732.371 .0285124
733.098 .0284992
733.825 .0284863
734.551 .0284739
735.277 .0284618
736.003 .0284502
736.728 .0284390
737.454 .0284282
738.179 .0284180
738.904 .0284083
739.629 .0283990
740.353 .0283903
741.077 .0283821
741.801 .0283743
742.525 .0283670
743.249 .0283601
743.972 .0283536
744.695 .0283475
745.418 .0283417
746.141 .0283360
746.863 .0283305
747.585 .0283250
748.307 .0283195
749.029 .0283139
749.750 .0283083
750.472 .0283026
751.193 .0282967
751.913 .0282908
752.634 .0282848
753.354 .0282785
754.074 .0282721
754.794 .0282654
755.514 .0282584
756.233 .0282510
756.952 .0282433
757.671 .0282352
758.390 .0282268
759.108 .0282182
759.826 .0282095
760.544 .0282006
761.262 .0281916
761.979 .0281825
762.697 .0281733
763.414 .0281641
764.130 .0281548
764.847 .0281455
765.563 .0281362
766.279 .0281270
766.995 .0281179
767.710 .0281091
768.426 .0281003
769.141 .0280918
769.855 .0280834
770.570 .0280751
771.284 .0280670
771.998 .0280591
772.712 .0280514
773.426 .0280439
774.139 .0280367
774.852 .0280296
775.565 .0280227
776.277 .0280158
776.990 .0280089
777.702 .0280020
778.414 .0279950
779.125 .0279879
779.836 .0279808
780.547 .0279737
781.258 .0279667
781.969 .0279597
782.679 .0279528
783.389 .0279421
784.099 .0279350
784.808 .0279277
785.517 .0279201
786.226 .0279123
786.935 .0279043
787.643 .0278961
788.352 .0278876
789.060 .0278789
789.767 .0278701
790.475 .0278610
791.182 .0278518
791.889 .0278466
792.595 .0278370
793.301 .0278272
794.008 .0278173
794.713 .0278072
795.419 .0277970
796.124 .0277866
796.829 .0277762
797.534 .0277656
798.238 .0277548
798.942 .0277439
799.646 .0277329
800.350 .0277218
801.053 .0277107
801.756 .0276996
802.459 .0276885
803.162 .0276776
803.864 .0276668
804.566 .0276561
805.267 .0276456
805.969 .0276352
806.670 .0276249
807.371 .0276147
808.071 .0276046
808.772 .0275946
809.472 .0275847
810.171 .0275750
810.871 .0275654
811.570 .0275560
812.269 .0275466
812.967 .0275374
813.666 .0275282
814.364 .0275191
815.061 .0275099
815.759 .0275008
816.456 .0274916
817.153 .0274824
817.849 .0274732
818.545 .0274640
819.241 .0274549
819.937 .0274458
820.632 .0274367
821.327 .0274278
822.022 .0274189
822.717 .0274101
823.411 .0274014
824.105 .0273929
824.798 .0273846
825.491 .0273764
826.184 .0273685
826.877 .0273609
827.569 .0273535
828.261 .0273464
828.953 .0273396
829.645 .0273330
830.336 .0273268
831.027 .0273209
831.717 .0273153
832.407 .0273100
833.097 .0273050
833.787 .0273002
834.476 .0272958
835.165 .0272915
835.854 .0272874
836.542 .0272834
837.230 .0272794
837.918 .0272754
838.605 .0272714
839.292 .0272671
839.979 .0272627
840.665 .0272581
841.352 .0272532
842.037 .0272480
842.723 .0272425
843.408 .0272367
844.093 .0272306
844.777 .0272240
845.462 .0272171
846.145 .0272096
846.829 .0272017
847.512 .0271932
848.195 .0271842
848.878 .0271747
849.560 .0271648
850.242 .0271543
850.923 .0271435
851.605 .0271322
852.286 .0271206
852.966 .0271086
853.646 .0270963
854.326 .0270837
855.006 .0270709
855.685 .0270580
856.364 .0270450
857.043 .0270319
857.721 .0270188
858.399 .0270057
859.077 .0269926
859.754 .0269796
860.431 .0269667
861.107 .0269539
861.784 .0269411
862.459 .0269284
863.135 .0269158
863.810 .0269031
864.485 .0268903
865.160 .0268774
865.834 .0268643
866.508 .0268510
867.181 .0268374
867.854 .0268235
868.527 .0268094
869.199 .0267952
869.872 .0267807
870.543 .0267660
871.215 .0267512
871.886 .0267363
872.557 .0267211
873.227 .0267058
873.897 .0266903
874.567 .0266747
875.236 .0266590
875.905 .0266433
876.573 .0266275
877.242 .0266117
877.909 .0265960
878.577 .0265804
879.244 .0265649
879.911 .0265496
880.577 .0265346
881.243 .0265200
881.909 .0265058
882.575 .0264920
883.240 .0264788
883.904 .0264661
884.569 .0264538
885.232 .0264422
885.896 .0264310
886.559 .0264203
887.222 .0264101
887.885 .0264004
888.547 .0263911
889.208 .0263823
889.870 .0263740
890.531 .0263661
891.192 .0263587
891.852 .0263516
892.512 .0263448
893.171 .0263384
893.830 .0263323
894.489 .0263264
895.148 .0263207
895.806 .0263152
896.464 .0263099
897.121 .0263047
897.778 .0262997
898.434 .0262949
899.091 .0262884
899.747 .0262840
900.402 .0262798
901.057 .0262757
901.712 .0262716
902.366 .0262674
903.020 .0262631
903.674 .0262586
904.327 .0262538
904.980 .0262488
905.633 .0262435
906.285 .0262379
906.936 .0262321
907.588 .0262281
908.239 .0262218
908.889 .0262151
909.540 .0262081
910.190 .0262008
910.839 .0261932
911.488 .0261854
912.137 .0261775
912.785 .0261695
913.433 .0261614
914.081 .0261534
914.728 .0261454
915.375 .0261373
916.021 .0261293
916.668 .0261212
917.313 .0261130
917.959 .0261048
918.604 .0260966
919.248 .0260884
919.892 .0260801
920.536 .0260719
921.180 .0260637
921.823 .0260555
922.465 .0260472
923.108 .0260388
923.750 .0260304
924.391 .0260218
925.032 .0260132
925.673 .0260046
926.313 .0259960
926.953 .0259873
927.593 .0259786
928.232 .0259698
928.871 .0259608
929.510 .0259517
930.148 .0259424
930.786 .0259328
931.423 .0259229
932.060 .0259128
932.697 .0259023
933.333 .0258916
933.969 .0258806
934.604 .0258693
935.239 .0258575
935.874 .0258455
936.508 .0258330
937.142 .0258203
937.776 .0258073
938.409 .0257941
939.042 .0257806
939.674 .0257671
940.306 .0257535
940.938 .0257397
941.569 .0257259
942.200 .0257119
942.830 .0256978
943.460 .0256836
944.090 .0256692
944.720 .0256548
945.349 .0256404
945.977 .0256259
946.606 .0256113
947.233 .0255966
947.861 .0255819
948.488 .0255670
949.115 .0255519
949.741 .0255368
950.367 .0255215
950.993 .0255061
951.618 .0254906
952.243 .0254751
952.868 .0254596
953.492 .0254441
954.115 .0254286
954.739 .0254131
955.362 .0253976
955.984 .0253823
956.607 .0253670
957.229 .0253518
957.850 .0253367
958.471 .0253218
959.092 .0253070
959.713 .0252924
960.333 .0252778
960.952 .0252633
961.572 .0252490
962.191 .0252347
962.809 .0252204
963.428 .0252063
964.045 .0251923
964.663 .0251785
965.280 .0251649
965.897 .0251514
966.513 .0251381
967.129 .0251250
967.745 .0251120
968.361 .0250990
968.976 .0250862
969.590 .0250734
970.205 .0250608
970.818 .0250484
971.432 .0250362
972.045 .0250242
972.658 .0250125
973.271 .0250011
973.883 .0249900
974.495 .0249791
975.106 .0249684
975.717 .0249578
976.328 .0249472
976.938 .0249368
977.548 .0249264
978.158 .0249162
978.768 .0249013
979.377 .0248913
979.985 .0248814
980.594 .0248715
981.202 .0248616
981.809 .0248516
982.417 .0248415
983.024 .0248313
983.631 .0248211
984.237 .0248109
984.843 .0248009
985.449 .0247910
986.054 .0247814
986.659 .0247720
987.264 .0247673
987.868 .0247582
988.472 .0247493
989.076 .0247406
989.679 .0247321
990.282 .0247237
990.885 .0247156
991.487 .0247078
992.090 .0247005
992.691 .0246935
993.293 .0246870
993.894 .0246809
994.495 .0246751
995.095 .0246696
995.696 .0246644
996.296 .0246593
996.895 .0246546
997.494 .0246501
998.093 .0246460
998.692 .0246422
999.291 .0246389
999.889 .0246360
1000.487 .0246336
1001.084 .0246314
1001.681 .0246297
1002.278 .0246283
1002.875 .0246271
1003.471 .0246262
1004.067 .0246256
1004.663 .0246253
1005.258 .0246252
1005.854 .0246253
1006.449 .0246256
1007.043 .0246261
1007.638 .0246265
1008.232 .0246270
1008.826 .0246274
1009.419 .0246277
1010.012 .0246280
1010.605 .0246282
1011.198 .0246285
1011.791 .0246289
1012.383 .0246294
1012.975 .0246300
1013.566 .0246308
1014.158 .0246317
1014.749 .0246327
1015.340 .0246338
1015.931 .0246349
1016.521 .0246360
1017.111 .0246372
1017.701 .0246385
1018.291 .0246399
1018.880 .0246416
1019.470 .0246434
1020.059 .0246455
1020.647 .0246478
1021.236 .0246503
1021.824 .0246529
1022.412 .0246556
1023.000 .0246583
1023.588 .0246612
1024.175 .0246641
1024.762 .0246671
1025.349 .0246703
1025.936 .0246737
1026.523 .0246772
1027.109 .0246809
1027.695 .0246846
1028.281 .0246884
1028.867 .0246922
1029.452 .0246961
1030.038 .0246999
1030.623 .0247037
1031.208 .0247075
1031.792 .0247115
1032.377 .0247158
1032.961 .0247203
1033.546 .0247250
1034.130 .0247300
1034.714 .0247353
1035.297 .0247407
1035.881 .0247463
1036.464 .0247521
1037.047 .0247580
1037.630 .0247640
1038.213 .0247701
1038.796 .0247762
1039.378 .0247824
1039.961 .0247885
1040.543 .0247945
1041.125 .0248003
1041.707 .0248058
1042.289 .0248109
1042.871 .0248156
1043.452 .0248200
1044.034 .0248240
1044.615 .0248277
1045.196 .0248312
1045.777 .0248344
1046.358 .0248374
1046.939 .0248402
1047.520 .0248429
1048.101 .0248454
1048.681 .0248478
1049.262 .0248500
1049.842 .0248520
1050.422 .0248538
1051.002 .0248555
1051.582 .0248569
1052.162 .0248580
1052.742 .0248588
1053.322 .0248593
1053.902 .0248593
1054.482 .0248590
1055.061 .0248583
1055.641 .0248574
1056.220 .0248564
1056.800 .0248552
1057.379 .0248539
1057.958 .0248526
1058.538 .0248513
1059.117 .0248498
1059.696 .0248482
1060.275 .0248464
1060.854 .0248443
1061.433 .0248421
1062.012 .0248396
1062.592 .0248370
1063.171 .0248341
1063.750 .0248310
1064.329 .0248274
1064.908 .0248234
1065.487 .0248188
1066.066 .0248134
1066.645 .0248074
1067.224 .0248007
1067.803 .0247933
1068.382 .0247854
1068.961 .0247770
1069.540 .0247683
1070.119 .0247593
1070.698 .0247500
1071.278 .0247403
1071.857 .0247303
1072.436 .0247200
1073.016 .0247094
1073.595 .0246986
1074.175 .0246876
1074.754 .0246768
1075.334 .0246660
1075.913 .0246554
1076.493 .0246451
1077.073 .0246351
1077.653 .0246254
1078.233 .0246160
1078.813 .0246069
1079.393 .0245981
1079.974 .0245896
1080.554 .0245815
1081.135 .0245739
1081.716 .0245667
1082.296 .0245600
1082.877 .0245537
1083.458 .0245478
1084.040 .0245422
1084.621 .0245368
1085.202 .0245316
1085.784 .0245265
1086.366 .0245215
1086.948 .0245164
1087.530 .0245113
1088.112 .0245061
1088.695 .0245009
1089.277 .0244957
1089.860 .0244904
1090.443 .0244850
1091.026 .0244797
1091.610 .0244742
1092.193 .0244688
1092.777 .0244634
1093.361 .0244580
1093.946 .0244526
1094.530 .0244471
1095.115 .0244415
1095.700 .0244357
1096.285 .0244297
1096.871 .0244234
1097.456 .0244169
1098.042 .0244101
1098.628 .0244031
1099.215 .0243960
1099.802 .0243890
1100.389 .0243822
1100.976 .0243756
1101.564 .0243695
1102.152 .0243639
1102.740 .0243590
1103.329 .0243549
1103.917 .0243517
1104.507 .0243497
1105.096 .0243489
1105.686 .0243494
1106.276 .0243514
1106.867 .0243548
1107.457 .0243595
1108.049 .0243656
1108.640 .0243728
1109.232 .0243811
1109.825 .0243901
1110.417 .0243999
1111.010 .0244103
1111.604 .0244214
1112.198 .0244331
1112.792 .0244455
1113.387 .0244587
1113.982 .0244726
1114.577 .0244873
1115.173 .0245028
1115.769 .0245191
1116.366 .0245361
1116.963 .0245537
1117.561 .0245719
1118.159 .0245906
1118.758 .0246099
1119.357 .0246296
1119.957 .0246498
1120.557 .0246704
1121.157 .0246913
1121.758 .0247125
1122.360 .0247337
1122.962 .0247548
1123.564 .0247756
1124.167 .0247858
1124.771 .0248056
1125.375 .0248250
1125.980 .0248439
1126.585 .0248626
1127.191 .0248812
1127.797 .0248999
1128.404 .0249191
1129.012 .0249388
1129.620 .0249591
1130.229 .0249801
1130.838 .0250020
1131.448 .0250246
1132.058 .0250481
1132.669 .0250836
1133.281 .0251099
1133.894 .0251386
1134.507 .0251647
1135.120 .0251973
1135.735 .0252274
1136.350 .0252649
1136.965 .0252335
1137.582 .0252627
1138.199 .0252949
1138.816 .0253316
1139.435 .0253679
1140.054 .0254107
1140.674 .0254548
1141.294 .0255085
1141.916 .0255882
1142.538 .0255303
1143.160 .0257244
1143.784 .0256728
1144.408 .0258986
1145.033 .0265854
