Measurement Sequence started on: 14-45-04-498
Integration time: 36
Scans to Average: 2 
>>>>>Begin Spectral Data<<<<<
433.946 .0534335
434.870 .0520243
435.793 .0461905
436.715 .0455342
437.635 .0450766
438.555 .0456933
439.473 .0450178
440.389 .0445220
441.305 .0442418
442.219 .0439955
443.132 .0443554
444.044 .0438439
444.954 .0436325
445.863 .0434482
446.771 .0432802
447.678 .0430720
448.584 .0428919
449.488 .0427311
450.391 .0425786
451.293 .0424333
452.194 .0422946
453.094 .0421623
453.992 .0420349
454.890 .0419105
455.786 .0417883
456.681 .0416678
457.575 .0415490
458.468 .0414318
459.360 .0413168
460.250 .0412046
461.140 .0410962
462.028 .0409919
462.915 .0408925
463.801 .0407983
464.687 .0407092
465.571 .0406246
466.454 .0405441
467.335 .0404669
468.216 .0403925
469.096 .0403205
469.975 .0402508
470.853 .0401832
471.729 .0401179
472.605 .0400552
473.479 .0399954
474.353 .0399384
475.226 .0398839
476.097 .0398314
476.968 .0397801
477.838 .0397296
478.706 .0396793
479.574 .0396291
480.441 .0395793
481.306 .0395302
482.171 .0394820
483.035 .0394354
483.898 .0393905
484.760 .0393473
485.621 .0393061
486.481 .0392666
487.340 .0392289
488.198 .0391931
489.055 .0391592
489.912 .0391276
490.767 .0390989
491.622 .0390678
492.476 .0390472
493.329 .0390296
494.180 .0390145
495.032 .0390012
495.882 .0389893
496.731 .0389779
497.580 .0389661
498.427 .0389534
499.274 .0389390
500.120 .0389271
500.965 .0389074
501.809 .0388847
502.653 .0388588
503.495 .0388298
504.337 .0387977
505.178 .0387628
506.018 .0387250
506.858 .0386841
507.696 .0386400
508.534 .0385925
509.371 .0385417
510.208 .0384877
511.043 .0384307
511.878 .0383716
512.712 .0383115
513.545 .0382512
514.377 .0381919
515.209 .0381347
516.040 .0380804
516.870 .0380293
517.699 .0379813
518.528 .0379365
519.356 .0378945
520.183 .0378550
521.010 .0378176
521.836 .0377818
522.661 .0377472
523.485 .0377137
524.309 .0376808
525.132 .0376487
525.954 .0376172
526.776 .0375861
527.597 .0375553
528.417 .0375245
529.237 .0374932
530.056 .0374605
530.874 .0374253
531.692 .0373870
532.508 .0373442
533.325 .0372968
534.140 .0372447
534.955 .0371886
535.770 .0371295
536.583 .0370688
537.397 .0370078
538.209 .0369474
539.021 .0368886
539.832 .0368318
540.643 .0367769
541.453 .0367237
542.262 .0366716
543.071 .0366200
543.879 .0365689
544.687 .0365184
545.494 .0364685
546.300 .0364195
547.106 .0363720
547.911 .0363263
548.716 .0362828
549.520 .0362415
550.323 .0362025
551.126 .0361656
551.929 .0361304
552.731 .0360963
553.532 .0360628
554.332 .0360294
555.133 .0359958
555.932 .0359618
556.731 .0359275
557.530 .0358928
558.328 .0358580
559.125 .0358236
559.922 .0357899
560.719 .0357568
561.515 .0357244
562.310 .0356925
563.105 .0356609
563.899 .0356293
564.693 .0355978
565.487 .0355662
566.280 .0355351
567.072 .0355045
567.864 .0354746
568.655 .0354455
569.446 .0354170
570.236 .0353889
571.026 .0353605
571.816 .0353315
572.605 .0353013
573.393 .0352697
574.181 .0352367
574.969 .0352021
575.756 .0351662
576.543 .0351293
577.329 .0350916
578.115 .0350533
578.900 .0350146
579.685 .0349755
580.469 .0349359
581.253 .0348959
582.036 .0348554
582.820 .0348144
583.602 .0347729
584.384 .0347310
585.166 .0346887
585.947 .0346463
586.728 .0346041
587.509 .0345622
588.289 .0345209
589.069 .0344802
589.848 .0344399
590.627 .0344002
591.405 .0343610
592.183 .0343222
592.961 .0342839
593.738 .0342461
594.515 .0342090
595.291 .0341728
596.067 .0341377
596.843 .0341039
597.618 .0340716
598.393 .0340288
599.167 .0340000
599.941 .0339725
600.715 .0339462
601.488 .0339211
602.261 .0338970
603.034 .0338740
603.806 .0338520
604.578 .0338309
605.349 .0338108
606.121 .0337915
606.891 .0337835
607.662 .0337652
608.432 .0337476
609.201 .0337305
609.971 .0337138
610.740 .0336973
611.508 .0336809
612.277 .0336643
613.045 .0336474
613.812 .0336301
614.579 .0336124
615.346 .0335943
616.113 .0335758
616.879 .0335568
617.645 .0335374
618.411 .0335176
619.176 .0334973
619.941 .0334765
620.705 .0334550
621.470 .0334329
622.233 .0334100
622.997 .0333864
623.760 .0333622
624.523 .0333375
625.286 .0333125
626.048 .0332871
626.810 .0332617
627.572 .0332361
628.333 .0332106
629.095 .0331851
629.855 .0331596
630.616 .0331341
631.376 .0331086
632.136 .0330830
632.895 .0330573
633.655 .0330316
634.414 .0330057
635.172 .0329798
635.931 .0329538
636.689 .0329279
637.447 .0329019
638.204 .0328760
638.962 .0328503
639.718 .0328247
640.475 .0327993
641.231 .0327739
641.988 .0327486
642.743 .0327234
643.499 .0326982
644.254 .0326731
645.009 .0326480
645.764 .0326230
646.518 .0325981
647.272 .0325733
648.026 .0325489
648.780 .0325248
649.533 .0325011
650.286 .0324780
651.039 .0324554
651.792 .0324334
652.544 .0324121
653.296 .0323914
654.048 .0323714
654.799 .0323519
655.550 .0323330
656.301 .0323147
657.052 .0322971
657.802 .0322800
658.552 .0322635
659.302 .0322476
660.052 .0322323
660.801 .0322175
661.550 .0322032
662.299 .0321894
663.048 .0321760
663.796 .0321629
664.544 .0321502
665.292 .0321378
666.040 .0321256
666.787 .0321134
667.534 .0321013
668.281 .0320892
669.028 .0320770
669.774 .0320647
670.521 .0320525
671.266 .0320401
672.012 .0320277
672.758 .0320152
673.503 .0320026
674.248 .0319898
674.992 .0319767
675.737 .0319632
676.481 .0319493
677.225 .0319348
677.969 .0319197
678.712 .0319041
679.455 .0318878
680.199 .0318711
680.941 .0318540
681.684 .0318365
682.426 .0318186
683.168 .0318004
683.910 .0317819
684.652 .0317631
685.393 .0317441
686.134 .0317248
686.875 .0317052
687.616 .0316854
688.356 .0316654
689.097 .0316454
689.837 .0316253
690.576 .0316052
691.316 .0315852
692.055 .0315653
692.794 .0315456
693.533 .0315261
694.272 .0315069
695.010 .0314878
695.748 .0314691
696.486 .0314506
697.224 .0314324
697.962 .0314145
698.699 .0313970
699.436 .0313799
700.173 .0313632
700.909 .0313470
701.646 .0313313
702.382 .0313161
703.118 .0313014
703.853 .0312871
704.589 .0312733
705.324 .0312600
706.059 .0312471
706.794 .0312347
707.529 .0312226
708.263 .0312109
708.997 .0311996
709.731 .0311886
710.465 .0311780
711.198 .0311677
711.931 .0311579
712.664 .0311484
713.397 .0311393
714.130 .0311306
714.862 .0311221
715.594 .0311140
716.326 .0311061
717.058 .0310983
717.789 .0310908
718.520 .0310834
719.251 .0310761
719.982 .0310690
720.713 .0310621
721.443 .0310553
722.173 .0310487
722.903 .0310421
723.633 .0310356
724.362 .0310291
725.091 .0310228
725.820 .0310165
726.549 .0310103
727.278 .0310041
728.006 .0309980
728.734 .0309918
729.462 .0309857
730.190 .0309795
730.917 .0309732
731.644 .0309668
732.371 .0309603
733.098 .0309537
733.825 .0309469
734.551 .0309400
735.277 .0309329
736.003 .0309256
736.728 .0309179
737.454 .0309100
738.179 .0309017
738.904 .0308931
739.629 .0308842
740.353 .0308750
741.077 .0308654
741.801 .0308556
742.525 .0308453
743.249 .0308348
743.972 .0308238
744.695 .0308125
745.418 .0308006
746.141 .0307884
746.863 .0307756
747.585 .0307623
748.307 .0307486
749.029 .0307344
749.750 .0307198
750.472 .0307047
751.193 .0306892
751.913 .0306735
752.634 .0306574
753.354 .0306411
754.074 .0306248
754.794 .0306083
755.514 .0305918
756.233 .0305754
756.952 .0305590
757.671 .0305428
758.390 .0305269
759.108 .0305112
759.826 .0304960
760.544 .0304812
761.262 .0304669
761.979 .0304531
762.697 .0304398
763.414 .0304270
764.130 .0304147
764.847 .0304028
765.563 .0303913
766.279 .0303802
766.995 .0303694
767.710 .0303590
768.426 .0303489
769.141 .0303392
769.855 .0303298
770.570 .0303209
771.284 .0303123
771.998 .0303042
772.712 .0302965
773.426 .0302892
774.139 .0302823
774.852 .0302758
775.565 .0302698
776.277 .0302641
776.990 .0302589
777.702 .0302541
778.414 .0302497
779.125 .0302459
779.836 .0302425
780.547 .0302395
781.258 .0302370
781.969 .0302349
782.679 .0302331
783.389 .0302317
784.099 .0302304
784.808 .0302293
785.517 .0302283
786.226 .0302275
786.935 .0302267
787.643 .0302260
788.352 .0302252
789.060 .0302244
789.767 .0302235
790.475 .0302225
791.182 .0302214
791.889 .0302202
792.595 .0302192
793.301 .0302183
794.008 .0302174
794.713 .0302165
795.419 .0302156
796.124 .0302147
796.829 .0302137
797.534 .0302128
798.238 .0302118
798.942 .0302107
799.646 .0302098
800.350 .0302088
801.053 .0302079
801.756 .0302069
802.459 .0302059
803.162 .0302046
803.864 .0302032
804.566 .0302015
805.267 .0301995
805.969 .0301971
806.670 .0301943
807.371 .0301912
808.071 .0301876
808.772 .0301837
809.472 .0301792
810.171 .0301743
810.871 .0301689
811.570 .0301630
812.269 .0301564
812.967 .0301494
813.666 .0301418
814.364 .0301337
815.061 .0301251
815.759 .0301160
816.456 .0301064
817.153 .0300962
817.849 .0300855
818.545 .0300741
819.241 .0300622
819.937 .0300497
820.632 .0300366
821.327 .0300231
822.022 .0300091
822.717 .0299947
823.411 .0299800
824.105 .0299650
824.798 .0299496
825.491 .0299338
826.184 .0299177
826.877 .0299012
827.569 .0298843
828.261 .0298671
828.953 .0298495
829.645 .0298317
830.336 .0298137
831.027 .0297955
831.717 .0297771
832.407 .0297587
833.097 .0297402
833.787 .0297216
834.476 .0297030
835.165 .0296845
835.854 .0296661
836.542 .0296480
837.230 .0296300
837.918 .0296125
838.605 .0295953
839.292 .0295785
839.979 .0295621
840.665 .0295461
841.352 .0295305
842.037 .0295152
842.723 .0295004
843.408 .0294858
844.093 .0294716
844.777 .0294576
845.462 .0294437
846.145 .0294300
846.829 .0294163
847.512 .0294025
848.195 .0293886
848.878 .0293747
849.560 .0293608
850.242 .0293469
850.923 .0293331
851.605 .0293194
852.286 .0293059
852.966 .0292926
853.646 .0292795
854.326 .0292666
855.006 .0292540
855.685 .0292416
856.364 .0292295
857.043 .0292177
857.721 .0292064
858.399 .0291956
859.077 .0291853
859.754 .0291755
860.431 .0291663
861.107 .0291576
861.784 .0291496
862.459 .0291420
863.135 .0291351
863.810 .0291286
864.485 .0291227
865.160 .0291172
865.834 .0291122
866.508 .0291075
867.181 .0291033
867.854 .0290992
868.527 .0290955
869.199 .0290919
869.872 .0290886
870.543 .0290854
871.215 .0290824
871.886 .0290796
872.557 .0290768
873.227 .0290742
873.897 .0290716
874.567 .0290691
875.236 .0290664
875.905 .0290637
876.573 .0290608
877.242 .0290577
877.909 .0290545
878.577 .0290512
879.244 .0290477
879.911 .0290441
880.577 .0290405
881.243 .0290367
881.909 .0290329
882.575 .0290291
883.240 .0290252
883.904 .0290213
884.569 .0290174
885.232 .0290135
885.896 .0290097
886.559 .0290061
887.222 .0290027
887.885 .0289994
888.547 .0289965
889.208 .0289937
889.870 .0289911
890.531 .0289888
891.192 .0289867
891.852 .0289849
892.512 .0289833
893.171 .0289819
893.830 .0289808
894.489 .0289799
895.148 .0289794
895.806 .0289791
896.464 .0289790
897.121 .0289791
897.778 .0289793
898.434 .0289796
899.091 .0289799
899.747 .0289798
900.402 .0289796
901.057 .0289792
901.712 .0289785
902.366 .0289774
903.020 .0289759
903.674 .0289737
904.327 .0289708
904.980 .0289671
905.633 .0289625
906.285 .0289570
906.936 .0289505
907.588 .0289443
908.239 .0289363
908.889 .0289275
909.540 .0289178
910.190 .0289073
910.839 .0288958
911.488 .0288835
912.137 .0288703
912.785 .0288562
913.433 .0288413
914.081 .0288256
914.728 .0288092
915.375 .0287921
916.021 .0287745
916.668 .0287563
917.313 .0287375
917.959 .0287182
918.604 .0286983
919.248 .0286778
919.892 .0286568
920.536 .0286352
921.180 .0286131
921.823 .0285905
922.465 .0285675
923.108 .0285441
923.750 .0285205
924.391 .0284965
925.032 .0284723
925.673 .0284477
926.313 .0284228
926.953 .0283976
927.593 .0283720
928.232 .0283461
928.871 .0283199
929.510 .0282934
930.148 .0282668
930.786 .0282401
931.423 .0282134
932.060 .0281866
932.697 .0281599
933.333 .0281331
933.969 .0281062
934.604 .0280793
935.239 .0280523
935.874 .0280253
936.508 .0279983
937.142 .0279714
937.776 .0279445
938.409 .0279176
939.042 .0278909
939.674 .0278643
940.306 .0278377
940.938 .0278112
941.569 .0277847
942.200 .0277583
942.830 .0277320
943.460 .0277059
944.090 .0276800
944.720 .0276543
945.349 .0276290
945.977 .0276040
946.606 .0275794
947.233 .0275552
947.861 .0275313
948.488 .0275078
949.115 .0274848
949.741 .0274623
950.367 .0274405
950.993 .0274192
951.618 .0273987
952.243 .0273789
952.868 .0273598
953.492 .0273415
954.115 .0273239
954.739 .0273070
955.362 .0272909
955.984 .0272756
956.607 .0272612
957.229 .0272475
957.850 .0272348
958.471 .0272229
959.092 .0272120
959.713 .0272020
960.333 .0271929
960.952 .0271846
961.572 .0271771
962.191 .0271704
962.809 .0271644
963.428 .0271591
964.045 .0271543
964.663 .0271502
965.280 .0271466
965.897 .0271436
966.513 .0271409
967.129 .0271387
967.745 .0271369
968.361 .0271353
968.976 .0271340
969.590 .0271329
970.205 .0271320
970.818 .0271314
971.432 .0271309
972.045 .0271305
972.658 .0271303
973.271 .0271303
973.883 .0271304
974.495 .0271305
975.106 .0271307
975.717 .0271310
976.328 .0271312
976.938 .0271315
977.548 .0271319
978.158 .0271322
978.768 .0271324
979.377 .0271328
979.985 .0271332
980.594 .0271336
981.202 .0271339
981.809 .0271341
982.417 .0271342
983.024 .0271343
983.631 .0271343
984.237 .0271343
984.843 .0271343
985.449 .0271343
986.054 .0271345
986.659 .0271349
987.264 .0271357
987.868 .0271364
988.472 .0271373
989.076 .0271385
989.679 .0271400
990.282 .0271420
990.885 .0271444
991.487 .0271472
992.090 .0271505
992.691 .0271542
993.293 .0271583
993.894 .0271626
994.495 .0271671
995.095 .0271718
995.696 .0271765
996.296 .0271812
996.895 .0271859
997.494 .0271907
998.093 .0271955
998.692 .0272004
999.291 .0272052
999.889 .0272100
1000.487 .0272148
1001.084 .0272194
1001.681 .0272239
1002.278 .0272282
1002.875 .0272324
1003.471 .0272364
1004.067 .0272403
1004.663 .0272442
1005.258 .0272480
1005.854 .0272518
1006.449 .0272554
1007.043 .0272589
1007.638 .0272621
1008.232 .0272650
1008.826 .0272677
1009.419 .0272700
1010.012 .0272721
1010.605 .0272739
1011.198 .0272755
1011.791 .0272769
1012.383 .0272782
1012.975 .0272795
1013.566 .0272806
1014.158 .0272818
1014.749 .0272829
1015.340 .0272840
1015.931 .0272851
1016.521 .0272862
1017.111 .0272872
1017.701 .0272883
1018.291 .0272893
1018.880 .0272901
1019.470 .0272908
1020.059 .0272913
1020.647 .0272915
1021.236 .0272914
1021.824 .0272909
1022.412 .0272900
1023.000 .0272886
1023.588 .0272869
1024.175 .0272848
1024.762 .0272822
1025.349 .0272792
1025.936 .0272758
1026.523 .0272720
1027.109 .0272679
1027.695 .0272635
1028.281 .0272589
1028.867 .0272542
1029.452 .0272494
1030.038 .0272446
1030.623 .0272397
1031.208 .0272347
1031.792 .0272295
1032.377 .0272241
1032.961 .0272185
1033.546 .0272125
1034.130 .0272062
1034.714 .0271996
1035.297 .0271927
1035.881 .0271856
1036.464 .0271782
1037.047 .0271705
1037.630 .0271625
1038.213 .0271540
1038.796 .0271450
1039.378 .0271355
1039.961 .0271255
1040.543 .0271151
1041.125 .0271043
1041.707 .0270931
1042.289 .0270817
1042.871 .0270700
1043.452 .0270580
1044.034 .0270458
1044.615 .0270331
1045.196 .0270201
1045.777 .0270066
1046.358 .0269927
1046.939 .0269784
1047.520 .0269639
1048.101 .0269493
1048.681 .0269345
1049.262 .0269196
1049.842 .0269047
1050.422 .0268896
1051.002 .0268745
1051.582 .0268591
1052.162 .0268437
1052.742 .0268282
1053.322 .0268127
1053.902 .0267974
1054.482 .0267824
1055.061 .0267677
1055.641 .0267535
1056.220 .0267397
1056.800 .0267264
1057.379 .0267134
1057.958 .0267008
1058.538 .0266884
1059.117 .0266763
1059.696 .0266645
1060.275 .0266529
1060.854 .0266417
1061.433 .0266308
1062.012 .0266202
1062.592 .0266100
1063.171 .0266001
1063.750 .0265904
1064.329 .0265808
1064.908 .0265715
1065.487 .0265623
1066.066 .0265533
1066.645 .0265446
1067.224 .0265363
1067.803 .0265284
1068.382 .0265209
1068.961 .0265137
1069.540 .0265068
1070.119 .0265003
1070.698 .0264940
1071.278 .0264879
1071.857 .0264819
1072.436 .0264761
1073.016 .0264704
1073.595 .0264647
1074.175 .0264591
1074.754 .0264535
1075.334 .0264480
1075.913 .0264423
1076.493 .0264367
1077.073 .0264309
1077.653 .0264249
1078.233 .0264188
1078.813 .0264125
1079.393 .0264059
1079.974 .0263989
1080.554 .0263917
1081.135 .0263841
1081.716 .0263762
1082.296 .0263681
1082.877 .0263597
1083.458 .0263510
1084.040 .0263419
1084.621 .0263324
1085.202 .0263225
1085.784 .0263121
1086.366 .0263012
1086.948 .0262900
1087.530 .0262785
1088.112 .0262668
1088.695 .0262550
1089.277 .0262433
1089.860 .0262318
1090.443 .0262206
1091.026 .0262095
1091.610 .0261985
1092.193 .0261878
1092.777 .0261771
1093.361 .0261667
1093.946 .0261565
1094.530 .0261466
1095.115 .0261372
1095.700 .0261282
1096.285 .0261199
1096.871 .0261122
1097.456 .0261052
1098.042 .0260987
1098.628 .0260928
1099.215 .0260873
1099.802 .0260824
1100.389 .0260781
1100.976 .0260747
1101.564 .0260722
1102.152 .0260708
1102.740 .0260705
1103.329 .0260715
1103.917 .0260737
1104.507 .0260770
1105.096 .0260814
1105.686 .0260870
1106.276 .0260936
1106.867 .0261015
1107.457 .0261107
1108.049 .0261214
1108.640 .0261340
1109.232 .0261483
1109.825 .0261645
1110.417 .0261824
1111.010 .0262018
1111.604 .0262228
1112.198 .0262452
1112.792 .0262693
1113.387 .0262948
1113.982 .0263221
1114.577 .0263510
1115.173 .0263813
1115.769 .0264131
1116.366 .0264458
1116.963 .0264789
1117.561 .0265121
1118.159 .0265446
1118.758 .0265761
1119.357 .0266068
1119.957 .0266366
1120.557 .0266657
1121.157 .0266944
1121.758 .0267229
1122.360 .0267512
1122.962 .0267791
1123.564 .0268065
1124.167 .0268246
1124.771 .0268506
1125.375 .0268752
1125.980 .0268981
1126.585 .0269192
1127.191 .0269390
1127.797 .0269579
1128.404 .0269767
1129.012 .0269957
1129.620 .0270154
1130.229 .0270358
1130.838 .0270568
1131.448 .0270781
1132.058 .0270997
1132.669 .0271269
1133.281 .0271493
1133.894 .0271730
1134.507 .0271938
1135.120 .0272244
1135.735 .0272584
1136.350 .0272979
1136.965 .0271747
1137.582 .0272359
1138.199 .0273029
1138.816 .0273703
1139.435 .0274315
1140.054 .0274915
1140.674 .0275515
1141.294 .0276132
1141.916 .0276715
1142.538 .0275987
1143.160 .0278569
1143.784 .0279393
1144.408 .0280756
1145.033 .0279333
