Measurement Sequence started on: 14-45-04-498
Integration time: 36
Scans to Average: 2 
>>>>>Begin Spectral Data<<<<<
433.946 .0462400
434.870 .0483775
435.793 .0458410
436.715 .0456861
437.635 .0460295
438.555 .0462368
439.473 .0461802
440.389 .0460611
441.305 .0459913
442.219 .0458724
443.132 .0455561
444.044 .0453338
444.954 .0452376
445.863 .0451415
446.771 .0450187
447.678 .0448764
448.584 .0447282
449.488 .0445780
450.391 .0444234
451.293 .0442676
452.194 .0441137
453.094 .0439631
453.992 .0438167
454.890 .0436740
455.786 .0435335
456.681 .0433942
457.575 .0432547
458.468 .0431141
459.360 .0429721
460.250 .0428293
461.140 .0426865
462.028 .0425450
462.915 .0424063
463.801 .0422717
464.687 .0421416
465.571 .0420168
466.454 .0418967
467.335 .0417811
468.216 .0416692
469.096 .0415604
469.975 .0414544
470.853 .0413514
471.729 .0412518
472.605 .0411569
473.479 .0410678
474.353 .0409855
475.226 .0409102
476.097 .0408420
476.968 .0407800
477.838 .0407235
478.706 .0406711
479.574 .0406218
480.441 .0405747
481.306 .0405293
482.171 .0404853
483.035 .0404429
483.898 .0404024
484.760 .0403638
485.621 .0403272
486.481 .0402922
487.340 .0402579
488.198 .0402236
489.055 .0401881
489.912 .0401509
490.767 .0401118
491.622 .0400474
492.476 .0400055
493.329 .0399633
494.180 .0399211
495.032 .0398795
495.882 .0398384
496.731 .0397977
497.580 .0397572
498.427 .0397162
499.274 .0396746
500.120 .0396535
500.965 .0396101
501.809 .0395654
502.653 .0395192
503.495 .0394715
504.337 .0394225
505.178 .0393721
506.018 .0393203
506.858 .0392669
507.696 .0392119
508.534 .0391552
509.371 .0390967
510.208 .0390364
511.043 .0389747
511.878 .0389116
512.712 .0388472
513.545 .0387817
514.377 .0387154
515.209 .0386484
516.040 .0385809
516.870 .0385131
517.699 .0384452
518.528 .0383778
519.356 .0383116
520.183 .0382470
521.010 .0381846
521.836 .0381243
522.661 .0380662
523.485 .0380098
524.309 .0379549
525.132 .0379009
525.954 .0378476
526.776 .0377951
527.597 .0377434
528.417 .0376924
529.237 .0376429
530.056 .0375957
530.874 .0375512
531.692 .0375094
532.508 .0374703
533.325 .0374336
534.140 .0373985
534.955 .0373645
535.770 .0373308
536.583 .0372963
537.397 .0372608
538.209 .0372239
539.021 .0371859
539.832 .0371476
540.643 .0371098
541.453 .0370733
542.262 .0370385
543.071 .0370054
543.879 .0369737
544.687 .0369427
545.494 .0369118
546.300 .0368800
547.106 .0368467
547.911 .0368118
548.716 .0367755
549.520 .0367385
550.323 .0367019
551.126 .0366666
551.929 .0366334
552.731 .0366029
553.532 .0365752
554.332 .0365504
555.133 .0365284
555.932 .0365088
556.731 .0364910
557.530 .0364746
558.328 .0364590
559.125 .0364442
559.922 .0364302
560.719 .0364170
561.515 .0364048
562.310 .0363936
563.105 .0363833
563.899 .0363736
564.693 .0363639
565.487 .0363539
566.280 .0363430
567.072 .0363307
567.864 .0363164
568.655 .0362999
569.446 .0362811
570.236 .0362600
571.026 .0362366
571.816 .0362112
572.605 .0361839
573.393 .0361550
574.181 .0361247
574.969 .0360934
575.756 .0360611
576.543 .0360280
577.329 .0359943
578.115 .0359599
578.900 .0359248
579.685 .0358892
580.469 .0358531
581.253 .0358166
582.036 .0357800
582.820 .0357433
583.602 .0357068
584.384 .0356707
585.166 .0356350
585.947 .0356000
586.728 .0355658
587.509 .0355326
588.289 .0355004
589.069 .0354693
589.848 .0354393
590.627 .0354103
591.405 .0353822
592.183 .0353549
592.961 .0353282
593.738 .0353022
594.515 .0352768
595.291 .0352521
596.067 .0352282
596.843 .0352051
597.618 .0351829
598.393 .0351517
599.167 .0351307
599.941 .0351100
600.715 .0350895
601.488 .0350688
602.261 .0350480
603.034 .0350268
603.806 .0350053
604.578 .0349834
605.349 .0349613
606.121 .0349390
606.891 .0349268
607.662 .0349042
608.432 .0348813
609.201 .0348583
609.971 .0348352
610.740 .0348118
611.508 .0347882
612.277 .0347645
613.045 .0347406
613.812 .0347166
614.579 .0346926
615.346 .0346686
616.113 .0346446
616.879 .0346208
617.645 .0345971
618.411 .0345736
619.176 .0345502
619.941 .0345269
620.705 .0345039
621.470 .0344811
622.233 .0344586
622.997 .0344364
623.760 .0344146
624.523 .0343932
625.286 .0343723
626.048 .0343519
626.810 .0343320
627.572 .0343126
628.333 .0342938
629.095 .0342754
629.855 .0342575
630.616 .0342401
631.376 .0342232
632.136 .0342069
632.895 .0341911
633.655 .0341758
634.414 .0341610
635.172 .0341468
635.931 .0341329
636.689 .0341195
637.447 .0341063
638.204 .0340934
638.962 .0340807
639.718 .0340680
640.475 .0340554
641.231 .0340429
641.988 .0340304
642.743 .0340178
643.499 .0340053
644.254 .0339926
645.009 .0339798
645.764 .0339668
646.518 .0339536
647.272 .0339401
648.026 .0339262
648.780 .0339119
649.533 .0338970
650.286 .0338816
651.039 .0338657
651.792 .0338492
652.544 .0338323
653.296 .0338149
654.048 .0337972
654.799 .0337793
655.550 .0337612
656.301 .0337429
657.052 .0337245
657.802 .0337060
658.552 .0336875
659.302 .0336689
660.052 .0336503
660.801 .0336317
661.550 .0336131
662.299 .0335948
663.048 .0335766
663.796 .0335586
664.544 .0335408
665.292 .0335234
666.040 .0335064
666.787 .0334898
667.534 .0334737
668.281 .0334581
669.028 .0334432
669.774 .0334287
670.521 .0334149
671.266 .0334017
672.012 .0333890
672.758 .0333768
673.503 .0333651
674.248 .0333538
674.992 .0333431
675.737 .0333328
676.481 .0333230
677.225 .0333135
677.969 .0333044
678.712 .0332956
679.455 .0332870
680.199 .0332786
680.941 .0332703
681.684 .0332621
682.426 .0332538
683.168 .0332456
683.910 .0332372
684.652 .0332287
685.393 .0332199
686.134 .0332110
686.875 .0332018
687.616 .0331925
688.356 .0331830
689.097 .0331733
689.837 .0331635
690.576 .0331536
691.316 .0331436
692.055 .0331333
692.794 .0331227
693.533 .0331117
694.272 .0331004
695.010 .0330886
695.748 .0330763
696.486 .0330636
697.224 .0330505
697.962 .0330371
698.699 .0330234
699.436 .0330094
700.173 .0329951
700.909 .0329807
701.646 .0329660
702.382 .0329512
703.118 .0329361
703.853 .0329209
704.589 .0329053
705.324 .0328896
706.059 .0328735
706.794 .0328572
707.529 .0328406
708.263 .0328237
708.997 .0328067
709.731 .0327896
710.465 .0327723
711.198 .0327549
711.931 .0327373
712.664 .0327195
713.397 .0327015
714.130 .0326832
714.862 .0326645
715.594 .0326455
716.326 .0326262
717.058 .0326066
717.789 .0325868
718.520 .0325669
719.251 .0325469
719.982 .0325270
720.713 .0325072
721.443 .0324876
722.173 .0324681
722.903 .0324488
723.633 .0324299
724.362 .0324112
725.091 .0323929
725.820 .0323751
726.549 .0323577
727.278 .0323409
728.006 .0323246
728.734 .0323091
729.462 .0322942
730.190 .0322800
730.917 .0322666
731.644 .0322539
732.371 .0322418
733.098 .0322304
733.825 .0322196
734.551 .0322094
735.277 .0321997
736.003 .0321905
736.728 .0321817
737.454 .0321734
738.179 .0321653
738.904 .0321575
739.629 .0321499
740.353 .0321423
741.077 .0321347
741.801 .0321270
742.525 .0321191
743.249 .0321108
743.972 .0321023
744.695 .0320935
745.418 .0320843
746.141 .0320748
746.863 .0320650
747.585 .0320550
748.307 .0320447
749.029 .0320341
749.750 .0320232
750.472 .0320120
751.193 .0320004
751.913 .0319885
752.634 .0319763
753.354 .0319638
754.074 .0319510
754.794 .0319381
755.514 .0319251
756.233 .0319119
756.952 .0318987
757.671 .0318854
758.390 .0318721
759.108 .0318587
759.826 .0318453
760.544 .0318317
761.262 .0318179
761.979 .0318040
762.697 .0317899
763.414 .0317755
764.130 .0317609
764.847 .0317460
765.563 .0317308
766.279 .0317153
766.995 .0316996
767.710 .0316836
768.426 .0316674
769.141 .0316510
769.855 .0316342
770.570 .0316172
771.284 .0315998
771.998 .0315821
772.712 .0315640
773.426 .0315457
774.139 .0315271
774.852 .0315084
775.565 .0314896
776.277 .0314708
776.990 .0314520
777.702 .0314332
778.414 .0314146
779.125 .0313962
779.836 .0313778
780.547 .0313597
781.258 .0313419
781.969 .0313243
782.679 .0313071
783.389 .0312826
784.099 .0312663
784.808 .0312503
785.517 .0312348
786.226 .0312196
786.935 .0312049
787.643 .0311905
788.352 .0311765
789.060 .0311628
789.767 .0311496
790.475 .0311366
791.182 .0311239
791.889 .0311181
792.595 .0311056
793.301 .0310932
794.008 .0310809
794.713 .0310687
795.419 .0310565
796.124 .0310445
796.829 .0310325
797.534 .0310207
798.238 .0310089
798.942 .0309972
799.646 .0309856
800.350 .0309740
801.053 .0309626
801.756 .0309512
802.459 .0309400
803.162 .0309290
803.864 .0309181
804.566 .0309073
805.267 .0308967
805.969 .0308863
806.670 .0308760
807.371 .0308658
808.071 .0308556
808.772 .0308456
809.472 .0308356
810.171 .0308257
810.871 .0308157
811.570 .0308058
812.269 .0307959
812.967 .0307858
813.666 .0307756
814.364 .0307653
815.061 .0307548
815.759 .0307440
816.456 .0307331
817.153 .0307220
817.849 .0307107
818.545 .0306991
819.241 .0306874
819.937 .0306753
820.632 .0306630
821.327 .0306503
822.022 .0306373
822.717 .0306239
823.411 .0306101
824.105 .0305960
824.798 .0305818
825.491 .0305673
826.184 .0305528
826.877 .0305381
827.569 .0305235
828.261 .0305088
828.953 .0304941
829.645 .0304795
830.336 .0304649
831.027 .0304505
831.717 .0304361
832.407 .0304219
833.097 .0304078
833.787 .0303940
834.476 .0303805
835.165 .0303672
835.854 .0303542
836.542 .0303413
837.230 .0303287
837.918 .0303162
838.605 .0303037
839.292 .0302913
839.979 .0302788
840.665 .0302663
841.352 .0302536
842.037 .0302407
842.723 .0302276
843.408 .0302142
844.093 .0302005
844.777 .0301863
845.462 .0301717
846.145 .0301567
846.829 .0301412
847.512 .0301251
848.195 .0301086
848.878 .0300916
849.560 .0300741
850.242 .0300561
850.923 .0300375
851.605 .0300184
852.286 .0299987
852.966 .0299785
853.646 .0299578
854.326 .0299367
855.006 .0299152
855.685 .0298935
856.364 .0298716
857.043 .0298498
857.721 .0298281
858.399 .0298066
859.077 .0297852
859.754 .0297641
860.431 .0297432
861.107 .0297227
861.784 .0297024
862.459 .0296825
863.135 .0296630
863.810 .0296440
864.485 .0296253
865.160 .0296070
865.834 .0295891
866.508 .0295716
867.181 .0295543
867.854 .0295373
868.527 .0295206
869.199 .0295040
869.872 .0294876
870.543 .0294715
871.215 .0294556
871.886 .0294400
872.557 .0294247
873.227 .0294097
873.897 .0293951
874.567 .0293807
875.236 .0293666
875.905 .0293528
876.573 .0293392
877.242 .0293258
877.909 .0293126
878.577 .0292998
879.244 .0292872
879.911 .0292749
880.577 .0292630
881.243 .0292515
881.909 .0292403
882.575 .0292296
883.240 .0292193
883.904 .0292094
884.569 .0292000
885.232 .0291911
885.896 .0291827
886.559 .0291749
887.222 .0291676
887.885 .0291610
888.547 .0291549
889.208 .0291493
889.870 .0291440
890.531 .0291391
891.192 .0291345
891.852 .0291301
892.512 .0291259
893.171 .0291219
893.830 .0291181
894.489 .0291144
895.148 .0291108
895.806 .0291072
896.464 .0291035
897.121 .0290996
897.778 .0290955
898.434 .0290913
899.091 .0290839
899.747 .0290792
900.402 .0290744
901.057 .0290695
901.712 .0290645
902.366 .0290593
903.020 .0290538
903.674 .0290480
904.327 .0290418
904.980 .0290350
905.633 .0290277
906.285 .0290199
906.936 .0290115
907.588 .0290061
908.239 .0289969
908.889 .0289871
909.540 .0289767
910.190 .0289657
910.839 .0289541
911.488 .0289421
912.137 .0289295
912.785 .0289165
913.433 .0289031
914.081 .0288895
914.728 .0288756
915.375 .0288615
916.021 .0288472
916.668 .0288327
917.313 .0288180
917.959 .0288032
918.604 .0287882
919.248 .0287730
919.892 .0287576
920.536 .0287420
921.180 .0287261
921.823 .0287100
922.465 .0286935
923.108 .0286768
923.750 .0286597
924.391 .0286424
925.032 .0286247
925.673 .0286069
926.313 .0285888
926.953 .0285705
927.593 .0285519
928.232 .0285332
928.871 .0285143
929.510 .0284953
930.148 .0284762
930.786 .0284570
931.423 .0284378
932.060 .0284185
932.697 .0283992
933.333 .0283798
933.969 .0283602
934.604 .0283403
935.239 .0283202
935.874 .0282997
936.508 .0282789
937.142 .0282579
937.776 .0282368
938.409 .0282157
939.042 .0281946
939.674 .0281735
940.306 .0281526
940.938 .0281316
941.569 .0281106
942.200 .0280896
942.830 .0280684
943.460 .0280473
944.090 .0280262
944.720 .0280052
945.349 .0279844
945.977 .0279637
946.606 .0279432
947.233 .0279229
947.861 .0279026
948.488 .0278822
949.115 .0278617
949.741 .0278412
950.367 .0278206
950.993 .0278000
951.618 .0277795
952.243 .0277591
952.868 .0277389
953.492 .0277189
954.115 .0276990
954.739 .0276793
955.362 .0276597
955.984 .0276402
956.607 .0276209
957.229 .0276018
957.850 .0275829
958.471 .0275644
959.092 .0275462
959.713 .0275284
960.333 .0275108
960.952 .0274935
961.572 .0274765
962.191 .0274597
962.809 .0274431
963.428 .0274268
964.045 .0274107
964.663 .0273951
965.280 .0273798
965.897 .0273649
966.513 .0273503
967.129 .0273361
967.745 .0273221
968.361 .0273083
968.976 .0272948
969.590 .0272816
970.205 .0272686
970.818 .0272560
971.432 .0272437
972.045 .0272318
972.658 .0272203
973.271 .0272092
973.883 .0271985
974.495 .0271883
975.106 .0271786
975.717 .0271694
976.328 .0271608
976.938 .0271529
977.548 .0271456
978.158 .0271390
978.768 .0271320
979.377 .0271271
979.985 .0271228
980.594 .0271190
981.202 .0271155
981.809 .0271124
982.417 .0271095
983.024 .0271068
983.631 .0271043
984.237 .0271020
984.843 .0270999
985.449 .0270980
986.054 .0270962
986.659 .0270946
987.264 .0270935
987.868 .0270920
988.472 .0270905
989.076 .0270890
989.679 .0270876
990.282 .0270861
990.885 .0270847
991.487 .0270833
992.090 .0270818
992.691 .0270804
993.293 .0270791
993.894 .0270778
994.495 .0270764
995.095 .0270750
995.696 .0270734
996.296 .0270717
996.895 .0270698
997.494 .0270677
998.093 .0270656
998.692 .0270633
999.291 .0270611
999.889 .0270590
1000.487 .0270571
1001.084 .0270555
1001.681 .0270541
1002.278 .0270531
1002.875 .0270525
1003.471 .0270521
1004.067 .0270519
1004.663 .0270520
1005.258 .0270524
1005.854 .0270530
1006.449 .0270539
1007.043 .0270552
1007.638 .0270569
1008.232 .0270590
1008.826 .0270615
1009.419 .0270644
1010.012 .0270676
1010.605 .0270711
1011.198 .0270747
1011.791 .0270785
1012.383 .0270823
1012.975 .0270861
1013.566 .0270900
1014.158 .0270940
1014.749 .0270980
1015.340 .0271020
1015.931 .0271060
1016.521 .0271098
1017.111 .0271134
1017.701 .0271167
1018.291 .0271195
1018.880 .0271217
1019.470 .0271234
1020.059 .0271245
1020.647 .0271252
1021.236 .0271253
1021.824 .0271252
1022.412 .0271247
1023.000 .0271240
1023.588 .0271231
1024.175 .0271220
1024.762 .0271205
1025.349 .0271187
1025.936 .0271165
1026.523 .0271139
1027.109 .0271108
1027.695 .0271074
1028.281 .0271035
1028.867 .0270993
1029.452 .0270950
1030.038 .0270906
1030.623 .0270861
1031.208 .0270817
1031.792 .0270773
1032.377 .0270729
1032.961 .0270684
1033.546 .0270639
1034.130 .0270595
1034.714 .0270550
1035.297 .0270507
1035.881 .0270465
1036.464 .0270425
1037.047 .0270387
1037.630 .0270351
1038.213 .0270316
1038.796 .0270280
1039.378 .0270241
1039.961 .0270197
1040.543 .0270148
1041.125 .0270092
1041.707 .0270029
1042.289 .0269960
1042.871 .0269886
1043.452 .0269806
1044.034 .0269724
1044.615 .0269638
1045.196 .0269550
1045.777 .0269461
1046.358 .0269368
1046.939 .0269273
1047.520 .0269176
1048.101 .0269075
1048.681 .0268972
1049.262 .0268868
1049.842 .0268763
1050.422 .0268659
1051.002 .0268557
1051.582 .0268456
1052.162 .0268356
1052.742 .0268257
1053.322 .0268158
1053.902 .0268058
1054.482 .0267957
1055.061 .0267856
1055.641 .0267755
1056.220 .0267656
1056.800 .0267560
1057.379 .0267467
1057.958 .0267379
1058.538 .0267297
1059.117 .0267219
1059.696 .0267145
1060.275 .0267074
1060.854 .0267005
1061.433 .0266937
1062.012 .0266870
1062.592 .0266804
1063.171 .0266739
1063.750 .0266675
1064.329 .0266612
1064.908 .0266549
1065.487 .0266487
1066.066 .0266424
1066.645 .0266361
1067.224 .0266295
1067.803 .0266226
1068.382 .0266156
1068.961 .0266084
1069.540 .0266011
1070.119 .0265939
1070.698 .0265866
1071.278 .0265795
1071.857 .0265723
1072.436 .0265651
1073.016 .0265577
1073.595 .0265500
1074.175 .0265419
1074.754 .0265334
1075.334 .0265244
1075.913 .0265150
1076.493 .0265051
1077.073 .0264950
1077.653 .0264846
1078.233 .0264739
1078.813 .0264628
1079.393 .0264514
1079.974 .0264396
1080.554 .0264274
1081.135 .0264150
1081.716 .0264025
1082.296 .0263902
1082.877 .0263781
1083.458 .0263664
1084.040 .0263553
1084.621 .0263447
1085.202 .0263348
1085.784 .0263254
1086.366 .0263166
1086.948 .0263084
1087.530 .0263008
1088.112 .0262940
1088.695 .0262879
1089.277 .0262828
1089.860 .0262786
1090.443 .0262755
1091.026 .0262733
1091.610 .0262722
1092.193 .0262719
1092.777 .0262724
1093.361 .0262737
1093.946 .0262758
1094.530 .0262786
1095.115 .0262823
1095.700 .0262870
1096.285 .0262926
1096.871 .0262991
1097.456 .0263065
1098.042 .0263146
1098.628 .0263232
1099.215 .0263321
1099.802 .0263410
1100.389 .0263499
1100.976 .0263587
1101.564 .0263674
1102.152 .0263761
1102.740 .0263850
1103.329 .0263941
1103.917 .0264034
1104.507 .0264131
1105.096 .0264230
1105.686 .0264333
1106.276 .0264441
1106.867 .0264553
1107.457 .0264671
1108.049 .0264794
1108.640 .0264925
1109.232 .0265063
1109.825 .0265209
1110.417 .0265363
1111.010 .0265523
1111.604 .0265688
1112.198 .0265857
1112.792 .0266028
1113.387 .0266201
1113.982 .0266376
1114.577 .0266550
1115.173 .0266725
1115.769 .0266900
1116.366 .0267076
1116.963 .0267252
1117.561 .0267429
1118.159 .0267608
1118.758 .0267788
1119.357 .0267969
1119.957 .0268150
1120.557 .0268330
1121.157 .0268508
1121.758 .0268685
1122.360 .0268860
1122.962 .0269037
1123.564 .0269215
1124.167 .0269313
1124.771 .0269492
1125.375 .0269679
1125.980 .0269876
1126.585 .0270084
1127.191 .0270305
1127.797 .0270538
1128.404 .0270782
1129.012 .0271038
1129.620 .0271306
1130.229 .0271591
1130.838 .0271897
1131.448 .0272225
1132.058 .0272579
1132.669 .0273082
1133.281 .0273500
1133.894 .0273956
1134.507 .0274411
1135.120 .0274882
1135.735 .0275329
1136.350 .0275908
1136.965 .0275818
1137.582 .0276364
1138.199 .0276986
1138.816 .0277729
1139.435 .0278503
1140.054 .0279327
1140.674 .0280122
1141.294 .0280978
1141.916 .0282036
1142.538 .0282114
1143.160 .0282632
1143.784 .0282055
1144.408 .0285722
1145.033 .0293192
