Measurement Sequence started on: 14-45-04-498
Integration time: 36
Scans to Average: 2 
>>>>>Begin Spectral Data<<<<<
433.946 .0522635
434.870 .0554584
435.793 .0489516
436.715 .0483905
437.635 .0480608
438.555 .0482458
439.473 .0476666
440.389 .0471220
441.305 .0468252
442.219 .0465599
443.132 .0469983
444.044 .0464404
444.954 .0462201
445.863 .0460248
446.771 .0458430
447.678 .0456478
448.584 .0454798
449.488 .0453379
450.391 .0452089
451.293 .0450915
452.194 .0449849
453.094 .0448874
453.992 .0447985
454.890 .0447172
455.786 .0446421
456.681 .0445730
457.575 .0445093
458.468 .0444501
459.360 .0443944
460.250 .0443413
461.140 .0442893
462.028 .0442373
462.915 .0441848
463.801 .0441308
464.687 .0440752
465.571 .0440181
466.454 .0439593
467.335 .0438989
468.216 .0438371
469.096 .0437735
469.975 .0437080
470.853 .0436401
471.729 .0435691
472.605 .0434949
473.479 .0434184
474.353 .0433403
475.226 .0432619
476.097 .0431851
476.968 .0431112
477.838 .0430415
478.706 .0429770
479.574 .0429180
480.441 .0428643
481.306 .0428158
482.171 .0427713
483.035 .0427302
483.898 .0426918
484.760 .0426558
485.621 .0426224
486.481 .0425922
487.340 .0425654
488.198 .0425421
489.055 .0425220
489.912 .0425045
490.767 .0424881
491.622 .0424580
492.476 .0424365
493.329 .0424117
494.180 .0423827
495.032 .0423494
495.882 .0423117
496.731 .0422703
497.580 .0422256
498.427 .0421779
499.274 .0421271
500.120 .0420935
500.965 .0420378
501.809 .0419787
502.653 .0419160
503.495 .0418495
504.337 .0417793
505.178 .0417059
506.018 .0416301
506.858 .0415527
507.696 .0414748
508.534 .0413976
509.371 .0413224
510.208 .0412499
511.043 .0411810
511.878 .0411160
512.712 .0410554
513.545 .0409994
514.377 .0409482
515.209 .0409019
516.040 .0408609
516.870 .0408256
517.699 .0407962
518.528 .0407721
519.356 .0407533
520.183 .0407387
521.010 .0407273
521.836 .0407176
522.661 .0407084
523.485 .0406983
524.309 .0406863
525.132 .0406714
525.954 .0406531
526.776 .0406307
527.597 .0406039
528.417 .0405722
529.237 .0405354
530.056 .0404929
530.874 .0404444
531.692 .0403899
532.508 .0403294
533.325 .0402629
534.140 .0401909
534.955 .0401140
535.770 .0400333
536.583 .0399493
537.397 .0398633
538.209 .0397762
539.021 .0396889
539.832 .0396023
540.643 .0395171
541.453 .0394342
542.262 .0393541
543.071 .0392770
543.879 .0392034
544.687 .0391332
545.494 .0390666
546.300 .0390035
547.106 .0389440
547.911 .0388878
548.716 .0388347
549.520 .0387842
550.323 .0387362
551.126 .0386899
551.929 .0386449
552.731 .0386007
553.532 .0385571
554.332 .0385136
555.133 .0384700
555.932 .0384262
556.731 .0383823
557.530 .0383379
558.328 .0382928
559.125 .0382464
559.922 .0381989
560.719 .0381496
561.515 .0380986
562.310 .0380458
563.105 .0379914
563.899 .0379354
564.693 .0378781
565.487 .0378199
566.280 .0377610
567.072 .0377017
567.864 .0376425
568.655 .0375837
569.446 .0375255
570.236 .0374681
571.026 .0374120
571.816 .0373571
572.605 .0373039
573.393 .0372523
574.181 .0372024
574.969 .0371543
575.756 .0371081
576.543 .0370636
577.329 .0370208
578.115 .0369797
578.900 .0369401
579.685 .0369021
580.469 .0368655
581.253 .0368302
582.036 .0367962
582.820 .0367632
583.602 .0367309
584.384 .0366992
585.166 .0366679
585.947 .0366369
586.728 .0366060
587.509 .0365751
588.289 .0365442
589.069 .0365131
589.848 .0364821
590.627 .0364509
591.405 .0364198
592.183 .0363886
592.961 .0363574
593.738 .0363261
594.515 .0362948
595.291 .0362634
596.067 .0362318
596.843 .0361998
597.618 .0361674
598.393 .0361156
599.167 .0360814
599.941 .0360466
600.715 .0360113
601.488 .0359755
602.261 .0359392
603.034 .0359026
603.806 .0358656
604.578 .0358286
605.349 .0357917
606.121 .0357549
606.891 .0357376
607.662 .0357018
608.432 .0356663
609.201 .0356314
609.971 .0355971
610.740 .0355634
611.508 .0355304
612.277 .0354979
613.045 .0354661
613.812 .0354350
614.579 .0354046
615.346 .0353750
616.113 .0353461
616.879 .0353179
617.645 .0352904
618.411 .0352633
619.176 .0352366
619.941 .0352102
620.705 .0351839
621.470 .0351577
622.233 .0351314
622.997 .0351052
623.760 .0350790
624.523 .0350528
625.286 .0350265
626.048 .0350002
626.810 .0349739
627.572 .0349475
628.333 .0349212
629.095 .0348947
629.855 .0348682
630.616 .0348416
631.376 .0348149
632.136 .0347880
632.895 .0347610
633.655 .0347337
634.414 .0347063
635.172 .0346785
635.931 .0346505
636.689 .0346223
637.447 .0345939
638.204 .0345652
638.962 .0345364
639.718 .0345073
640.475 .0344780
641.231 .0344485
641.988 .0344187
642.743 .0343887
643.499 .0343585
644.254 .0343281
645.009 .0342976
645.764 .0342671
646.518 .0342367
647.272 .0342065
648.026 .0341765
648.780 .0341469
649.533 .0341177
650.286 .0340891
651.039 .0340609
651.792 .0340334
652.544 .0340064
653.296 .0339801
654.048 .0339544
654.799 .0339294
655.550 .0339051
656.301 .0338815
657.052 .0338585
657.802 .0338361
658.552 .0338142
659.302 .0337928
660.052 .0337718
660.801 .0337511
661.550 .0337307
662.299 .0337105
663.048 .0336905
663.796 .0336707
664.544 .0336512
665.292 .0336318
666.040 .0336127
666.787 .0335939
667.534 .0335753
668.281 .0335570
669.028 .0335389
669.774 .0335210
670.521 .0335033
671.266 .0334856
672.012 .0334680
672.758 .0334504
673.503 .0334327
674.248 .0334150
674.992 .0333973
675.737 .0333795
676.481 .0333617
677.225 .0333438
677.969 .0333258
678.712 .0333077
679.455 .0332893
680.199 .0332707
680.941 .0332517
681.684 .0332323
682.426 .0332125
683.168 .0331921
683.910 .0331712
684.652 .0331498
685.393 .0331280
686.134 .0331057
686.875 .0330832
687.616 .0330605
688.356 .0330375
689.097 .0330146
689.837 .0329916
690.576 .0329686
691.316 .0329457
692.055 .0329229
692.794 .0329002
693.533 .0328777
694.272 .0328554
695.010 .0328334
695.748 .0328118
696.486 .0327907
697.224 .0327701
697.962 .0327502
698.699 .0327310
699.436 .0327125
700.173 .0326947
700.909 .0326776
701.646 .0326612
702.382 .0326452
703.118 .0326298
703.853 .0326148
704.589 .0326001
705.324 .0325857
706.059 .0325716
706.794 .0325579
707.529 .0325445
708.263 .0325315
708.997 .0325190
709.731 .0325069
710.465 .0324952
711.198 .0324839
711.931 .0324729
712.664 .0324622
713.397 .0324517
714.130 .0324413
714.862 .0324310
715.594 .0324207
716.326 .0324105
717.058 .0324004
717.789 .0323903
718.520 .0323802
719.251 .0323701
719.982 .0323599
720.713 .0323496
721.443 .0323391
722.173 .0323284
722.903 .0323174
723.633 .0323061
724.362 .0322943
725.091 .0322822
725.820 .0322697
726.549 .0322568
727.278 .0322435
728.006 .0322298
728.734 .0322159
729.462 .0322017
730.190 .0321872
730.917 .0321726
731.644 .0321577
732.371 .0321427
733.098 .0321275
733.825 .0321122
734.551 .0320968
735.277 .0320813
736.003 .0320658
736.728 .0320504
737.454 .0320352
738.179 .0320201
738.904 .0320052
739.629 .0319906
740.353 .0319761
741.077 .0319619
741.801 .0319477
742.525 .0319337
743.249 .0319196
743.972 .0319055
744.695 .0318913
745.418 .0318771
746.141 .0318627
746.863 .0318482
747.585 .0318335
748.307 .0318186
749.029 .0318033
749.750 .0317877
750.472 .0317718
751.193 .0317555
751.913 .0317389
752.634 .0317220
753.354 .0317049
754.074 .0316876
754.794 .0316702
755.514 .0316529
756.233 .0316355
756.952 .0316183
757.671 .0316012
758.390 .0315844
759.108 .0315678
759.826 .0315516
760.544 .0315359
761.262 .0315207
761.979 .0315061
762.697 .0314921
763.414 .0314787
764.130 .0314660
764.847 .0314539
765.563 .0314424
766.279 .0314315
766.995 .0314212
767.710 .0314116
768.426 .0314026
769.141 .0313943
769.855 .0313866
770.570 .0313794
771.284 .0313728
771.998 .0313667
772.712 .0313609
773.426 .0313554
774.139 .0313502
774.852 .0313452
775.565 .0313403
776.277 .0313356
776.990 .0313308
777.702 .0313261
778.414 .0313214
779.125 .0313167
779.836 .0313120
780.547 .0313072
781.258 .0313025
781.969 .0312978
782.679 .0312930
783.389 .0312851
784.099 .0312799
784.808 .0312743
785.517 .0312685
786.226 .0312623
786.935 .0312557
787.643 .0312487
788.352 .0312414
789.060 .0312337
789.767 .0312257
790.475 .0312174
791.182 .0312088
791.889 .0312036
792.595 .0311945
793.301 .0311850
794.008 .0311752
794.713 .0311651
795.419 .0311546
796.124 .0311437
796.829 .0311325
797.534 .0311210
798.238 .0311092
798.942 .0310972
799.646 .0310849
800.350 .0310725
801.053 .0310599
801.756 .0310472
802.459 .0310343
803.162 .0310213
803.864 .0310081
804.566 .0309948
805.267 .0309812
805.969 .0309674
806.670 .0309533
807.371 .0309390
808.071 .0309244
808.772 .0309096
809.472 .0308946
810.171 .0308793
810.871 .0308638
811.570 .0308482
812.269 .0308322
812.967 .0308160
813.666 .0307996
814.364 .0307828
815.061 .0307657
815.759 .0307484
816.456 .0307309
817.153 .0307131
817.849 .0306951
818.545 .0306770
819.241 .0306586
819.937 .0306401
820.632 .0306215
821.327 .0306027
822.022 .0305839
822.717 .0305651
823.411 .0305464
824.105 .0305279
824.798 .0305096
825.491 .0304916
826.184 .0304739
826.877 .0304566
827.569 .0304396
828.261 .0304230
828.953 .0304068
829.645 .0303910
830.336 .0303757
831.027 .0303608
831.717 .0303465
832.407 .0303327
833.097 .0303195
833.787 .0303068
834.476 .0302947
835.165 .0302832
835.854 .0302722
836.542 .0302616
837.230 .0302515
837.918 .0302418
838.605 .0302325
839.292 .0302234
839.979 .0302146
840.665 .0302062
841.352 .0301979
842.037 .0301898
842.723 .0301819
843.408 .0301742
844.093 .0301667
844.777 .0301592
845.462 .0301518
846.145 .0301444
846.829 .0301371
847.512 .0301298
848.195 .0301224
848.878 .0301151
849.560 .0301077
850.242 .0301002
850.923 .0300927
851.605 .0300852
852.286 .0300776
852.966 .0300700
853.646 .0300624
854.326 .0300549
855.006 .0300475
855.685 .0300402
856.364 .0300330
857.043 .0300260
857.721 .0300190
858.399 .0300120
859.077 .0300050
859.754 .0299979
860.431 .0299908
861.107 .0299835
861.784 .0299762
862.459 .0299687
863.135 .0299611
863.810 .0299533
864.485 .0299453
865.160 .0299369
865.834 .0299282
866.508 .0299190
867.181 .0299093
867.854 .0298990
868.527 .0298881
869.199 .0298767
869.872 .0298646
870.543 .0298521
871.215 .0298389
871.886 .0298252
872.557 .0298109
873.227 .0297961
873.897 .0297809
874.567 .0297653
875.236 .0297492
875.905 .0297328
876.573 .0297160
877.242 .0296991
877.909 .0296818
878.577 .0296645
879.244 .0296470
879.911 .0296294
880.577 .0296118
881.243 .0295943
881.909 .0295770
882.575 .0295598
883.240 .0295428
883.904 .0295260
884.569 .0295095
885.232 .0294931
885.896 .0294770
886.559 .0294610
887.222 .0294453
887.885 .0294298
888.547 .0294146
889.208 .0293996
889.870 .0293849
890.531 .0293704
891.192 .0293561
891.852 .0293421
892.512 .0293282
893.171 .0293144
893.830 .0293006
894.489 .0292869
895.148 .0292733
895.806 .0292596
896.464 .0292460
897.121 .0292324
897.778 .0292188
898.434 .0292053
899.091 .0291853
899.747 .0291719
900.402 .0291585
901.057 .0291452
901.712 .0291319
902.366 .0291186
903.020 .0291053
903.674 .0290920
904.327 .0290787
904.980 .0290655
905.633 .0290522
906.285 .0290388
906.936 .0290252
907.588 .0290180
908.239 .0290040
908.889 .0289898
909.540 .0289754
910.190 .0289608
910.839 .0289461
911.488 .0289314
912.137 .0289167
912.785 .0289020
913.433 .0288873
914.081 .0288726
914.728 .0288579
915.375 .0288433
916.021 .0288288
916.668 .0288144
917.313 .0288002
917.959 .0287864
918.604 .0287729
919.248 .0287599
919.892 .0287473
920.536 .0287350
921.180 .0287229
921.823 .0287111
922.465 .0286993
923.108 .0286877
923.750 .0286761
924.391 .0286646
925.032 .0286532
925.673 .0286419
926.313 .0286307
926.953 .0286196
927.593 .0286084
928.232 .0285972
928.871 .0285860
929.510 .0285745
930.148 .0285629
930.786 .0285512
931.423 .0285393
932.060 .0285272
932.697 .0285149
933.333 .0285024
933.969 .0284897
934.604 .0284768
935.239 .0284636
935.874 .0284502
936.508 .0284364
937.142 .0284224
937.776 .0284083
938.409 .0283940
939.042 .0283796
939.674 .0283653
940.306 .0283512
940.938 .0283372
941.569 .0283235
942.200 .0283100
942.830 .0282967
943.460 .0282838
944.090 .0282711
944.720 .0282588
945.349 .0282467
945.977 .0282351
946.606 .0282237
947.233 .0282127
947.861 .0282019
948.488 .0281915
949.115 .0281812
949.741 .0281712
950.367 .0281614
950.993 .0281517
951.618 .0281421
952.243 .0281326
952.868 .0281232
953.492 .0281139
954.115 .0281048
954.739 .0280957
955.362 .0280867
955.984 .0280777
956.607 .0280687
957.229 .0280597
957.850 .0280505
958.471 .0280413
959.092 .0280320
959.713 .0280225
960.333 .0280129
960.952 .0280032
961.572 .0279933
962.191 .0279833
962.809 .0279731
963.428 .0279628
964.045 .0279523
964.663 .0279417
965.280 .0279310
965.897 .0279203
966.513 .0279096
967.129 .0278988
967.745 .0278880
968.361 .0278771
968.976 .0278660
969.590 .0278547
970.205 .0278432
970.818 .0278314
971.432 .0278193
972.045 .0278068
972.658 .0277941
973.271 .0277810
973.883 .0277677
974.495 .0277540
975.106 .0277401
975.717 .0277258
976.328 .0277111
976.938 .0276960
977.548 .0276806
978.158 .0276649
978.768 .0276399
979.377 .0276237
979.985 .0276074
980.594 .0275910
981.202 .0275746
981.809 .0275580
982.417 .0275414
983.024 .0275246
983.631 .0275078
984.237 .0274909
984.843 .0274740
985.449 .0274571
986.054 .0274404
986.659 .0274239
987.264 .0274164
987.868 .0274003
988.472 .0273845
989.076 .0273689
989.679 .0273535
990.282 .0273384
990.885 .0273237
991.487 .0273093
992.090 .0272954
992.691 .0272821
993.293 .0272693
993.894 .0272571
994.495 .0272455
995.095 .0272344
995.696 .0272238
996.296 .0272137
996.895 .0272040
997.494 .0271947
998.093 .0271858
998.692 .0271772
999.291 .0271690
999.889 .0271612
1000.487 .0271538
1001.084 .0271468
1001.681 .0271401
1002.278 .0271337
1002.875 .0271276
1003.471 .0271218
1004.067 .0271161
1004.663 .0271105
1005.258 .0271051
1005.854 .0270998
1006.449 .0270945
1007.043 .0270893
1007.638 .0270842
1008.232 .0270792
1008.826 .0270743
1009.419 .0270695
1010.012 .0270647
1010.605 .0270601
1011.198 .0270556
1011.791 .0270511
1012.383 .0270468
1012.975 .0270425
1013.566 .0270384
1014.158 .0270344
1014.749 .0270306
1015.340 .0270269
1015.931 .0270234
1016.521 .0270202
1017.111 .0270172
1017.701 .0270145
1018.291 .0270120
1018.880 .0270097
1019.470 .0270076
1020.059 .0270057
1020.647 .0270040
1021.236 .0270025
1021.824 .0270013
1022.412 .0270005
1023.000 .0270000
1023.588 .0270001
1024.175 .0270006
1024.762 .0270016
1025.349 .0270031
1025.936 .0270051
1026.523 .0270075
1027.109 .0270102
1027.695 .0270132
1028.281 .0270165
1028.867 .0270200
1029.452 .0270239
1030.038 .0270280
1030.623 .0270323
1031.208 .0270369
1031.792 .0270415
1032.377 .0270462
1032.961 .0270509
1033.546 .0270553
1034.130 .0270595
1034.714 .0270634
1035.297 .0270669
1035.881 .0270701
1036.464 .0270730
1037.047 .0270757
1037.630 .0270783
1038.213 .0270807
1038.796 .0270832
1039.378 .0270858
1039.961 .0270883
1040.543 .0270910
1041.125 .0270936
1041.707 .0270962
1042.289 .0270988
1042.871 .0271014
1043.452 .0271040
1044.034 .0271067
1044.615 .0271096
1045.196 .0271126
1045.777 .0271158
1046.358 .0271192
1046.939 .0271228
1047.520 .0271264
1048.101 .0271300
1048.681 .0271334
1049.262 .0271368
1049.842 .0271401
1050.422 .0271434
1051.002 .0271466
1051.582 .0271499
1052.162 .0271534
1052.742 .0271569
1053.322 .0271605
1053.902 .0271642
1054.482 .0271678
1055.061 .0271713
1055.641 .0271747
1056.220 .0271777
1056.800 .0271805
1057.379 .0271828
1057.958 .0271848
1058.538 .0271864
1059.117 .0271874
1059.696 .0271879
1060.275 .0271876
1060.854 .0271867
1061.433 .0271850
1062.012 .0271826
1062.592 .0271795
1063.171 .0271759
1063.750 .0271717
1064.329 .0271672
1064.908 .0271623
1065.487 .0271571
1066.066 .0271517
1066.645 .0271460
1067.224 .0271399
1067.803 .0271336
1068.382 .0271271
1068.961 .0271203
1069.540 .0271133
1070.119 .0271061
1070.698 .0270988
1071.278 .0270912
1071.857 .0270833
1072.436 .0270751
1073.016 .0270665
1073.595 .0270574
1074.175 .0270479
1074.754 .0270379
1075.334 .0270275
1075.913 .0270171
1076.493 .0270068
1077.073 .0269968
1077.653 .0269873
1078.233 .0269783
1078.813 .0269700
1079.393 .0269624
1079.974 .0269552
1080.554 .0269486
1081.135 .0269422
1081.716 .0269362
1082.296 .0269306
1082.877 .0269252
1083.458 .0269202
1084.040 .0269158
1084.621 .0269119
1085.202 .0269086
1085.784 .0269058
1086.366 .0269035
1086.948 .0269016
1087.530 .0268999
1088.112 .0268984
1088.695 .0268970
1089.277 .0268957
1089.860 .0268946
1090.443 .0268937
1091.026 .0268932
1091.610 .0268931
1092.193 .0268935
1092.777 .0268941
1093.361 .0268950
1093.946 .0268956
1094.530 .0268959
1095.115 .0268953
1095.700 .0268939
1096.285 .0268912
1096.871 .0268874
1097.456 .0268824
1098.042 .0268765
1098.628 .0268698
1099.215 .0268625
1099.802 .0268548
1100.389 .0268466
1100.976 .0268381
1101.564 .0268291
1102.152 .0268197
1102.740 .0268102
1103.329 .0268006
1103.917 .0267912
1104.507 .0267824
1105.096 .0267744
1105.686 .0267674
1106.276 .0267616
1106.867 .0267569
1107.457 .0267532
1108.049 .0267502
1108.640 .0267477
1109.232 .0267455
1109.825 .0267434
1110.417 .0267413
1111.010 .0267394
1111.604 .0267376
1112.198 .0267362
1112.792 .0267353
1113.387 .0267351
1113.982 .0267360
1114.577 .0267379
1115.173 .0267411
1115.769 .0267457
1116.366 .0267518
1116.963 .0267595
1117.561 .0267689
1118.159 .0267802
1118.758 .0267935
1119.357 .0268090
1119.957 .0268267
1120.557 .0268468
1121.157 .0268692
1121.758 .0268936
1122.360 .0269199
1122.962 .0269479
1123.564 .0269770
1124.167 .0269847
1124.771 .0270152
1125.375 .0270468
1125.980 .0270795
1126.585 .0271135
1127.191 .0271491
1127.797 .0271864
1128.404 .0272256
1129.012 .0272667
1129.620 .0273096
1130.229 .0273542
1130.838 .0274002
1131.448 .0274474
1132.058 .0274958
1132.669 .0275711
1133.281 .0276220
1133.894 .0276731
1134.507 .0277277
1135.120 .0277844
1135.735 .0278352
1136.350 .0278815
1136.965 .0279561
1137.582 .0280018
1138.199 .0280439
1138.816 .0280807
1139.435 .0281200
1140.054 .0281603
1140.674 .0282005
1141.294 .0282418
1141.916 .0282815
1142.538 .0284177
1143.160 .0285176
1143.784 .0284133
1144.408 .0283479
1145.033 .0283375
