Measurement Sequence started on: 14-45-04-498
Integration time: 36
Scans to Average: 2 
>>>>>Begin Spectral Data<<<<<
433.946 .0521372
434.870 .0430452
435.793 .0428722
436.715 .0416755
437.635 .0419330
438.555 .0425522
439.473 .0420888
440.389 .0419556
441.305 .0418319
442.219 .0417409
443.132 .0418358
444.044 .0417514
444.954 .0416769
445.863 .0416667
446.771 .0416444
447.678 .0415908
448.584 .0415619
449.488 .0415394
450.391 .0415216
451.293 .0415057
452.194 .0414904
453.094 .0414746
453.992 .0414561
454.890 .0414329
455.786 .0414042
456.681 .0413698
457.575 .0413299
458.468 .0412847
459.360 .0412339
460.250 .0411771
461.140 .0411140
462.028 .0410447
462.915 .0409695
463.801 .0408888
464.687 .0408033
465.571 .0407145
466.454 .0406235
467.335 .0405314
468.216 .0404394
469.096 .0403483
469.975 .0402588
470.853 .0401713
471.729 .0400864
472.605 .0400049
473.479 .0399276
474.353 .0398550
475.226 .0397874
476.097 .0397248
476.968 .0396666
477.838 .0396119
478.706 .0395599
479.574 .0395097
480.441 .0394608
481.306 .0394131
482.171 .0393668
483.035 .0393222
483.898 .0392800
484.760 .0392405
485.621 .0392041
486.481 .0391712
487.340 .0391416
488.198 .0391150
489.055 .0390907
489.912 .0390685
490.767 .0390481
491.622 .0390258
492.476 .0390093
493.329 .0389947
494.180 .0389822
495.032 .0389717
495.882 .0389631
496.731 .0389560
497.580 .0389498
498.427 .0389435
499.274 .0389360
500.120 .0389269
500.965 .0389146
501.809 .0388989
502.653 .0388795
503.495 .0388560
504.337 .0388286
505.178 .0387979
506.018 .0387645
506.858 .0387287
507.696 .0386908
508.534 .0386512
509.371 .0386097
510.208 .0385660
511.043 .0385201
511.878 .0384722
512.712 .0384229
513.545 .0383725
514.377 .0383219
515.209 .0382714
516.040 .0382217
516.870 .0381731
517.699 .0381255
518.528 .0380787
519.356 .0380324
520.183 .0379858
521.010 .0379383
521.836 .0378894
522.661 .0378385
523.485 .0377853
524.309 .0377295
525.132 .0376709
525.954 .0376095
526.776 .0375450
527.597 .0374778
528.417 .0374078
529.237 .0373355
530.056 .0372607
530.874 .0371835
531.692 .0371044
532.508 .0370236
533.325 .0369418
534.140 .0368597
534.955 .0367784
535.770 .0366988
536.583 .0366217
537.397 .0365481
538.209 .0364788
539.021 .0364143
539.832 .0363552
540.643 .0363014
541.453 .0362532
542.262 .0362104
543.071 .0361728
543.879 .0361405
544.687 .0361131
545.494 .0360899
546.300 .0360704
547.106 .0360537
547.911 .0360393
548.716 .0360264
549.520 .0360144
550.323 .0360027
551.126 .0359906
551.929 .0359779
552.731 .0359641
553.532 .0359489
554.332 .0359324
555.133 .0359142
555.932 .0358947
556.731 .0358738
557.530 .0358514
558.328 .0358276
559.125 .0358028
559.922 .0357770
560.719 .0357502
561.515 .0357225
562.310 .0356944
563.105 .0356659
563.899 .0356369
564.693 .0356077
565.487 .0355785
566.280 .0355492
567.072 .0355198
567.864 .0354904
568.655 .0354613
569.446 .0354325
570.236 .0354041
571.026 .0353762
571.816 .0353486
572.605 .0353213
573.393 .0352938
574.181 .0352662
574.969 .0352384
575.756 .0352101
576.543 .0351813
577.329 .0351523
578.115 .0351231
578.900 .0350939
579.685 .0350650
580.469 .0350365
581.253 .0350083
582.036 .0349803
582.820 .0349524
583.602 .0349246
584.384 .0348966
585.166 .0348685
585.947 .0348399
586.728 .0348112
587.509 .0347822
588.289 .0347529
589.069 .0347233
589.848 .0346931
590.627 .0346624
591.405 .0346308
592.183 .0345983
592.961 .0345652
593.738 .0345313
594.515 .0344969
595.291 .0344621
596.067 .0344271
596.843 .0343921
597.618 .0343573
598.393 .0343061
599.167 .0342721
599.941 .0342386
600.715 .0342054
601.488 .0341727
602.261 .0341405
603.034 .0341087
603.806 .0340776
604.578 .0340472
605.349 .0340175
606.121 .0339886
606.891 .0339765
607.662 .0339490
608.432 .0339224
609.201 .0338967
609.971 .0338719
610.740 .0338481
611.508 .0338251
612.277 .0338030
613.045 .0337817
613.812 .0337612
614.579 .0337413
615.346 .0337220
616.113 .0337033
616.879 .0336850
617.645 .0336672
618.411 .0336497
619.176 .0336326
619.941 .0336157
620.705 .0335991
621.470 .0335826
622.233 .0335662
622.997 .0335498
623.760 .0335335
624.523 .0335172
625.286 .0335006
626.048 .0334839
626.810 .0334668
627.572 .0334494
628.333 .0334315
629.095 .0334131
629.855 .0333942
630.616 .0333747
631.376 .0333547
632.136 .0333343
632.895 .0333135
633.655 .0332924
634.414 .0332708
635.172 .0332488
635.931 .0332263
636.689 .0332032
637.447 .0331796
638.204 .0331554
638.962 .0331307
639.718 .0331055
640.475 .0330799
641.231 .0330540
641.988 .0330280
642.743 .0330018
643.499 .0329755
644.254 .0329491
645.009 .0329226
645.764 .0328961
646.518 .0328695
647.272 .0328430
648.026 .0328166
648.780 .0327902
649.533 .0327641
650.286 .0327382
651.039 .0327126
651.792 .0326874
652.544 .0326626
653.296 .0326385
654.048 .0326149
654.799 .0325919
655.550 .0325697
656.301 .0325479
657.052 .0325267
657.802 .0325060
658.552 .0324856
659.302 .0324656
660.052 .0324459
660.801 .0324267
661.550 .0324078
662.299 .0323894
663.048 .0323715
663.796 .0323541
664.544 .0323371
665.292 .0323206
666.040 .0323044
666.787 .0322884
667.534 .0322727
668.281 .0322573
669.028 .0322421
669.774 .0322272
670.521 .0322125
671.266 .0321982
672.012 .0321841
672.758 .0321703
673.503 .0321568
674.248 .0321434
674.992 .0321303
675.737 .0321174
676.481 .0321047
677.225 .0320921
677.969 .0320797
678.712 .0320676
679.455 .0320556
680.199 .0320438
680.941 .0320321
681.684 .0320205
682.426 .0320089
683.168 .0319973
683.910 .0319856
684.652 .0319738
685.393 .0319619
686.134 .0319498
686.875 .0319375
687.616 .0319250
688.356 .0319124
689.097 .0318996
689.837 .0318867
690.576 .0318737
691.316 .0318605
692.055 .0318471
692.794 .0318336
693.533 .0318200
694.272 .0318062
695.010 .0317923
695.748 .0317783
696.486 .0317642
697.224 .0317501
697.962 .0317360
698.699 .0317220
699.436 .0317081
700.173 .0316943
700.909 .0316805
701.646 .0316667
702.382 .0316529
703.118 .0316391
703.853 .0316250
704.589 .0316108
705.324 .0315964
706.059 .0315817
706.794 .0315669
707.529 .0315518
708.263 .0315365
708.997 .0315211
709.731 .0315055
710.465 .0314897
711.198 .0314739
711.931 .0314578
712.664 .0314416
713.397 .0314253
714.130 .0314088
714.862 .0313921
715.594 .0313754
716.326 .0313586
717.058 .0313419
717.789 .0313252
718.520 .0313087
719.251 .0312923
719.982 .0312761
720.713 .0312601
721.443 .0312442
722.173 .0312284
722.903 .0312128
723.633 .0311974
724.362 .0311823
725.091 .0311675
725.820 .0311531
726.549 .0311392
727.278 .0311257
728.006 .0311128
728.734 .0311002
729.462 .0310879
730.190 .0310759
730.917 .0310641
731.644 .0310526
732.371 .0310412
733.098 .0310301
733.825 .0310193
734.551 .0310088
735.277 .0309986
736.003 .0309887
736.728 .0309791
737.454 .0309698
738.179 .0309607
738.904 .0309518
739.629 .0309432
740.353 .0309349
741.077 .0309270
741.801 .0309193
742.525 .0309119
743.249 .0309048
743.972 .0308981
744.695 .0308917
745.418 .0308856
746.141 .0308797
746.863 .0308742
747.585 .0308688
748.307 .0308636
749.029 .0308585
749.750 .0308533
750.472 .0308481
751.193 .0308427
751.913 .0308371
752.634 .0308313
753.354 .0308253
754.074 .0308192
754.794 .0308129
755.514 .0308065
756.233 .0307999
756.952 .0307930
757.671 .0307858
758.390 .0307783
759.108 .0307704
759.826 .0307622
760.544 .0307537
761.262 .0307449
761.979 .0307359
762.697 .0307269
763.414 .0307178
764.130 .0307087
764.847 .0306996
765.563 .0306906
766.279 .0306816
766.995 .0306727
767.710 .0306640
768.426 .0306554
769.141 .0306470
769.855 .0306388
770.570 .0306308
771.284 .0306229
771.998 .0306151
772.712 .0306073
773.426 .0305994
774.139 .0305915
774.852 .0305835
775.565 .0305753
776.277 .0305670
776.990 .0305585
777.702 .0305498
778.414 .0305410
779.125 .0305319
779.836 .0305225
780.547 .0305129
781.258 .0305030
781.969 .0304928
782.679 .0304823
783.389 .0304652
784.099 .0304538
784.808 .0304420
785.517 .0304298
786.226 .0304173
786.935 .0304043
787.643 .0303910
788.352 .0303773
789.060 .0303633
789.767 .0303490
790.475 .0303345
791.182 .0303197
791.889 .0303115
792.595 .0302965
793.301 .0302815
794.008 .0302664
794.713 .0302512
795.419 .0302361
796.124 .0302210
796.829 .0302059
797.534 .0301908
798.238 .0301758
798.942 .0301609
799.646 .0301462
800.350 .0301317
801.053 .0301174
801.756 .0301034
802.459 .0300897
803.162 .0300763
803.864 .0300631
804.566 .0300502
805.267 .0300376
805.969 .0300253
806.670 .0300133
807.371 .0300018
808.071 .0299906
808.772 .0299799
809.472 .0299694
810.171 .0299593
810.871 .0299495
811.570 .0299398
812.269 .0299301
812.967 .0299205
813.666 .0299110
814.364 .0299014
815.061 .0298919
815.759 .0298824
816.456 .0298730
817.153 .0298636
817.849 .0298543
818.545 .0298449
819.241 .0298356
819.937 .0298262
820.632 .0298168
821.327 .0298075
822.022 .0297983
822.717 .0297893
823.411 .0297805
824.105 .0297719
824.798 .0297636
825.491 .0297555
826.184 .0297477
826.877 .0297401
827.569 .0297327
828.261 .0297256
828.953 .0297188
829.645 .0297123
830.336 .0297061
831.027 .0297002
831.717 .0296947
832.407 .0296895
833.097 .0296847
833.787 .0296801
834.476 .0296758
835.165 .0296718
835.854 .0296679
836.542 .0296641
837.230 .0296604
837.918 .0296567
838.605 .0296529
839.292 .0296489
839.979 .0296448
840.665 .0296405
841.352 .0296360
842.037 .0296313
842.723 .0296263
843.408 .0296211
844.093 .0296156
844.777 .0296098
845.462 .0296035
846.145 .0295968
846.829 .0295897
847.512 .0295823
848.195 .0295744
848.878 .0295662
849.560 .0295577
850.242 .0295489
850.923 .0295398
851.605 .0295304
852.286 .0295207
852.966 .0295106
853.646 .0295003
854.326 .0294896
855.006 .0294787
855.685 .0294675
856.364 .0294561
857.043 .0294445
857.721 .0294327
858.399 .0294207
859.077 .0294085
859.754 .0293961
860.431 .0293836
861.107 .0293710
861.784 .0293583
862.459 .0293455
863.135 .0293327
863.810 .0293197
864.485 .0293065
865.160 .0292932
865.834 .0292796
866.508 .0292657
867.181 .0292514
867.854 .0292368
868.527 .0292219
869.199 .0292068
869.872 .0291913
870.543 .0291757
871.215 .0291598
871.886 .0291436
872.557 .0291271
873.227 .0291104
873.897 .0290934
874.567 .0290761
875.236 .0290585
875.905 .0290407
876.573 .0290225
877.242 .0290041
877.909 .0289854
878.577 .0289666
879.244 .0289475
879.911 .0289283
880.577 .0289089
881.243 .0288895
881.909 .0288701
882.575 .0288507
883.240 .0288315
883.904 .0288125
884.569 .0287936
885.232 .0287750
885.896 .0287568
886.559 .0287388
887.222 .0287213
887.885 .0287043
888.547 .0286878
889.208 .0286719
889.870 .0286566
890.531 .0286418
891.192 .0286276
891.852 .0286139
892.512 .0286006
893.171 .0285877
893.830 .0285750
894.489 .0285626
895.148 .0285504
895.806 .0285385
896.464 .0285267
897.121 .0285152
897.778 .0285039
898.434 .0284929
899.091 .0284765
899.747 .0284658
900.402 .0284552
901.057 .0284447
901.712 .0284342
902.366 .0284239
903.020 .0284137
903.674 .0284035
904.327 .0283935
904.980 .0283836
905.633 .0283737
906.285 .0283639
906.936 .0283541
907.588 .0283496
908.239 .0283396
908.889 .0283296
909.540 .0283194
910.190 .0283091
910.839 .0282987
911.488 .0282882
912.137 .0282776
912.785 .0282669
913.433 .0282561
914.081 .0282451
914.728 .0282340
915.375 .0282228
916.021 .0282113
916.668 .0281997
917.313 .0281879
917.959 .0281760
918.604 .0281639
919.248 .0281518
919.892 .0281395
920.536 .0281271
921.180 .0281146
921.823 .0281020
922.465 .0280893
923.108 .0280764
923.750 .0280634
924.391 .0280504
925.032 .0280373
925.673 .0280243
926.313 .0280111
926.953 .0279981
927.593 .0279850
928.232 .0279719
928.871 .0279589
929.510 .0279461
930.148 .0279334
930.786 .0279208
931.423 .0279085
932.060 .0278963
932.697 .0278843
933.333 .0278725
933.969 .0278608
934.604 .0278492
935.239 .0278377
935.874 .0278263
936.508 .0278150
937.142 .0278037
937.776 .0277926
938.409 .0277815
939.042 .0277704
939.674 .0277594
940.306 .0277483
940.938 .0277371
941.569 .0277258
942.200 .0277144
942.830 .0277031
943.460 .0276918
944.090 .0276807
944.720 .0276698
945.349 .0276591
945.977 .0276486
946.606 .0276383
947.233 .0276282
947.861 .0276182
948.488 .0276083
949.115 .0275984
949.741 .0275887
950.367 .0275792
950.993 .0275699
951.618 .0275609
952.243 .0275520
952.868 .0275434
953.492 .0275349
954.115 .0275264
954.739 .0275179
955.362 .0275094
955.984 .0275008
956.607 .0274923
957.229 .0274838
957.850 .0274755
958.471 .0274674
959.092 .0274596
959.713 .0274520
960.333 .0274446
960.952 .0274373
961.572 .0274300
962.191 .0274227
962.809 .0274152
963.428 .0274076
964.045 .0274000
964.663 .0273925
965.280 .0273850
965.897 .0273776
966.513 .0273703
967.129 .0273630
967.745 .0273556
968.361 .0273480
968.976 .0273402
969.590 .0273322
970.205 .0273240
970.818 .0273157
971.432 .0273073
972.045 .0272988
972.658 .0272903
973.271 .0272818
973.883 .0272732
974.495 .0272644
975.106 .0272553
975.717 .0272460
976.328 .0272363
976.938 .0272263
977.548 .0272160
978.158 .0272054
978.768 .0271880
979.377 .0271763
979.985 .0271642
980.594 .0271518
981.202 .0271388
981.809 .0271255
982.417 .0271119
983.024 .0270980
983.631 .0270838
984.237 .0270695
984.843 .0270551
985.449 .0270406
986.054 .0270261
986.659 .0270115
987.264 .0270039
987.868 .0269894
988.472 .0269749
989.076 .0269605
989.679 .0269461
990.282 .0269318
990.885 .0269175
991.487 .0269033
992.090 .0268889
992.691 .0268745
993.293 .0268599
993.894 .0268453
994.495 .0268305
995.095 .0268157
995.696 .0268011
996.296 .0267866
996.895 .0267724
997.494 .0267585
998.093 .0267449
998.692 .0267316
999.291 .0267186
999.889 .0267058
1000.487 .0266932
1001.084 .0266808
1001.681 .0266686
1002.278 .0266568
1002.875 .0266452
1003.471 .0266340
1004.067 .0266230
1004.663 .0266122
1005.258 .0266015
1005.854 .0265908
1006.449 .0265800
1007.043 .0265692
1007.638 .0265583
1008.232 .0265475
1008.826 .0265368
1009.419 .0265265
1010.012 .0265165
1010.605 .0265071
1011.198 .0264981
1011.791 .0264895
1012.383 .0264813
1012.975 .0264734
1013.566 .0264658
1014.158 .0264584
1014.749 .0264512
1015.340 .0264444
1015.931 .0264379
1016.521 .0264317
1017.111 .0264259
1017.701 .0264204
1018.291 .0264150
1018.880 .0264096
1019.470 .0264043
1020.059 .0263988
1020.647 .0263933
1021.236 .0263877
1021.824 .0263821
1022.412 .0263767
1023.000 .0263716
1023.588 .0263668
1024.175 .0263625
1024.762 .0263586
1025.349 .0263550
1025.936 .0263517
1026.523 .0263486
1027.109 .0263457
1027.695 .0263429
1028.281 .0263403
1028.867 .0263379
1029.452 .0263357
1030.038 .0263338
1030.623 .0263322
1031.208 .0263308
1031.792 .0263296
1032.377 .0263285
1032.961 .0263273
1033.546 .0263259
1034.130 .0263244
1034.714 .0263226
1035.297 .0263208
1035.881 .0263191
1036.464 .0263175
1037.047 .0263161
1037.630 .0263149
1038.213 .0263140
1038.796 .0263132
1039.378 .0263125
1039.961 .0263119
1040.543 .0263111
1041.125 .0263103
1041.707 .0263095
1042.289 .0263087
1042.871 .0263080
1043.452 .0263075
1044.034 .0263072
1044.615 .0263069
1045.196 .0263068
1045.777 .0263066
1046.358 .0263064
1046.939 .0263061
1047.520 .0263056
1048.101 .0263051
1048.681 .0263044
1049.262 .0263039
1049.842 .0263035
1050.422 .0263034
1051.002 .0263037
1051.582 .0263043
1052.162 .0263052
1052.742 .0263064
1053.322 .0263079
1053.902 .0263096
1054.482 .0263117
1055.061 .0263140
1055.641 .0263167
1056.220 .0263198
1056.800 .0263234
1057.379 .0263275
1057.958 .0263321
1058.538 .0263369
1059.117 .0263420
1059.696 .0263471
1060.275 .0263521
1060.854 .0263570
1061.433 .0263617
1062.012 .0263662
1062.592 .0263706
1063.171 .0263748
1063.750 .0263789
1064.329 .0263829
1064.908 .0263868
1065.487 .0263907
1066.066 .0263943
1066.645 .0263977
1067.224 .0264009
1067.803 .0264039
1068.382 .0264067
1068.961 .0264094
1069.540 .0264120
1070.119 .0264145
1070.698 .0264170
1071.278 .0264195
1071.857 .0264220
1072.436 .0264246
1073.016 .0264272
1073.595 .0264298
1074.175 .0264324
1074.754 .0264350
1075.334 .0264376
1075.913 .0264403
1076.493 .0264430
1077.073 .0264459
1077.653 .0264490
1078.233 .0264526
1078.813 .0264566
1079.393 .0264612
1079.974 .0264665
1080.554 .0264723
1081.135 .0264786
1081.716 .0264853
1082.296 .0264924
1082.877 .0264998
1083.458 .0265073
1084.040 .0265149
1084.621 .0265224
1085.202 .0265298
1085.784 .0265369
1086.366 .0265436
1086.948 .0265500
1087.530 .0265558
1088.112 .0265611
1088.695 .0265656
1089.277 .0265694
1089.860 .0265723
1090.443 .0265745
1091.026 .0265758
1091.610 .0265765
1092.193 .0265764
1092.777 .0265756
1093.361 .0265742
1093.946 .0265722
1094.530 .0265695
1095.115 .0265663
1095.700 .0265625
1096.285 .0265581
1096.871 .0265531
1097.456 .0265478
1098.042 .0265420
1098.628 .0265360
1099.215 .0265300
1099.802 .0265239
1100.389 .0265180
1100.976 .0265124
1101.564 .0265072
1102.152 .0265026
1102.740 .0264985
1103.329 .0264950
1103.917 .0264920
1104.507 .0264896
1105.096 .0264878
1105.686 .0264864
1106.276 .0264857
1106.867 .0264856
1107.457 .0264861
1108.049 .0264874
1108.640 .0264894
1109.232 .0264924
1109.825 .0264963
1110.417 .0265012
1111.010 .0265069
1111.604 .0265135
1112.198 .0265208
1112.792 .0265287
1113.387 .0265372
1113.982 .0265465
1114.577 .0265564
1115.173 .0265671
1115.769 .0265784
1116.366 .0265903
1116.963 .0266027
1117.561 .0266153
1118.159 .0266281
1118.758 .0266408
1119.357 .0266534
1119.957 .0266659
1120.557 .0266783
1121.157 .0266910
1121.758 .0267040
1122.360 .0267176
1122.962 .0267319
1123.564 .0267469
1124.167 .0267542
1124.771 .0267703
1125.375 .0267873
1125.980 .0268052
1126.585 .0268242
1127.191 .0268444
1127.797 .0268661
1128.404 .0268893
1129.012 .0269143
1129.620 .0269410
1130.229 .0269697
1130.838 .0270003
1131.448 .0270326
1132.058 .0270668
1132.669 .0271148
1133.281 .0271532
1133.894 .0271936
1134.507 .0272366
1135.120 .0272856
1135.735 .0273261
1136.350 .0273751
1136.965 .0273544
1137.582 .0274179
1138.199 .0274829
1138.816 .0275506
1139.435 .0276176
1140.054 .0276887
1140.674 .0277563
1141.294 .0278281
1141.916 .0279026
1142.538 .0279839
1143.160 .0281568
1143.784 .0279352
1144.408 .0281719
1145.033 .0283559
