Measurement Sequence started on: 14-45-04-498
Integration time: 36
Scans to Average: 2 
>>>>>Begin Spectral Data<<<<<
433.946 .0541847
434.870 .0430180
435.793 .0411008
436.715 .0406217
437.635 .0401949
438.555 .0412829
439.473 .0407078
440.389 .0405811
441.305 .0405343
442.219 .0405002
443.132 .0406752
444.044 .0405197
444.954 .0404573
445.863 .0404120
446.771 .0403810
447.678 .0402852
448.584 .0402127
449.488 .0401407
450.391 .0400648
451.293 .0399845
452.194 .0398992
453.094 .0398097
453.992 .0397150
454.890 .0396146
455.786 .0395095
456.681 .0394010
457.575 .0392909
458.468 .0391811
459.360 .0390736
460.250 .0389701
461.140 .0388714
462.028 .0387785
462.915 .0386912
463.801 .0386095
464.687 .0385325
465.571 .0384598
466.454 .0383904
467.335 .0383241
468.216 .0382606
469.096 .0381994
469.975 .0381403
470.853 .0380830
471.729 .0380275
472.605 .0379738
473.479 .0379217
474.353 .0378711
475.226 .0378213
476.097 .0377721
476.968 .0377230
477.838 .0376736
478.706 .0376239
479.574 .0375738
480.441 .0375238
481.306 .0374743
482.171 .0374257
483.035 .0373786
483.898 .0373334
484.760 .0372900
485.621 .0372483
486.481 .0372080
487.340 .0371685
488.198 .0371292
489.055 .0370901
489.912 .0370513
490.767 .0370129
491.622 .0369598
492.476 .0369259
493.329 .0368941
494.180 .0368641
495.032 .0368360
495.882 .0368093
496.731 .0367833
497.580 .0367576
498.427 .0367315
499.274 .0367047
500.120 .0366913
500.965 .0366632
501.809 .0366346
502.653 .0366061
503.495 .0365775
504.337 .0365493
505.178 .0365212
506.018 .0364932
506.858 .0364647
507.696 .0364353
508.534 .0364048
509.371 .0363730
510.208 .0363397
511.043 .0363056
511.878 .0362710
512.712 .0362366
513.545 .0362031
514.377 .0361707
515.209 .0361396
516.040 .0361096
516.870 .0360801
517.699 .0360511
518.528 .0360221
519.356 .0359929
520.183 .0359631
521.010 .0359329
521.836 .0359023
522.661 .0358715
523.485 .0358407
524.309 .0358102
525.132 .0357797
525.954 .0357493
526.776 .0357183
527.597 .0356860
528.417 .0356514
529.237 .0356138
530.056 .0355723
530.874 .0355263
531.692 .0354755
532.508 .0354200
533.325 .0353603
534.140 .0352971
534.955 .0352310
535.770 .0351628
536.583 .0350926
537.397 .0350207
538.209 .0349471
539.021 .0348716
539.832 .0347943
540.643 .0347156
541.453 .0346360
542.262 .0345564
543.071 .0344776
543.879 .0344007
544.687 .0343269
545.494 .0342573
546.300 .0341927
547.106 .0341333
547.911 .0340796
548.716 .0340318
549.520 .0339900
550.323 .0339540
551.126 .0339236
551.929 .0338986
552.731 .0338787
553.532 .0338633
554.332 .0338521
555.133 .0338445
555.932 .0338402
556.731 .0338382
557.530 .0338376
558.328 .0338370
559.125 .0338355
559.922 .0338317
560.719 .0338250
561.515 .0338143
562.310 .0337989
563.105 .0337788
563.899 .0337538
564.693 .0337239
565.487 .0336893
566.280 .0336501
567.072 .0336064
567.864 .0335584
568.655 .0335063
569.446 .0334505
570.236 .0333918
571.026 .0333311
571.816 .0332692
572.605 .0332070
573.393 .0331454
574.181 .0330851
574.969 .0330266
575.756 .0329702
576.543 .0329161
577.329 .0328644
578.115 .0328150
578.900 .0327683
579.685 .0327242
580.469 .0326829
581.253 .0326445
582.036 .0326093
582.820 .0325769
583.602 .0325473
584.384 .0325200
585.166 .0324945
585.947 .0324706
586.728 .0324475
587.509 .0324248
588.289 .0324022
589.069 .0323794
589.848 .0323564
590.627 .0323330
591.405 .0323094
592.183 .0322856
592.961 .0322616
593.738 .0322376
594.515 .0322134
595.291 .0321891
596.067 .0321645
596.843 .0321397
597.618 .0321144
598.393 .0320759
599.167 .0320501
599.941 .0320242
600.715 .0319982
601.488 .0319721
602.261 .0319459
603.034 .0319195
603.806 .0318930
604.578 .0318662
605.349 .0318390
606.121 .0318114
606.891 .0317963
607.662 .0317682
608.432 .0317397
609.201 .0317110
609.971 .0316820
610.740 .0316528
611.508 .0316234
612.277 .0315938
613.045 .0315639
613.812 .0315338
614.579 .0315035
615.346 .0314729
616.113 .0314421
616.879 .0314112
617.645 .0313802
618.411 .0313492
619.176 .0313183
619.941 .0312877
620.705 .0312575
621.470 .0312276
622.233 .0311983
622.997 .0311696
623.760 .0311416
624.523 .0311144
625.286 .0310879
626.048 .0310623
626.810 .0310376
627.572 .0310138
628.333 .0309911
629.095 .0309696
629.855 .0309492
630.616 .0309299
631.376 .0309118
632.136 .0308950
632.895 .0308792
633.655 .0308644
634.414 .0308504
635.172 .0308371
635.931 .0308243
636.689 .0308119
637.447 .0307997
638.204 .0307876
638.962 .0307757
639.718 .0307637
640.475 .0307517
641.231 .0307396
641.988 .0307273
642.743 .0307146
643.499 .0307014
644.254 .0306874
645.009 .0306727
645.764 .0306572
646.518 .0306408
647.272 .0306236
648.026 .0306057
648.780 .0305871
649.533 .0305679
650.286 .0305480
651.039 .0305275
651.792 .0305063
652.544 .0304845
653.296 .0304622
654.048 .0304394
654.799 .0304163
655.550 .0303929
656.301 .0303695
657.052 .0303461
657.802 .0303227
658.552 .0302993
659.302 .0302759
660.052 .0302525
660.801 .0302291
661.550 .0302056
662.299 .0301822
663.048 .0301588
663.796 .0301357
664.544 .0301127
665.292 .0300900
666.040 .0300676
666.787 .0300455
667.534 .0300237
668.281 .0300023
669.028 .0299813
669.774 .0299607
670.521 .0299405
671.266 .0299207
672.012 .0299014
672.758 .0298824
673.503 .0298639
674.248 .0298457
674.992 .0298281
675.737 .0298109
676.481 .0297943
677.225 .0297783
677.969 .0297629
678.712 .0297481
679.455 .0297340
680.199 .0297204
680.941 .0297074
681.684 .0296948
682.426 .0296827
683.168 .0296711
683.910 .0296599
684.652 .0296492
685.393 .0296390
686.134 .0296294
686.875 .0296203
687.616 .0296118
688.356 .0296038
689.097 .0295963
689.837 .0295893
690.576 .0295826
691.316 .0295763
692.055 .0295701
692.794 .0295641
693.533 .0295582
694.272 .0295523
695.010 .0295465
695.748 .0295406
696.486 .0295348
697.224 .0295290
697.962 .0295231
698.699 .0295172
699.436 .0295112
700.173 .0295051
700.909 .0294988
701.646 .0294924
702.382 .0294856
703.118 .0294787
703.853 .0294715
704.589 .0294640
705.324 .0294563
706.059 .0294483
706.794 .0294401
707.529 .0294316
708.263 .0294229
708.997 .0294140
709.731 .0294049
710.465 .0293955
711.198 .0293858
711.931 .0293758
712.664 .0293653
713.397 .0293543
714.130 .0293427
714.862 .0293306
715.594 .0293180
716.326 .0293047
717.058 .0292910
717.789 .0292767
718.520 .0292620
719.251 .0292467
719.982 .0292311
720.713 .0292150
721.443 .0291984
722.173 .0291815
722.903 .0291642
723.633 .0291464
724.362 .0291284
725.091 .0291100
725.820 .0290915
726.549 .0290728
727.278 .0290541
728.006 .0290356
728.734 .0290173
729.462 .0289993
730.190 .0289818
730.917 .0289648
731.644 .0289483
732.371 .0289324
733.098 .0289169
733.825 .0289019
734.551 .0288874
735.277 .0288733
736.003 .0288596
736.728 .0288465
737.454 .0288337
738.179 .0288215
738.904 .0288097
739.629 .0287984
740.353 .0287875
741.077 .0287770
741.801 .0287669
742.525 .0287570
743.249 .0287473
743.972 .0287378
744.695 .0287284
745.418 .0287190
746.141 .0287096
746.863 .0287003
747.585 .0286910
748.307 .0286817
749.029 .0286725
749.750 .0286634
750.472 .0286544
751.193 .0286456
751.913 .0286368
752.634 .0286282
753.354 .0286198
754.074 .0286115
754.794 .0286033
755.514 .0285953
756.233 .0285875
756.952 .0285800
757.671 .0285729
758.390 .0285662
759.108 .0285600
759.826 .0285545
760.544 .0285495
761.262 .0285451
761.979 .0285414
762.697 .0285382
763.414 .0285355
764.130 .0285333
764.847 .0285315
765.563 .0285300
766.279 .0285289
766.995 .0285280
767.710 .0285274
768.426 .0285270
769.141 .0285268
769.855 .0285268
770.570 .0285269
771.284 .0285271
771.998 .0285273
772.712 .0285274
773.426 .0285275
774.139 .0285274
774.852 .0285271
775.565 .0285266
776.277 .0285259
776.990 .0285248
777.702 .0285235
778.414 .0285219
779.125 .0285202
779.836 .0285183
780.547 .0285163
781.258 .0285141
781.969 .0285118
782.679 .0285094
783.389 .0285051
784.099 .0285019
784.808 .0284983
785.517 .0284943
786.226 .0284899
786.935 .0284851
787.643 .0284798
788.352 .0284742
789.060 .0284681
789.767 .0284617
790.475 .0284547
791.182 .0284473
791.889 .0284418
792.595 .0284337
793.301 .0284250
794.008 .0284159
794.713 .0284063
795.419 .0283962
796.124 .0283856
796.829 .0283746
797.534 .0283631
798.238 .0283511
798.942 .0283388
799.646 .0283262
800.350 .0283133
801.053 .0283004
801.756 .0282874
802.459 .0282743
803.162 .0282613
803.864 .0282483
804.566 .0282354
805.267 .0282224
805.969 .0282095
806.670 .0281966
807.371 .0281837
808.071 .0281709
808.772 .0281581
809.472 .0281453
810.171 .0281326
810.871 .0281197
811.570 .0281068
812.269 .0280936
812.967 .0280802
813.666 .0280665
814.364 .0280526
815.061 .0280384
815.759 .0280240
816.456 .0280095
817.153 .0279948
817.849 .0279800
818.545 .0279651
819.241 .0279502
819.937 .0279351
820.632 .0279201
821.327 .0279052
822.022 .0278903
822.717 .0278756
823.411 .0278610
824.105 .0278467
824.798 .0278326
825.491 .0278188
826.184 .0278052
826.877 .0277919
827.569 .0277789
828.261 .0277664
828.953 .0277542
829.645 .0277426
830.336 .0277314
831.027 .0277208
831.717 .0277107
832.407 .0277012
833.097 .0276922
833.787 .0276837
834.476 .0276756
835.165 .0276680
835.854 .0276608
836.542 .0276540
837.230 .0276475
837.918 .0276413
838.605 .0276353
839.292 .0276295
839.979 .0276239
840.665 .0276184
841.352 .0276129
842.037 .0276076
842.723 .0276025
843.408 .0275976
844.093 .0275928
844.777 .0275882
845.462 .0275839
846.145 .0275797
846.829 .0275756
847.512 .0275717
848.195 .0275679
848.878 .0275641
849.560 .0275606
850.242 .0275570
850.923 .0275536
851.605 .0275502
852.286 .0275467
852.966 .0275432
853.646 .0275396
854.326 .0275360
855.006 .0275323
855.685 .0275287
856.364 .0275250
857.043 .0275215
857.721 .0275180
858.399 .0275146
859.077 .0275113
859.754 .0275079
860.431 .0275047
861.107 .0275014
861.784 .0274981
862.459 .0274948
863.135 .0274914
863.810 .0274880
864.485 .0274845
865.160 .0274808
865.834 .0274769
866.508 .0274728
867.181 .0274684
867.854 .0274638
868.527 .0274588
869.199 .0274536
869.872 .0274481
870.543 .0274423
871.215 .0274362
871.886 .0274298
872.557 .0274231
873.227 .0274159
873.897 .0274083
874.567 .0274002
875.236 .0273918
875.905 .0273829
876.573 .0273736
877.242 .0273638
877.909 .0273537
878.577 .0273431
879.244 .0273321
879.911 .0273206
880.577 .0273087
881.243 .0272965
881.909 .0272840
882.575 .0272712
883.240 .0272583
883.904 .0272452
884.569 .0272320
885.232 .0272186
885.896 .0272052
886.559 .0271916
887.222 .0271779
887.885 .0271641
888.547 .0271502
889.208 .0271364
889.870 .0271225
890.531 .0271087
891.192 .0270949
891.852 .0270813
892.512 .0270677
893.171 .0270540
893.830 .0270404
894.489 .0270268
895.148 .0270132
895.806 .0269995
896.464 .0269858
897.121 .0269722
897.778 .0269586
898.434 .0269451
899.091 .0269248
899.747 .0269113
900.402 .0268977
901.057 .0268841
901.712 .0268703
902.366 .0268564
903.020 .0268424
903.674 .0268283
904.327 .0268141
904.980 .0267999
905.633 .0267856
906.285 .0267713
906.936 .0267569
907.588 .0267493
908.239 .0267348
908.889 .0267201
909.540 .0267053
910.190 .0266904
910.839 .0266754
911.488 .0266602
912.137 .0266450
912.785 .0266296
913.433 .0266140
914.081 .0265983
914.728 .0265824
915.375 .0265664
916.021 .0265500
916.668 .0265335
917.313 .0265167
917.959 .0264998
918.604 .0264829
919.248 .0264658
919.892 .0264488
920.536 .0264318
921.180 .0264148
921.823 .0263979
922.465 .0263810
923.108 .0263640
923.750 .0263471
924.391 .0263302
925.032 .0263133
925.673 .0262964
926.313 .0262796
926.953 .0262627
927.593 .0262459
928.232 .0262292
928.871 .0262124
929.510 .0261958
930.148 .0261792
930.786 .0261627
931.423 .0261463
932.060 .0261301
932.697 .0261141
933.333 .0260983
933.969 .0260829
934.604 .0260677
935.239 .0260529
935.874 .0260384
936.508 .0260241
937.142 .0260101
937.776 .0259963
938.409 .0259827
939.042 .0259693
939.674 .0259560
940.306 .0259429
940.938 .0259299
941.569 .0259171
942.200 .0259044
942.830 .0258919
943.460 .0258795
944.090 .0258673
944.720 .0258553
945.349 .0258435
945.977 .0258320
946.606 .0258207
947.233 .0258098
947.861 .0257992
948.488 .0257889
949.115 .0257791
949.741 .0257696
950.367 .0257605
950.993 .0257517
951.618 .0257433
952.243 .0257352
952.868 .0257274
953.492 .0257200
954.115 .0257130
954.739 .0257063
955.362 .0257000
955.984 .0256940
956.607 .0256883
957.229 .0256829
957.850 .0256777
958.471 .0256729
959.092 .0256683
959.713 .0256641
960.333 .0256603
960.952 .0256568
961.572 .0256538
962.191 .0256511
962.809 .0256487
963.428 .0256465
964.045 .0256447
964.663 .0256431
965.280 .0256416
965.897 .0256404
966.513 .0256393
967.129 .0256385
967.745 .0256377
968.361 .0256372
968.976 .0256367
969.590 .0256363
970.205 .0256359
970.818 .0256354
971.432 .0256349
972.045 .0256343
972.658 .0256337
973.271 .0256330
973.883 .0256323
974.495 .0256314
975.106 .0256305
975.717 .0256294
976.328 .0256281
976.938 .0256265
977.548 .0256247
978.158 .0256225
978.768 .0256175
979.377 .0256145
979.985 .0256112
980.594 .0256076
981.202 .0256038
981.809 .0255997
982.417 .0255953
983.024 .0255906
983.631 .0255857
984.237 .0255804
984.843 .0255748
985.449 .0255689
986.054 .0255629
986.659 .0255567
987.264 .0255535
987.868 .0255474
988.472 .0255413
989.076 .0255353
989.679 .0255293
990.282 .0255233
990.885 .0255174
991.487 .0255115
992.090 .0255056
992.691 .0254998
993.293 .0254940
993.894 .0254883
994.495 .0254825
995.095 .0254766
995.696 .0254707
996.296 .0254648
996.895 .0254588
997.494 .0254527
998.093 .0254464
998.692 .0254401
999.291 .0254336
999.889 .0254271
1000.487 .0254203
1001.084 .0254135
1001.681 .0254066
1002.278 .0253995
1002.875 .0253924
1003.471 .0253850
1004.067 .0253776
1004.663 .0253699
1005.258 .0253620
1005.854 .0253538
1006.449 .0253454
1007.043 .0253367
1007.638 .0253278
1008.232 .0253187
1008.826 .0253094
1009.419 .0253000
1010.012 .0252905
1010.605 .0252809
1011.198 .0252712
1011.791 .0252615
1012.383 .0252518
1012.975 .0252421
1013.566 .0252325
1014.158 .0252230
1014.749 .0252137
1015.340 .0252044
1015.931 .0251954
1016.521 .0251865
1017.111 .0251778
1017.701 .0251691
1018.291 .0251606
1018.880 .0251521
1019.470 .0251437
1020.059 .0251352
1020.647 .0251268
1021.236 .0251184
1021.824 .0251100
1022.412 .0251017
1023.000 .0250935
1023.588 .0250853
1024.175 .0250771
1024.762 .0250690
1025.349 .0250609
1025.936 .0250528
1026.523 .0250447
1027.109 .0250365
1027.695 .0250284
1028.281 .0250203
1028.867 .0250122
1029.452 .0250042
1030.038 .0249963
1030.623 .0249884
1031.208 .0249807
1031.792 .0249730
1032.377 .0249655
1032.961 .0249580
1033.546 .0249507
1034.130 .0249435
1034.714 .0249364
1035.297 .0249296
1035.881 .0249230
1036.464 .0249166
1037.047 .0249105
1037.630 .0249047
1038.213 .0248990
1038.796 .0248935
1039.378 .0248881
1039.961 .0248827
1040.543 .0248774
1041.125 .0248721
1041.707 .0248668
1042.289 .0248614
1042.871 .0248560
1043.452 .0248506
1044.034 .0248452
1044.615 .0248399
1045.196 .0248345
1045.777 .0248291
1046.358 .0248237
1046.939 .0248182
1047.520 .0248127
1048.101 .0248071
1048.681 .0248015
1049.262 .0247957
1049.842 .0247898
1050.422 .0247839
1051.002 .0247778
1051.582 .0247719
1052.162 .0247659
1052.742 .0247600
1053.322 .0247543
1053.902 .0247487
1054.482 .0247432
1055.061 .0247381
1055.641 .0247334
1056.220 .0247290
1056.800 .0247252
1057.379 .0247220
1057.958 .0247194
1058.538 .0247174
1059.117 .0247161
1059.696 .0247154
1060.275 .0247152
1060.854 .0247155
1061.433 .0247162
1062.012 .0247173
1062.592 .0247188
1063.171 .0247206
1063.750 .0247229
1064.329 .0247255
1064.908 .0247285
1065.487 .0247317
1066.066 .0247352
1066.645 .0247389
1067.224 .0247428
1067.803 .0247467
1068.382 .0247508
1068.961 .0247548
1069.540 .0247589
1070.119 .0247629
1070.698 .0247668
1071.278 .0247706
1071.857 .0247742
1072.436 .0247773
1073.016 .0247801
1073.595 .0247823
1074.175 .0247841
1074.754 .0247854
1075.334 .0247861
1075.913 .0247864
1076.493 .0247862
1077.073 .0247855
1077.653 .0247844
1078.233 .0247829
1078.813 .0247810
1079.393 .0247788
1079.974 .0247763
1080.554 .0247736
1081.135 .0247709
1081.716 .0247682
1082.296 .0247658
1082.877 .0247637
1083.458 .0247619
1084.040 .0247605
1084.621 .0247595
1085.202 .0247590
1085.784 .0247589
1086.366 .0247592
1086.948 .0247599
1087.530 .0247611
1088.112 .0247627
1088.695 .0247650
1089.277 .0247680
1089.860 .0247716
1090.443 .0247760
1091.026 .0247811
1091.610 .0247870
1092.193 .0247935
1092.777 .0248008
1093.361 .0248087
1093.946 .0248173
1094.530 .0248265
1095.115 .0248362
1095.700 .0248466
1096.285 .0248574
1096.871 .0248686
1097.456 .0248801
1098.042 .0248920
1098.628 .0249040
1099.215 .0249161
1099.802 .0249283
1100.389 .0249404
1100.976 .0249523
1101.564 .0249638
1102.152 .0249750
1102.740 .0249857
1103.329 .0249959
1103.917 .0250055
1104.507 .0250145
1105.096 .0250229
1105.686 .0250307
1106.276 .0250379
1106.867 .0250447
1107.457 .0250509
1108.049 .0250566
1108.640 .0250619
1109.232 .0250668
1109.825 .0250714
1110.417 .0250755
1111.010 .0250793
1111.604 .0250828
1112.198 .0250862
1112.792 .0250894
1113.387 .0250925
1113.982 .0250959
1114.577 .0250996
1115.173 .0251037
1115.769 .0251082
1116.366 .0251132
1116.963 .0251187
1117.561 .0251246
1118.159 .0251308
1118.758 .0251374
1119.357 .0251448
1119.957 .0251532
1120.557 .0251630
1121.157 .0251746
1121.758 .0251884
1122.360 .0252044
1122.962 .0252229
1123.564 .0252436
1124.167 .0252490
1124.771 .0252721
1125.375 .0252968
1125.980 .0253227
1126.585 .0253498
1127.191 .0253780
1127.797 .0254076
1128.404 .0254386
1129.012 .0254711
1129.620 .0255052
1130.229 .0255405
1130.838 .0255764
1131.448 .0256126
1132.058 .0256482
1132.669 .0257009
1133.281 .0257346
1133.894 .0257665
1134.507 .0257985
1135.120 .0258269
1135.735 .0258566
1136.350 .0258823
1136.965 .0260221
1137.582 .0260672
1138.199 .0261018
1138.816 .0261282
1139.435 .0261458
1140.054 .0261491
1140.674 .0261427
1141.294 .0261271
1141.916 .0261022
1142.538 .0261270
1143.160 .0260449
1143.784 .0260986
1144.408 .0260098
1145.033 .0258226
