Measurement Sequence started on: 14-45-04-498
Integration time: 36
Scans to Average: 2 
>>>>>Begin Spectral Data<<<<<
433.946 .0413138
434.870 .0393773
435.793 .0391360
436.715 .0396328
437.635 .0401790
438.555 .0401361
439.473 .0402215
440.389 .0403586
441.305 .0404915
442.219 .0405903
443.132 .0404070
444.044 .0404680
444.954 .0405365
445.863 .0405732
446.771 .0405757
447.678 .0405751
448.584 .0405646
449.488 .0405414
450.391 .0405055
451.293 .0404585
452.194 .0404018
453.094 .0403355
453.992 .0402606
454.890 .0401783
455.786 .0400904
456.681 .0399985
457.575 .0399039
458.468 .0398085
459.360 .0397131
460.250 .0396186
461.140 .0395252
462.028 .0394324
462.915 .0393406
463.801 .0392491
464.687 .0391577
465.571 .0390668
466.454 .0389767
467.335 .0388880
468.216 .0388017
469.096 .0387180
469.975 .0386373
470.853 .0385593
471.729 .0384837
472.605 .0384102
473.479 .0383383
474.353 .0382681
475.226 .0381993
476.097 .0381326
476.968 .0380688
477.838 .0380082
478.706 .0379518
479.574 .0379001
480.441 .0378534
481.306 .0378116
482.171 .0377741
483.035 .0377403
483.898 .0377095
484.760 .0376807
485.621 .0376535
486.481 .0376276
487.340 .0376026
488.198 .0375783
489.055 .0375545
489.912 .0375311
490.767 .0375079
491.622 .0374709
492.476 .0374485
493.329 .0374266
494.180 .0374050
495.032 .0373836
495.882 .0373622
496.731 .0373407
497.580 .0373188
498.427 .0372966
499.274 .0372742
500.120 .0372655
500.965 .0372431
501.809 .0372208
502.653 .0371992
503.495 .0371784
504.337 .0371584
505.178 .0371392
506.018 .0371204
506.858 .0371012
507.696 .0370814
508.534 .0370605
509.371 .0370383
510.208 .0370144
511.043 .0369891
511.878 .0369622
512.712 .0369340
513.545 .0369046
514.377 .0368739
515.209 .0368421
516.040 .0368091
516.870 .0367744
517.699 .0367377
518.528 .0366986
519.356 .0366569
520.183 .0366121
521.010 .0365642
521.836 .0365135
522.661 .0364602
523.485 .0364050
524.309 .0363485
525.132 .0362915
525.954 .0362343
526.776 .0361770
527.597 .0361193
528.417 .0360609
529.237 .0360012
530.056 .0359398
530.874 .0358763
531.692 .0358109
532.508 .0357437
533.325 .0356756
534.140 .0356073
534.955 .0355400
535.770 .0354747
536.583 .0354120
537.397 .0353523
538.209 .0352958
539.021 .0352423
539.832 .0351917
540.643 .0351432
541.453 .0350964
542.262 .0350504
543.071 .0350049
543.879 .0349595
544.687 .0349148
545.494 .0348707
546.300 .0348279
547.106 .0347867
547.911 .0347477
548.716 .0347106
549.520 .0346754
550.323 .0346415
551.126 .0346084
551.929 .0345754
552.731 .0345419
553.532 .0345074
554.332 .0344724
555.133 .0344369
555.932 .0344014
556.731 .0343663
557.530 .0343319
558.328 .0342984
559.125 .0342659
559.922 .0342341
560.719 .0342028
561.515 .0341714
562.310 .0341397
563.105 .0341072
563.899 .0340738
564.693 .0340390
565.487 .0340028
566.280 .0339654
567.072 .0339267
567.864 .0338866
568.655 .0338453
569.446 .0338028
570.236 .0337592
571.026 .0337142
571.816 .0336679
572.605 .0336204
573.393 .0335717
574.181 .0335220
574.969 .0334714
575.756 .0334203
576.543 .0333690
577.329 .0333178
578.115 .0332671
578.900 .0332172
579.685 .0331683
580.469 .0331205
581.253 .0330740
582.036 .0330292
582.820 .0329863
583.602 .0329453
584.384 .0329063
585.166 .0328695
585.947 .0328346
586.728 .0328014
587.509 .0327697
588.289 .0327391
589.069 .0327092
589.848 .0326798
590.627 .0326507
591.405 .0326221
592.183 .0325940
592.961 .0325665
593.738 .0325398
594.515 .0325141
595.291 .0324894
596.067 .0324656
596.843 .0324429
597.618 .0324211
598.393 .0323925
599.167 .0323730
599.941 .0323543
600.715 .0323365
601.488 .0323193
602.261 .0323029
603.034 .0322871
603.806 .0322720
604.578 .0322573
605.349 .0322430
606.121 .0322289
606.891 .0322215
607.662 .0322068
608.432 .0321920
609.201 .0321766
609.971 .0321607
610.740 .0321440
611.508 .0321263
612.277 .0321075
613.045 .0320874
613.812 .0320661
614.579 .0320434
615.346 .0320195
616.113 .0319943
616.879 .0319680
617.645 .0319405
618.411 .0319121
619.176 .0318826
619.941 .0318523
620.705 .0318211
621.470 .0317891
622.233 .0317565
622.997 .0317234
623.760 .0316900
624.523 .0316563
625.286 .0316226
626.048 .0315890
626.810 .0315557
627.572 .0315228
628.333 .0314904
629.095 .0314588
629.855 .0314279
630.616 .0313979
631.376 .0313688
632.136 .0313405
632.895 .0313131
633.655 .0312864
634.414 .0312605
635.172 .0312354
635.931 .0312111
636.689 .0311875
637.447 .0311647
638.204 .0311428
638.962 .0311217
639.718 .0311015
640.475 .0310821
641.231 .0310635
641.988 .0310457
642.743 .0310285
643.499 .0310118
644.254 .0309957
645.009 .0309798
645.764 .0309643
646.518 .0309489
647.272 .0309337
648.026 .0309186
648.780 .0309036
649.533 .0308887
650.286 .0308739
651.039 .0308593
651.792 .0308448
652.544 .0308304
653.296 .0308160
654.048 .0308016
654.799 .0307872
655.550 .0307726
656.301 .0307578
657.052 .0307428
657.802 .0307276
658.552 .0307120
659.302 .0306962
660.052 .0306801
660.801 .0306637
661.550 .0306471
662.299 .0306302
663.048 .0306130
663.796 .0305956
664.544 .0305779
665.292 .0305600
666.040 .0305417
666.787 .0305230
667.534 .0305040
668.281 .0304846
669.028 .0304649
669.774 .0304448
670.521 .0304243
671.266 .0304036
672.012 .0303827
672.758 .0303615
673.503 .0303401
674.248 .0303186
674.992 .0302970
675.737 .0302753
676.481 .0302535
677.225 .0302316
677.969 .0302096
678.712 .0301877
679.455 .0301659
680.199 .0301443
680.941 .0301230
681.684 .0301020
682.426 .0300814
683.168 .0300613
683.910 .0300418
684.652 .0300227
685.393 .0300043
686.134 .0299864
686.875 .0299691
687.616 .0299525
688.356 .0299368
689.097 .0299218
689.837 .0299078
690.576 .0298946
691.316 .0298821
692.055 .0298704
692.794 .0298594
693.533 .0298489
694.272 .0298390
695.010 .0298296
695.748 .0298207
696.486 .0298124
697.224 .0298048
697.962 .0297977
698.699 .0297913
699.436 .0297855
700.173 .0297802
700.909 .0297753
701.646 .0297707
702.382 .0297663
703.118 .0297621
703.853 .0297579
704.589 .0297538
705.324 .0297496
706.059 .0297455
706.794 .0297413
707.529 .0297371
708.263 .0297328
708.997 .0297285
709.731 .0297243
710.465 .0297199
711.198 .0297155
711.931 .0297108
712.664 .0297060
713.397 .0297008
714.130 .0296952
714.862 .0296891
715.594 .0296826
716.326 .0296756
717.058 .0296681
717.789 .0296601
718.520 .0296518
719.251 .0296431
719.982 .0296340
720.713 .0296246
721.443 .0296148
722.173 .0296047
722.903 .0295941
723.633 .0295832
724.362 .0295720
725.091 .0295605
725.820 .0295488
726.549 .0295370
727.278 .0295251
728.006 .0295132
728.734 .0295013
729.462 .0294895
730.190 .0294777
730.917 .0294660
731.644 .0294542
732.371 .0294423
733.098 .0294303
733.825 .0294182
734.551 .0294060
735.277 .0293937
736.003 .0293813
736.728 .0293688
737.454 .0293562
738.179 .0293434
738.904 .0293306
739.629 .0293176
740.353 .0293044
741.077 .0292912
741.801 .0292777
742.525 .0292641
743.249 .0292503
743.972 .0292365
744.695 .0292225
745.418 .0292085
746.141 .0291945
746.863 .0291804
747.585 .0291663
748.307 .0291522
749.029 .0291381
749.750 .0291240
750.472 .0291099
751.193 .0290960
751.913 .0290822
752.634 .0290687
753.354 .0290554
754.074 .0290425
754.794 .0290300
755.514 .0290179
756.233 .0290062
756.952 .0289949
757.671 .0289841
758.390 .0289736
759.108 .0289636
759.826 .0289539
760.544 .0289446
761.262 .0289356
761.979 .0289270
762.697 .0289188
763.414 .0289110
764.130 .0289036
764.847 .0288966
765.563 .0288902
766.279 .0288842
766.995 .0288787
767.710 .0288737
768.426 .0288692
769.141 .0288652
769.855 .0288617
770.570 .0288586
771.284 .0288560
771.998 .0288538
772.712 .0288523
773.426 .0288514
774.139 .0288511
774.852 .0288514
775.565 .0288524
776.277 .0288540
776.990 .0288562
777.702 .0288588
778.414 .0288619
779.125 .0288653
779.836 .0288690
780.547 .0288730
781.258 .0288773
781.969 .0288817
782.679 .0288863
783.389 .0288930
784.099 .0288973
784.808 .0289014
785.517 .0289053
786.226 .0289088
786.935 .0289119
787.643 .0289145
788.352 .0289166
789.060 .0289181
789.767 .0289190
790.475 .0289193
791.182 .0289190
791.889 .0289172
792.595 .0289160
793.301 .0289142
794.008 .0289119
794.713 .0289090
795.419 .0289055
796.124 .0289015
796.829 .0288969
797.534 .0288917
798.238 .0288858
798.942 .0288794
799.646 .0288723
800.350 .0288647
801.053 .0288565
801.756 .0288478
802.459 .0288387
803.162 .0288291
803.864 .0288192
804.566 .0288089
805.267 .0287983
805.969 .0287873
806.670 .0287760
807.371 .0287642
808.071 .0287522
808.772 .0287397
809.472 .0287270
810.171 .0287139
810.871 .0287004
811.570 .0286866
812.269 .0286724
812.967 .0286578
813.666 .0286427
814.364 .0286271
815.061 .0286111
815.759 .0285947
816.456 .0285780
817.153 .0285608
817.849 .0285434
818.545 .0285257
819.241 .0285077
819.937 .0284895
820.632 .0284711
821.327 .0284524
822.022 .0284337
822.717 .0284149
823.411 .0283959
824.105 .0283770
824.798 .0283581
825.491 .0283392
826.184 .0283203
826.877 .0283015
827.569 .0282828
828.261 .0282642
828.953 .0282459
829.645 .0282278
830.336 .0282100
831.027 .0281926
831.717 .0281757
832.407 .0281592
833.097 .0281433
833.787 .0281278
834.476 .0281130
835.165 .0280986
835.854 .0280849
836.542 .0280718
837.230 .0280592
837.918 .0280473
838.605 .0280359
839.292 .0280251
839.979 .0280146
840.665 .0280046
841.352 .0279949
842.037 .0279855
842.723 .0279764
843.408 .0279675
844.093 .0279589
844.777 .0279505
845.462 .0279423
846.145 .0279343
846.829 .0279265
847.512 .0279189
848.195 .0279116
848.878 .0279045
849.560 .0278976
850.242 .0278911
850.923 .0278849
851.605 .0278790
852.286 .0278733
852.966 .0278680
853.646 .0278628
854.326 .0278578
855.006 .0278531
855.685 .0278486
856.364 .0278444
857.043 .0278405
857.721 .0278369
858.399 .0278337
859.077 .0278308
859.754 .0278281
860.431 .0278258
861.107 .0278237
861.784 .0278219
862.459 .0278203
863.135 .0278190
863.810 .0278179
864.485 .0278170
865.160 .0278162
865.834 .0278155
866.508 .0278148
867.181 .0278141
867.854 .0278132
868.527 .0278123
869.199 .0278112
869.872 .0278099
870.543 .0278085
871.215 .0278068
871.886 .0278049
872.557 .0278026
873.227 .0278001
873.897 .0277974
874.567 .0277944
875.236 .0277912
875.905 .0277877
876.573 .0277841
877.242 .0277804
877.909 .0277764
878.577 .0277723
879.244 .0277679
879.911 .0277633
880.577 .0277584
881.243 .0277533
881.909 .0277480
882.575 .0277423
883.240 .0277365
883.904 .0277303
884.569 .0277239
885.232 .0277172
885.896 .0277101
886.559 .0277028
887.222 .0276952
887.885 .0276873
888.547 .0276792
889.208 .0276709
889.870 .0276624
890.531 .0276538
891.192 .0276450
891.852 .0276360
892.512 .0276267
893.171 .0276173
893.830 .0276075
894.489 .0275975
895.148 .0275872
895.806 .0275767
896.464 .0275659
897.121 .0275549
897.778 .0275437
898.434 .0275324
899.091 .0275151
899.747 .0275036
900.402 .0274919
901.057 .0274801
901.712 .0274681
902.366 .0274559
903.020 .0274435
903.674 .0274309
904.327 .0274182
904.980 .0274052
905.633 .0273921
906.285 .0273788
906.936 .0273653
907.588 .0273578
908.239 .0273438
908.889 .0273294
909.540 .0273146
910.190 .0272993
910.839 .0272836
911.488 .0272675
912.137 .0272510
912.785 .0272340
913.433 .0272168
914.081 .0271991
914.728 .0271811
915.375 .0271628
916.021 .0271439
916.668 .0271247
917.313 .0271050
917.959 .0270848
918.604 .0270643
919.248 .0270435
919.892 .0270223
920.536 .0270008
921.180 .0269790
921.823 .0269569
922.465 .0269346
923.108 .0269118
923.750 .0268888
924.391 .0268654
925.032 .0268416
925.673 .0268176
926.313 .0267934
926.953 .0267691
927.593 .0267446
928.232 .0267201
928.871 .0266957
929.510 .0266713
930.148 .0266470
930.786 .0266228
931.423 .0265988
932.060 .0265749
932.697 .0265512
933.333 .0265278
933.969 .0265046
934.604 .0264817
935.239 .0264591
935.874 .0264369
936.508 .0264151
937.142 .0263938
937.776 .0263729
938.409 .0263524
939.042 .0263323
939.674 .0263126
940.306 .0262932
940.938 .0262742
941.569 .0262555
942.200 .0262372
942.830 .0262194
943.460 .0262020
944.090 .0261851
944.720 .0261687
945.349 .0261527
945.977 .0261373
946.606 .0261222
947.233 .0261075
947.861 .0260933
948.488 .0260794
949.115 .0260660
949.741 .0260531
950.367 .0260407
950.993 .0260288
951.618 .0260174
952.243 .0260064
952.868 .0259959
953.492 .0259858
954.115 .0259761
954.739 .0259667
955.362 .0259578
955.984 .0259494
956.607 .0259416
957.229 .0259343
957.850 .0259276
958.471 .0259216
959.092 .0259161
959.713 .0259113
960.333 .0259070
960.952 .0259034
961.572 .0259003
962.191 .0258979
962.809 .0258961
963.428 .0258948
964.045 .0258941
964.663 .0258939
965.280 .0258940
965.897 .0258944
966.513 .0258950
967.129 .0258958
967.745 .0258966
968.361 .0258975
968.976 .0258984
969.590 .0258993
970.205 .0259002
970.818 .0259010
971.432 .0259017
972.045 .0259023
972.658 .0259027
973.271 .0259028
973.883 .0259028
974.495 .0259026
975.106 .0259023
975.717 .0259019
976.328 .0259016
976.938 .0259014
977.548 .0259012
978.158 .0259010
978.768 .0259007
979.377 .0259006
979.985 .0259005
980.594 .0259004
981.202 .0259003
981.809 .0259003
982.417 .0259004
983.024 .0259008
983.631 .0259013
984.237 .0259020
984.843 .0259029
985.449 .0259040
986.054 .0259052
986.659 .0259065
987.264 .0259079
987.868 .0259092
988.472 .0259107
989.076 .0259123
989.679 .0259140
990.282 .0259159
990.885 .0259178
991.487 .0259197
992.090 .0259215
992.691 .0259231
993.293 .0259245
993.894 .0259256
994.495 .0259263
995.095 .0259266
995.696 .0259267
996.296 .0259265
996.895 .0259260
997.494 .0259253
998.093 .0259245
998.692 .0259234
999.291 .0259221
999.889 .0259204
1000.487 .0259185
1001.084 .0259163
1001.681 .0259138
1002.278 .0259110
1002.875 .0259080
1003.471 .0259049
1004.067 .0259017
1004.663 .0258984
1005.258 .0258949
1005.854 .0258913
1006.449 .0258875
1007.043 .0258836
1007.638 .0258794
1008.232 .0258752
1008.826 .0258708
1009.419 .0258664
1010.012 .0258620
1010.605 .0258577
1011.198 .0258535
1011.791 .0258493
1012.383 .0258451
1012.975 .0258408
1013.566 .0258365
1014.158 .0258322
1014.749 .0258278
1015.340 .0258234
1015.931 .0258190
1016.521 .0258146
1017.111 .0258103
1017.701 .0258060
1018.291 .0258017
1018.880 .0257975
1019.470 .0257933
1020.059 .0257891
1020.647 .0257850
1021.236 .0257810
1021.824 .0257770
1022.412 .0257731
1023.000 .0257692
1023.588 .0257654
1024.175 .0257616
1024.762 .0257577
1025.349 .0257537
1025.936 .0257495
1026.523 .0257451
1027.109 .0257403
1027.695 .0257352
1028.281 .0257298
1028.867 .0257240
1029.452 .0257179
1030.038 .0257114
1030.623 .0257045
1031.208 .0256972
1031.792 .0256896
1032.377 .0256815
1032.961 .0256731
1033.546 .0256643
1034.130 .0256550
1034.714 .0256455
1035.297 .0256355
1035.881 .0256253
1036.464 .0256148
1037.047 .0256040
1037.630 .0255929
1038.213 .0255815
1038.796 .0255698
1039.378 .0255580
1039.961 .0255460
1040.543 .0255338
1041.125 .0255214
1041.707 .0255090
1042.289 .0254964
1042.871 .0254837
1043.452 .0254709
1044.034 .0254581
1044.615 .0254453
1045.196 .0254324
1045.777 .0254197
1046.358 .0254070
1046.939 .0253944
1047.520 .0253819
1048.101 .0253694
1048.681 .0253569
1049.262 .0253444
1049.842 .0253319
1050.422 .0253193
1051.002 .0253067
1051.582 .0252942
1052.162 .0252818
1052.742 .0252695
1053.322 .0252574
1053.902 .0252454
1054.482 .0252336
1055.061 .0252220
1055.641 .0252106
1056.220 .0251994
1056.800 .0251884
1057.379 .0251776
1057.958 .0251671
1058.538 .0251569
1059.117 .0251470
1059.696 .0251374
1060.275 .0251281
1060.854 .0251192
1061.433 .0251105
1062.012 .0251022
1062.592 .0250943
1063.171 .0250868
1063.750 .0250798
1064.329 .0250733
1064.908 .0250674
1065.487 .0250621
1066.066 .0250574
1066.645 .0250533
1067.224 .0250499
1067.803 .0250470
1068.382 .0250448
1068.961 .0250431
1069.540 .0250420
1070.119 .0250415
1070.698 .0250415
1071.278 .0250419
1071.857 .0250426
1072.436 .0250437
1073.016 .0250449
1073.595 .0250463
1074.175 .0250478
1074.754 .0250494
1075.334 .0250509
1075.913 .0250524
1076.493 .0250537
1077.073 .0250550
1077.653 .0250560
1078.233 .0250568
1078.813 .0250574
1079.393 .0250575
1079.974 .0250574
1080.554 .0250568
1081.135 .0250558
1081.716 .0250545
1082.296 .0250529
1082.877 .0250513
1083.458 .0250496
1084.040 .0250479
1084.621 .0250464
1085.202 .0250450
1085.784 .0250438
1086.366 .0250427
1086.948 .0250418
1087.530 .0250411
1088.112 .0250406
1088.695 .0250403
1089.277 .0250403
1089.860 .0250408
1090.443 .0250418
1091.026 .0250432
1091.610 .0250452
1092.193 .0250476
1092.777 .0250504
1093.361 .0250535
1093.946 .0250568
1094.530 .0250601
1095.115 .0250635
1095.700 .0250670
1096.285 .0250707
1096.871 .0250747
1097.456 .0250790
1098.042 .0250837
1098.628 .0250887
1099.215 .0250939
1099.802 .0250991
1100.389 .0251042
1100.976 .0251089
1101.564 .0251133
1102.152 .0251172
1102.740 .0251209
1103.329 .0251243
1103.917 .0251278
1104.507 .0251314
1105.096 .0251353
1105.686 .0251396
1106.276 .0251444
1106.867 .0251495
1107.457 .0251552
1108.049 .0251613
1108.640 .0251680
1109.232 .0251754
1109.825 .0251838
1110.417 .0251933
1111.010 .0252042
1111.604 .0252166
1112.198 .0252305
1112.792 .0252457
1113.387 .0252623
1113.982 .0252801
1114.577 .0252991
1115.173 .0253191
1115.769 .0253401
1116.366 .0253621
1116.963 .0253851
1117.561 .0254092
1118.159 .0254344
1118.758 .0254607
1119.357 .0254879
1119.957 .0255162
1120.557 .0255456
1121.157 .0255760
1121.758 .0256075
1122.360 .0256401
1122.962 .0256739
1123.564 .0257086
1124.167 .0257245
1124.771 .0257604
1125.375 .0257971
1125.980 .0258345
1126.585 .0258724
1127.191 .0259105
1127.797 .0259490
1128.404 .0259877
1129.012 .0260269
1129.620 .0260666
1130.229 .0261069
1130.838 .0261478
1131.448 .0261893
1132.058 .0262312
1132.669 .0262934
1133.281 .0263364
1133.894 .0263796
1134.507 .0264219
1135.120 .0264614
1135.735 .0265082
1136.350 .0265572
1136.965 .0266058
1137.582 .0266553
1138.199 .0267051
1138.816 .0267540
1139.435 .0268028
1140.054 .0268435
1140.674 .0268850
1141.294 .0269263
1141.916 .0269621
1142.538 .0269672
1143.160 .0269213
1143.784 .0271482
1144.408 .0272357
1145.033 .0270686
