Measurement Sequence started on: 14-45-04-498
Integration time: 36
Scans to Average: 2 
>>>>>Begin Spectral Data<<<<<
433.946 .0387040
434.870 .0499859
435.793 .0409647
436.715 .0406607
437.635 .0400620
438.555 .0406691
439.473 .0403829
440.389 .0398954
441.305 .0397433
442.219 .0395918
443.132 .0401485
444.044 .0395455
444.954 .0394089
445.863 .0392803
446.771 .0391766
447.678 .0390358
448.584 .0389059
449.488 .0387990
450.391 .0386989
451.293 .0386061
452.194 .0385196
453.094 .0384380
453.992 .0383614
454.890 .0382871
455.786 .0382141
456.681 .0381418
457.575 .0380708
458.468 .0380029
459.360 .0379399
460.250 .0378846
461.140 .0378380
462.028 .0378006
462.915 .0377721
463.801 .0377503
464.687 .0377332
465.571 .0377185
466.454 .0377036
467.335 .0376859
468.216 .0376645
469.096 .0376390
469.975 .0376097
470.853 .0375771
471.729 .0375424
472.605 .0375066
473.479 .0374705
474.353 .0374342
475.226 .0373968
476.097 .0373577
476.968 .0373159
477.838 .0372704
478.706 .0372212
479.574 .0371686
480.441 .0371136
481.306 .0370580
482.171 .0370035
483.035 .0369521
483.898 .0369051
484.760 .0368632
485.621 .0368266
486.481 .0367947
487.340 .0367669
488.198 .0367421
489.055 .0367196
489.912 .0366992
490.767 .0366806
491.622 .0366621
492.476 .0366492
493.329 .0366389
494.180 .0366310
495.032 .0366251
495.882 .0366206
496.731 .0366168
497.580 .0366129
498.427 .0366081
499.274 .0366019
500.120 .0365948
500.965 .0365860
501.809 .0365752
502.653 .0365619
503.495 .0365459
504.337 .0365274
505.178 .0365063
506.018 .0364828
506.858 .0364565
507.696 .0364277
508.534 .0363965
509.371 .0363633
510.208 .0363283
511.043 .0362920
511.878 .0362547
512.712 .0362172
513.545 .0361795
514.377 .0361416
515.209 .0361032
516.040 .0360638
516.870 .0360231
517.699 .0359809
518.528 .0359370
519.356 .0358916
520.183 .0358450
521.010 .0357984
521.836 .0357522
522.661 .0357069
523.485 .0356628
524.309 .0356197
525.132 .0355774
525.954 .0355354
526.776 .0354930
527.597 .0354497
528.417 .0354057
529.237 .0353609
530.056 .0353152
530.874 .0352688
531.692 .0352221
532.508 .0351755
533.325 .0351293
534.140 .0350835
534.955 .0350380
535.770 .0349927
536.583 .0349474
537.397 .0349017
538.209 .0348554
539.021 .0348079
539.832 .0347589
540.643 .0347083
541.453 .0346560
542.262 .0346022
543.071 .0345471
543.879 .0344914
544.687 .0344355
545.494 .0343797
546.300 .0343239
547.106 .0342683
547.911 .0342133
548.716 .0341587
549.520 .0341045
550.323 .0340509
551.126 .0339977
551.929 .0339449
552.731 .0338927
553.532 .0338412
554.332 .0337903
555.133 .0337399
555.932 .0336904
556.731 .0336418
557.530 .0335942
558.328 .0335479
559.125 .0335027
559.922 .0334583
560.719 .0334143
561.515 .0333698
562.310 .0333241
563.105 .0332767
563.899 .0332273
564.693 .0331759
565.487 .0331229
566.280 .0330690
567.072 .0330146
567.864 .0329610
568.655 .0329088
569.446 .0328583
570.236 .0328099
571.026 .0327638
571.816 .0327196
572.605 .0326774
573.393 .0326369
574.181 .0325982
574.969 .0325615
575.756 .0325269
576.543 .0324947
577.329 .0324655
578.115 .0324393
578.900 .0324164
579.685 .0323970
580.469 .0323807
581.253 .0323671
582.036 .0323555
582.820 .0323452
583.602 .0323357
584.384 .0323262
585.166 .0323160
585.947 .0323050
586.728 .0322928
587.509 .0322793
588.289 .0322646
589.069 .0322484
589.848 .0322309
590.627 .0322117
591.405 .0321907
592.183 .0321676
592.961 .0321424
593.738 .0321150
594.515 .0320855
595.291 .0320540
596.067 .0320206
596.843 .0319856
597.618 .0319493
598.393 .0318913
599.167 .0318532
599.941 .0318145
600.715 .0317755
601.488 .0317362
602.261 .0316970
603.034 .0316579
603.806 .0316194
604.578 .0315815
605.349 .0315446
606.121 .0315086
606.891 .0314934
607.662 .0314594
608.432 .0314266
609.201 .0313952
609.971 .0313652
610.740 .0313365
611.508 .0313092
612.277 .0312833
613.045 .0312589
613.812 .0312359
614.579 .0312144
615.346 .0311943
616.113 .0311756
616.879 .0311581
617.645 .0311418
618.411 .0311265
619.176 .0311121
619.941 .0310986
620.705 .0310857
621.470 .0310734
622.233 .0310618
622.997 .0310506
623.760 .0310397
624.523 .0310291
625.286 .0310185
626.048 .0310078
626.810 .0309968
627.572 .0309855
628.333 .0309737
629.095 .0309614
629.855 .0309485
630.616 .0309349
631.376 .0309207
632.136 .0309059
632.895 .0308903
633.655 .0308740
634.414 .0308569
635.172 .0308389
635.931 .0308202
636.689 .0308007
637.447 .0307806
638.204 .0307599
638.962 .0307387
639.718 .0307170
640.475 .0306949
641.231 .0306724
641.988 .0306495
642.743 .0306263
643.499 .0306028
644.254 .0305790
645.009 .0305551
645.764 .0305310
646.518 .0305068
647.272 .0304826
648.026 .0304585
648.780 .0304343
649.533 .0304102
650.286 .0303860
651.039 .0303618
651.792 .0303376
652.544 .0303135
653.296 .0302894
654.048 .0302654
654.799 .0302414
655.550 .0302176
656.301 .0301939
657.052 .0301702
657.802 .0301468
658.552 .0301236
659.302 .0301006
660.052 .0300778
660.801 .0300553
661.550 .0300332
662.299 .0300114
663.048 .0299901
663.796 .0299692
664.544 .0299488
665.292 .0299290
666.040 .0299097
666.787 .0298910
667.534 .0298730
668.281 .0298558
669.028 .0298394
669.774 .0298239
670.521 .0298091
671.266 .0297952
672.012 .0297820
672.758 .0297696
673.503 .0297577
674.248 .0297465
674.992 .0297359
675.737 .0297258
676.481 .0297163
677.225 .0297073
677.969 .0296988
678.712 .0296908
679.455 .0296831
680.199 .0296758
680.941 .0296687
681.684 .0296619
682.426 .0296553
683.168 .0296489
683.910 .0296426
684.652 .0296363
685.393 .0296301
686.134 .0296240
686.875 .0296177
687.616 .0296115
688.356 .0296052
689.097 .0295988
689.837 .0295923
690.576 .0295858
691.316 .0295791
692.055 .0295723
692.794 .0295654
693.533 .0295583
694.272 .0295509
695.010 .0295433
695.748 .0295353
696.486 .0295271
697.224 .0295185
697.962 .0295095
698.699 .0295001
699.436 .0294903
700.173 .0294801
700.909 .0294694
701.646 .0294583
702.382 .0294467
703.118 .0294348
703.853 .0294226
704.589 .0294099
705.324 .0293969
706.059 .0293835
706.794 .0293695
707.529 .0293551
708.263 .0293401
708.997 .0293247
709.731 .0293090
710.465 .0292929
711.198 .0292765
711.931 .0292599
712.664 .0292430
713.397 .0292259
714.130 .0292085
714.862 .0291907
715.594 .0291725
716.326 .0291540
717.058 .0291351
717.789 .0291159
718.520 .0290966
719.251 .0290771
719.982 .0290575
720.713 .0290378
721.443 .0290180
722.173 .0289983
722.903 .0289785
723.633 .0289589
724.362 .0289396
725.091 .0289207
725.820 .0289024
726.549 .0288847
727.278 .0288678
728.006 .0288517
728.734 .0288365
729.462 .0288224
730.190 .0288092
730.917 .0287972
731.644 .0287864
732.371 .0287767
733.098 .0287682
733.825 .0287608
734.551 .0287545
735.277 .0287492
736.003 .0287447
736.728 .0287410
737.454 .0287380
738.179 .0287356
738.904 .0287338
739.629 .0287326
740.353 .0287320
741.077 .0287318
741.801 .0287320
742.525 .0287324
743.249 .0287329
743.972 .0287332
744.695 .0287334
745.418 .0287333
746.141 .0287329
746.863 .0287322
747.585 .0287311
748.307 .0287297
749.029 .0287279
749.750 .0287257
750.472 .0287230
751.193 .0287198
751.913 .0287161
752.634 .0287118
753.354 .0287070
754.074 .0287018
754.794 .0286963
755.514 .0286904
756.233 .0286843
756.952 .0286781
757.671 .0286717
758.390 .0286654
759.108 .0286590
759.826 .0286527
760.544 .0286465
761.262 .0286403
761.979 .0286342
762.697 .0286282
763.414 .0286222
764.130 .0286164
764.847 .0286106
765.563 .0286048
766.279 .0285991
766.995 .0285934
767.710 .0285878
768.426 .0285821
769.141 .0285766
769.855 .0285710
770.570 .0285654
771.284 .0285599
771.998 .0285545
772.712 .0285490
773.426 .0285437
774.139 .0285383
774.852 .0285329
775.565 .0285276
776.277 .0285222
776.990 .0285167
777.702 .0285112
778.414 .0285057
779.125 .0285000
779.836 .0284942
780.547 .0284882
781.258 .0284820
781.969 .0284757
782.679 .0284691
783.389 .0284585
784.099 .0284511
784.808 .0284433
785.517 .0284352
786.226 .0284268
786.935 .0284181
787.643 .0284091
788.352 .0283996
789.060 .0283897
789.767 .0283793
790.475 .0283684
791.182 .0283570
791.889 .0283497
792.595 .0283377
793.301 .0283252
794.008 .0283124
794.713 .0282991
795.419 .0282855
796.124 .0282716
796.829 .0282576
797.534 .0282433
798.238 .0282289
798.942 .0282146
799.646 .0282003
800.350 .0281863
801.053 .0281727
801.756 .0281594
802.459 .0281466
803.162 .0281344
803.864 .0281228
804.566 .0281117
805.267 .0281012
805.969 .0280912
806.670 .0280817
807.371 .0280726
808.071 .0280639
808.772 .0280556
809.472 .0280477
810.171 .0280399
810.871 .0280323
811.570 .0280248
812.269 .0280173
812.967 .0280098
813.666 .0280023
814.364 .0279947
815.061 .0279870
815.759 .0279792
816.456 .0279714
817.153 .0279634
817.849 .0279553
818.545 .0279470
819.241 .0279385
819.937 .0279297
820.632 .0279208
821.327 .0279116
822.022 .0279022
822.717 .0278927
823.411 .0278832
824.105 .0278737
824.798 .0278644
825.491 .0278551
826.184 .0278460
826.877 .0278372
827.569 .0278286
828.261 .0278203
828.953 .0278124
829.645 .0278049
830.336 .0277978
831.027 .0277913
831.717 .0277852
832.407 .0277797
833.097 .0277748
833.787 .0277705
834.476 .0277668
835.165 .0277637
835.854 .0277611
836.542 .0277590
837.230 .0277573
837.918 .0277560
838.605 .0277548
839.292 .0277538
839.979 .0277528
840.665 .0277516
841.352 .0277504
842.037 .0277490
842.723 .0277476
843.408 .0277460
844.093 .0277444
844.777 .0277426
845.462 .0277405
846.145 .0277383
846.829 .0277356
847.512 .0277326
848.195 .0277291
848.878 .0277251
849.560 .0277208
850.242 .0277160
850.923 .0277109
851.605 .0277056
852.286 .0277000
852.966 .0276942
853.646 .0276881
854.326 .0276817
855.006 .0276750
855.685 .0276681
856.364 .0276609
857.043 .0276536
857.721 .0276461
858.399 .0276386
859.077 .0276310
859.754 .0276235
860.431 .0276159
861.107 .0276083
861.784 .0276007
862.459 .0275930
863.135 .0275853
863.810 .0275776
864.485 .0275698
865.160 .0275620
865.834 .0275541
866.508 .0275460
867.181 .0275378
867.854 .0275292
868.527 .0275202
869.199 .0275108
869.872 .0275008
870.543 .0274903
871.215 .0274792
871.886 .0274675
872.557 .0274553
873.227 .0274424
873.897 .0274288
874.567 .0274146
875.236 .0273997
875.905 .0273841
876.573 .0273678
877.242 .0273508
877.909 .0273331
878.577 .0273147
879.244 .0272958
879.911 .0272763
880.577 .0272564
881.243 .0272360
881.909 .0272153
882.575 .0271944
883.240 .0271733
883.904 .0271519
884.569 .0271305
885.232 .0271091
885.896 .0270877
886.559 .0270665
887.222 .0270454
887.885 .0270248
888.547 .0270045
889.208 .0269848
889.870 .0269655
890.531 .0269469
891.192 .0269288
891.852 .0269113
892.512 .0268945
893.171 .0268782
893.830 .0268626
894.489 .0268475
895.148 .0268331
895.806 .0268192
896.464 .0268060
897.121 .0267932
897.778 .0267810
898.434 .0267693
899.091 .0267532
899.747 .0267425
900.402 .0267321
901.057 .0267220
901.712 .0267122
902.366 .0267027
903.020 .0266933
903.674 .0266840
904.327 .0266747
904.980 .0266655
905.633 .0266562
906.285 .0266469
906.936 .0266376
907.588 .0266326
908.239 .0266232
908.889 .0266138
909.540 .0266043
910.190 .0265947
910.839 .0265850
911.488 .0265751
912.137 .0265650
912.785 .0265547
913.433 .0265444
914.081 .0265340
914.728 .0265236
915.375 .0265132
916.021 .0265029
916.668 .0264926
917.313 .0264823
917.959 .0264720
918.604 .0264616
919.248 .0264513
919.892 .0264409
920.536 .0264306
921.180 .0264202
921.823 .0264099
922.465 .0263997
923.108 .0263895
923.750 .0263793
924.391 .0263691
925.032 .0263588
925.673 .0263486
926.313 .0263384
926.953 .0263282
927.593 .0263181
928.232 .0263080
928.871 .0262979
929.510 .0262879
930.148 .0262779
930.786 .0262679
931.423 .0262580
932.060 .0262481
932.697 .0262382
933.333 .0262285
933.969 .0262188
934.604 .0262091
935.239 .0261994
935.874 .0261897
936.508 .0261800
937.142 .0261701
937.776 .0261603
938.409 .0261505
939.042 .0261407
939.674 .0261311
940.306 .0261217
940.938 .0261125
941.569 .0261035
942.200 .0260946
942.830 .0260858
943.460 .0260770
944.090 .0260683
944.720 .0260598
945.349 .0260514
945.977 .0260432
946.606 .0260354
947.233 .0260278
947.861 .0260205
948.488 .0260135
949.115 .0260067
949.741 .0260002
950.367 .0259938
950.993 .0259876
951.618 .0259817
952.243 .0259761
952.868 .0259709
953.492 .0259662
954.115 .0259618
954.739 .0259579
955.362 .0259543
955.984 .0259511
956.607 .0259481
957.229 .0259454
957.850 .0259429
958.471 .0259406
959.092 .0259385
959.713 .0259365
960.333 .0259347
960.952 .0259328
961.572 .0259310
962.191 .0259290
962.809 .0259268
963.428 .0259244
964.045 .0259217
964.663 .0259188
965.280 .0259156
965.897 .0259121
966.513 .0259081
967.129 .0259037
967.745 .0258987
968.361 .0258931
968.976 .0258868
969.590 .0258798
970.205 .0258722
970.818 .0258639
971.432 .0258550
972.045 .0258456
972.658 .0258358
973.271 .0258256
973.883 .0258150
974.495 .0258042
975.106 .0257932
975.717 .0257820
976.328 .0257708
976.938 .0257596
977.548 .0257483
978.158 .0257371
978.768 .0257210
979.377 .0257101
979.985 .0256991
980.594 .0256881
981.202 .0256770
981.809 .0256658
982.417 .0256545
983.024 .0256432
983.631 .0256319
984.237 .0256206
984.843 .0256093
985.449 .0255982
986.054 .0255871
986.659 .0255761
987.264 .0255703
987.868 .0255593
988.472 .0255484
989.076 .0255375
989.679 .0255267
990.282 .0255159
990.885 .0255052
991.487 .0254945
992.090 .0254837
992.691 .0254727
993.293 .0254615
993.894 .0254501
994.495 .0254383
995.095 .0254262
995.696 .0254138
996.296 .0254010
996.895 .0253879
997.494 .0253747
998.093 .0253614
998.692 .0253481
999.291 .0253349
999.889 .0253218
1000.487 .0253088
1001.084 .0252959
1001.681 .0252833
1002.278 .0252708
1002.875 .0252585
1003.471 .0252463
1004.067 .0252342
1004.663 .0252223
1005.258 .0252104
1005.854 .0251987
1006.449 .0251871
1007.043 .0251756
1007.638 .0251642
1008.232 .0251528
1008.826 .0251417
1009.419 .0251306
1010.012 .0251198
1010.605 .0251092
1011.198 .0250989
1011.791 .0250889
1012.383 .0250793
1012.975 .0250701
1013.566 .0250615
1014.158 .0250532
1014.749 .0250455
1015.340 .0250381
1015.931 .0250313
1016.521 .0250248
1017.111 .0250186
1017.701 .0250126
1018.291 .0250068
1018.880 .0250011
1019.470 .0249955
1020.059 .0249899
1020.647 .0249843
1021.236 .0249789
1021.824 .0249738
1022.412 .0249689
1023.000 .0249643
1023.588 .0249600
1024.175 .0249561
1024.762 .0249524
1025.349 .0249488
1025.936 .0249452
1026.523 .0249416
1027.109 .0249380
1027.695 .0249344
1028.281 .0249308
1028.867 .0249273
1029.452 .0249239
1030.038 .0249205
1030.623 .0249173
1031.208 .0249141
1031.792 .0249109
1032.377 .0249077
1032.961 .0249044
1033.546 .0249011
1034.130 .0248978
1034.714 .0248946
1035.297 .0248917
1035.881 .0248889
1036.464 .0248864
1037.047 .0248843
1037.630 .0248826
1038.213 .0248813
1038.796 .0248804
1039.378 .0248798
1039.961 .0248795
1040.543 .0248793
1041.125 .0248793
1041.707 .0248793
1042.289 .0248793
1042.871 .0248792
1043.452 .0248789
1044.034 .0248784
1044.615 .0248778
1045.196 .0248770
1045.777 .0248763
1046.358 .0248757
1046.939 .0248752
1047.520 .0248750
1048.101 .0248751
1048.681 .0248754
1049.262 .0248761
1049.842 .0248769
1050.422 .0248780
1051.002 .0248794
1051.582 .0248810
1052.162 .0248830
1052.742 .0248854
1053.322 .0248883
1053.902 .0248917
1054.482 .0248953
1055.061 .0248991
1055.641 .0249029
1056.220 .0249066
1056.800 .0249100
1057.379 .0249129
1057.958 .0249154
1058.538 .0249175
1059.117 .0249194
1059.696 .0249211
1060.275 .0249228
1060.854 .0249246
1061.433 .0249266
1062.012 .0249287
1062.592 .0249307
1063.171 .0249327
1063.750 .0249344
1064.329 .0249358
1064.908 .0249370
1065.487 .0249380
1066.066 .0249389
1066.645 .0249398
1067.224 .0249408
1067.803 .0249421
1068.382 .0249437
1068.961 .0249456
1069.540 .0249479
1070.119 .0249504
1070.698 .0249532
1071.278 .0249562
1071.857 .0249595
1072.436 .0249628
1073.016 .0249663
1073.595 .0249701
1074.175 .0249741
1074.754 .0249783
1075.334 .0249829
1075.913 .0249878
1076.493 .0249930
1077.073 .0249985
1077.653 .0250042
1078.233 .0250101
1078.813 .0250162
1079.393 .0250226
1079.974 .0250291
1080.554 .0250358
1081.135 .0250429
1081.716 .0250502
1082.296 .0250581
1082.877 .0250663
1083.458 .0250750
1084.040 .0250842
1084.621 .0250938
1085.202 .0251037
1085.784 .0251138
1086.366 .0251238
1086.948 .0251336
1087.530 .0251430
1088.112 .0251520
1088.695 .0251605
1089.277 .0251686
1089.860 .0251765
1090.443 .0251844
1091.026 .0251924
1091.610 .0252007
1092.193 .0252094
1092.777 .0252187
1093.361 .0252286
1093.946 .0252387
1094.530 .0252491
1095.115 .0252596
1095.700 .0252698
1096.285 .0252799
1096.871 .0252896
1097.456 .0252989
1098.042 .0253077
1098.628 .0253157
1099.215 .0253229
1099.802 .0253289
1100.389 .0253336
1100.976 .0253366
1101.564 .0253377
1102.152 .0253370
1102.740 .0253347
1103.329 .0253310
1103.917 .0253265
1104.507 .0253217
1105.096 .0253169
1105.686 .0253123
1106.276 .0253080
1106.867 .0253039
1107.457 .0253000
1108.049 .0252958
1108.640 .0252915
1109.232 .0252869
1109.825 .0252820
1110.417 .0252771
1111.010 .0252725
1111.604 .0252681
1112.198 .0252644
1112.792 .0252614
1113.387 .0252590
1113.982 .0252574
1114.577 .0252566
1115.173 .0252566
1115.769 .0252575
1116.366 .0252595
1116.963 .0252628
1117.561 .0252678
1118.159 .0252747
1118.758 .0252834
1119.357 .0252941
1119.957 .0253066
1120.557 .0253209
1121.157 .0253366
1121.758 .0253539
1122.360 .0253724
1122.962 .0253920
1123.564 .0254127
1124.167 .0254199
1124.771 .0254420
1125.375 .0254650
1125.980 .0254890
1126.585 .0255137
1127.191 .0255390
1127.797 .0255652
1128.404 .0255922
1129.012 .0256204
1129.620 .0256502
1130.229 .0256819
1130.838 .0257153
1131.448 .0257505
1132.058 .0257872
1132.669 .0258419
1133.281 .0258821
1133.894 .0259231
1134.507 .0259616
1135.120 .0260030
1135.735 .0260488
1136.350 .0260970
1136.965 .0260621
1137.582 .0261236
1138.199 .0261911
1138.816 .0262558
1139.435 .0263176
1140.054 .0263758
1140.674 .0264304
1141.294 .0264837
1141.916 .0265288
1142.538 .0264870
1143.160 .0265957
1143.784 .0267439
1144.408 .0268374
1145.033 .0266104
