Measurement Sequence started on: 14-45-04-498
Integration time: 36
Scans to Average: 2 
>>>>>Begin Spectral Data<<<<<
433.946 .0542599
434.870 .0566547
435.793 .0467564
436.715 .0468077
437.635 .0430764
438.555 .0446581
439.473 .0435078
440.389 .0425610
441.305 .0420463
442.219 .0415933
443.132 .0428107
444.044 .0419486
444.954 .0416067
445.863 .0412610
446.771 .0411107
447.678 .0408768
448.584 .0407038
449.488 .0405818
450.391 .0404879
451.293 .0404190
452.194 .0403675
453.094 .0403317
453.992 .0403077
454.890 .0402920
455.786 .0402810
456.681 .0402721
457.575 .0402621
458.468 .0402488
459.360 .0402315
460.250 .0402094
461.140 .0401815
462.028 .0401479
462.915 .0401083
463.801 .0400622
464.687 .0400087
465.571 .0399469
466.454 .0398759
467.335 .0397955
468.216 .0397055
469.096 .0396061
469.975 .0394983
470.853 .0393831
471.729 .0392613
472.605 .0391350
473.479 .0390057
474.353 .0388749
475.226 .0387436
476.097 .0386133
476.968 .0384847
477.838 .0383589
478.706 .0382364
479.574 .0381180
480.441 .0380047
481.306 .0378970
482.171 .0377951
483.035 .0376995
483.898 .0376105
484.760 .0375283
485.621 .0374523
486.481 .0373828
487.340 .0373190
488.198 .0372604
489.055 .0372064
489.912 .0371566
490.767 .0371106
491.622 .0370513
492.476 .0370118
493.329 .0369744
494.180 .0369387
495.032 .0369042
495.882 .0368710
496.731 .0368388
497.580 .0368073
498.427 .0367762
499.274 .0367455
500.120 .0367302
500.965 .0366990
501.809 .0366673
502.653 .0366351
503.495 .0366022
504.337 .0365685
505.178 .0365340
506.018 .0364987
506.858 .0364623
507.696 .0364248
508.534 .0363860
509.371 .0363459
510.208 .0363044
511.043 .0362614
511.878 .0362168
512.712 .0361703
513.545 .0361217
514.377 .0360710
515.209 .0360184
516.040 .0359646
516.870 .0359100
517.699 .0358551
518.528 .0358004
519.356 .0357464
520.183 .0356931
521.010 .0356409
521.836 .0355892
522.661 .0355380
523.485 .0354865
524.309 .0354347
525.132 .0353820
525.954 .0353284
526.776 .0352736
527.597 .0352180
528.417 .0351616
529.237 .0351051
530.056 .0350489
530.874 .0349937
531.692 .0349398
532.508 .0348871
533.325 .0348350
534.140 .0347831
534.955 .0347309
535.770 .0346784
536.583 .0346254
537.397 .0345723
538.209 .0345196
539.021 .0344683
539.832 .0344192
540.643 .0343734
541.453 .0343313
542.262 .0342934
543.071 .0342595
543.879 .0342290
544.687 .0342011
545.494 .0341754
546.300 .0341508
547.106 .0341268
547.911 .0341028
548.716 .0340787
549.520 .0340544
550.323 .0340308
551.126 .0340087
551.929 .0339885
552.731 .0339707
553.532 .0339557
554.332 .0339433
555.133 .0339335
555.932 .0339257
556.731 .0339196
557.530 .0339146
558.328 .0339099
559.125 .0339049
559.922 .0338991
560.719 .0338927
561.515 .0338858
562.310 .0338784
563.105 .0338707
563.899 .0338627
564.693 .0338540
565.487 .0338444
566.280 .0338338
567.072 .0338216
567.864 .0338070
568.655 .0337893
569.446 .0337681
570.236 .0337428
571.026 .0337134
571.816 .0336799
572.605 .0336426
573.393 .0336020
574.181 .0335585
574.969 .0335128
575.756 .0334658
576.543 .0334186
577.329 .0333715
578.115 .0333252
578.900 .0332801
579.685 .0332362
580.469 .0331938
581.253 .0331531
582.036 .0331143
582.820 .0330773
583.602 .0330424
584.384 .0330097
585.166 .0329793
585.947 .0329512
586.728 .0329254
587.509 .0329017
588.289 .0328796
589.069 .0328587
589.848 .0328384
590.627 .0328184
591.405 .0327985
592.183 .0327784
592.961 .0327583
593.738 .0327381
594.515 .0327183
595.291 .0326988
596.067 .0326800
596.843 .0326620
597.618 .0326447
598.393 .0326204
599.167 .0326040
599.941 .0325879
600.715 .0325720
601.488 .0325562
602.261 .0325406
603.034 .0325252
603.806 .0325101
604.578 .0324953
605.349 .0324808
606.121 .0324665
606.891 .0324595
607.662 .0324451
608.432 .0324306
609.201 .0324159
609.971 .0324009
610.740 .0323855
611.508 .0323699
612.277 .0323539
613.045 .0323377
613.812 .0323212
614.579 .0323044
615.346 .0322873
616.113 .0322699
616.879 .0322521
617.645 .0322339
618.411 .0322155
619.176 .0321968
619.941 .0321777
620.705 .0321583
621.470 .0321386
622.233 .0321186
622.997 .0320985
623.760 .0320782
624.523 .0320579
625.286 .0320374
626.048 .0320169
626.810 .0319963
627.572 .0319756
628.333 .0319548
629.095 .0319338
629.855 .0319126
630.616 .0318913
631.376 .0318699
632.136 .0318484
632.895 .0318270
633.655 .0318057
634.414 .0317845
635.172 .0317635
635.931 .0317426
636.689 .0317219
637.447 .0317015
638.204 .0316814
638.962 .0316616
639.718 .0316423
640.475 .0316234
641.231 .0316050
641.988 .0315872
642.743 .0315701
643.499 .0315537
644.254 .0315381
645.009 .0315234
645.764 .0315096
646.518 .0314966
647.272 .0314846
648.026 .0314734
648.780 .0314630
649.533 .0314532
650.286 .0314439
651.039 .0314351
651.792 .0314266
652.544 .0314185
653.296 .0314106
654.048 .0314029
654.799 .0313951
655.550 .0313872
656.301 .0313789
657.052 .0313702
657.802 .0313608
658.552 .0313508
659.302 .0313401
660.052 .0313287
660.801 .0313166
661.550 .0313039
662.299 .0312905
663.048 .0312766
663.796 .0312620
664.544 .0312468
665.292 .0312312
666.040 .0312152
666.787 .0311988
667.534 .0311824
668.281 .0311659
669.028 .0311495
669.774 .0311333
670.521 .0311173
671.266 .0311015
672.012 .0310860
672.758 .0310708
673.503 .0310560
674.248 .0310417
674.992 .0310279
675.737 .0310146
676.481 .0310018
677.225 .0309897
677.969 .0309780
678.712 .0309669
679.455 .0309564
680.199 .0309465
680.941 .0309371
681.684 .0309282
682.426 .0309198
683.168 .0309117
683.910 .0309039
684.652 .0308963
685.393 .0308887
686.134 .0308810
686.875 .0308732
687.616 .0308653
688.356 .0308573
689.097 .0308494
689.837 .0308414
690.576 .0308333
691.316 .0308251
692.055 .0308167
692.794 .0308079
693.533 .0307988
694.272 .0307893
695.010 .0307793
695.748 .0307688
696.486 .0307580
697.224 .0307468
697.962 .0307353
698.699 .0307236
699.436 .0307117
700.173 .0306996
700.909 .0306873
701.646 .0306748
702.382 .0306620
703.118 .0306489
703.853 .0306356
704.589 .0306220
705.324 .0306081
706.059 .0305939
706.794 .0305795
707.529 .0305649
708.263 .0305500
708.997 .0305350
709.731 .0305198
710.465 .0305046
711.198 .0304894
711.931 .0304743
712.664 .0304591
713.397 .0304441
714.130 .0304291
714.862 .0304140
715.594 .0303990
716.326 .0303839
717.058 .0303688
717.789 .0303538
718.520 .0303389
719.251 .0303243
719.982 .0303099
720.713 .0302958
721.443 .0302820
722.173 .0302684
722.903 .0302550
723.633 .0302417
724.362 .0302285
725.091 .0302153
725.820 .0302021
726.549 .0301889
727.278 .0301757
728.006 .0301626
728.734 .0301496
729.462 .0301366
730.190 .0301236
730.917 .0301107
731.644 .0300978
732.371 .0300850
733.098 .0300722
733.825 .0300596
734.551 .0300472
735.277 .0300351
736.003 .0300234
736.728 .0300120
737.454 .0300010
738.179 .0299904
738.904 .0299802
739.629 .0299704
740.353 .0299609
741.077 .0299517
741.801 .0299428
742.525 .0299341
743.249 .0299255
743.972 .0299169
744.695 .0299081
745.418 .0298991
746.141 .0298897
746.863 .0298799
747.585 .0298695
748.307 .0298585
749.029 .0298469
749.750 .0298348
750.472 .0298221
751.193 .0298089
751.913 .0297952
752.634 .0297810
753.354 .0297665
754.074 .0297516
754.794 .0297365
755.514 .0297210
756.233 .0297055
756.952 .0296899
757.671 .0296743
758.390 .0296589
759.108 .0296437
759.826 .0296290
760.544 .0296147
761.262 .0296010
761.979 .0295878
762.697 .0295752
763.414 .0295630
764.130 .0295512
764.847 .0295399
765.563 .0295289
766.279 .0295182
766.995 .0295079
767.710 .0294978
768.426 .0294879
769.141 .0294781
769.855 .0294682
770.570 .0294583
771.284 .0294482
771.998 .0294377
772.712 .0294269
773.426 .0294156
774.139 .0294039
774.852 .0293917
775.565 .0293791
776.277 .0293661
776.990 .0293528
777.702 .0293391
778.414 .0293251
779.125 .0293108
779.836 .0292965
780.547 .0292821
781.258 .0292678
781.969 .0292535
782.679 .0292393
783.389 .0292185
784.099 .0292048
784.808 .0291913
785.517 .0291777
786.226 .0291642
786.935 .0291508
787.643 .0291375
788.352 .0291242
789.060 .0291111
789.767 .0290982
790.475 .0290855
791.182 .0290729
791.889 .0290670
792.595 .0290547
793.301 .0290425
794.008 .0290305
794.713 .0290186
795.419 .0290069
796.124 .0289952
796.829 .0289837
797.534 .0289722
798.238 .0289608
798.942 .0289494
799.646 .0289380
800.350 .0289268
801.053 .0289157
801.756 .0289049
802.459 .0288943
803.162 .0288841
803.864 .0288741
804.566 .0288644
805.267 .0288549
805.969 .0288455
806.670 .0288363
807.371 .0288272
808.071 .0288183
808.772 .0288096
809.472 .0288012
810.171 .0287931
810.871 .0287853
811.570 .0287778
812.269 .0287705
812.967 .0287634
813.666 .0287563
814.364 .0287493
815.061 .0287423
815.759 .0287352
816.456 .0287279
817.153 .0287203
817.849 .0287123
818.545 .0287039
819.241 .0286948
819.937 .0286851
820.632 .0286746
821.327 .0286635
822.022 .0286518
822.717 .0286395
823.411 .0286268
824.105 .0286136
824.798 .0285998
825.491 .0285856
826.184 .0285707
826.877 .0285552
827.569 .0285390
828.261 .0285221
828.953 .0285047
829.645 .0284870
830.336 .0284690
831.027 .0284511
831.717 .0284332
832.407 .0284155
833.097 .0283981
833.787 .0283809
834.476 .0283641
835.165 .0283474
835.854 .0283311
836.542 .0283149
837.230 .0282991
837.918 .0282836
838.605 .0282685
839.292 .0282537
839.979 .0282393
840.665 .0282253
841.352 .0282116
842.037 .0281983
842.723 .0281852
843.408 .0281723
844.093 .0281596
844.777 .0281470
845.462 .0281344
846.145 .0281218
846.829 .0281090
847.512 .0280960
848.195 .0280827
848.878 .0280691
849.560 .0280553
850.242 .0280413
850.923 .0280270
851.605 .0280125
852.286 .0279980
852.966 .0279834
853.646 .0279687
854.326 .0279540
855.006 .0279393
855.685 .0279246
856.364 .0279099
857.043 .0278952
857.721 .0278805
858.399 .0278660
859.077 .0278515
859.754 .0278372
860.431 .0278232
861.107 .0278094
861.784 .0277961
862.459 .0277831
863.135 .0277707
863.810 .0277587
864.485 .0277472
865.160 .0277362
865.834 .0277256
866.508 .0277154
867.181 .0277056
867.854 .0276961
868.527 .0276869
869.199 .0276779
869.872 .0276692
870.543 .0276607
871.215 .0276524
871.886 .0276444
872.557 .0276366
873.227 .0276290
873.897 .0276216
874.567 .0276144
875.236 .0276074
875.905 .0276004
876.573 .0275935
877.242 .0275866
877.909 .0275798
878.577 .0275729
879.244 .0275662
879.911 .0275594
880.577 .0275527
881.243 .0275461
881.909 .0275396
882.575 .0275331
883.240 .0275267
883.904 .0275204
884.569 .0275142
885.232 .0275079
885.896 .0275018
886.559 .0274957
887.222 .0274897
887.885 .0274837
888.547 .0274778
889.208 .0274718
889.870 .0274658
890.531 .0274597
891.192 .0274534
891.852 .0274471
892.512 .0274405
893.171 .0274337
893.830 .0274266
894.489 .0274191
895.148 .0274113
895.806 .0274029
896.464 .0273940
897.121 .0273846
897.778 .0273744
898.434 .0273636
899.091 .0273446
899.747 .0273324
900.402 .0273198
901.057 .0273068
901.712 .0272934
902.366 .0272796
903.020 .0272655
903.674 .0272510
904.327 .0272361
904.980 .0272208
905.633 .0272051
906.285 .0271891
906.936 .0271728
907.588 .0271646
908.239 .0271482
908.889 .0271316
909.540 .0271149
910.190 .0270981
910.839 .0270814
911.488 .0270646
912.137 .0270479
912.785 .0270312
913.433 .0270146
914.081 .0269981
914.728 .0269816
915.375 .0269653
916.021 .0269490
916.668 .0269327
917.313 .0269164
917.959 .0269000
918.604 .0268835
919.248 .0268669
919.892 .0268502
920.536 .0268332
921.180 .0268161
921.823 .0267988
922.465 .0267812
923.108 .0267634
923.750 .0267454
924.391 .0267271
925.032 .0267086
925.673 .0266898
926.313 .0266709
926.953 .0266518
927.593 .0266326
928.232 .0266132
928.871 .0265938
929.510 .0265744
930.148 .0265550
930.786 .0265356
931.423 .0265163
932.060 .0264972
932.697 .0264781
933.333 .0264593
933.969 .0264406
934.604 .0264221
935.239 .0264039
935.874 .0263860
936.508 .0263683
937.142 .0263509
937.776 .0263340
938.409 .0263174
939.042 .0263013
939.674 .0262856
940.306 .0262704
940.938 .0262556
941.569 .0262412
942.200 .0262271
942.830 .0262133
943.460 .0261998
944.090 .0261866
944.720 .0261737
945.349 .0261611
945.977 .0261488
946.606 .0261368
947.233 .0261251
947.861 .0261137
948.488 .0261024
949.115 .0260914
949.741 .0260806
950.367 .0260699
950.993 .0260594
951.618 .0260491
952.243 .0260389
952.868 .0260289
953.492 .0260190
954.115 .0260093
954.739 .0259998
955.362 .0259906
955.984 .0259815
956.607 .0259726
957.229 .0259641
957.850 .0259557
958.471 .0259476
959.092 .0259399
959.713 .0259324
960.333 .0259254
960.952 .0259186
961.572 .0259122
962.191 .0259062
962.809 .0259005
963.428 .0258953
964.045 .0258905
964.663 .0258861
965.280 .0258821
965.897 .0258784
966.513 .0258750
967.129 .0258718
967.745 .0258689
968.361 .0258661
968.976 .0258635
969.590 .0258610
970.205 .0258586
970.818 .0258562
971.432 .0258538
972.045 .0258513
972.658 .0258487
973.271 .0258461
973.883 .0258433
974.495 .0258405
975.106 .0258377
975.717 .0258348
976.328 .0258319
976.938 .0258291
977.548 .0258263
978.158 .0258234
978.768 .0258187
979.377 .0258158
979.985 .0258129
980.594 .0258099
981.202 .0258069
981.809 .0258039
982.417 .0258008
983.024 .0257976
983.631 .0257943
984.237 .0257908
984.843 .0257871
985.449 .0257831
986.054 .0257789
986.659 .0257746
987.264 .0257721
987.868 .0257674
988.472 .0257626
989.076 .0257576
989.679 .0257525
990.282 .0257473
990.885 .0257419
991.487 .0257364
992.090 .0257306
992.691 .0257245
993.293 .0257182
993.894 .0257116
994.495 .0257048
995.095 .0256976
995.696 .0256902
996.296 .0256824
996.895 .0256742
997.494 .0256656
998.093 .0256567
998.692 .0256473
999.291 .0256376
999.889 .0256275
1000.487 .0256172
1001.084 .0256068
1001.681 .0255963
1002.278 .0255858
1002.875 .0255755
1003.471 .0255653
1004.067 .0255552
1004.663 .0255452
1005.258 .0255354
1005.854 .0255256
1006.449 .0255159
1007.043 .0255061
1007.638 .0254964
1008.232 .0254866
1008.826 .0254768
1009.419 .0254670
1010.012 .0254574
1010.605 .0254479
1011.198 .0254385
1011.791 .0254292
1012.383 .0254201
1012.975 .0254112
1013.566 .0254024
1014.158 .0253937
1014.749 .0253851
1015.340 .0253766
1015.931 .0253684
1016.521 .0253605
1017.111 .0253528
1017.701 .0253456
1018.291 .0253388
1018.880 .0253323
1019.470 .0253261
1020.059 .0253201
1020.647 .0253140
1021.236 .0253078
1021.824 .0253014
1022.412 .0252948
1023.000 .0252880
1023.588 .0252810
1024.175 .0252739
1024.762 .0252669
1025.349 .0252600
1025.936 .0252533
1026.523 .0252467
1027.109 .0252402
1027.695 .0252336
1028.281 .0252271
1028.867 .0252205
1029.452 .0252139
1030.038 .0252074
1030.623 .0252010
1031.208 .0251948
1031.792 .0251889
1032.377 .0251834
1032.961 .0251782
1033.546 .0251732
1034.130 .0251684
1034.714 .0251636
1035.297 .0251589
1035.881 .0251542
1036.464 .0251495
1037.047 .0251449
1037.630 .0251405
1038.213 .0251364
1038.796 .0251327
1039.378 .0251294
1039.961 .0251266
1040.543 .0251243
1041.125 .0251225
1041.707 .0251211
1042.289 .0251202
1042.871 .0251195
1043.452 .0251191
1044.034 .0251190
1044.615 .0251191
1045.196 .0251193
1045.777 .0251198
1046.358 .0251206
1046.939 .0251217
1047.520 .0251232
1048.101 .0251251
1048.681 .0251273
1049.262 .0251298
1049.842 .0251325
1050.422 .0251354
1051.002 .0251384
1051.582 .0251414
1052.162 .0251444
1052.742 .0251474
1053.322 .0251504
1053.902 .0251536
1054.482 .0251568
1055.061 .0251602
1055.641 .0251635
1056.220 .0251668
1056.800 .0251697
1057.379 .0251723
1057.958 .0251743
1058.538 .0251758
1059.117 .0251768
1059.696 .0251774
1060.275 .0251777
1060.854 .0251779
1061.433 .0251781
1062.012 .0251783
1062.592 .0251786
1063.171 .0251790
1063.750 .0251794
1064.329 .0251800
1064.908 .0251808
1065.487 .0251820
1066.066 .0251835
1066.645 .0251856
1067.224 .0251882
1067.803 .0251913
1068.382 .0251948
1068.961 .0251986
1069.540 .0252027
1070.119 .0252068
1070.698 .0252112
1071.278 .0252156
1071.857 .0252204
1072.436 .0252255
1073.016 .0252311
1073.595 .0252371
1074.175 .0252434
1074.754 .0252499
1075.334 .0252565
1075.913 .0252629
1076.493 .0252690
1077.073 .0252747
1077.653 .0252801
1078.233 .0252850
1078.813 .0252897
1079.393 .0252940
1079.974 .0252978
1080.554 .0253011
1081.135 .0253037
1081.716 .0253054
1082.296 .0253058
1082.877 .0253050
1083.458 .0253028
1084.040 .0252993
1084.621 .0252947
1085.202 .0252893
1085.784 .0252831
1086.366 .0252765
1086.948 .0252695
1087.530 .0252623
1088.112 .0252550
1088.695 .0252474
1089.277 .0252396
1089.860 .0252316
1090.443 .0252234
1091.026 .0252151
1091.610 .0252068
1092.193 .0251985
1092.777 .0251902
1093.361 .0251819
1093.946 .0251737
1094.530 .0251656
1095.115 .0251577
1095.700 .0251499
1096.285 .0251424
1096.871 .0251351
1097.456 .0251282
1098.042 .0251218
1098.628 .0251161
1099.215 .0251112
1099.802 .0251074
1100.389 .0251048
1100.976 .0251036
1101.564 .0251038
1102.152 .0251054
1102.740 .0251085
1103.329 .0251129
1103.917 .0251185
1104.507 .0251252
1105.096 .0251327
1105.686 .0251409
1106.276 .0251497
1106.867 .0251591
1107.457 .0251690
1108.049 .0251793
1108.640 .0251901
1109.232 .0252013
1109.825 .0252129
1110.417 .0252250
1111.010 .0252377
1111.604 .0252510
1112.198 .0252651
1112.792 .0252801
1113.387 .0252959
1113.982 .0253126
1114.577 .0253300
1115.173 .0253479
1115.769 .0253660
1116.366 .0253839
1116.963 .0254015
1117.561 .0254186
1118.159 .0254351
1118.758 .0254512
1119.357 .0254671
1119.957 .0254829
1120.557 .0254988
1121.157 .0255149
1121.758 .0255312
1122.360 .0255477
1122.962 .0255644
1123.564 .0255813
1124.167 .0255872
1124.771 .0256044
1125.375 .0256221
1125.980 .0256407
1126.585 .0256604
1127.191 .0256816
1127.797 .0257044
1128.404 .0257287
1129.012 .0257547
1129.620 .0257818
1130.229 .0258099
1130.838 .0258388
1131.448 .0258686
1132.058 .0258991
1132.669 .0259440
1133.281 .0259785
1133.894 .0260162
1134.507 .0260529
1135.120 .0260906
1135.735 .0261404
1136.350 .0261866
1136.965 .0261751
1137.582 .0262222
1138.199 .0262676
1138.816 .0263149
1139.435 .0263620
1140.054 .0264085
1140.674 .0264636
1141.294 .0265232
1141.916 .0266132
1142.538 .0265957
1143.160 .0266296
1143.784 .0269737
1144.408 .0268997
1145.033 .0276486
