Measurement Sequence started on: 14-45-04-498
Integration time: 36
Scans to Average: 2 
>>>>>Begin Spectral Data<<<<<
433.946 .0569911
434.870 .0510827
435.793 .0503395
436.715 .0498960
437.635 .0496636
438.555 .0505326
439.473 .0502402
440.389 .0501396
441.305 .0500090
442.219 .0498269
443.132 .0493943
444.044 .0492319
444.954 .0491047
445.863 .0489971
446.771 .0488979
447.678 .0487486
448.584 .0486108
449.488 .0484742
450.391 .0483402
451.293 .0482118
452.194 .0480909
453.094 .0479800
453.992 .0478785
454.890 .0477860
455.786 .0477002
456.681 .0476191
457.575 .0475405
458.468 .0474626
459.360 .0473844
460.250 .0473049
461.140 .0472233
462.028 .0471406
462.915 .0470573
463.801 .0469739
464.687 .0468911
465.571 .0468088
466.454 .0467275
467.335 .0466475
468.216 .0465684
469.096 .0464900
469.975 .0464121
470.853 .0463345
471.729 .0462570
472.605 .0461800
473.479 .0461043
474.353 .0460306
475.226 .0459599
476.097 .0458930
476.968 .0458299
477.838 .0457709
478.706 .0457156
479.574 .0456638
480.441 .0456152
481.306 .0455697
482.171 .0455272
483.035 .0454879
483.898 .0454518
484.760 .0454195
485.621 .0453908
486.481 .0453660
487.340 .0453449
488.198 .0453271
489.055 .0453117
489.912 .0452978
490.767 .0452845
491.622 .0452629
492.476 .0452468
493.329 .0452286
494.180 .0452083
495.032 .0451854
495.882 .0451593
496.731 .0451298
497.580 .0450965
498.427 .0450594
499.274 .0450185
500.120 .0449872
500.965 .0449410
501.809 .0448911
502.653 .0448379
503.495 .0447817
504.337 .0447232
505.178 .0446635
506.018 .0446035
506.858 .0445443
507.696 .0444868
508.534 .0444318
509.371 .0443798
510.208 .0443308
511.043 .0442849
511.878 .0442417
512.712 .0442008
513.545 .0441622
514.377 .0441260
515.209 .0440923
516.040 .0440606
516.870 .0440307
517.699 .0440022
518.528 .0439748
519.356 .0439471
520.183 .0439181
521.010 .0438872
521.836 .0438538
522.661 .0438167
523.485 .0437757
524.309 .0437307
525.132 .0436822
525.954 .0436302
526.776 .0435750
527.597 .0435167
528.417 .0434556
529.237 .0433922
530.056 .0433267
530.874 .0432591
531.692 .0431895
532.508 .0431180
533.325 .0430454
534.140 .0429725
534.955 .0429004
535.770 .0428303
536.583 .0427637
537.397 .0427019
538.209 .0426447
539.021 .0425921
539.832 .0425441
540.643 .0424999
541.453 .0424584
542.262 .0424180
543.071 .0423780
543.879 .0423378
544.687 .0422974
545.494 .0422568
546.300 .0422165
547.106 .0421768
547.911 .0421381
548.716 .0421004
549.520 .0420635
550.323 .0420266
551.126 .0419890
551.929 .0419501
552.731 .0419091
553.532 .0418658
554.332 .0418204
555.133 .0417738
555.932 .0417275
556.731 .0416823
557.530 .0416392
558.328 .0415988
559.125 .0415618
559.922 .0415280
560.719 .0414971
561.515 .0414689
562.310 .0414429
563.105 .0414188
563.899 .0413959
564.693 .0413740
565.487 .0413529
566.280 .0413326
567.072 .0413128
567.864 .0412934
568.655 .0412740
569.446 .0412541
570.236 .0412333
571.026 .0412108
571.816 .0411859
572.605 .0411579
573.393 .0411263
574.181 .0410908
574.969 .0410514
575.756 .0410085
576.543 .0409624
577.329 .0409138
578.115 .0408634
578.900 .0408116
579.685 .0407589
580.469 .0407057
581.253 .0406523
582.036 .0405990
582.820 .0405459
583.602 .0404934
584.384 .0404419
585.166 .0403917
585.947 .0403434
586.728 .0402974
587.509 .0402541
588.289 .0402134
589.069 .0401753
589.848 .0401397
590.627 .0401062
591.405 .0400747
592.183 .0400447
592.961 .0400159
593.738 .0399881
594.515 .0399610
595.291 .0399346
596.067 .0399090
596.843 .0398841
597.618 .0398602
598.393 .0398259
599.167 .0398035
599.941 .0397815
600.715 .0397596
601.488 .0397377
602.261 .0397153
603.034 .0396924
603.806 .0396687
604.578 .0396444
605.349 .0396196
606.121 .0395943
606.891 .0395811
607.662 .0395555
608.432 .0395298
609.201 .0395039
609.971 .0394781
610.740 .0394522
611.508 .0394263
612.277 .0394003
613.045 .0393740
613.812 .0393474
614.579 .0393204
615.346 .0392928
616.113 .0392647
616.879 .0392362
617.645 .0392072
618.411 .0391780
619.176 .0391485
619.941 .0391191
620.705 .0390896
621.470 .0390600
622.233 .0390303
622.997 .0390002
623.760 .0389698
624.523 .0389389
625.286 .0389076
626.048 .0388760
626.810 .0388442
627.572 .0388124
628.333 .0387807
629.095 .0387493
629.855 .0387183
630.616 .0386876
631.376 .0386575
632.136 .0386278
632.895 .0385986
633.655 .0385699
634.414 .0385417
635.172 .0385140
635.931 .0384868
636.689 .0384601
637.447 .0384338
638.204 .0384079
638.962 .0383825
639.718 .0383574
640.475 .0383328
641.231 .0383088
641.988 .0382852
642.743 .0382622
643.499 .0382398
644.254 .0382178
645.009 .0381962
645.764 .0381749
646.518 .0381539
647.272 .0381330
648.026 .0381124
648.780 .0380919
649.533 .0380715
650.286 .0380514
651.039 .0380316
651.792 .0380120
652.544 .0379926
653.296 .0379735
654.048 .0379546
654.799 .0379358
655.550 .0379172
656.301 .0378986
657.052 .0378802
657.802 .0378618
658.552 .0378434
659.302 .0378251
660.052 .0378068
660.801 .0377884
661.550 .0377700
662.299 .0377515
663.048 .0377329
663.796 .0377140
664.544 .0376949
665.292 .0376756
666.040 .0376561
666.787 .0376364
667.534 .0376167
668.281 .0375968
669.028 .0375769
669.774 .0375569
670.521 .0375368
671.266 .0375166
672.012 .0374962
672.758 .0374756
673.503 .0374549
674.248 .0374340
674.992 .0374131
675.737 .0373921
676.481 .0373712
677.225 .0373503
677.969 .0373295
678.712 .0373087
679.455 .0372878
680.199 .0372668
680.941 .0372457
681.684 .0372244
682.426 .0372031
683.168 .0371816
683.910 .0371601
684.652 .0371386
685.393 .0371171
686.134 .0370958
686.875 .0370746
687.616 .0370536
688.356 .0370329
689.097 .0370125
689.837 .0369924
690.576 .0369727
691.316 .0369535
692.055 .0369347
692.794 .0369163
693.533 .0368985
694.272 .0368813
695.010 .0368645
695.748 .0368484
696.486 .0368328
697.224 .0368178
697.962 .0368035
698.699 .0367896
699.436 .0367762
700.173 .0367632
700.909 .0367505
701.646 .0367379
702.382 .0367255
703.118 .0367131
703.853 .0367007
704.589 .0366881
705.324 .0366754
706.059 .0366625
706.794 .0366495
707.529 .0366363
708.263 .0366228
708.997 .0366088
709.731 .0365945
710.465 .0365796
711.198 .0365642
711.931 .0365481
712.664 .0365316
713.397 .0365144
714.130 .0364968
714.862 .0364787
715.594 .0364601
716.326 .0364411
717.058 .0364217
717.789 .0364018
718.520 .0363815
719.251 .0363607
719.982 .0363395
720.713 .0363180
721.443 .0362962
722.173 .0362742
722.903 .0362519
723.633 .0362295
724.362 .0362071
725.091 .0361846
725.820 .0361622
726.549 .0361399
727.278 .0361177
728.006 .0360958
728.734 .0360741
729.462 .0360527
730.190 .0360316
730.917 .0360109
731.644 .0359905
732.371 .0359706
733.098 .0359512
733.825 .0359322
734.551 .0359138
735.277 .0358957
736.003 .0358782
736.728 .0358610
737.454 .0358441
738.179 .0358275
738.904 .0358112
739.629 .0357951
740.353 .0357793
741.077 .0357636
741.801 .0357481
742.525 .0357326
743.249 .0357171
743.972 .0357015
744.695 .0356857
745.418 .0356697
746.141 .0356535
746.863 .0356371
747.585 .0356205
748.307 .0356039
749.029 .0355872
749.750 .0355705
750.472 .0355539
751.193 .0355374
751.913 .0355213
752.634 .0355054
753.354 .0354900
754.074 .0354750
754.794 .0354606
755.514 .0354467
756.233 .0354333
756.952 .0354203
757.671 .0354077
758.390 .0353954
759.108 .0353834
759.826 .0353717
760.544 .0353603
761.262 .0353493
761.979 .0353387
762.697 .0353283
763.414 .0353180
764.130 .0353079
764.847 .0352977
765.563 .0352873
766.279 .0352767
766.995 .0352658
767.710 .0352545
768.426 .0352428
769.141 .0352306
769.855 .0352180
770.570 .0352048
771.284 .0351912
771.998 .0351771
772.712 .0351626
773.426 .0351477
774.139 .0351326
774.852 .0351171
775.565 .0351015
776.277 .0350855
776.990 .0350693
777.702 .0350529
778.414 .0350362
779.125 .0350194
779.836 .0350026
780.547 .0349858
781.258 .0349693
781.969 .0349530
782.679 .0349370
783.389 .0349142
784.099 .0348990
784.808 .0348840
785.517 .0348692
786.226 .0348545
786.935 .0348399
787.643 .0348254
788.352 .0348109
789.060 .0347965
789.767 .0347821
790.475 .0347678
791.182 .0347534
791.889 .0347461
792.595 .0347313
793.301 .0347164
794.008 .0347013
794.713 .0346859
795.419 .0346702
796.124 .0346543
796.829 .0346379
797.534 .0346212
798.238 .0346042
798.942 .0345867
799.646 .0345688
800.350 .0345506
801.053 .0345320
801.756 .0345131
802.459 .0344940
803.162 .0344747
803.864 .0344552
804.566 .0344356
805.267 .0344160
805.969 .0343964
806.670 .0343768
807.371 .0343573
808.071 .0343379
808.772 .0343186
809.472 .0342997
810.171 .0342809
810.871 .0342625
811.570 .0342444
812.269 .0342265
812.967 .0342088
813.666 .0341913
814.364 .0341740
815.061 .0341569
815.759 .0341400
816.456 .0341233
817.153 .0341068
817.849 .0340907
818.545 .0340750
819.241 .0340596
819.937 .0340445
820.632 .0340297
821.327 .0340151
822.022 .0340006
822.717 .0339863
823.411 .0339722
824.105 .0339582
824.798 .0339445
825.491 .0339310
826.184 .0339177
826.877 .0339047
827.569 .0338918
828.261 .0338792
828.953 .0338667
829.645 .0338543
830.336 .0338419
831.027 .0338298
831.717 .0338177
832.407 .0338059
833.097 .0337944
833.787 .0337831
834.476 .0337720
835.165 .0337612
835.854 .0337505
836.542 .0337400
837.230 .0337296
837.918 .0337193
838.605 .0337092
839.292 .0336992
839.979 .0336892
840.665 .0336794
841.352 .0336697
842.037 .0336599
842.723 .0336500
843.408 .0336401
844.093 .0336299
844.777 .0336196
845.462 .0336090
846.145 .0335982
846.829 .0335872
847.512 .0335759
848.195 .0335645
848.878 .0335528
849.560 .0335408
850.242 .0335286
850.923 .0335159
851.605 .0335029
852.286 .0334895
852.966 .0334757
853.646 .0334615
854.326 .0334469
855.006 .0334320
855.685 .0334166
856.364 .0334008
857.043 .0333844
857.721 .0333675
858.399 .0333500
859.077 .0333320
859.754 .0333135
860.431 .0332947
861.107 .0332757
861.784 .0332566
862.459 .0332374
863.135 .0332182
863.810 .0331990
864.485 .0331798
865.160 .0331606
865.834 .0331414
866.508 .0331221
867.181 .0331027
867.854 .0330832
868.527 .0330636
869.199 .0330439
869.872 .0330240
870.543 .0330041
871.215 .0329840
871.886 .0329639
872.557 .0329437
873.227 .0329236
873.897 .0329034
874.567 .0328832
875.236 .0328629
875.905 .0328425
876.573 .0328221
877.242 .0328015
877.909 .0327809
878.577 .0327602
879.244 .0327396
879.911 .0327192
880.577 .0326990
881.243 .0326791
881.909 .0326595
882.575 .0326401
883.240 .0326210
883.904 .0326020
884.569 .0325830
885.232 .0325641
885.896 .0325452
886.559 .0325263
887.222 .0325075
887.885 .0324890
888.547 .0324706
889.208 .0324527
889.870 .0324350
890.531 .0324178
891.192 .0324010
891.852 .0323846
892.512 .0323686
893.171 .0323532
893.830 .0323382
894.489 .0323238
895.148 .0323099
895.806 .0322966
896.464 .0322839
897.121 .0322716
897.778 .0322598
898.434 .0322485
899.091 .0322342
899.747 .0322240
900.402 .0322142
901.057 .0322046
901.712 .0321954
902.366 .0321864
903.020 .0321776
903.674 .0321688
904.327 .0321600
904.980 .0321512
905.633 .0321422
906.285 .0321331
906.936 .0321238
907.588 .0321181
908.239 .0321085
908.889 .0320987
909.540 .0320887
910.190 .0320786
910.839 .0320682
911.488 .0320575
912.137 .0320465
912.785 .0320352
913.433 .0320235
914.081 .0320114
914.728 .0319989
915.375 .0319861
916.021 .0319730
916.668 .0319595
917.313 .0319459
917.959 .0319321
918.604 .0319183
919.248 .0319045
919.892 .0318908
920.536 .0318772
921.180 .0318637
921.823 .0318503
922.465 .0318370
923.108 .0318238
923.750 .0318106
924.391 .0317974
925.032 .0317842
925.673 .0317709
926.313 .0317576
926.953 .0317442
927.593 .0317306
928.232 .0317168
928.871 .0317028
929.510 .0316884
930.148 .0316736
930.786 .0316584
931.423 .0316427
932.060 .0316267
932.697 .0316102
933.333 .0315935
933.969 .0315765
934.604 .0315592
935.239 .0315418
935.874 .0315240
936.508 .0315060
937.142 .0314875
937.776 .0314687
938.409 .0314496
939.042 .0314301
939.674 .0314104
940.306 .0313904
940.938 .0313703
941.569 .0313500
942.200 .0313297
942.830 .0313092
943.460 .0312887
944.090 .0312682
944.720 .0312477
945.349 .0312273
945.977 .0312072
946.606 .0311873
947.233 .0311678
947.861 .0311487
948.488 .0311300
949.115 .0311118
949.741 .0310939
950.367 .0310764
950.993 .0310590
951.618 .0310419
952.243 .0310248
952.868 .0310078
953.492 .0309909
954.115 .0309739
954.739 .0309571
955.362 .0309402
955.984 .0309234
956.607 .0309065
957.229 .0308895
957.850 .0308724
958.471 .0308552
959.092 .0308379
959.713 .0308204
960.333 .0308028
960.952 .0307851
961.572 .0307674
962.191 .0307496
962.809 .0307318
963.428 .0307140
964.045 .0306961
964.663 .0306782
965.280 .0306601
965.897 .0306418
966.513 .0306234
967.129 .0306048
967.745 .0305860
968.361 .0305670
968.976 .0305480
969.590 .0305290
970.205 .0305101
970.818 .0304912
971.432 .0304726
972.045 .0304542
972.658 .0304360
973.271 .0304182
973.883 .0304006
974.495 .0303834
975.106 .0303665
975.717 .0303501
976.328 .0303342
976.938 .0303189
977.548 .0303040
978.158 .0302896
978.768 .0302693
979.377 .0302557
979.985 .0302421
980.594 .0302287
981.202 .0302153
981.809 .0302021
982.417 .0301892
983.024 .0301766
983.631 .0301645
984.237 .0301529
984.843 .0301417
985.449 .0301310
986.054 .0301207
986.659 .0301107
987.264 .0301067
987.868 .0300971
988.472 .0300878
989.076 .0300788
989.679 .0300702
990.282 .0300621
990.885 .0300544
991.487 .0300471
992.090 .0300403
992.691 .0300339
993.293 .0300277
993.894 .0300216
994.495 .0300157
995.095 .0300097
995.696 .0300039
996.296 .0299980
996.895 .0299923
997.494 .0299867
998.093 .0299813
998.692 .0299760
999.291 .0299709
999.889 .0299658
1000.487 .0299607
1001.084 .0299555
1001.681 .0299501
1002.278 .0299445
1002.875 .0299386
1003.471 .0299324
1004.067 .0299259
1004.663 .0299192
1005.258 .0299124
1005.854 .0299053
1006.449 .0298982
1007.043 .0298911
1007.638 .0298839
1008.232 .0298768
1008.826 .0298697
1009.419 .0298628
1010.012 .0298559
1010.605 .0298492
1011.198 .0298427
1011.791 .0298364
1012.383 .0298304
1012.975 .0298248
1013.566 .0298196
1014.158 .0298149
1014.749 .0298107
1015.340 .0298070
1015.931 .0298039
1016.521 .0298014
1017.111 .0297993
1017.701 .0297978
1018.291 .0297967
1018.880 .0297962
1019.470 .0297962
1020.059 .0297968
1020.647 .0297981
1021.236 .0297999
1021.824 .0298024
1022.412 .0298054
1023.000 .0298088
1023.588 .0298127
1024.175 .0298168
1024.762 .0298211
1025.349 .0298255
1025.936 .0298298
1026.523 .0298340
1027.109 .0298381
1027.695 .0298421
1028.281 .0298459
1028.867 .0298496
1029.452 .0298532
1030.038 .0298568
1030.623 .0298603
1031.208 .0298637
1031.792 .0298671
1032.377 .0298705
1032.961 .0298737
1033.546 .0298767
1034.130 .0298794
1034.714 .0298818
1035.297 .0298838
1035.881 .0298855
1036.464 .0298868
1037.047 .0298877
1037.630 .0298882
1038.213 .0298883
1038.796 .0298879
1039.378 .0298870
1039.961 .0298857
1040.543 .0298838
1041.125 .0298813
1041.707 .0298783
1042.289 .0298747
1042.871 .0298707
1043.452 .0298664
1044.034 .0298618
1044.615 .0298572
1045.196 .0298527
1045.777 .0298482
1046.358 .0298440
1046.939 .0298398
1047.520 .0298356
1048.101 .0298315
1048.681 .0298273
1049.262 .0298229
1049.842 .0298182
1050.422 .0298133
1051.002 .0298082
1051.582 .0298028
1052.162 .0297972
1052.742 .0297914
1053.322 .0297853
1053.902 .0297790
1054.482 .0297722
1055.061 .0297651
1055.641 .0297576
1056.220 .0297497
1056.800 .0297416
1057.379 .0297331
1057.958 .0297246
1058.538 .0297159
1059.117 .0297072
1059.696 .0296985
1060.275 .0296898
1060.854 .0296812
1061.433 .0296724
1062.012 .0296634
1062.592 .0296543
1063.171 .0296449
1063.750 .0296350
1064.329 .0296246
1064.908 .0296136
1065.487 .0296020
1066.066 .0295896
1066.645 .0295765
1067.224 .0295628
1067.803 .0295484
1068.382 .0295336
1068.961 .0295183
1069.540 .0295027
1070.119 .0294868
1070.698 .0294707
1071.278 .0294545
1071.857 .0294385
1072.436 .0294226
1073.016 .0294070
1073.595 .0293920
1074.175 .0293777
1074.754 .0293642
1075.334 .0293517
1075.913 .0293402
1076.493 .0293296
1077.073 .0293199
1077.653 .0293108
1078.233 .0293023
1078.813 .0292942
1079.393 .0292865
1079.974 .0292792
1080.554 .0292724
1081.135 .0292662
1081.716 .0292606
1082.296 .0292560
1082.877 .0292523
1083.458 .0292496
1084.040 .0292477
1084.621 .0292467
1085.202 .0292464
1085.784 .0292467
1086.366 .0292475
1086.948 .0292488
1087.530 .0292505
1088.112 .0292526
1088.695 .0292550
1089.277 .0292576
1089.860 .0292601
1090.443 .0292623
1091.026 .0292637
1091.610 .0292643
1092.193 .0292635
1092.777 .0292611
1093.361 .0292572
1093.946 .0292517
1094.530 .0292445
1095.115 .0292360
1095.700 .0292261
1096.285 .0292150
1096.871 .0292029
1097.456 .0291899
1098.042 .0291762
1098.628 .0291619
1099.215 .0291473
1099.802 .0291325
1100.389 .0291179
1100.976 .0291036
1101.564 .0290899
1102.152 .0290771
1102.740 .0290652
1103.329 .0290543
1103.917 .0290446
1104.507 .0290360
1105.096 .0290288
1105.686 .0290228
1106.276 .0290182
1106.867 .0290152
1107.457 .0290136
1108.049 .0290135
1108.640 .0290147
1109.232 .0290172
1109.825 .0290208
1110.417 .0290255
1111.010 .0290311
1111.604 .0290376
1112.198 .0290450
1112.792 .0290531
1113.387 .0290621
1113.982 .0290718
1114.577 .0290821
1115.173 .0290927
1115.769 .0291035
1116.366 .0291143
1116.963 .0291252
1117.561 .0291358
1118.159 .0291462
1118.758 .0291566
1119.357 .0291669
1119.957 .0291775
1120.557 .0291885
1121.157 .0292004
1121.758 .0292136
1122.360 .0292282
1122.962 .0292444
1123.564 .0292623
1124.167 .0292662
1124.771 .0292857
1125.375 .0293073
1125.980 .0293313
1126.585 .0293579
1127.191 .0293873
1127.797 .0294198
1128.404 .0294558
1129.012 .0294957
1129.620 .0295396
1130.229 .0295876
1130.838 .0296395
1131.448 .0296951
1132.058 .0297541
1132.669 .0298397
1133.281 .0299078
1133.894 .0299783
1134.507 .0300484
1135.120 .0301228
1135.735 .0302095
1136.350 .0302927
1136.965 .0303374
1137.582 .0304421
1138.199 .0305495
1138.816 .0306547
1139.435 .0307544
1140.054 .0308467
1140.674 .0309388
1141.294 .0310270
1141.916 .0310944
1142.538 .0310880
1143.160 .0312129
1143.784 .0315597
1144.408 .0314843
1145.033 .0310374
