Measurement Sequence started on: 14-45-04-498
Integration time: 36
Scans to Average: 2 
>>>>>Begin Spectral Data<<<<<
433.946 .0513530
434.870 .0476947
435.793 .0454840
436.715 .0435109
437.635 .0433696
438.555 .0441423
439.473 .0436763
440.389 .0434367
441.305 .0433169
442.219 .0432611
443.132 .0435970
444.044 .0433427
444.954 .0432029
445.863 .0431649
446.771 .0431320
447.678 .0430558
448.584 .0430009
449.488 .0429554
450.391 .0429124
451.293 .0428685
452.194 .0428231
453.094 .0427766
453.992 .0427293
454.890 .0426807
455.786 .0426311
456.681 .0425806
457.575 .0425292
458.468 .0424771
459.360 .0424237
460.250 .0423686
461.140 .0423116
462.028 .0422525
462.915 .0421910
463.801 .0421274
464.687 .0420615
465.571 .0419941
466.454 .0419256
467.335 .0418565
468.216 .0417870
469.096 .0417171
469.975 .0416464
470.853 .0415741
471.729 .0414995
472.605 .0414221
473.479 .0413415
474.353 .0412581
475.226 .0411719
476.097 .0410838
476.968 .0409947
477.838 .0409057
478.706 .0408177
479.574 .0407319
480.441 .0406488
481.306 .0405689
482.171 .0404925
483.035 .0404194
483.898 .0403495
484.760 .0402830
485.621 .0402201
486.481 .0401614
487.340 .0401074
488.198 .0400587
489.055 .0400160
489.912 .0399795
490.767 .0399493
491.622 .0399223
492.476 .0399039
493.329 .0398890
494.180 .0398764
495.032 .0398650
495.882 .0398537
496.731 .0398416
497.580 .0398280
498.427 .0398124
499.274 .0397940
500.120 .0397768
500.965 .0397524
501.809 .0397246
502.653 .0396936
503.495 .0396590
504.337 .0396206
505.178 .0395780
506.018 .0395314
506.858 .0394807
507.696 .0394261
508.534 .0393680
509.371 .0393074
510.208 .0392448
511.043 .0391814
511.878 .0391178
512.712 .0390551
513.545 .0389939
514.377 .0389346
515.209 .0388774
516.040 .0388223
516.870 .0387689
517.699 .0387169
518.528 .0386659
519.356 .0386156
520.183 .0385654
521.010 .0385148
521.836 .0384633
522.661 .0384105
523.485 .0383561
524.309 .0382999
525.132 .0382417
525.954 .0381820
526.776 .0381208
527.597 .0380579
528.417 .0379934
529.237 .0379280
530.056 .0378615
530.874 .0377942
531.692 .0377264
532.508 .0376589
533.325 .0375922
534.140 .0375272
534.955 .0374646
535.770 .0374054
536.583 .0373497
537.397 .0372980
538.209 .0372501
539.021 .0372067
539.832 .0371677
540.643 .0371333
541.453 .0371035
542.262 .0370784
543.071 .0370573
543.879 .0370397
544.687 .0370253
545.494 .0370133
546.300 .0370030
547.106 .0369935
547.911 .0369844
548.716 .0369753
549.520 .0369658
550.323 .0369556
551.126 .0369445
551.929 .0369322
552.731 .0369183
553.532 .0369023
554.332 .0368842
555.133 .0368641
555.932 .0368423
556.731 .0368188
557.530 .0367939
558.328 .0367674
559.125 .0367396
559.922 .0367104
560.719 .0366800
561.515 .0366480
562.310 .0366143
563.105 .0365789
563.899 .0365417
564.693 .0365030
565.487 .0364628
566.280 .0364216
567.072 .0363798
567.864 .0363377
568.655 .0362955
569.446 .0362537
570.236 .0362125
571.026 .0361721
571.816 .0361325
572.605 .0360935
573.393 .0360549
574.181 .0360168
574.969 .0359793
575.756 .0359423
576.543 .0359061
577.329 .0358710
578.115 .0358370
578.900 .0358045
579.685 .0357736
580.469 .0357440
581.253 .0357159
582.036 .0356887
582.820 .0356620
583.602 .0356354
584.384 .0356085
585.166 .0355813
585.947 .0355536
586.728 .0355256
587.509 .0354975
588.289 .0354696
589.069 .0354421
589.848 .0354150
590.627 .0353883
591.405 .0353619
592.183 .0353355
592.961 .0353087
593.738 .0352814
594.515 .0352534
595.291 .0352248
596.067 .0351956
596.843 .0351660
597.618 .0351363
598.393 .0350926
599.167 .0350637
599.941 .0350353
600.715 .0350076
601.488 .0349805
602.261 .0349541
603.034 .0349282
603.806 .0349027
604.578 .0348777
605.349 .0348531
606.121 .0348291
606.891 .0348187
607.662 .0347959
608.432 .0347739
609.201 .0347528
609.971 .0347327
610.740 .0347135
611.508 .0346953
612.277 .0346780
613.045 .0346614
613.812 .0346456
614.579 .0346302
615.346 .0346153
616.113 .0346006
616.879 .0345862
617.645 .0345720
618.411 .0345578
619.176 .0345437
619.941 .0345295
620.705 .0345152
621.470 .0345008
622.233 .0344860
622.997 .0344708
623.760 .0344551
624.523 .0344386
625.286 .0344214
626.048 .0344033
626.810 .0343843
627.572 .0343645
628.333 .0343439
629.095 .0343224
629.855 .0343003
630.616 .0342776
631.376 .0342543
632.136 .0342306
632.895 .0342065
633.655 .0341819
634.414 .0341570
635.172 .0341317
635.931 .0341062
636.689 .0340804
637.447 .0340545
638.204 .0340286
638.962 .0340027
639.718 .0339769
640.475 .0339514
641.231 .0339261
641.988 .0339012
642.743 .0338767
643.499 .0338527
644.254 .0338290
645.009 .0338058
645.764 .0337830
646.518 .0337606
647.272 .0337386
648.026 .0337172
648.780 .0336962
649.533 .0336759
650.286 .0336561
651.039 .0336370
651.792 .0336186
652.544 .0336008
653.296 .0335837
654.048 .0335673
654.799 .0335515
655.550 .0335363
656.301 .0335216
657.052 .0335074
657.802 .0334935
658.552 .0334800
659.302 .0334667
660.052 .0334535
660.801 .0334406
661.550 .0334277
662.299 .0334150
663.048 .0334025
663.796 .0333900
664.544 .0333776
665.292 .0333654
666.040 .0333531
666.787 .0333408
667.534 .0333284
668.281 .0333159
669.028 .0333032
669.774 .0332903
670.521 .0332770
671.266 .0332635
672.012 .0332497
672.758 .0332356
673.503 .0332212
674.248 .0332067
674.992 .0331919
675.737 .0331769
676.481 .0331618
677.225 .0331465
677.969 .0331309
678.712 .0331150
679.455 .0330988
680.199 .0330822
680.941 .0330651
681.684 .0330477
682.426 .0330299
683.168 .0330117
683.910 .0329932
684.652 .0329744
685.393 .0329553
686.134 .0329360
686.875 .0329164
687.616 .0328967
688.356 .0328767
689.097 .0328565
689.837 .0328361
690.576 .0328156
691.316 .0327950
692.055 .0327743
692.794 .0327536
693.533 .0327330
694.272 .0327125
695.010 .0326921
695.748 .0326720
696.486 .0326521
697.224 .0326326
697.962 .0326136
698.699 .0325950
699.436 .0325770
700.173 .0325596
700.909 .0325427
701.646 .0325264
702.382 .0325106
703.118 .0324953
703.853 .0324805
704.589 .0324662
705.324 .0324523
706.059 .0324389
706.794 .0324259
707.529 .0324132
708.263 .0324009
708.997 .0323890
709.731 .0323772
710.465 .0323655
711.198 .0323540
711.931 .0323425
712.664 .0323309
713.397 .0323191
714.130 .0323070
714.862 .0322946
715.594 .0322818
716.326 .0322684
717.058 .0322545
717.789 .0322400
718.520 .0322249
719.251 .0322093
719.982 .0321932
720.713 .0321767
721.443 .0321597
722.173 .0321423
722.903 .0321245
723.633 .0321063
724.362 .0320876
725.091 .0320685
725.820 .0320490
726.549 .0320292
727.278 .0320091
728.006 .0319888
728.734 .0319685
729.462 .0319480
730.190 .0319275
730.917 .0319070
731.644 .0318865
732.371 .0318660
733.098 .0318454
733.825 .0318248
734.551 .0318041
735.277 .0317834
736.003 .0317627
736.728 .0317419
737.454 .0317211
738.179 .0317003
738.904 .0316795
739.629 .0316586
740.353 .0316379
741.077 .0316172
741.801 .0315965
742.525 .0315759
743.249 .0315554
743.972 .0315349
744.695 .0315146
745.418 .0314944
746.141 .0314744
746.863 .0314546
747.585 .0314350
748.307 .0314158
749.029 .0313967
749.750 .0313780
750.472 .0313594
751.193 .0313411
751.913 .0313231
752.634 .0313053
753.354 .0312879
754.074 .0312709
754.794 .0312543
755.514 .0312382
756.233 .0312226
756.952 .0312074
757.671 .0311927
758.390 .0311785
759.108 .0311647
759.826 .0311514
760.544 .0311385
761.262 .0311259
761.979 .0311138
762.697 .0311019
763.414 .0310904
764.130 .0310792
764.847 .0310681
765.563 .0310574
766.279 .0310468
766.995 .0310363
767.710 .0310259
768.426 .0310156
769.141 .0310052
769.855 .0309947
770.570 .0309839
771.284 .0309728
771.998 .0309613
772.712 .0309494
773.426 .0309371
774.139 .0309245
774.852 .0309115
775.565 .0308982
776.277 .0308846
776.990 .0308706
777.702 .0308563
778.414 .0308417
779.125 .0308267
779.836 .0308113
780.547 .0307957
781.258 .0307799
781.969 .0307639
782.679 .0307479
783.389 .0307241
784.099 .0307081
784.808 .0306920
785.517 .0306759
786.226 .0306597
786.935 .0306433
787.643 .0306268
788.352 .0306102
789.060 .0305934
789.767 .0305765
790.475 .0305595
791.182 .0305424
791.889 .0305331
792.595 .0305154
793.301 .0304975
794.008 .0304792
794.713 .0304605
795.419 .0304415
796.124 .0304221
796.829 .0304024
797.534 .0303824
798.238 .0303621
798.942 .0303415
799.646 .0303207
800.350 .0302996
801.053 .0302784
801.756 .0302569
802.459 .0302353
803.162 .0302137
803.864 .0301920
804.566 .0301703
805.267 .0301486
805.969 .0301268
806.670 .0301050
807.371 .0300833
808.071 .0300615
808.772 .0300398
809.472 .0300182
810.171 .0299968
810.871 .0299756
811.570 .0299546
812.269 .0299339
812.967 .0299134
813.666 .0298931
814.364 .0298729
815.061 .0298528
815.759 .0298328
816.456 .0298129
817.153 .0297930
817.849 .0297733
818.545 .0297536
819.241 .0297341
819.937 .0297148
820.632 .0296956
821.327 .0296766
822.022 .0296579
822.717 .0296394
823.411 .0296212
824.105 .0296035
824.798 .0295862
825.491 .0295695
826.184 .0295532
826.877 .0295375
827.569 .0295222
828.261 .0295075
828.953 .0294933
829.645 .0294796
830.336 .0294664
831.027 .0294538
831.717 .0294417
832.407 .0294302
833.097 .0294192
833.787 .0294087
834.476 .0293985
835.165 .0293886
835.854 .0293789
836.542 .0293693
837.230 .0293599
837.918 .0293506
838.605 .0293413
839.292 .0293320
839.979 .0293227
840.665 .0293134
841.352 .0293039
842.037 .0292942
842.723 .0292844
843.408 .0292744
844.093 .0292641
844.777 .0292536
845.462 .0292428
846.145 .0292316
846.829 .0292200
847.512 .0292079
848.195 .0291955
848.878 .0291827
849.560 .0291695
850.242 .0291560
850.923 .0291422
851.605 .0291283
852.286 .0291142
852.966 .0291000
853.646 .0290857
854.326 .0290714
855.006 .0290570
855.685 .0290426
856.364 .0290283
857.043 .0290140
857.721 .0289998
858.399 .0289857
859.077 .0289716
859.754 .0289575
860.431 .0289435
861.107 .0289295
861.784 .0289154
862.459 .0289013
863.135 .0288871
863.810 .0288729
864.485 .0288585
865.160 .0288440
865.834 .0288292
866.508 .0288141
867.181 .0287986
867.854 .0287827
868.527 .0287663
869.199 .0287493
869.872 .0287319
870.543 .0287140
871.215 .0286956
871.886 .0286766
872.557 .0286571
873.227 .0286371
873.897 .0286166
874.567 .0285954
875.236 .0285737
875.905 .0285515
876.573 .0285288
877.242 .0285057
877.909 .0284823
878.577 .0284586
879.244 .0284347
879.911 .0284106
880.577 .0283865
881.243 .0283624
881.909 .0283383
882.575 .0283144
883.240 .0282907
883.904 .0282672
884.569 .0282440
885.232 .0282213
885.896 .0281990
886.559 .0281773
887.222 .0281561
887.885 .0281355
888.547 .0281155
889.208 .0280961
889.870 .0280774
890.531 .0280594
891.192 .0280419
891.852 .0280251
892.512 .0280090
893.171 .0279934
893.830 .0279783
894.489 .0279637
895.148 .0279495
895.806 .0279357
896.464 .0279221
897.121 .0279088
897.778 .0278957
898.434 .0278828
899.091 .0278638
899.747 .0278512
900.402 .0278387
901.057 .0278264
901.712 .0278142
902.366 .0278021
903.020 .0277901
903.674 .0277782
904.327 .0277664
904.980 .0277545
905.633 .0277428
906.285 .0277310
906.936 .0277194
907.588 .0277136
908.239 .0277022
908.889 .0276907
909.540 .0276793
910.190 .0276680
910.839 .0276566
911.488 .0276453
912.137 .0276341
912.785 .0276229
913.433 .0276120
914.081 .0276013
914.728 .0275908
915.375 .0275805
916.021 .0275706
916.668 .0275609
917.313 .0275514
917.959 .0275422
918.604 .0275331
919.248 .0275242
919.892 .0275154
920.536 .0275067
921.180 .0274981
921.823 .0274895
922.465 .0274808
923.108 .0274722
923.750 .0274634
924.391 .0274546
925.032 .0274456
925.673 .0274364
926.313 .0274271
926.953 .0274175
927.593 .0274077
928.232 .0273976
928.871 .0273872
929.510 .0273766
930.148 .0273658
930.786 .0273548
931.423 .0273434
932.060 .0273318
932.697 .0273199
933.333 .0273075
933.969 .0272947
934.604 .0272815
935.239 .0272677
935.874 .0272533
936.508 .0272383
937.142 .0272227
937.776 .0272066
938.409 .0271898
939.042 .0271724
939.674 .0271543
940.306 .0271356
940.938 .0271163
941.569 .0270963
942.200 .0270757
942.830 .0270545
943.460 .0270328
944.090 .0270106
944.720 .0269879
945.349 .0269647
945.977 .0269411
946.606 .0269170
947.233 .0268924
947.861 .0268675
948.488 .0268423
949.115 .0268168
949.741 .0267912
950.367 .0267655
950.993 .0267397
951.618 .0267140
952.243 .0266882
952.868 .0266625
953.492 .0266368
954.115 .0266111
954.739 .0265855
955.362 .0265600
955.984 .0265347
956.607 .0265097
957.229 .0264851
957.850 .0264608
958.471 .0264369
959.092 .0264134
959.713 .0263901
960.333 .0263672
960.952 .0263445
961.572 .0263220
962.191 .0262998
962.809 .0262779
963.428 .0262562
964.045 .0262350
964.663 .0262140
965.280 .0261934
965.897 .0261729
966.513 .0261527
967.129 .0261327
967.745 .0261128
968.361 .0260931
968.976 .0260736
969.590 .0260545
970.205 .0260357
970.818 .0260174
971.432 .0259997
972.045 .0259824
972.658 .0259658
973.271 .0259496
973.883 .0259340
974.495 .0259189
975.106 .0259043
975.717 .0258902
976.328 .0258767
976.938 .0258638
977.548 .0258515
978.158 .0258397
978.768 .0258245
979.377 .0258139
979.985 .0258036
980.594 .0257936
981.202 .0257838
981.809 .0257742
982.417 .0257648
983.024 .0257556
983.631 .0257467
984.237 .0257381
984.843 .0257298
985.449 .0257218
986.054 .0257141
986.659 .0257067
987.264 .0257031
987.868 .0256960
988.472 .0256893
989.076 .0256828
989.679 .0256765
990.282 .0256706
990.885 .0256649
991.487 .0256596
992.090 .0256546
992.691 .0256500
993.293 .0256456
993.894 .0256415
994.495 .0256378
995.095 .0256344
995.696 .0256314
996.296 .0256288
996.895 .0256268
997.494 .0256252
998.093 .0256242
998.692 .0256238
999.291 .0256238
999.889 .0256243
1000.487 .0256252
1001.084 .0256264
1001.681 .0256281
1002.278 .0256302
1002.875 .0256327
1003.471 .0256356
1004.067 .0256388
1004.663 .0256423
1005.258 .0256459
1005.854 .0256495
1006.449 .0256530
1007.043 .0256563
1007.638 .0256593
1008.232 .0256619
1008.826 .0256642
1009.419 .0256663
1010.012 .0256681
1010.605 .0256697
1011.198 .0256712
1011.791 .0256724
1012.383 .0256733
1012.975 .0256740
1013.566 .0256745
1014.158 .0256747
1014.749 .0256749
1015.340 .0256749
1015.931 .0256750
1016.521 .0256751
1017.111 .0256755
1017.701 .0256760
1018.291 .0256767
1018.880 .0256775
1019.470 .0256783
1020.059 .0256791
1020.647 .0256797
1021.236 .0256803
1021.824 .0256809
1022.412 .0256814
1023.000 .0256821
1023.588 .0256829
1024.175 .0256838
1024.762 .0256850
1025.349 .0256863
1025.936 .0256878
1026.523 .0256895
1027.109 .0256912
1027.695 .0256931
1028.281 .0256951
1028.867 .0256975
1029.452 .0257002
1030.038 .0257034
1030.623 .0257070
1031.208 .0257110
1031.792 .0257155
1032.377 .0257203
1032.961 .0257255
1033.546 .0257308
1034.130 .0257364
1034.714 .0257421
1035.297 .0257479
1035.881 .0257540
1036.464 .0257603
1037.047 .0257668
1037.630 .0257736
1038.213 .0257805
1038.796 .0257875
1039.378 .0257946
1039.961 .0258017
1040.543 .0258088
1041.125 .0258159
1041.707 .0258231
1042.289 .0258304
1042.871 .0258378
1043.452 .0258453
1044.034 .0258529
1044.615 .0258604
1045.196 .0258679
1045.777 .0258752
1046.358 .0258821
1046.939 .0258888
1047.520 .0258951
1048.101 .0259010
1048.681 .0259065
1049.262 .0259116
1049.842 .0259163
1050.422 .0259204
1051.002 .0259240
1051.582 .0259269
1052.162 .0259291
1052.742 .0259305
1053.322 .0259311
1053.902 .0259308
1054.482 .0259299
1055.061 .0259282
1055.641 .0259260
1056.220 .0259233
1056.800 .0259202
1057.379 .0259167
1057.958 .0259127
1058.538 .0259083
1059.117 .0259035
1059.696 .0258984
1060.275 .0258928
1060.854 .0258869
1061.433 .0258807
1062.012 .0258741
1062.592 .0258671
1063.171 .0258598
1063.750 .0258520
1064.329 .0258438
1064.908 .0258351
1065.487 .0258259
1066.066 .0258162
1066.645 .0258061
1067.224 .0257957
1067.803 .0257851
1068.382 .0257743
1068.961 .0257633
1069.540 .0257521
1070.119 .0257408
1070.698 .0257292
1071.278 .0257174
1071.857 .0257055
1072.436 .0256936
1073.016 .0256816
1073.595 .0256697
1074.175 .0256579
1074.754 .0256463
1075.334 .0256349
1075.913 .0256237
1076.493 .0256125
1077.073 .0256013
1077.653 .0255902
1078.233 .0255791
1078.813 .0255682
1079.393 .0255576
1079.974 .0255475
1080.554 .0255378
1081.135 .0255287
1081.716 .0255201
1082.296 .0255119
1082.877 .0255039
1083.458 .0254960
1084.040 .0254879
1084.621 .0254794
1085.202 .0254706
1085.784 .0254615
1086.366 .0254522
1086.948 .0254428
1087.530 .0254333
1088.112 .0254238
1088.695 .0254142
1089.277 .0254044
1089.860 .0253943
1090.443 .0253839
1091.026 .0253731
1091.610 .0253620
1092.193 .0253506
1092.777 .0253392
1093.361 .0253280
1093.946 .0253172
1094.530 .0253069
1095.115 .0252971
1095.700 .0252879
1096.285 .0252791
1096.871 .0252706
1097.456 .0252625
1098.042 .0252547
1098.628 .0252473
1099.215 .0252406
1099.802 .0252346
1100.389 .0252295
1100.976 .0252257
1101.564 .0252232
1102.152 .0252220
1102.740 .0252222
1103.329 .0252237
1103.917 .0252265
1104.507 .0252306
1105.096 .0252359
1105.686 .0252423
1106.276 .0252498
1106.867 .0252582
1107.457 .0252674
1108.049 .0252772
1108.640 .0252874
1109.232 .0252978
1109.825 .0253082
1110.417 .0253187
1111.010 .0253289
1111.604 .0253390
1112.198 .0253487
1112.792 .0253581
1113.387 .0253672
1113.982 .0253758
1114.577 .0253842
1115.173 .0253924
1115.769 .0254006
1116.366 .0254088
1116.963 .0254174
1117.561 .0254267
1118.159 .0254369
1118.758 .0254481
1119.357 .0254604
1119.957 .0254738
1120.557 .0254882
1121.157 .0255035
1121.758 .0255197
1122.360 .0255368
1122.962 .0255548
1123.564 .0255735
1124.167 .0255779
1124.771 .0255980
1125.375 .0256190
1125.980 .0256411
1126.585 .0256641
1127.191 .0256880
1127.797 .0257126
1128.404 .0257381
1129.012 .0257647
1129.620 .0257926
1130.229 .0258220
1130.838 .0258533
1131.448 .0258864
1132.058 .0259220
1132.669 .0259787
1133.281 .0260208
1133.894 .0260663
1134.507 .0261064
1135.120 .0261648
1135.735 .0262233
1136.350 .0262792
1136.965 .0261797
1137.582 .0262182
1138.199 .0262621
1138.816 .0263134
1139.435 .0263679
1140.054 .0264401
1140.674 .0265236
1141.294 .0266179
1141.916 .0267415
1142.538 .0266323
1143.160 .0271693
1143.784 .0272192
1144.408 .0272021
1145.033 .0278051
