Measurement Sequence started on: 14-45-04-498
Integration time: 36
Scans to Average: 2 
>>>>>Begin Spectral Data<<<<<
433.946 .0559307
434.870 .0491347
435.793 .0462898
436.715 .0424642
437.635 .0399434
438.555 .0427231
439.473 .0419561
440.389 .0416606
441.305 .0415979
442.219 .0416813
443.132 .0424411
444.044 .0420486
444.954 .0417989
445.863 .0417425
446.771 .0418099
447.678 .0417228
448.584 .0416684
449.488 .0416226
450.391 .0415739
451.293 .0415159
452.194 .0414469
453.094 .0413707
453.992 .0412886
454.890 .0412019
455.786 .0411113
456.681 .0410171
457.575 .0409196
458.468 .0408197
459.360 .0407190
460.250 .0406191
461.140 .0405214
462.028 .0404274
462.915 .0403379
463.801 .0402532
464.687 .0401728
465.571 .0400958
466.454 .0400217
467.335 .0399496
468.216 .0398787
469.096 .0398086
469.975 .0397390
470.853 .0396698
471.729 .0396013
472.605 .0395339
473.479 .0394682
474.353 .0394042
475.226 .0393420
476.097 .0392821
476.968 .0392243
477.838 .0391690
478.706 .0391162
479.574 .0390666
480.441 .0390204
481.306 .0389780
482.171 .0389391
483.035 .0389039
483.898 .0388722
484.760 .0388435
485.621 .0388173
486.481 .0387930
487.340 .0387700
488.198 .0387476
489.055 .0387256
489.912 .0387034
490.767 .0386810
491.622 .0386437
492.476 .0386195
493.329 .0385946
494.180 .0385687
495.032 .0385418
495.882 .0385135
496.731 .0384835
497.580 .0384517
498.427 .0384181
499.274 .0383828
500.120 .0383628
500.965 .0383256
501.809 .0382868
502.653 .0382471
503.495 .0382070
504.337 .0381669
505.178 .0381268
506.018 .0380867
506.858 .0380467
507.696 .0380062
508.534 .0379646
509.371 .0379215
510.208 .0378765
511.043 .0378295
511.878 .0377803
512.712 .0377287
513.545 .0376752
514.377 .0376201
515.209 .0375637
516.040 .0375062
516.870 .0374471
517.699 .0373860
518.528 .0373225
519.356 .0372565
520.183 .0371872
521.010 .0371150
521.836 .0370399
522.661 .0369629
523.485 .0368847
524.309 .0368069
525.132 .0367309
525.954 .0366583
526.776 .0365903
527.597 .0365273
528.417 .0364696
529.237 .0364177
530.056 .0363711
530.874 .0363296
531.692 .0362926
532.508 .0362597
533.325 .0362305
534.140 .0362050
534.955 .0361829
535.770 .0361643
536.583 .0361487
537.397 .0361361
538.209 .0361252
539.021 .0361153
539.832 .0361059
540.643 .0360961
541.453 .0360855
542.262 .0360734
543.071 .0360595
543.879 .0360445
544.687 .0360284
545.494 .0360116
546.300 .0359944
547.106 .0359774
547.911 .0359604
548.716 .0359434
549.520 .0359264
550.323 .0359097
551.126 .0358934
551.929 .0358783
552.731 .0358645
553.532 .0358530
554.332 .0358442
555.133 .0358388
555.932 .0358371
556.731 .0358387
557.530 .0358431
558.328 .0358493
559.125 .0358566
559.922 .0358635
560.719 .0358689
561.515 .0358722
562.310 .0358728
563.105 .0358702
563.899 .0358640
564.693 .0358543
565.487 .0358412
566.280 .0358248
567.072 .0358050
567.864 .0357816
568.655 .0357546
569.446 .0357238
570.236 .0356894
571.026 .0356513
571.816 .0356103
572.605 .0355666
573.393 .0355209
574.181 .0354739
574.969 .0354259
575.756 .0353776
576.543 .0353292
577.329 .0352811
578.115 .0352335
578.900 .0351866
579.685 .0351404
580.469 .0350953
581.253 .0350517
582.036 .0350098
582.820 .0349698
583.602 .0349321
584.384 .0348968
585.166 .0348641
585.947 .0348338
586.728 .0348059
587.509 .0347801
588.289 .0347558
589.069 .0347328
589.848 .0347105
590.627 .0346889
591.405 .0346677
592.183 .0346468
592.961 .0346261
593.738 .0346058
594.515 .0345856
595.291 .0345654
596.067 .0345452
596.843 .0345247
597.618 .0345039
598.393 .0344705
599.167 .0344483
599.941 .0344256
600.715 .0344025
601.488 .0343791
602.261 .0343556
603.034 .0343321
603.806 .0343089
604.578 .0342858
605.349 .0342631
606.121 .0342408
606.891 .0342307
607.662 .0342089
608.432 .0341875
609.201 .0341665
609.971 .0341459
610.740 .0341257
611.508 .0341058
612.277 .0340862
613.045 .0340671
613.812 .0340482
614.579 .0340297
615.346 .0340115
616.113 .0339937
616.879 .0339760
617.645 .0339585
618.411 .0339411
619.176 .0339234
619.941 .0339056
620.705 .0338874
621.470 .0338687
622.233 .0338495
622.997 .0338297
623.760 .0338094
624.523 .0337888
625.286 .0337676
626.048 .0337462
626.810 .0337243
627.572 .0337020
628.333 .0336794
629.095 .0336565
629.855 .0336334
630.616 .0336101
631.376 .0335867
632.136 .0335633
632.895 .0335400
633.655 .0335169
634.414 .0334941
635.172 .0334716
635.931 .0334494
636.689 .0334276
637.447 .0334062
638.204 .0333853
638.962 .0333649
639.718 .0333450
640.475 .0333258
641.231 .0333072
641.988 .0332892
642.743 .0332718
643.499 .0332549
644.254 .0332384
645.009 .0332224
645.764 .0332068
646.518 .0331915
647.272 .0331766
648.026 .0331619
648.780 .0331475
649.533 .0331334
650.286 .0331194
651.039 .0331057
651.792 .0330920
652.544 .0330785
653.296 .0330650
654.048 .0330516
654.799 .0330383
655.550 .0330250
656.301 .0330118
657.052 .0329986
657.802 .0329855
658.552 .0329725
659.302 .0329596
660.052 .0329467
660.801 .0329339
661.550 .0329211
662.299 .0329083
663.048 .0328955
663.796 .0328825
664.544 .0328694
665.292 .0328562
666.040 .0328427
666.787 .0328290
667.534 .0328151
668.281 .0328010
669.028 .0327868
669.774 .0327725
670.521 .0327580
671.266 .0327434
672.012 .0327287
672.758 .0327139
673.503 .0326989
674.248 .0326838
674.992 .0326685
675.737 .0326531
676.481 .0326377
677.225 .0326221
677.969 .0326065
678.712 .0325908
679.455 .0325752
680.199 .0325597
680.941 .0325443
681.684 .0325290
682.426 .0325138
683.168 .0324987
683.910 .0324838
684.652 .0324689
685.393 .0324541
686.134 .0324392
686.875 .0324244
687.616 .0324096
688.356 .0323949
689.097 .0323802
689.837 .0323657
690.576 .0323512
691.316 .0323368
692.055 .0323224
692.794 .0323079
693.533 .0322935
694.272 .0322789
695.010 .0322644
695.748 .0322499
696.486 .0322353
697.224 .0322209
697.962 .0322064
698.699 .0321919
699.436 .0321775
700.173 .0321630
700.909 .0321485
701.646 .0321340
702.382 .0321195
703.118 .0321051
703.853 .0320907
704.589 .0320763
705.324 .0320621
706.059 .0320479
706.794 .0320337
707.529 .0320196
708.263 .0320054
708.997 .0319912
709.731 .0319770
710.465 .0319628
711.198 .0319486
711.931 .0319344
712.664 .0319203
713.397 .0319061
714.130 .0318918
714.862 .0318775
715.594 .0318632
716.326 .0318489
717.058 .0318345
717.789 .0318201
718.520 .0318058
719.251 .0317914
719.982 .0317770
720.713 .0317626
721.443 .0317482
722.173 .0317339
722.903 .0317196
723.633 .0317053
724.362 .0316912
725.091 .0316773
725.820 .0316636
726.549 .0316501
727.278 .0316367
728.006 .0316236
728.734 .0316106
729.462 .0315978
730.190 .0315852
730.917 .0315727
731.644 .0315604
732.371 .0315484
733.098 .0315366
733.825 .0315251
734.551 .0315139
735.277 .0315028
736.003 .0314920
736.728 .0314813
737.454 .0314708
738.179 .0314602
738.904 .0314497
739.629 .0314392
740.353 .0314286
741.077 .0314181
741.801 .0314075
742.525 .0313967
743.249 .0313858
743.972 .0313747
744.695 .0313632
745.418 .0313514
746.141 .0313392
746.863 .0313267
747.585 .0313139
748.307 .0313008
749.029 .0312875
749.750 .0312740
750.472 .0312603
751.193 .0312464
751.913 .0312324
752.634 .0312181
753.354 .0312036
754.074 .0311890
754.794 .0311743
755.514 .0311595
756.233 .0311447
756.952 .0311299
757.671 .0311151
758.390 .0311004
759.108 .0310858
759.826 .0310714
760.544 .0310571
761.262 .0310429
761.979 .0310290
762.697 .0310153
763.414 .0310019
764.130 .0309886
764.847 .0309755
765.563 .0309624
766.279 .0309495
766.995 .0309367
767.710 .0309239
768.426 .0309113
769.141 .0308987
769.855 .0308863
770.570 .0308741
771.284 .0308621
771.998 .0308502
772.712 .0308385
773.426 .0308270
774.139 .0308155
774.852 .0308042
775.565 .0307930
776.277 .0307818
776.990 .0307708
777.702 .0307599
778.414 .0307492
779.125 .0307387
779.836 .0307284
780.547 .0307184
781.258 .0307086
781.969 .0306990
782.679 .0306896
783.389 .0306760
784.099 .0306667
784.808 .0306574
785.517 .0306480
786.226 .0306385
786.935 .0306288
787.643 .0306190
788.352 .0306090
789.060 .0305989
789.767 .0305885
790.475 .0305780
791.182 .0305673
791.889 .0305613
792.595 .0305503
793.301 .0305391
794.008 .0305277
794.713 .0305162
795.419 .0305045
796.124 .0304927
796.829 .0304806
797.534 .0304684
798.238 .0304560
798.942 .0304435
799.646 .0304310
800.350 .0304185
801.053 .0304060
801.756 .0303936
802.459 .0303814
803.162 .0303693
803.864 .0303573
804.566 .0303454
805.267 .0303336
805.969 .0303217
806.670 .0303099
807.371 .0302982
808.071 .0302865
808.772 .0302749
809.472 .0302634
810.171 .0302521
810.871 .0302409
811.570 .0302298
812.269 .0302187
812.967 .0302075
813.666 .0301963
814.364 .0301849
815.061 .0301734
815.759 .0301616
816.456 .0301496
817.153 .0301374
817.849 .0301249
818.545 .0301122
819.241 .0300993
819.937 .0300861
820.632 .0300728
821.327 .0300594
822.022 .0300458
822.717 .0300323
823.411 .0300187
824.105 .0300051
824.798 .0299916
825.491 .0299782
826.184 .0299649
826.877 .0299517
827.569 .0299387
828.261 .0299258
828.953 .0299131
829.645 .0299005
830.336 .0298881
831.027 .0298758
831.717 .0298637
832.407 .0298518
833.097 .0298400
833.787 .0298283
834.476 .0298168
835.165 .0298053
835.854 .0297940
836.542 .0297828
837.230 .0297716
837.918 .0297605
838.605 .0297495
839.292 .0297385
839.979 .0297276
840.665 .0297166
841.352 .0297057
842.037 .0296947
842.723 .0296837
843.408 .0296727
844.093 .0296616
844.777 .0296505
845.462 .0296392
846.145 .0296279
846.829 .0296165
847.512 .0296050
848.195 .0295934
848.878 .0295816
849.560 .0295697
850.242 .0295575
850.923 .0295452
851.605 .0295326
852.286 .0295198
852.966 .0295068
853.646 .0294935
854.326 .0294800
855.006 .0294663
855.685 .0294523
856.364 .0294381
857.043 .0294236
857.721 .0294088
858.399 .0293938
859.077 .0293784
859.754 .0293628
860.431 .0293470
861.107 .0293309
861.784 .0293146
862.459 .0292981
863.135 .0292815
863.810 .0292649
864.485 .0292482
865.160 .0292314
865.834 .0292148
866.508 .0291983
867.181 .0291819
867.854 .0291657
868.527 .0291497
869.199 .0291341
869.872 .0291187
870.543 .0291036
871.215 .0290888
871.886 .0290744
872.557 .0290603
873.227 .0290465
873.897 .0290332
874.567 .0290202
875.236 .0290075
875.905 .0289952
876.573 .0289831
877.242 .0289712
877.909 .0289594
878.577 .0289477
879.244 .0289360
879.911 .0289243
880.577 .0289127
881.243 .0289010
881.909 .0288894
882.575 .0288778
883.240 .0288662
883.904 .0288547
884.569 .0288433
885.232 .0288319
885.896 .0288205
886.559 .0288092
887.222 .0287981
887.885 .0287870
888.547 .0287760
889.208 .0287651
889.870 .0287544
890.531 .0287438
891.192 .0287334
891.852 .0287231
892.512 .0287130
893.171 .0287030
893.830 .0286932
894.489 .0286836
895.148 .0286740
895.806 .0286647
896.464 .0286554
897.121 .0286464
897.778 .0286374
898.434 .0286286
899.091 .0286157
899.747 .0286072
900.402 .0285987
901.057 .0285903
901.712 .0285819
902.366 .0285735
903.020 .0285651
903.674 .0285566
904.327 .0285480
904.980 .0285393
905.633 .0285304
906.285 .0285214
906.936 .0285121
907.588 .0285070
908.239 .0284972
908.889 .0284872
909.540 .0284768
910.190 .0284662
910.839 .0284553
911.488 .0284442
912.137 .0284328
912.785 .0284213
913.433 .0284095
914.081 .0283975
914.728 .0283852
915.375 .0283726
916.021 .0283597
916.668 .0283465
917.313 .0283330
917.959 .0283192
918.604 .0283052
919.248 .0282909
919.892 .0282764
920.536 .0282617
921.180 .0282466
921.823 .0282313
922.465 .0282157
923.108 .0281998
923.750 .0281837
924.391 .0281675
925.032 .0281512
925.673 .0281348
926.313 .0281184
926.953 .0281021
927.593 .0280856
928.232 .0280690
928.871 .0280524
929.510 .0280356
930.148 .0280187
930.786 .0280017
931.423 .0279847
932.060 .0279676
932.697 .0279504
933.333 .0279333
933.969 .0279161
934.604 .0278988
935.239 .0278814
935.874 .0278639
936.508 .0278463
937.142 .0278286
937.776 .0278109
938.409 .0277932
939.042 .0277754
939.674 .0277577
940.306 .0277398
940.938 .0277218
941.569 .0277036
942.200 .0276852
942.830 .0276664
943.460 .0276474
944.090 .0276281
944.720 .0276085
945.349 .0275888
945.977 .0275689
946.606 .0275488
947.233 .0275285
947.861 .0275080
948.488 .0274872
949.115 .0274664
949.741 .0274454
950.367 .0274244
950.993 .0274034
951.618 .0273825
952.243 .0273618
952.868 .0273413
953.492 .0273209
954.115 .0273007
954.739 .0272806
955.362 .0272606
955.984 .0272408
956.607 .0272212
957.229 .0272019
957.850 .0271830
958.471 .0271646
959.092 .0271466
959.713 .0271292
960.333 .0271123
960.952 .0270958
961.572 .0270797
962.191 .0270641
962.809 .0270489
963.428 .0270342
964.045 .0270202
964.663 .0270068
965.280 .0269941
965.897 .0269821
966.513 .0269708
967.129 .0269600
967.745 .0269497
968.361 .0269397
968.976 .0269300
969.590 .0269205
970.205 .0269113
970.818 .0269024
971.432 .0268937
972.045 .0268854
972.658 .0268773
973.271 .0268694
973.883 .0268616
974.495 .0268539
975.106 .0268462
975.717 .0268384
976.328 .0268306
976.938 .0268229
977.548 .0268154
978.158 .0268080
978.768 .0267972
979.377 .0267903
979.985 .0267836
980.594 .0267771
981.202 .0267707
981.809 .0267644
982.417 .0267582
983.024 .0267521
983.631 .0267461
984.237 .0267403
984.843 .0267347
985.449 .0267294
986.054 .0267242
986.659 .0267193
987.264 .0267177
987.868 .0267130
988.472 .0267085
989.076 .0267041
989.679 .0266998
990.282 .0266956
990.885 .0266915
991.487 .0266874
992.090 .0266834
992.691 .0266795
993.293 .0266757
993.894 .0266719
994.495 .0266683
995.095 .0266647
995.696 .0266611
996.296 .0266576
996.895 .0266540
997.494 .0266503
998.093 .0266465
998.692 .0266427
999.291 .0266386
999.889 .0266345
1000.487 .0266302
1001.084 .0266258
1001.681 .0266214
1002.278 .0266169
1002.875 .0266125
1003.471 .0266081
1004.067 .0266037
1004.663 .0265994
1005.258 .0265950
1005.854 .0265906
1006.449 .0265861
1007.043 .0265815
1007.638 .0265770
1008.232 .0265724
1008.826 .0265681
1009.419 .0265639
1010.012 .0265598
1010.605 .0265560
1011.198 .0265523
1011.791 .0265487
1012.383 .0265451
1012.975 .0265415
1013.566 .0265379
1014.158 .0265343
1014.749 .0265309
1015.340 .0265275
1015.931 .0265244
1016.521 .0265216
1017.111 .0265190
1017.701 .0265166
1018.291 .0265144
1018.880 .0265123
1019.470 .0265102
1020.059 .0265081
1020.647 .0265060
1021.236 .0265040
1021.824 .0265020
1022.412 .0265001
1023.000 .0264985
1023.588 .0264972
1024.175 .0264961
1024.762 .0264952
1025.349 .0264945
1025.936 .0264940
1026.523 .0264935
1027.109 .0264930
1027.695 .0264927
1028.281 .0264923
1028.867 .0264921
1029.452 .0264920
1030.038 .0264920
1030.623 .0264922
1031.208 .0264925
1031.792 .0264928
1032.377 .0264932
1032.961 .0264935
1033.546 .0264936
1034.130 .0264936
1034.714 .0264934
1035.297 .0264931
1035.881 .0264927
1036.464 .0264925
1037.047 .0264922
1037.630 .0264921
1038.213 .0264921
1038.796 .0264921
1039.378 .0264920
1039.961 .0264916
1040.543 .0264911
1041.125 .0264902
1041.707 .0264890
1042.289 .0264875
1042.871 .0264859
1043.452 .0264841
1044.034 .0264822
1044.615 .0264802
1045.196 .0264779
1045.777 .0264754
1046.358 .0264726
1046.939 .0264693
1047.520 .0264655
1048.101 .0264611
1048.681 .0264563
1049.262 .0264510
1049.842 .0264455
1050.422 .0264399
1051.002 .0264342
1051.582 .0264285
1052.162 .0264230
1052.742 .0264174
1053.322 .0264117
1053.902 .0264059
1054.482 .0263999
1055.061 .0263937
1055.641 .0263873
1056.220 .0263808
1056.800 .0263744
1057.379 .0263681
1057.958 .0263620
1058.538 .0263562
1059.117 .0263506
1059.696 .0263451
1060.275 .0263395
1060.854 .0263338
1061.433 .0263279
1062.012 .0263217
1062.592 .0263153
1063.171 .0263087
1063.750 .0263020
1064.329 .0262953
1064.908 .0262887
1065.487 .0262823
1066.066 .0262760
1066.645 .0262698
1067.224 .0262638
1067.803 .0262580
1068.382 .0262523
1068.961 .0262469
1069.540 .0262417
1070.119 .0262367
1070.698 .0262320
1071.278 .0262273
1071.857 .0262227
1072.436 .0262181
1073.016 .0262133
1073.595 .0262083
1074.175 .0262032
1074.754 .0261979
1075.334 .0261923
1075.913 .0261864
1076.493 .0261802
1077.073 .0261737
1077.653 .0261669
1078.233 .0261598
1078.813 .0261524
1079.393 .0261451
1079.974 .0261378
1080.554 .0261308
1081.135 .0261243
1081.716 .0261185
1082.296 .0261135
1082.877 .0261093
1083.458 .0261058
1084.040 .0261030
1084.621 .0261005
1085.202 .0260981
1085.784 .0260958
1086.366 .0260934
1086.948 .0260909
1087.530 .0260882
1088.112 .0260855
1088.695 .0260831
1089.277 .0260809
1089.860 .0260792
1090.443 .0260779
1091.026 .0260771
1091.610 .0260766
1092.193 .0260765
1092.777 .0260767
1093.361 .0260770
1093.946 .0260776
1094.530 .0260785
1095.115 .0260797
1095.700 .0260814
1096.285 .0260834
1096.871 .0260859
1097.456 .0260887
1098.042 .0260918
1098.628 .0260949
1099.215 .0260977
1099.802 .0261003
1100.389 .0261024
1100.976 .0261041
1101.564 .0261056
1102.152 .0261071
1102.740 .0261090
1103.329 .0261114
1103.917 .0261147
1104.507 .0261191
1105.096 .0261247
1105.686 .0261315
1106.276 .0261395
1106.867 .0261485
1107.457 .0261584
1108.049 .0261688
1108.640 .0261796
1109.232 .0261908
1109.825 .0262021
1110.417 .0262137
1111.010 .0262256
1111.604 .0262379
1112.198 .0262505
1112.792 .0262633
1113.387 .0262764
1113.982 .0262895
1114.577 .0263023
1115.173 .0263146
1115.769 .0263263
1116.366 .0263376
1116.963 .0263484
1117.561 .0263590
1118.159 .0263697
1118.758 .0263804
1119.357 .0263913
1119.957 .0264023
1120.557 .0264134
1121.157 .0264244
1121.758 .0264352
1122.360 .0264456
1122.962 .0264556
1123.564 .0264651
1124.167 .0264685
1124.771 .0264771
1125.375 .0264861
1125.980 .0264959
1126.585 .0265064
1127.191 .0265181
1127.797 .0265309
1128.404 .0265449
1129.012 .0265601
1129.620 .0265769
1130.229 .0265953
1130.838 .0266156
1131.448 .0266379
1132.058 .0266627
1132.669 .0266995
1133.281 .0267318
1133.894 .0267676
1134.507 .0268030
1135.120 .0268436
1135.735 .0268879
1136.350 .0269421
1136.965 .0268882
1137.582 .0269303
1138.199 .0269772
1138.816 .0270301
1139.435 .0270881
1140.054 .0271531
1140.674 .0272237
1141.294 .0273057
1141.916 .0273917
1142.538 .0273798
1143.160 .0275237
1143.784 .0276301
1144.408 .0279118
1145.033 .0278952
