Measurement Sequence started on: 14-45-04-498
Integration time: 36
Scans to Average: 2 
>>>>>Begin Spectral Data<<<<<
433.946 .0495706
434.870 .0513153
435.793 .0493599
436.715 .0480829
437.635 .0483626
438.555 .0479798
439.473 .0475947
440.389 .0472082
441.305 .0469292
442.219 .0467153
443.132 .0471119
444.044 .0468236
444.954 .0466376
445.863 .0465185
446.771 .0463846
447.678 .0462702
448.584 .0461745
449.488 .0460966
450.391 .0460293
451.293 .0459686
452.194 .0459127
453.094 .0458593
453.992 .0458061
454.890 .0457528
455.786 .0456990
456.681 .0456453
457.575 .0455912
458.468 .0455362
459.360 .0454796
460.250 .0454201
461.140 .0453567
462.028 .0452887
462.915 .0452162
463.801 .0451396
464.687 .0450598
465.571 .0449783
466.454 .0448962
467.335 .0448147
468.216 .0447345
469.096 .0446551
469.975 .0445761
470.853 .0444970
471.729 .0444169
472.605 .0443362
473.479 .0442552
474.353 .0441747
475.226 .0440958
476.097 .0440193
476.968 .0439458
477.838 .0438756
478.706 .0438084
479.574 .0437440
480.441 .0436822
481.306 .0436225
482.171 .0435645
483.035 .0435084
483.898 .0434546
484.760 .0434035
485.621 .0433557
486.481 .0433119
487.340 .0432725
488.198 .0432376
489.055 .0432068
489.912 .0431797
490.767 .0431556
491.622 .0431269
492.476 .0431059
493.329 .0430854
494.180 .0430647
495.032 .0430437
495.882 .0430218
496.731 .0429988
497.580 .0429742
498.427 .0429478
499.274 .0429194
500.120 .0428975
500.965 .0428644
501.809 .0428282
502.653 .0427888
503.495 .0427461
504.337 .0426999
505.178 .0426500
506.018 .0425966
506.858 .0425398
507.696 .0424800
508.534 .0424177
509.371 .0423539
510.208 .0422896
511.043 .0422256
511.878 .0421628
512.712 .0421020
513.545 .0420438
514.377 .0419886
515.209 .0419366
516.040 .0418878
516.870 .0418419
517.699 .0417990
518.528 .0417590
519.356 .0417223
520.183 .0416886
521.010 .0416579
521.836 .0416297
522.661 .0416038
523.485 .0415791
524.309 .0415551
525.132 .0415312
525.954 .0415067
526.776 .0414804
527.597 .0414516
528.417 .0414198
529.237 .0413843
530.056 .0413448
530.874 .0413007
531.692 .0412516
532.508 .0411974
533.325 .0411385
534.140 .0410752
534.955 .0410083
535.770 .0409384
536.583 .0408660
537.397 .0407919
538.209 .0407167
539.021 .0406412
539.832 .0405664
540.643 .0404934
541.453 .0404227
542.262 .0403544
543.071 .0402888
543.879 .0402263
544.687 .0401670
545.494 .0401106
546.300 .0400573
547.106 .0400069
547.911 .0399595
548.716 .0399155
549.520 .0398753
550.323 .0398387
551.126 .0398056
551.929 .0397755
552.731 .0397476
553.532 .0397211
554.332 .0396954
555.133 .0396696
555.932 .0396434
556.731 .0396163
557.530 .0395881
558.328 .0395590
559.125 .0395296
559.922 .0395002
560.719 .0394707
561.515 .0394415
562.310 .0394124
563.105 .0393831
563.899 .0393534
564.693 .0393231
565.487 .0392918
566.280 .0392595
567.072 .0392260
567.864 .0391913
568.655 .0391555
569.446 .0391190
570.236 .0390818
571.026 .0390442
571.816 .0390065
572.605 .0389683
573.393 .0389300
574.181 .0388915
574.969 .0388527
575.756 .0388133
576.543 .0387733
577.329 .0387328
578.115 .0386917
578.900 .0386501
579.685 .0386083
580.469 .0385667
581.253 .0385254
582.036 .0384846
582.820 .0384444
583.602 .0384049
584.384 .0383660
585.166 .0383279
585.947 .0382904
586.728 .0382535
587.509 .0382170
588.289 .0381811
589.069 .0381456
589.848 .0381104
590.627 .0380755
591.405 .0380410
592.183 .0380070
592.961 .0379733
593.738 .0379402
594.515 .0379077
595.291 .0378760
596.067 .0378452
596.843 .0378152
597.618 .0377860
598.393 .0377453
599.167 .0377181
599.941 .0376916
600.715 .0376659
601.488 .0376408
602.261 .0376163
603.034 .0375926
603.806 .0375696
604.578 .0375472
605.349 .0375254
606.121 .0375041
606.891 .0374941
607.662 .0374731
608.432 .0374521
609.201 .0374312
609.971 .0374104
610.740 .0373894
611.508 .0373683
612.277 .0373470
613.045 .0373254
613.812 .0373034
614.579 .0372811
615.346 .0372583
616.113 .0372352
616.879 .0372118
617.645 .0371880
618.411 .0371639
619.176 .0371395
619.941 .0371149
620.705 .0370901
621.470 .0370650
622.233 .0370397
622.997 .0370142
623.760 .0369886
624.523 .0369629
625.286 .0369371
626.048 .0369114
626.810 .0368857
627.572 .0368602
628.333 .0368347
629.095 .0368094
629.855 .0367841
630.616 .0367589
631.376 .0367338
632.136 .0367087
632.895 .0366835
633.655 .0366583
634.414 .0366328
635.172 .0366072
635.931 .0365815
636.689 .0365556
637.447 .0365296
638.204 .0365036
638.962 .0364778
639.718 .0364522
640.475 .0364269
641.231 .0364020
641.988 .0363775
642.743 .0363534
643.499 .0363296
644.254 .0363061
645.009 .0362830
645.764 .0362601
646.518 .0362376
647.272 .0362154
648.026 .0361937
648.780 .0361724
649.533 .0361515
650.286 .0361310
651.039 .0361110
651.792 .0360913
652.544 .0360718
653.296 .0360527
654.048 .0360336
654.799 .0360147
655.550 .0359958
656.301 .0359767
657.052 .0359576
657.802 .0359383
658.552 .0359188
659.302 .0358990
660.052 .0358791
660.801 .0358589
661.550 .0358387
662.299 .0358182
663.048 .0357977
663.796 .0357770
664.544 .0357561
665.292 .0357350
666.040 .0357138
666.787 .0356924
667.534 .0356709
668.281 .0356493
669.028 .0356277
669.774 .0356061
670.521 .0355847
671.266 .0355634
672.012 .0355423
672.758 .0355215
673.503 .0355009
674.248 .0354805
674.992 .0354603
675.737 .0354403
676.481 .0354204
677.225 .0354008
677.969 .0353813
678.712 .0353620
679.455 .0353429
680.199 .0353241
680.941 .0353055
681.684 .0352873
682.426 .0352694
683.168 .0352519
683.910 .0352348
684.652 .0352181
685.393 .0352019
686.134 .0351862
686.875 .0351709
687.616 .0351561
688.356 .0351418
689.097 .0351278
689.837 .0351143
690.576 .0351010
691.316 .0350879
692.055 .0350752
692.794 .0350627
693.533 .0350504
694.272 .0350384
695.010 .0350267
695.748 .0350152
696.486 .0350039
697.224 .0349928
697.962 .0349819
698.699 .0349712
699.436 .0349604
700.173 .0349497
700.909 .0349389
701.646 .0349282
702.382 .0349174
703.118 .0349065
703.853 .0348956
704.589 .0348845
705.324 .0348733
706.059 .0348619
706.794 .0348503
707.529 .0348385
708.263 .0348264
708.997 .0348140
709.731 .0348014
710.465 .0347884
711.198 .0347751
711.931 .0347615
712.664 .0347476
713.397 .0347334
714.130 .0347188
714.862 .0347039
715.594 .0346887
716.326 .0346731
717.058 .0346571
717.789 .0346406
718.520 .0346237
719.251 .0346063
719.982 .0345884
720.713 .0345699
721.443 .0345510
722.173 .0345317
722.903 .0345120
723.633 .0344922
724.362 .0344722
725.091 .0344522
725.820 .0344322
726.549 .0344123
727.278 .0343924
728.006 .0343725
728.734 .0343527
729.462 .0343329
730.190 .0343133
730.917 .0342939
731.644 .0342746
732.371 .0342555
733.098 .0342367
733.825 .0342182
734.551 .0342000
735.277 .0341821
736.003 .0341646
736.728 .0341473
737.454 .0341304
738.179 .0341139
738.904 .0340976
739.629 .0340817
740.353 .0340662
741.077 .0340510
741.801 .0340363
742.525 .0340220
743.249 .0340082
743.972 .0339948
744.695 .0339820
745.418 .0339697
746.141 .0339579
746.863 .0339466
747.585 .0339357
748.307 .0339253
749.029 .0339152
749.750 .0339056
750.472 .0338964
751.193 .0338876
751.913 .0338791
752.634 .0338710
753.354 .0338633
754.074 .0338559
754.794 .0338487
755.514 .0338419
756.233 .0338353
756.952 .0338289
757.671 .0338227
758.390 .0338167
759.108 .0338107
759.826 .0338049
760.544 .0337992
761.262 .0337935
761.979 .0337878
762.697 .0337822
763.414 .0337764
764.130 .0337706
764.847 .0337648
765.563 .0337589
766.279 .0337529
766.995 .0337469
767.710 .0337409
768.426 .0337348
769.141 .0337288
769.855 .0337226
770.570 .0337163
771.284 .0337099
771.998 .0337033
772.712 .0336964
773.426 .0336894
774.139 .0336823
774.852 .0336749
775.565 .0336674
776.277 .0336597
776.990 .0336517
777.702 .0336435
778.414 .0336350
779.125 .0336262
779.836 .0336170
780.547 .0336076
781.258 .0335979
781.969 .0335879
782.679 .0335776
783.389 .0335611
784.099 .0335498
784.808 .0335379
785.517 .0335255
786.226 .0335126
786.935 .0334992
787.643 .0334854
788.352 .0334713
789.060 .0334569
789.767 .0334423
790.475 .0334274
791.182 .0334121
791.889 .0334035
792.595 .0333879
793.301 .0333721
794.008 .0333560
794.713 .0333398
795.419 .0333235
796.124 .0333072
796.829 .0332909
797.534 .0332747
798.238 .0332586
798.942 .0332426
799.646 .0332267
800.350 .0332110
801.053 .0331955
801.756 .0331805
802.459 .0331659
803.162 .0331519
803.864 .0331385
804.566 .0331257
805.267 .0331136
805.969 .0331019
806.670 .0330908
807.371 .0330801
808.071 .0330700
808.772 .0330604
809.472 .0330512
810.171 .0330426
810.871 .0330344
811.570 .0330266
812.269 .0330191
812.967 .0330118
813.666 .0330047
814.364 .0329975
815.061 .0329903
815.759 .0329831
816.456 .0329759
817.153 .0329686
817.849 .0329612
818.545 .0329537
819.241 .0329460
819.937 .0329380
820.632 .0329298
821.327 .0329212
822.022 .0329125
822.717 .0329036
823.411 .0328945
824.105 .0328853
824.798 .0328759
825.491 .0328664
826.184 .0328568
826.877 .0328470
827.569 .0328371
828.261 .0328272
828.953 .0328173
829.645 .0328075
830.336 .0327979
831.027 .0327887
831.717 .0327798
832.407 .0327713
833.097 .0327631
833.787 .0327553
834.476 .0327477
835.165 .0327405
835.854 .0327336
836.542 .0327271
837.230 .0327208
837.918 .0327149
838.605 .0327091
839.292 .0327035
839.979 .0326980
840.665 .0326924
841.352 .0326866
842.037 .0326806
842.723 .0326743
843.408 .0326675
844.093 .0326603
844.777 .0326526
845.462 .0326442
846.145 .0326352
846.829 .0326254
847.512 .0326149
848.195 .0326037
848.878 .0325918
849.560 .0325791
850.242 .0325658
850.923 .0325519
851.605 .0325373
852.286 .0325222
852.966 .0325066
853.646 .0324904
854.326 .0324737
855.006 .0324567
855.685 .0324392
856.364 .0324215
857.043 .0324035
857.721 .0323854
858.399 .0323672
859.077 .0323489
859.754 .0323306
860.431 .0323124
861.107 .0322942
861.784 .0322761
862.459 .0322580
863.135 .0322401
863.810 .0322222
864.485 .0322044
865.160 .0321866
865.834 .0321689
866.508 .0321510
867.181 .0321331
867.854 .0321151
868.527 .0320971
869.199 .0320789
869.872 .0320605
870.543 .0320421
871.215 .0320235
871.886 .0320048
872.557 .0319860
873.227 .0319671
873.897 .0319481
874.567 .0319290
875.236 .0319099
875.905 .0318907
876.573 .0318716
877.242 .0318524
877.909 .0318333
878.577 .0318142
879.244 .0317952
879.911 .0317763
880.577 .0317575
881.243 .0317388
881.909 .0317203
882.575 .0317019
883.240 .0316838
883.904 .0316661
884.569 .0316486
885.232 .0316316
885.896 .0316151
886.559 .0315991
887.222 .0315838
887.885 .0315692
888.547 .0315553
889.208 .0315422
889.870 .0315299
890.531 .0315185
891.192 .0315078
891.852 .0314980
892.512 .0314889
893.171 .0314805
893.830 .0314730
894.489 .0314661
895.148 .0314600
895.806 .0314545
896.464 .0314497
897.121 .0314455
897.778 .0314417
898.434 .0314384
899.091 .0314347
899.747 .0314318
900.402 .0314292
901.057 .0314268
901.712 .0314246
902.366 .0314225
903.020 .0314206
903.674 .0314186
904.327 .0314167
904.980 .0314146
905.633 .0314123
906.285 .0314097
906.936 .0314069
907.588 .0314044
908.239 .0314011
908.889 .0313974
909.540 .0313933
910.190 .0313890
910.839 .0313843
911.488 .0313793
912.137 .0313741
912.785 .0313685
913.433 .0313627
914.081 .0313567
914.728 .0313503
915.375 .0313437
916.021 .0313369
916.668 .0313298
917.313 .0313224
917.959 .0313148
918.604 .0313068
919.248 .0312985
919.892 .0312898
920.536 .0312806
921.180 .0312708
921.823 .0312605
922.465 .0312495
923.108 .0312379
923.750 .0312256
924.391 .0312126
925.032 .0311989
925.673 .0311844
926.313 .0311692
926.953 .0311532
927.593 .0311365
928.232 .0311189
928.871 .0311005
929.510 .0310814
930.148 .0310614
930.786 .0310407
931.423 .0310193
932.060 .0309970
932.697 .0309740
933.333 .0309502
933.969 .0309257
934.604 .0309003
935.239 .0308743
935.874 .0308474
936.508 .0308199
937.142 .0307918
937.776 .0307630
938.409 .0307335
939.042 .0307035
939.674 .0306729
940.306 .0306417
940.938 .0306099
941.569 .0305776
942.200 .0305449
942.830 .0305118
943.460 .0304783
944.090 .0304445
944.720 .0304104
945.349 .0303761
945.977 .0303414
946.606 .0303065
947.233 .0302713
947.861 .0302358
948.488 .0302001
949.115 .0301643
949.741 .0301285
950.367 .0300928
950.993 .0300573
951.618 .0300221
952.243 .0299872
952.868 .0299527
953.492 .0299186
954.115 .0298849
954.739 .0298517
955.362 .0298192
955.984 .0297872
956.607 .0297560
957.229 .0297255
957.850 .0296959
958.471 .0296671
959.092 .0296391
959.713 .0296119
960.333 .0295855
960.952 .0295598
961.572 .0295348
962.191 .0295104
962.809 .0294866
963.428 .0294634
964.045 .0294408
964.663 .0294189
965.280 .0293975
965.897 .0293767
966.513 .0293566
967.129 .0293370
967.745 .0293178
968.361 .0292992
968.976 .0292809
969.590 .0292630
970.205 .0292455
970.818 .0292283
971.432 .0292116
972.045 .0291952
972.658 .0291792
973.271 .0291636
973.883 .0291485
974.495 .0291338
975.106 .0291196
975.717 .0291057
976.328 .0290923
976.938 .0290793
977.548 .0290668
978.158 .0290548
978.768 .0290397
979.377 .0290294
979.985 .0290197
980.594 .0290108
981.202 .0290026
981.809 .0289953
982.417 .0289887
983.024 .0289829
983.631 .0289778
984.237 .0289735
984.843 .0289700
985.449 .0289673
986.054 .0289654
986.659 .0289642
987.264 .0289657
987.868 .0289658
988.472 .0289666
989.076 .0289680
989.679 .0289701
990.282 .0289727
990.885 .0289758
991.487 .0289793
992.090 .0289832
992.691 .0289874
993.293 .0289919
993.894 .0289966
994.495 .0290017
995.095 .0290070
995.696 .0290124
996.296 .0290180
996.895 .0290237
997.494 .0290295
998.093 .0290353
998.692 .0290411
999.291 .0290469
999.889 .0290528
1000.487 .0290587
1001.084 .0290648
1001.681 .0290711
1002.278 .0290775
1002.875 .0290841
1003.471 .0290909
1004.067 .0290979
1004.663 .0291049
1005.258 .0291120
1005.854 .0291190
1006.449 .0291262
1007.043 .0291334
1007.638 .0291407
1008.232 .0291482
1008.826 .0291559
1009.419 .0291638
1010.012 .0291720
1010.605 .0291802
1011.198 .0291886
1011.791 .0291970
1012.383 .0292054
1012.975 .0292138
1013.566 .0292223
1014.158 .0292309
1014.749 .0292397
1015.340 .0292487
1015.931 .0292579
1016.521 .0292675
1017.111 .0292773
1017.701 .0292874
1018.291 .0292976
1018.880 .0293080
1019.470 .0293184
1020.059 .0293289
1020.647 .0293395
1021.236 .0293502
1021.824 .0293611
1022.412 .0293721
1023.000 .0293833
1023.588 .0293946
1024.175 .0294061
1024.762 .0294175
1025.349 .0294289
1025.936 .0294402
1026.523 .0294513
1027.109 .0294622
1027.695 .0294729
1028.281 .0294833
1028.867 .0294936
1029.452 .0295038
1030.038 .0295138
1030.623 .0295236
1031.208 .0295332
1031.792 .0295426
1032.377 .0295516
1032.961 .0295601
1033.546 .0295682
1034.130 .0295756
1034.714 .0295825
1035.297 .0295886
1035.881 .0295941
1036.464 .0295989
1037.047 .0296031
1037.630 .0296066
1038.213 .0296093
1038.796 .0296113
1039.378 .0296125
1039.961 .0296129
1040.543 .0296124
1041.125 .0296111
1041.707 .0296091
1042.289 .0296063
1042.871 .0296029
1043.452 .0295990
1044.034 .0295948
1044.615 .0295902
1045.196 .0295854
1045.777 .0295804
1046.358 .0295750
1046.939 .0295694
1047.520 .0295634
1048.101 .0295571
1048.681 .0295504
1049.262 .0295436
1049.842 .0295364
1050.422 .0295292
1051.002 .0295218
1051.582 .0295143
1052.162 .0295068
1052.742 .0294992
1053.322 .0294913
1053.902 .0294833
1054.482 .0294750
1055.061 .0294664
1055.641 .0294575
1056.220 .0294484
1056.800 .0294390
1057.379 .0294293
1057.958 .0294193
1058.538 .0294090
1059.117 .0293985
1059.696 .0293876
1060.275 .0293763
1060.854 .0293647
1061.433 .0293526
1062.012 .0293400
1062.592 .0293270
1063.171 .0293136
1063.750 .0292999
1064.329 .0292859
1064.908 .0292715
1065.487 .0292570
1066.066 .0292422
1066.645 .0292275
1067.224 .0292126
1067.803 .0291976
1068.382 .0291826
1068.961 .0291675
1069.540 .0291523
1070.119 .0291370
1070.698 .0291216
1071.278 .0291061
1071.857 .0290907
1072.436 .0290753
1073.016 .0290600
1073.595 .0290451
1074.175 .0290305
1074.754 .0290165
1075.334 .0290030
1075.913 .0289899
1076.493 .0289773
1077.073 .0289651
1077.653 .0289533
1078.233 .0289418
1078.813 .0289307
1079.393 .0289197
1079.974 .0289091
1080.554 .0288988
1081.135 .0288888
1081.716 .0288791
1082.296 .0288698
1082.877 .0288607
1083.458 .0288517
1084.040 .0288429
1084.621 .0288340
1085.202 .0288251
1085.784 .0288162
1086.366 .0288072
1086.948 .0287982
1087.530 .0287892
1088.112 .0287805
1088.695 .0287719
1089.277 .0287637
1089.860 .0287560
1090.443 .0287487
1091.026 .0287418
1091.610 .0287352
1092.193 .0287287
1092.777 .0287225
1093.361 .0287162
1093.946 .0287099
1094.530 .0287034
1095.115 .0286970
1095.700 .0286907
1096.285 .0286844
1096.871 .0286784
1097.456 .0286728
1098.042 .0286675
1098.628 .0286623
1099.215 .0286573
1099.802 .0286523
1100.389 .0286473
1100.976 .0286423
1101.564 .0286374
1102.152 .0286327
1102.740 .0286285
1103.329 .0286250
1103.917 .0286222
1104.507 .0286204
1105.096 .0286193
1105.686 .0286189
1106.276 .0286190
1106.867 .0286196
1107.457 .0286205
1108.049 .0286218
1108.640 .0286235
1109.232 .0286257
1109.825 .0286286
1110.417 .0286322
1111.010 .0286366
1111.604 .0286418
1112.198 .0286476
1112.792 .0286539
1113.387 .0286606
1113.982 .0286676
1114.577 .0286748
1115.173 .0286823
1115.769 .0286903
1116.366 .0286987
1116.963 .0287079
1117.561 .0287178
1118.159 .0287286
1118.758 .0287402
1119.357 .0287527
1119.957 .0287662
1120.557 .0287808
1121.157 .0287966
1121.758 .0288139
1122.360 .0288328
1122.962 .0288535
1123.564 .0288760
1124.167 .0288836
1124.771 .0289080
1125.375 .0289340
1125.980 .0289612
1126.585 .0289897
1127.191 .0290194
1127.797 .0290504
1128.404 .0290832
1129.012 .0291179
1129.620 .0291550
1130.229 .0291946
1130.838 .0292369
1131.448 .0292815
1132.058 .0293284
1132.669 .0293976
1133.281 .0294505
1133.894 .0295050
1134.507 .0295577
1135.120 .0296171
1135.735 .0296848
1136.350 .0297509
1136.965 .0297643
1137.582 .0298397
1138.199 .0299150
1138.816 .0299911
1139.435 .0300620
1140.054 .0301319
1140.674 .0302033
1141.294 .0302743
1141.916 .0303330
1142.538 .0303003
1143.160 .0304966
1143.784 .0307384
1144.408 .0307205
1145.033 .0303114
