Measurement Sequence started on: 14-45-04-498
Integration time: 36
Scans to Average: 2 
>>>>>Begin Spectral Data<<<<<
433.946 .0634764
434.870 .0581064
435.793 .0484744
436.715 .0500507
437.635 .0491786
438.555 .0498772
439.473 .0488872
440.389 .0482423
441.305 .0479112
442.219 .0475495
443.132 .0480257
444.044 .0473735
444.954 .0472231
445.863 .0469842
446.771 .0467849
447.678 .0465419
448.584 .0463434
449.488 .0461707
450.391 .0460074
451.293 .0458555
452.194 .0457122
453.094 .0455766
453.992 .0454458
454.890 .0453174
455.786 .0451903
456.681 .0450636
457.575 .0449365
458.468 .0448092
459.360 .0446817
460.250 .0445543
461.140 .0444270
462.028 .0443004
462.915 .0441756
463.801 .0440542
464.687 .0439370
465.571 .0438249
466.454 .0437182
467.335 .0436167
468.216 .0435200
469.096 .0434276
469.975 .0433389
470.853 .0432535
471.729 .0431711
472.605 .0430922
473.479 .0430168
474.353 .0429452
475.226 .0428776
476.097 .0428140
476.968 .0427538
477.838 .0426965
478.706 .0426411
479.574 .0425866
480.441 .0425322
481.306 .0424774
482.171 .0424219
483.035 .0423655
483.898 .0423085
484.760 .0422511
485.621 .0421937
486.481 .0421365
487.340 .0420800
488.198 .0420242
489.055 .0419691
489.912 .0419142
490.767 .0418591
491.622 .0417744
492.476 .0417167
493.329 .0416577
494.180 .0415975
495.032 .0415365
495.882 .0414749
496.731 .0414132
497.580 .0413518
498.427 .0412911
499.274 .0412313
500.120 .0412021
500.965 .0411436
501.809 .0410860
502.653 .0410296
503.495 .0409746
504.337 .0409213
505.178 .0408699
506.018 .0408208
506.858 .0407745
507.696 .0407315
508.534 .0406922
509.371 .0406572
510.208 .0406271
511.043 .0406021
511.878 .0405821
512.712 .0405671
513.545 .0405569
514.377 .0405506
515.209 .0405473
516.040 .0405461
516.870 .0405457
517.699 .0405453
518.528 .0405443
519.356 .0405425
520.183 .0405397
521.010 .0405358
521.836 .0405305
522.661 .0405231
523.485 .0405128
524.309 .0404987
525.132 .0404799
525.954 .0404554
526.776 .0404242
527.597 .0403858
528.417 .0403403
529.237 .0402880
530.056 .0402293
530.874 .0401652
531.692 .0400967
532.508 .0400244
533.325 .0399489
534.140 .0398712
534.955 .0397922
535.770 .0397120
536.583 .0396307
537.397 .0395485
538.209 .0394652
539.021 .0393812
539.832 .0392972
540.643 .0392144
541.453 .0391336
542.262 .0390558
543.071 .0389818
543.879 .0389123
544.687 .0388474
545.494 .0387864
546.300 .0387285
547.106 .0386728
547.911 .0386185
548.716 .0385648
549.520 .0385120
550.323 .0384604
551.126 .0384108
551.929 .0383634
552.731 .0383192
553.532 .0382785
554.332 .0382417
555.133 .0382084
555.932 .0381783
556.731 .0381510
557.530 .0381254
558.328 .0381010
559.125 .0380772
559.922 .0380532
560.719 .0380287
561.515 .0380032
562.310 .0379769
563.105 .0379496
563.899 .0379214
564.693 .0378924
565.487 .0378623
566.280 .0378310
567.072 .0377980
567.864 .0377626
568.655 .0377243
569.446 .0376829
570.236 .0376378
571.026 .0375893
571.816 .0375375
572.605 .0374830
573.393 .0374263
574.181 .0373684
574.969 .0373099
575.756 .0372516
576.543 .0371941
577.329 .0371381
578.115 .0370838
578.900 .0370316
579.685 .0369817
580.469 .0369342
581.253 .0368892
582.036 .0368468
582.820 .0368072
583.602 .0367706
584.384 .0367370
585.166 .0367066
585.947 .0366792
586.728 .0366544
587.509 .0366320
588.289 .0366113
589.069 .0365917
589.848 .0365726
590.627 .0365533
591.405 .0365334
592.183 .0365126
592.961 .0364909
593.738 .0364684
594.515 .0364451
595.291 .0364214
596.067 .0363974
596.843 .0363734
597.618 .0363496
598.393 .0363156
599.167 .0362931
599.941 .0362713
600.715 .0362501
601.488 .0362297
602.261 .0362103
603.034 .0361919
603.806 .0361745
604.578 .0361583
605.349 .0361432
606.121 .0361293
606.891 .0361252
607.662 .0361129
608.432 .0361016
609.201 .0360914
609.971 .0360821
610.740 .0360737
611.508 .0360659
612.277 .0360585
613.045 .0360514
613.812 .0360444
614.579 .0360374
615.346 .0360301
616.113 .0360225
616.879 .0360146
617.645 .0360062
618.411 .0359974
619.176 .0359879
619.941 .0359779
620.705 .0359672
621.470 .0359559
622.233 .0359438
622.997 .0359311
623.760 .0359178
624.523 .0359039
625.286 .0358895
626.048 .0358745
626.810 .0358592
627.572 .0358437
628.333 .0358279
629.095 .0358121
629.855 .0357964
630.616 .0357808
631.376 .0357654
632.136 .0357504
632.895 .0357357
633.655 .0357212
634.414 .0357070
635.172 .0356930
635.931 .0356791
636.689 .0356653
637.447 .0356514
638.204 .0356374
638.962 .0356235
639.718 .0356095
640.475 .0355954
641.231 .0355813
641.988 .0355671
642.743 .0355527
643.499 .0355381
644.254 .0355231
645.009 .0355077
645.764 .0354916
646.518 .0354750
647.272 .0354577
648.026 .0354399
648.780 .0354216
649.533 .0354029
650.286 .0353838
651.039 .0353646
651.792 .0353452
652.544 .0353257
653.296 .0353061
654.048 .0352865
654.799 .0352668
655.550 .0352471
656.301 .0352275
657.052 .0352078
657.802 .0351883
658.552 .0351688
659.302 .0351495
660.052 .0351303
660.801 .0351114
661.550 .0350926
662.299 .0350740
663.048 .0350557
663.796 .0350377
664.544 .0350199
665.292 .0350023
666.040 .0349849
666.787 .0349678
667.534 .0349509
668.281 .0349342
669.028 .0349179
669.774 .0349019
670.521 .0348862
671.266 .0348710
672.012 .0348561
672.758 .0348417
673.503 .0348276
674.248 .0348138
674.992 .0348002
675.737 .0347868
676.481 .0347735
677.225 .0347602
677.969 .0347469
678.712 .0347335
679.455 .0347200
680.199 .0347063
680.941 .0346925
681.684 .0346784
682.426 .0346641
683.168 .0346495
683.910 .0346346
684.652 .0346194
685.393 .0346038
686.134 .0345879
686.875 .0345717
687.616 .0345553
688.356 .0345387
689.097 .0345220
689.837 .0345053
690.576 .0344886
691.316 .0344719
692.055 .0344552
692.794 .0344385
693.533 .0344219
694.272 .0344054
695.010 .0343888
695.748 .0343723
696.486 .0343559
697.224 .0343395
697.962 .0343234
698.699 .0343073
699.436 .0342915
700.173 .0342757
700.909 .0342599
701.646 .0342442
702.382 .0342283
703.118 .0342122
703.853 .0341957
704.589 .0341789
705.324 .0341617
706.059 .0341441
706.794 .0341260
707.529 .0341075
708.263 .0340887
708.997 .0340695
709.731 .0340499
710.465 .0340301
711.198 .0340100
711.931 .0339897
712.664 .0339692
713.397 .0339487
714.130 .0339281
714.862 .0339076
715.594 .0338871
716.326 .0338668
717.058 .0338467
717.789 .0338269
718.520 .0338074
719.251 .0337882
719.982 .0337695
720.713 .0337513
721.443 .0337335
722.173 .0337162
722.903 .0336993
723.633 .0336829
724.362 .0336670
725.091 .0336514
725.820 .0336363
726.549 .0336216
727.278 .0336074
728.006 .0335937
728.734 .0335804
729.462 .0335677
730.190 .0335556
730.917 .0335439
731.644 .0335328
732.371 .0335221
733.098 .0335119
733.825 .0335021
734.551 .0334928
735.277 .0334837
736.003 .0334750
736.728 .0334666
737.454 .0334584
738.179 .0334504
738.904 .0334425
739.629 .0334348
740.353 .0334271
741.077 .0334194
741.801 .0334116
742.525 .0334037
743.249 .0333957
743.972 .0333874
744.695 .0333789
745.418 .0333700
746.141 .0333608
746.863 .0333512
747.585 .0333412
748.307 .0333307
749.029 .0333197
749.750 .0333081
750.472 .0332960
751.193 .0332833
751.913 .0332700
752.634 .0332562
753.354 .0332419
754.074 .0332272
754.794 .0332122
755.514 .0331968
756.233 .0331813
756.952 .0331655
757.671 .0331496
758.390 .0331338
759.108 .0331180
759.826 .0331023
760.544 .0330866
761.262 .0330711
761.979 .0330557
762.697 .0330404
763.414 .0330250
764.130 .0330096
764.847 .0329942
765.563 .0329788
766.279 .0329633
766.995 .0329478
767.710 .0329323
768.426 .0329168
769.141 .0329013
769.855 .0328857
770.570 .0328700
771.284 .0328542
771.998 .0328384
772.712 .0328224
773.426 .0328064
774.139 .0327905
774.852 .0327746
775.565 .0327588
776.277 .0327432
776.990 .0327278
777.702 .0327127
778.414 .0326979
779.125 .0326835
779.836 .0326695
780.547 .0326561
781.258 .0326433
781.969 .0326310
782.679 .0326194
783.389 .0326047
784.099 .0325946
784.808 .0325851
785.517 .0325760
786.226 .0325676
786.935 .0325596
787.643 .0325523
788.352 .0325457
789.060 .0325397
789.767 .0325342
790.475 .0325293
791.182 .0325247
791.889 .0325230
792.595 .0325185
793.301 .0325141
794.008 .0325097
794.713 .0325052
795.419 .0325004
796.124 .0324956
796.829 .0324906
797.534 .0324854
798.238 .0324800
798.942 .0324743
799.646 .0324683
800.350 .0324620
801.053 .0324554
801.756 .0324485
802.459 .0324412
803.162 .0324336
803.864 .0324257
804.566 .0324175
805.267 .0324089
805.969 .0324000
806.670 .0323907
807.371 .0323812
808.071 .0323713
808.772 .0323612
809.472 .0323508
810.171 .0323403
810.871 .0323294
811.570 .0323184
812.269 .0323072
812.967 .0322957
813.666 .0322839
814.364 .0322718
815.061 .0322594
815.759 .0322466
816.456 .0322334
817.153 .0322198
817.849 .0322058
818.545 .0321915
819.241 .0321769
819.937 .0321619
820.632 .0321465
821.327 .0321308
822.022 .0321148
822.717 .0320983
823.411 .0320814
824.105 .0320641
824.798 .0320465
825.491 .0320285
826.184 .0320102
826.877 .0319917
827.569 .0319731
828.261 .0319544
828.953 .0319356
829.645 .0319167
830.336 .0318979
831.027 .0318792
831.717 .0318604
832.407 .0318418
833.097 .0318233
833.787 .0318049
834.476 .0317867
835.165 .0317688
835.854 .0317510
836.542 .0317336
837.230 .0317164
837.918 .0316994
838.605 .0316828
839.292 .0316664
839.979 .0316502
840.665 .0316343
841.352 .0316185
842.037 .0316029
842.723 .0315874
843.408 .0315720
844.093 .0315566
844.777 .0315413
845.462 .0315260
846.145 .0315107
846.829 .0314955
847.512 .0314803
848.195 .0314651
848.878 .0314500
849.560 .0314348
850.242 .0314198
850.923 .0314047
851.605 .0313896
852.286 .0313745
852.966 .0313593
853.646 .0313442
854.326 .0313291
855.006 .0313140
855.685 .0312990
856.364 .0312840
857.043 .0312691
857.721 .0312543
858.399 .0312395
859.077 .0312248
859.754 .0312101
860.431 .0311955
861.107 .0311811
861.784 .0311668
862.459 .0311527
863.135 .0311390
863.810 .0311256
864.485 .0311125
865.160 .0310999
865.834 .0310877
866.508 .0310760
867.181 .0310647
867.854 .0310538
868.527 .0310434
869.199 .0310336
869.872 .0310243
870.543 .0310155
871.215 .0310073
871.886 .0309996
872.557 .0309923
873.227 .0309853
873.897 .0309787
874.567 .0309724
875.236 .0309663
875.905 .0309603
876.573 .0309545
877.242 .0309487
877.909 .0309430
878.577 .0309373
879.244 .0309315
879.911 .0309255
880.577 .0309192
881.243 .0309127
881.909 .0309058
882.575 .0308985
883.240 .0308909
883.904 .0308829
884.569 .0308746
885.232 .0308659
885.896 .0308569
886.559 .0308476
887.222 .0308380
887.885 .0308280
888.547 .0308178
889.208 .0308073
889.870 .0307968
890.531 .0307862
891.192 .0307757
891.852 .0307652
892.512 .0307549
893.171 .0307447
893.830 .0307347
894.489 .0307247
895.148 .0307147
895.806 .0307047
896.464 .0306946
897.121 .0306845
897.778 .0306743
898.434 .0306640
899.091 .0306480
899.747 .0306374
900.402 .0306267
901.057 .0306159
901.712 .0306047
902.366 .0305933
903.020 .0305814
903.674 .0305690
904.327 .0305561
904.980 .0305427
905.633 .0305288
906.285 .0305143
906.936 .0304994
907.588 .0304903
908.239 .0304745
908.889 .0304581
909.540 .0304411
910.190 .0304234
910.839 .0304050
911.488 .0303860
912.137 .0303665
912.785 .0303465
913.433 .0303262
914.081 .0303056
914.728 .0302847
915.375 .0302636
916.021 .0302422
916.668 .0302206
917.313 .0301987
917.959 .0301765
918.604 .0301542
919.248 .0301317
919.892 .0301090
920.536 .0300863
921.180 .0300636
921.823 .0300408
922.465 .0300179
923.108 .0299949
923.750 .0299719
924.391 .0299488
925.032 .0299256
925.673 .0299025
926.313 .0298795
926.953 .0298566
927.593 .0298340
928.232 .0298115
928.871 .0297893
929.510 .0297674
930.148 .0297457
930.786 .0297243
931.423 .0297032
932.060 .0296825
932.697 .0296622
933.333 .0296422
933.969 .0296227
934.604 .0296037
935.239 .0295850
935.874 .0295668
936.508 .0295489
937.142 .0295314
937.776 .0295143
938.409 .0294977
939.042 .0294816
939.674 .0294660
940.306 .0294509
940.938 .0294364
941.569 .0294225
942.200 .0294090
942.830 .0293959
943.460 .0293832
944.090 .0293708
944.720 .0293587
945.349 .0293469
945.977 .0293355
946.606 .0293243
947.233 .0293135
947.861 .0293029
948.488 .0292927
949.115 .0292827
949.741 .0292729
950.367 .0292633
950.993 .0292539
951.618 .0292447
952.243 .0292356
952.868 .0292267
953.492 .0292181
954.115 .0292097
954.739 .0292017
955.362 .0291940
955.984 .0291867
956.607 .0291798
957.229 .0291733
957.850 .0291671
958.471 .0291613
959.092 .0291559
959.713 .0291507
960.333 .0291459
960.952 .0291414
961.572 .0291373
962.191 .0291336
962.809 .0291303
963.428 .0291273
964.045 .0291247
964.663 .0291223
965.280 .0291201
965.897 .0291180
966.513 .0291160
967.129 .0291139
967.745 .0291117
968.361 .0291094
968.976 .0291069
969.590 .0291043
970.205 .0291014
970.818 .0290983
971.432 .0290949
972.045 .0290912
972.658 .0290872
973.271 .0290828
973.883 .0290779
974.495 .0290726
975.106 .0290668
975.717 .0290606
976.328 .0290541
976.938 .0290472
977.548 .0290400
978.158 .0290326
978.768 .0290206
979.377 .0290129
979.985 .0290051
980.594 .0289973
981.202 .0289895
981.809 .0289818
982.417 .0289743
983.024 .0289669
983.631 .0289599
984.237 .0289530
984.843 .0289465
985.449 .0289403
986.054 .0289343
986.659 .0289286
987.264 .0289266
987.868 .0289211
988.472 .0289157
989.076 .0289103
989.679 .0289050
990.282 .0288996
990.885 .0288941
991.487 .0288885
992.090 .0288827
992.691 .0288766
993.293 .0288703
993.894 .0288637
994.495 .0288567
995.095 .0288495
995.696 .0288419
996.296 .0288339
996.895 .0288255
997.494 .0288166
998.093 .0288073
998.692 .0287975
999.291 .0287870
999.889 .0287760
1000.487 .0287643
1001.084 .0287521
1001.681 .0287393
1002.278 .0287262
1002.875 .0287126
1003.471 .0286988
1004.067 .0286847
1004.663 .0286703
1005.258 .0286557
1005.854 .0286408
1006.449 .0286258
1007.043 .0286106
1007.638 .0285954
1008.232 .0285804
1008.826 .0285655
1009.419 .0285511
1010.012 .0285371
1010.605 .0285236
1011.198 .0285105
1011.791 .0284977
1012.383 .0284852
1012.975 .0284728
1013.566 .0284606
1014.158 .0284485
1014.749 .0284365
1015.340 .0284248
1015.931 .0284134
1016.521 .0284023
1017.111 .0283915
1017.701 .0283810
1018.291 .0283707
1018.880 .0283606
1019.470 .0283506
1020.059 .0283407
1020.647 .0283309
1021.236 .0283214
1021.824 .0283123
1022.412 .0283036
1023.000 .0282955
1023.588 .0282881
1024.175 .0282813
1024.762 .0282750
1025.349 .0282691
1025.936 .0282636
1026.523 .0282583
1027.109 .0282532
1027.695 .0282484
1028.281 .0282439
1028.867 .0282398
1029.452 .0282364
1030.038 .0282336
1030.623 .0282315
1031.208 .0282299
1031.792 .0282289
1032.377 .0282282
1032.961 .0282278
1033.546 .0282276
1034.130 .0282275
1034.714 .0282276
1035.297 .0282279
1035.881 .0282285
1036.464 .0282293
1037.047 .0282304
1037.630 .0282317
1038.213 .0282330
1038.796 .0282343
1039.378 .0282354
1039.961 .0282361
1040.543 .0282365
1041.125 .0282366
1041.707 .0282364
1042.289 .0282360
1042.871 .0282356
1043.452 .0282350
1044.034 .0282345
1044.615 .0282339
1045.196 .0282333
1045.777 .0282326
1046.358 .0282318
1046.939 .0282309
1047.520 .0282299
1048.101 .0282288
1048.681 .0282278
1049.262 .0282269
1049.842 .0282261
1050.422 .0282255
1051.002 .0282252
1051.582 .0282252
1052.162 .0282255
1052.742 .0282261
1053.322 .0282272
1053.902 .0282288
1054.482 .0282309
1055.061 .0282337
1055.641 .0282371
1056.220 .0282411
1056.800 .0282457
1057.379 .0282507
1057.958 .0282559
1058.538 .0282612
1059.117 .0282664
1059.696 .0282714
1060.275 .0282762
1060.854 .0282807
1061.433 .0282850
1062.012 .0282890
1062.592 .0282926
1063.171 .0282959
1063.750 .0282989
1064.329 .0283016
1064.908 .0283038
1065.487 .0283058
1066.066 .0283074
1066.645 .0283090
1067.224 .0283105
1067.803 .0283121
1068.382 .0283139
1068.961 .0283160
1069.540 .0283183
1070.119 .0283208
1070.698 .0283233
1071.278 .0283260
1071.857 .0283287
1072.436 .0283313
1073.016 .0283341
1073.595 .0283370
1074.175 .0283401
1074.754 .0283437
1075.334 .0283479
1075.913 .0283525
1076.493 .0283576
1077.073 .0283630
1077.653 .0283688
1078.233 .0283748
1078.813 .0283809
1079.393 .0283872
1079.974 .0283936
1080.554 .0284000
1081.135 .0284062
1081.716 .0284124
1082.296 .0284183
1082.877 .0284237
1083.458 .0284285
1084.040 .0284326
1084.621 .0284359
1085.202 .0284385
1085.784 .0284404
1086.366 .0284417
1086.948 .0284427
1087.530 .0284434
1088.112 .0284438
1088.695 .0284440
1089.277 .0284439
1089.860 .0284435
1090.443 .0284427
1091.026 .0284416
1091.610 .0284401
1092.193 .0284383
1092.777 .0284361
1093.361 .0284338
1093.946 .0284314
1094.530 .0284288
1095.115 .0284261
1095.700 .0284233
1096.285 .0284205
1096.871 .0284175
1097.456 .0284147
1098.042 .0284119
1098.628 .0284093
1099.215 .0284069
1099.802 .0284047
1100.389 .0284028
1100.976 .0284013
1101.564 .0284001
1102.152 .0283992
1102.740 .0283984
1103.329 .0283976
1103.917 .0283967
1104.507 .0283956
1105.096 .0283943
1105.686 .0283927
1106.276 .0283907
1106.867 .0283886
1107.457 .0283864
1108.049 .0283842
1108.640 .0283821
1109.232 .0283803
1109.825 .0283790
1110.417 .0283781
1111.010 .0283777
1111.604 .0283780
1112.198 .0283788
1112.792 .0283802
1113.387 .0283822
1113.982 .0283847
1114.577 .0283878
1115.173 .0283914
1115.769 .0283953
1116.366 .0283996
1116.963 .0284041
1117.561 .0284088
1118.159 .0284136
1118.758 .0284185
1119.357 .0284236
1119.957 .0284288
1120.557 .0284346
1121.157 .0284410
1121.758 .0284483
1122.360 .0284566
1122.962 .0284661
1123.564 .0284769
1124.167 .0284816
1124.771 .0284939
1125.375 .0285074
1125.980 .0285221
1126.585 .0285379
1127.191 .0285548
1127.797 .0285728
1128.404 .0285919
1129.012 .0286121
1129.620 .0286336
1130.229 .0286562
1130.838 .0286800
1131.448 .0287045
1132.058 .0287299
1132.669 .0287653
1133.281 .0287931
1133.894 .0288213
1134.507 .0288496
1135.120 .0288803
1135.735 .0289166
1136.350 .0289429
1136.965 .0290027
1137.582 .0290519
1138.199 .0290971
1138.816 .0291379
1139.435 .0291739
1140.054 .0292071
1140.674 .0292401
1141.294 .0292610
1141.916 .0292735
1142.538 .0292739
1143.160 .0293339
1143.784 .0294791
1144.408 .0292098
1145.033 .0290842
