Measurement Sequence started on: 14-45-04-498
Integration time: 36
Scans to Average: 2 
>>>>>Begin Spectral Data<<<<<
433.946 .0442951
434.870 .0443890
435.793 .0432258
436.715 .0438536
437.635 .0435881
438.555 .0442926
439.473 .0443700
440.389 .0444223
441.305 .0444607
442.219 .0444377
443.132 .0440941
444.044 .0440550
444.954 .0440710
445.863 .0440480
446.771 .0440328
447.678 .0439746
448.584 .0439068
449.488 .0438312
450.391 .0437488
451.293 .0436631
452.194 .0435752
453.094 .0434869
453.992 .0433977
454.890 .0433068
455.786 .0432131
456.681 .0431164
457.575 .0430168
458.468 .0429154
459.360 .0428134
460.250 .0427122
461.140 .0426135
462.028 .0425187
462.915 .0424284
463.801 .0423427
464.687 .0422611
465.571 .0421828
466.454 .0421068
467.335 .0420325
468.216 .0419592
469.096 .0418870
469.975 .0418164
470.853 .0417479
471.729 .0416825
472.605 .0416209
473.479 .0415634
474.353 .0415099
475.226 .0414596
476.097 .0414116
476.968 .0413644
477.838 .0413170
478.706 .0412686
479.574 .0412187
480.441 .0411678
481.306 .0411163
482.171 .0410652
483.035 .0410152
483.898 .0409668
484.760 .0409202
485.621 .0408749
486.481 .0408306
487.340 .0407863
488.198 .0407417
489.055 .0406962
489.912 .0406500
490.767 .0406032
491.622 .0405329
492.476 .0404857
493.329 .0404386
494.180 .0403913
495.032 .0403437
495.882 .0402950
496.731 .0402447
497.580 .0401928
498.427 .0401387
499.274 .0400827
500.120 .0400505
500.965 .0399926
501.809 .0399334
502.653 .0398731
503.495 .0398121
504.337 .0397508
505.178 .0396895
506.018 .0396285
506.858 .0395681
507.696 .0395089
508.534 .0394517
509.371 .0393974
510.208 .0393464
511.043 .0392994
511.878 .0392568
512.712 .0392190
513.545 .0391864
514.377 .0391592
515.209 .0391372
516.040 .0391201
516.870 .0391071
517.699 .0390975
518.528 .0390906
519.356 .0390857
520.183 .0390821
521.010 .0390794
521.836 .0390769
522.661 .0390743
523.485 .0390710
524.309 .0390670
525.132 .0390614
525.954 .0390532
526.776 .0390413
527.597 .0390247
528.417 .0390025
529.237 .0389743
530.056 .0389399
530.874 .0388996
531.692 .0388540
532.508 .0388037
533.325 .0387497
534.140 .0386933
534.955 .0386352
535.770 .0385758
536.583 .0385159
537.397 .0384555
538.209 .0383946
539.021 .0383337
539.832 .0382731
540.643 .0382133
541.453 .0381548
542.262 .0380979
543.071 .0380433
543.879 .0379916
544.687 .0379433
545.494 .0378986
546.300 .0378572
547.106 .0378187
547.911 .0377822
548.716 .0377469
549.520 .0377122
550.323 .0376776
551.126 .0376426
551.929 .0376074
552.731 .0375725
553.532 .0375383
554.332 .0375053
555.133 .0374744
555.932 .0374456
556.731 .0374186
557.530 .0373928
558.328 .0373675
559.125 .0373420
559.922 .0373160
560.719 .0372893
561.515 .0372618
562.310 .0372344
563.105 .0372073
563.899 .0371809
564.693 .0371557
565.487 .0371318
566.280 .0371091
567.072 .0370870
567.864 .0370649
568.655 .0370423
569.446 .0370187
570.236 .0369939
571.026 .0369677
571.816 .0369402
572.605 .0369115
573.393 .0368817
574.181 .0368512
574.969 .0368202
575.756 .0367889
576.543 .0367573
577.329 .0367256
578.115 .0366935
578.900 .0366609
579.685 .0366278
580.469 .0365942
581.253 .0365600
582.036 .0365254
582.820 .0364905
583.602 .0364557
584.384 .0364213
585.166 .0363876
585.947 .0363546
586.728 .0363227
587.509 .0362918
588.289 .0362618
589.069 .0362327
589.848 .0362042
590.627 .0361762
591.405 .0361487
592.183 .0361215
592.961 .0360944
593.738 .0360676
594.515 .0360411
595.291 .0360152
596.067 .0359898
596.843 .0359652
597.618 .0359415
598.393 .0359088
599.167 .0358869
599.941 .0358658
600.715 .0358452
601.488 .0358250
602.261 .0358051
603.034 .0357854
603.806 .0357659
604.578 .0357465
605.349 .0357273
606.121 .0357085
606.891 .0356999
607.662 .0356817
608.432 .0356639
609.201 .0356466
609.971 .0356297
610.740 .0356132
611.508 .0355969
612.277 .0355807
613.045 .0355646
613.812 .0355486
614.579 .0355325
615.346 .0355165
616.113 .0355007
616.879 .0354849
617.645 .0354694
618.411 .0354539
619.176 .0354385
619.941 .0354230
620.705 .0354074
621.470 .0353915
622.233 .0353754
622.997 .0353590
623.760 .0353423
624.523 .0353253
625.286 .0353081
626.048 .0352907
626.810 .0352732
627.572 .0352556
628.333 .0352378
629.095 .0352198
629.855 .0352017
630.616 .0351833
631.376 .0351648
632.136 .0351460
632.895 .0351269
633.655 .0351077
634.414 .0350882
635.172 .0350683
635.931 .0350482
636.689 .0350279
637.447 .0350073
638.204 .0349866
638.962 .0349659
639.718 .0349451
640.475 .0349243
641.231 .0349036
641.988 .0348829
642.743 .0348622
643.499 .0348416
644.254 .0348209
645.009 .0348003
645.764 .0347799
646.518 .0347597
647.272 .0347398
648.026 .0347203
648.780 .0347013
649.533 .0346828
650.286 .0346648
651.039 .0346471
651.792 .0346298
652.544 .0346129
653.296 .0345963
654.048 .0345800
654.799 .0345640
655.550 .0345482
656.301 .0345327
657.052 .0345174
657.802 .0345024
658.552 .0344877
659.302 .0344733
660.052 .0344590
660.801 .0344450
661.550 .0344313
662.299 .0344177
663.048 .0344044
663.796 .0343913
664.544 .0343783
665.292 .0343655
666.040 .0343528
666.787 .0343403
667.534 .0343280
668.281 .0343159
669.028 .0343041
669.774 .0342927
670.521 .0342816
671.266 .0342707
672.012 .0342601
672.758 .0342497
673.503 .0342395
674.248 .0342292
674.992 .0342187
675.737 .0342081
676.481 .0341971
677.225 .0341857
677.969 .0341740
678.712 .0341618
679.455 .0341492
680.199 .0341361
680.941 .0341226
681.684 .0341087
682.426 .0340944
683.168 .0340796
683.910 .0340644
684.652 .0340488
685.393 .0340327
686.134 .0340162
686.875 .0339995
687.616 .0339825
688.356 .0339655
689.097 .0339485
689.837 .0339315
690.576 .0339146
691.316 .0338979
692.055 .0338812
692.794 .0338648
693.533 .0338484
694.272 .0338322
695.010 .0338161
695.748 .0338001
696.486 .0337843
697.224 .0337685
697.962 .0337529
698.699 .0337373
699.436 .0337217
700.173 .0337061
700.909 .0336905
701.646 .0336747
702.382 .0336590
703.118 .0336432
703.853 .0336274
704.589 .0336115
705.324 .0335955
706.059 .0335795
706.794 .0335634
707.529 .0335473
708.263 .0335310
708.997 .0335147
709.731 .0334984
710.465 .0334821
711.198 .0334659
711.931 .0334499
712.664 .0334340
713.397 .0334182
714.130 .0334027
714.862 .0333872
715.594 .0333719
716.326 .0333566
717.058 .0333415
717.789 .0333264
718.520 .0333113
719.251 .0332963
719.982 .0332814
720.713 .0332665
721.443 .0332516
722.173 .0332367
722.903 .0332218
723.633 .0332069
724.362 .0331920
725.091 .0331771
725.820 .0331622
726.549 .0331473
727.278 .0331324
728.006 .0331176
728.734 .0331028
729.462 .0330879
730.190 .0330732
730.917 .0330584
731.644 .0330438
732.371 .0330294
733.098 .0330152
733.825 .0330013
734.551 .0329877
735.277 .0329744
736.003 .0329614
736.728 .0329486
737.454 .0329361
738.179 .0329238
738.904 .0329117
739.629 .0328997
740.353 .0328880
741.077 .0328763
741.801 .0328649
742.525 .0328535
743.249 .0328421
743.972 .0328307
744.695 .0328193
745.418 .0328076
746.141 .0327957
746.863 .0327836
747.585 .0327711
748.307 .0327583
749.029 .0327451
749.750 .0327315
750.472 .0327174
751.193 .0327029
751.913 .0326881
752.634 .0326729
753.354 .0326575
754.074 .0326419
754.794 .0326261
755.514 .0326102
756.233 .0325940
756.952 .0325777
757.671 .0325613
758.390 .0325449
759.108 .0325284
759.826 .0325120
760.544 .0324957
761.262 .0324797
761.979 .0324640
762.697 .0324486
763.414 .0324336
764.130 .0324188
764.847 .0324044
765.563 .0323902
766.279 .0323763
766.995 .0323627
767.710 .0323494
768.426 .0323363
769.141 .0323234
769.855 .0323106
770.570 .0322980
771.284 .0322854
771.998 .0322727
772.712 .0322601
773.426 .0322473
774.139 .0322346
774.852 .0322218
775.565 .0322089
776.277 .0321959
776.990 .0321828
777.702 .0321696
778.414 .0321562
779.125 .0321426
779.836 .0321290
780.547 .0321154
781.258 .0321018
781.969 .0320884
782.679 .0320752
783.389 .0320565
784.099 .0320442
784.808 .0320321
785.517 .0320204
786.226 .0320090
786.935 .0319980
787.643 .0319874
788.352 .0319771
789.060 .0319673
789.767 .0319578
790.475 .0319487
791.182 .0319399
791.889 .0319365
792.595 .0319278
793.301 .0319192
794.008 .0319106
794.713 .0319019
795.419 .0318931
796.124 .0318842
796.829 .0318750
797.534 .0318655
798.238 .0318557
798.942 .0318454
799.646 .0318348
800.350 .0318237
801.053 .0318122
801.756 .0318003
802.459 .0317881
803.162 .0317754
803.864 .0317625
804.566 .0317493
805.267 .0317360
805.969 .0317225
806.670 .0317089
807.371 .0316953
808.071 .0316817
808.772 .0316682
809.472 .0316549
810.171 .0316417
810.871 .0316287
811.570 .0316159
812.269 .0316032
812.967 .0315907
813.666 .0315784
814.364 .0315661
815.061 .0315539
815.759 .0315418
816.456 .0315296
817.153 .0315174
817.849 .0315050
818.545 .0314925
819.241 .0314798
819.937 .0314668
820.632 .0314536
821.327 .0314400
822.022 .0314261
822.717 .0314118
823.411 .0313971
824.105 .0313819
824.798 .0313663
825.491 .0313503
826.184 .0313339
826.877 .0313172
827.569 .0313002
828.261 .0312830
828.953 .0312658
829.645 .0312485
830.336 .0312311
831.027 .0312139
831.717 .0311968
832.407 .0311799
833.097 .0311632
833.787 .0311467
834.476 .0311304
835.165 .0311144
835.854 .0310987
836.542 .0310831
837.230 .0310677
837.918 .0310526
838.605 .0310376
839.292 .0310228
839.979 .0310082
840.665 .0309938
841.352 .0309794
842.037 .0309652
842.723 .0309509
843.408 .0309366
844.093 .0309222
844.777 .0309077
845.462 .0308932
846.145 .0308786
846.829 .0308639
847.512 .0308493
848.195 .0308347
848.878 .0308201
849.560 .0308054
850.242 .0307907
850.923 .0307758
851.605 .0307609
852.286 .0307458
852.966 .0307306
853.646 .0307152
854.326 .0306997
855.006 .0306840
855.685 .0306683
856.364 .0306525
857.043 .0306367
857.721 .0306207
858.399 .0306047
859.077 .0305886
859.754 .0305725
860.431 .0305565
861.107 .0305405
861.784 .0305246
862.459 .0305088
863.135 .0304930
863.810 .0304773
864.485 .0304617
865.160 .0304462
865.834 .0304308
866.508 .0304154
867.181 .0304002
867.854 .0303852
868.527 .0303704
869.199 .0303558
869.872 .0303415
870.543 .0303276
871.215 .0303138
871.886 .0303004
872.557 .0302872
873.227 .0302743
873.897 .0302617
874.567 .0302493
875.236 .0302373
875.905 .0302256
876.573 .0302143
877.242 .0302033
877.909 .0301926
878.577 .0301822
879.244 .0301721
879.911 .0301623
880.577 .0301527
881.243 .0301434
881.909 .0301343
882.575 .0301255
883.240 .0301169
883.904 .0301086
884.569 .0301004
885.232 .0300925
885.896 .0300848
886.559 .0300773
887.222 .0300700
887.885 .0300629
888.547 .0300559
889.208 .0300491
889.870 .0300424
890.531 .0300358
891.192 .0300292
891.852 .0300226
892.512 .0300159
893.171 .0300091
893.830 .0300021
894.489 .0299948
895.148 .0299873
895.806 .0299794
896.464 .0299712
897.121 .0299625
897.778 .0299535
898.434 .0299441
899.091 .0299281
899.747 .0299178
900.402 .0299071
901.057 .0298960
901.712 .0298847
902.366 .0298730
903.020 .0298611
903.674 .0298488
904.327 .0298364
904.980 .0298237
905.633 .0298107
906.285 .0297976
906.936 .0297843
907.588 .0297773
908.239 .0297636
908.889 .0297496
909.540 .0297354
910.190 .0297210
910.839 .0297063
911.488 .0296915
912.137 .0296764
912.785 .0296612
913.433 .0296457
914.081 .0296300
914.728 .0296141
915.375 .0295979
916.021 .0295814
916.668 .0295646
917.313 .0295475
917.959 .0295302
918.604 .0295126
919.248 .0294948
919.892 .0294767
920.536 .0294584
921.180 .0294396
921.823 .0294203
922.465 .0294006
923.108 .0293804
923.750 .0293596
924.391 .0293384
925.032 .0293168
925.673 .0292948
926.313 .0292725
926.953 .0292499
927.593 .0292270
928.232 .0292038
928.871 .0291803
929.510 .0291565
930.148 .0291324
930.786 .0291082
931.423 .0290838
932.060 .0290594
932.697 .0290350
933.333 .0290108
933.969 .0289867
934.604 .0289627
935.239 .0289388
935.874 .0289150
936.508 .0288911
937.142 .0288672
937.776 .0288433
938.409 .0288195
939.042 .0287959
939.674 .0287726
940.306 .0287496
940.938 .0287269
941.569 .0287046
942.200 .0286824
942.830 .0286605
943.460 .0286388
944.090 .0286171
944.720 .0285957
945.349 .0285745
945.977 .0285535
946.606 .0285328
947.233 .0285125
947.861 .0284925
948.488 .0284728
949.115 .0284533
949.741 .0284341
950.367 .0284149
950.993 .0283959
951.618 .0283769
952.243 .0283580
952.868 .0283391
953.492 .0283205
954.115 .0283020
954.739 .0282838
955.362 .0282659
955.984 .0282484
956.607 .0282312
957.229 .0282144
957.850 .0281980
958.471 .0281821
959.092 .0281665
959.713 .0281515
960.333 .0281370
960.952 .0281230
961.572 .0281097
962.191 .0280971
962.809 .0280852
963.428 .0280739
964.045 .0280634
964.663 .0280536
965.280 .0280444
965.897 .0280358
966.513 .0280278
967.129 .0280204
967.745 .0280136
968.361 .0280073
968.976 .0280017
969.590 .0279966
970.205 .0279922
970.818 .0279883
971.432 .0279850
972.045 .0279821
972.658 .0279797
973.271 .0279775
973.883 .0279756
974.495 .0279739
975.106 .0279724
975.717 .0279710
976.328 .0279698
976.938 .0279686
977.548 .0279675
978.158 .0279664
978.768 .0279642
979.377 .0279628
979.985 .0279613
980.594 .0279597
981.202 .0279578
981.809 .0279558
982.417 .0279537
983.024 .0279515
983.631 .0279492
984.237 .0279469
984.843 .0279446
985.449 .0279422
986.054 .0279398
986.659 .0279373
987.264 .0279359
987.868 .0279333
988.472 .0279307
989.076 .0279281
989.679 .0279254
990.282 .0279228
990.885 .0279202
991.487 .0279177
992.090 .0279153
992.691 .0279128
993.293 .0279104
993.894 .0279079
994.495 .0279054
995.095 .0279029
995.696 .0279002
996.296 .0278975
996.895 .0278947
997.494 .0278918
998.093 .0278888
998.692 .0278858
999.291 .0278826
999.889 .0278795
1000.487 .0278762
1001.084 .0278728
1001.681 .0278693
1002.278 .0278657
1002.875 .0278619
1003.471 .0278580
1004.067 .0278540
1004.663 .0278498
1005.258 .0278455
1005.854 .0278410
1006.449 .0278364
1007.043 .0278315
1007.638 .0278264
1008.232 .0278210
1008.826 .0278152
1009.419 .0278093
1010.012 .0278030
1010.605 .0277965
1011.198 .0277899
1011.791 .0277832
1012.383 .0277764
1012.975 .0277697
1013.566 .0277631
1014.158 .0277566
1014.749 .0277503
1015.340 .0277442
1015.931 .0277383
1016.521 .0277325
1017.111 .0277268
1017.701 .0277213
1018.291 .0277157
1018.880 .0277103
1019.470 .0277048
1020.059 .0276993
1020.647 .0276938
1021.236 .0276883
1021.824 .0276827
1022.412 .0276770
1023.000 .0276713
1023.588 .0276654
1024.175 .0276595
1024.762 .0276534
1025.349 .0276474
1025.936 .0276413
1026.523 .0276354
1027.109 .0276296
1027.695 .0276241
1028.281 .0276188
1028.867 .0276138
1029.452 .0276090
1030.038 .0276043
1030.623 .0275997
1031.208 .0275951
1031.792 .0275904
1032.377 .0275857
1032.961 .0275807
1033.546 .0275756
1034.130 .0275702
1034.714 .0275647
1035.297 .0275589
1035.881 .0275528
1036.464 .0275466
1037.047 .0275400
1037.630 .0275333
1038.213 .0275264
1038.796 .0275193
1039.378 .0275120
1039.961 .0275046
1040.543 .0274970
1041.125 .0274893
1041.707 .0274815
1042.289 .0274736
1042.871 .0274655
1043.452 .0274573
1044.034 .0274489
1044.615 .0274405
1045.196 .0274319
1045.777 .0274233
1046.358 .0274146
1046.939 .0274058
1047.520 .0273970
1048.101 .0273882
1048.681 .0273794
1049.262 .0273708
1049.842 .0273622
1050.422 .0273539
1051.002 .0273459
1051.582 .0273383
1052.162 .0273312
1052.742 .0273245
1053.322 .0273184
1053.902 .0273127
1054.482 .0273075
1055.061 .0273026
1055.641 .0272982
1056.220 .0272940
1056.800 .0272901
1057.379 .0272865
1057.958 .0272829
1058.538 .0272795
1059.117 .0272762
1059.696 .0272730
1060.275 .0272697
1060.854 .0272664
1061.433 .0272630
1062.012 .0272593
1062.592 .0272554
1063.171 .0272512
1063.750 .0272468
1064.329 .0272421
1064.908 .0272372
1065.487 .0272322
1066.066 .0272270
1066.645 .0272218
1067.224 .0272166
1067.803 .0272113
1068.382 .0272059
1068.961 .0272004
1069.540 .0271947
1070.119 .0271889
1070.698 .0271829
1071.278 .0271768
1071.857 .0271707
1072.436 .0271645
1073.016 .0271584
1073.595 .0271523
1074.175 .0271464
1074.754 .0271407
1075.334 .0271352
1075.913 .0271300
1076.493 .0271250
1077.073 .0271204
1077.653 .0271161
1078.233 .0271120
1078.813 .0271084
1079.393 .0271051
1079.974 .0271023
1080.554 .0271000
1081.135 .0270982
1081.716 .0270969
1082.296 .0270960
1082.877 .0270955
1083.458 .0270953
1084.040 .0270952
1084.621 .0270952
1085.202 .0270952
1085.784 .0270952
1086.366 .0270952
1086.948 .0270952
1087.530 .0270953
1088.112 .0270954
1088.695 .0270957
1089.277 .0270960
1089.860 .0270965
1090.443 .0270972
1091.026 .0270979
1091.610 .0270988
1092.193 .0270999
1092.777 .0271011
1093.361 .0271027
1093.946 .0271044
1094.530 .0271064
1095.115 .0271088
1095.700 .0271114
1096.285 .0271142
1096.871 .0271173
1097.456 .0271205
1098.042 .0271239
1098.628 .0271274
1099.215 .0271311
1099.802 .0271348
1100.389 .0271386
1100.976 .0271427
1101.564 .0271469
1102.152 .0271514
1102.740 .0271563
1103.329 .0271617
1103.917 .0271674
1104.507 .0271736
1105.096 .0271802
1105.686 .0271872
1106.276 .0271946
1106.867 .0272026
1107.457 .0272111
1108.049 .0272203
1108.640 .0272303
1109.232 .0272412
1109.825 .0272529
1110.417 .0272656
1111.010 .0272792
1111.604 .0272935
1112.198 .0273085
1112.792 .0273240
1113.387 .0273400
1113.982 .0273562
1114.577 .0273727
1115.173 .0273894
1115.769 .0274061
1116.366 .0274230
1116.963 .0274398
1117.561 .0274565
1118.159 .0274731
1118.758 .0274897
1119.357 .0275063
1119.957 .0275231
1120.557 .0275404
1121.157 .0275585
1121.758 .0275776
1122.360 .0275979
1122.962 .0276195
1123.564 .0276424
1124.167 .0276532
1124.771 .0276776
1125.375 .0277030
1125.980 .0277294
1126.585 .0277569
1127.191 .0277853
1127.797 .0278149
1128.404 .0278456
1129.012 .0278775
1129.620 .0279105
1130.229 .0279445
1130.838 .0279791
1131.448 .0280141
1132.058 .0280494
1132.669 .0280997
1133.281 .0281362
1133.894 .0281731
1134.507 .0282109
1135.120 .0282510
1135.735 .0282877
1136.350 .0283286
1136.965 .0284430
1137.582 .0285006
1138.199 .0285495
1138.816 .0285872
1139.435 .0286185
1140.054 .0286428
1140.674 .0286599
1141.294 .0286788
1141.916 .0286980
1142.538 .0287299
1143.160 .0287981
1143.784 .0287126
1144.408 .0288365
1145.033 .0288372
