Measurement Sequence started on: 14-45-04-498
Integration time: 36
Scans to Average: 2 
>>>>>Begin Spectral Data<<<<<
433.946 .0617374
434.870 .0466594
435.793 .0469804
436.715 .0471270
437.635 .0446008
438.555 .0453292
439.473 .0442467
440.389 .0436997
441.305 .0431928
442.219 .0427427
443.132 .0430831
444.044 .0427538
444.954 .0423999
445.863 .0420312
446.771 .0417890
447.678 .0415036
448.584 .0412712
449.488 .0410643
450.391 .0408813
451.293 .0407198
452.194 .0405738
453.094 .0404417
453.992 .0403196
454.890 .0402061
455.786 .0400997
456.681 .0400005
457.575 .0399071
458.468 .0398207
459.360 .0397399
460.250 .0396645
461.140 .0395933
462.028 .0395251
462.915 .0394590
463.801 .0393943
464.687 .0393298
465.571 .0392653
466.454 .0392009
467.335 .0391372
468.216 .0390749
469.096 .0390147
469.975 .0389572
470.853 .0389028
471.729 .0388514
472.605 .0388031
473.479 .0387571
474.353 .0387139
475.226 .0386736
476.097 .0386366
476.968 .0386038
477.838 .0385757
478.706 .0385529
479.574 .0385352
480.441 .0385220
481.306 .0385120
482.171 .0385032
483.035 .0384939
483.898 .0384820
484.760 .0384663
485.621 .0384459
486.481 .0384204
487.340 .0383904
488.198 .0383565
489.055 .0383193
489.912 .0382792
490.767 .0382364
491.622 .0381592
492.476 .0381087
493.329 .0380539
494.180 .0379943
495.032 .0379299
495.882 .0378613
496.731 .0377891
497.580 .0377142
498.427 .0376379
499.274 .0375609
500.120 .0375223
500.965 .0374455
501.809 .0373695
502.653 .0372944
503.495 .0372203
504.337 .0371469
505.178 .0370737
506.018 .0370004
506.858 .0369259
507.696 .0368504
508.534 .0367733
509.371 .0366944
510.208 .0366140
511.043 .0365320
511.878 .0364482
512.712 .0363627
513.545 .0362754
514.377 .0361854
515.209 .0360921
516.040 .0359953
516.870 .0358943
517.699 .0357890
518.528 .0356796
519.356 .0355663
520.183 .0354501
521.010 .0353322
521.836 .0352132
522.661 .0350949
523.485 .0349784
524.309 .0348656
525.132 .0347573
525.954 .0346551
526.776 .0345601
527.597 .0344728
528.417 .0343939
529.237 .0343235
530.056 .0342606
530.874 .0342051
531.692 .0341563
532.508 .0341140
533.325 .0340780
534.140 .0340491
534.955 .0340269
535.770 .0340119
536.583 .0340043
537.397 .0340034
538.209 .0340081
539.021 .0340179
539.832 .0340312
540.643 .0340467
541.453 .0340632
542.262 .0340799
543.071 .0340961
543.879 .0341115
544.687 .0341257
545.494 .0341385
546.300 .0341499
547.106 .0341605
547.911 .0341700
548.716 .0341790
549.520 .0341878
550.323 .0341966
551.126 .0342050
551.929 .0342136
552.731 .0342223
553.532 .0342307
554.332 .0342387
555.133 .0342467
555.932 .0342542
556.731 .0342613
557.530 .0342678
558.328 .0342735
559.125 .0342777
559.922 .0342802
560.719 .0342802
561.515 .0342777
562.310 .0342728
563.105 .0342655
563.899 .0342561
564.693 .0342452
565.487 .0342331
566.280 .0342202
567.072 .0342067
567.864 .0341923
568.655 .0341764
569.446 .0341585
570.236 .0341383
571.026 .0341155
571.816 .0340900
572.605 .0340620
573.393 .0340318
574.181 .0339997
574.969 .0339662
575.756 .0339317
576.543 .0338964
577.329 .0338608
578.115 .0338247
578.900 .0337882
579.685 .0337511
580.469 .0337135
581.253 .0336753
582.036 .0336370
582.820 .0335986
583.602 .0335604
584.384 .0335228
585.166 .0334864
585.947 .0334513
586.728 .0334176
587.509 .0333853
588.289 .0333543
589.069 .0333243
589.848 .0332952
590.627 .0332667
591.405 .0332388
592.183 .0332114
592.961 .0331843
593.738 .0331577
594.515 .0331316
595.291 .0331058
596.067 .0330806
596.843 .0330560
597.618 .0330321
598.393 .0329985
599.167 .0329759
599.941 .0329539
600.715 .0329322
601.488 .0329108
602.261 .0328895
603.034 .0328682
603.806 .0328467
604.578 .0328250
605.349 .0328030
606.121 .0327808
606.891 .0327692
607.662 .0327470
608.432 .0327247
609.201 .0327027
609.971 .0326807
610.740 .0326590
611.508 .0326375
612.277 .0326162
613.045 .0325953
613.812 .0325748
614.579 .0325547
615.346 .0325348
616.113 .0325152
616.879 .0324957
617.645 .0324762
618.411 .0324567
619.176 .0324371
619.941 .0324174
620.705 .0323975
621.470 .0323776
622.233 .0323576
622.997 .0323375
623.760 .0323173
624.523 .0322971
625.286 .0322767
626.048 .0322561
626.810 .0322354
627.572 .0322145
628.333 .0321936
629.095 .0321728
629.855 .0321521
630.616 .0321316
631.376 .0321113
632.136 .0320913
632.895 .0320716
633.655 .0320523
634.414 .0320333
635.172 .0320147
635.931 .0319966
636.689 .0319791
637.447 .0319621
638.204 .0319458
638.962 .0319303
639.718 .0319155
640.475 .0319015
641.231 .0318882
641.988 .0318756
642.743 .0318637
643.499 .0318525
644.254 .0318419
645.009 .0318318
645.764 .0318220
646.518 .0318125
647.272 .0318030
648.026 .0317935
648.780 .0317838
649.533 .0317739
650.286 .0317638
651.039 .0317535
651.792 .0317430
652.544 .0317323
653.296 .0317216
654.048 .0317107
654.799 .0316996
655.550 .0316882
656.301 .0316765
657.052 .0316644
657.802 .0316519
658.552 .0316389
659.302 .0316255
660.052 .0316118
660.801 .0315977
661.550 .0315835
662.299 .0315689
663.048 .0315541
663.796 .0315389
664.544 .0315234
665.292 .0315076
666.040 .0314914
666.787 .0314750
667.534 .0314584
668.281 .0314417
669.028 .0314250
669.774 .0314083
670.521 .0313919
671.266 .0313757
672.012 .0313598
672.758 .0313444
673.503 .0313294
674.248 .0313149
674.992 .0313010
675.737 .0312876
676.481 .0312749
677.225 .0312626
677.969 .0312507
678.712 .0312392
679.455 .0312280
680.199 .0312170
680.941 .0312063
681.684 .0311958
682.426 .0311855
683.168 .0311754
683.910 .0311654
684.652 .0311555
685.393 .0311456
686.134 .0311357
686.875 .0311255
687.616 .0311152
688.356 .0311046
689.097 .0310937
689.837 .0310825
690.576 .0310710
691.316 .0310592
692.055 .0310470
692.794 .0310344
693.533 .0310214
694.272 .0310082
695.010 .0309946
695.748 .0309808
696.486 .0309668
697.224 .0309527
697.962 .0309385
698.699 .0309241
699.436 .0309098
700.173 .0308953
700.909 .0308810
701.646 .0308667
702.382 .0308525
703.118 .0308385
703.853 .0308248
704.589 .0308114
705.324 .0307982
706.059 .0307852
706.794 .0307724
707.529 .0307598
708.263 .0307472
708.997 .0307347
709.731 .0307222
710.465 .0307096
711.198 .0306971
711.931 .0306845
712.664 .0306720
713.397 .0306595
714.130 .0306470
714.862 .0306345
715.594 .0306220
716.326 .0306094
717.058 .0305967
717.789 .0305839
718.520 .0305710
719.251 .0305579
719.982 .0305448
720.713 .0305315
721.443 .0305181
722.173 .0305048
722.903 .0304915
723.633 .0304783
724.362 .0304651
725.091 .0304521
725.820 .0304391
726.549 .0304262
727.278 .0304133
728.006 .0304004
728.734 .0303875
729.462 .0303747
730.190 .0303621
730.917 .0303496
731.644 .0303376
732.371 .0303260
733.098 .0303149
733.825 .0303044
734.551 .0302944
735.277 .0302848
736.003 .0302757
736.728 .0302670
737.454 .0302586
738.179 .0302503
738.904 .0302422
739.629 .0302342
740.353 .0302262
741.077 .0302184
741.801 .0302107
742.525 .0302030
743.249 .0301954
743.972 .0301877
744.695 .0301801
745.418 .0301724
746.141 .0301646
746.863 .0301567
747.585 .0301485
748.307 .0301400
749.029 .0301312
749.750 .0301221
750.472 .0301127
751.193 .0301029
751.913 .0300930
752.634 .0300829
753.354 .0300726
754.074 .0300622
754.794 .0300518
755.514 .0300414
756.233 .0300309
756.952 .0300204
757.671 .0300099
758.390 .0299993
759.108 .0299888
759.826 .0299783
760.544 .0299680
761.262 .0299578
761.979 .0299478
762.697 .0299381
763.414 .0299287
764.130 .0299196
764.847 .0299109
765.563 .0299025
766.279 .0298945
766.995 .0298867
767.710 .0298792
768.426 .0298721
769.141 .0298652
769.855 .0298586
770.570 .0298524
771.284 .0298465
771.998 .0298409
772.712 .0298357
773.426 .0298308
774.139 .0298261
774.852 .0298215
775.565 .0298171
776.277 .0298127
776.990 .0298083
777.702 .0298038
778.414 .0297991
779.125 .0297943
779.836 .0297892
780.547 .0297840
781.258 .0297784
781.969 .0297724
782.679 .0297661
783.389 .0297549
784.099 .0297475
784.808 .0297396
785.517 .0297313
786.226 .0297226
786.935 .0297134
787.643 .0297037
788.352 .0296936
789.060 .0296831
789.767 .0296723
790.475 .0296612
791.182 .0296499
791.889 .0296439
792.595 .0296324
793.301 .0296209
794.008 .0296093
794.713 .0295977
795.419 .0295860
796.124 .0295744
796.829 .0295628
797.534 .0295514
798.238 .0295402
798.942 .0295292
799.646 .0295185
800.350 .0295082
801.053 .0294982
801.756 .0294887
802.459 .0294794
803.162 .0294705
803.864 .0294619
804.566 .0294537
805.267 .0294458
805.969 .0294383
806.670 .0294311
807.371 .0294242
808.071 .0294176
808.772 .0294113
809.472 .0294053
810.171 .0293996
810.871 .0293942
811.570 .0293892
812.269 .0293845
812.967 .0293801
813.666 .0293759
814.364 .0293720
815.061 .0293681
815.759 .0293643
816.456 .0293606
817.153 .0293567
817.849 .0293529
818.545 .0293489
819.241 .0293449
819.937 .0293408
820.632 .0293365
821.327 .0293318
822.022 .0293267
822.717 .0293210
823.411 .0293147
824.105 .0293077
824.798 .0292999
825.491 .0292914
826.184 .0292823
826.877 .0292724
827.569 .0292619
828.261 .0292507
828.953 .0292388
829.645 .0292262
830.336 .0292130
831.027 .0291991
831.717 .0291846
832.407 .0291696
833.097 .0291543
833.787 .0291387
834.476 .0291229
835.165 .0291070
835.854 .0290910
836.542 .0290750
837.230 .0290591
837.918 .0290433
838.605 .0290278
839.292 .0290125
839.979 .0289975
840.665 .0289829
841.352 .0289686
842.037 .0289548
842.723 .0289412
843.408 .0289280
844.093 .0289149
844.777 .0289021
845.462 .0288894
846.145 .0288769
846.829 .0288645
847.512 .0288524
848.195 .0288405
848.878 .0288288
849.560 .0288173
850.242 .0288059
850.923 .0287946
851.605 .0287834
852.286 .0287721
852.966 .0287608
853.646 .0287495
854.326 .0287382
855.006 .0287270
855.685 .0287158
856.364 .0287047
857.043 .0286938
857.721 .0286830
858.399 .0286725
859.077 .0286623
859.754 .0286525
860.431 .0286430
861.107 .0286339
861.784 .0286253
862.459 .0286170
863.135 .0286092
863.810 .0286017
864.485 .0285945
865.160 .0285876
865.834 .0285809
866.508 .0285745
867.181 .0285683
867.854 .0285623
868.527 .0285565
869.199 .0285509
869.872 .0285455
870.543 .0285402
871.215 .0285351
871.886 .0285301
872.557 .0285250
873.227 .0285200
873.897 .0285149
874.567 .0285097
875.236 .0285045
875.905 .0284993
876.573 .0284939
877.242 .0284884
877.909 .0284829
878.577 .0284771
879.244 .0284712
879.911 .0284650
880.577 .0284587
881.243 .0284521
881.909 .0284453
882.575 .0284382
883.240 .0284308
883.904 .0284231
884.569 .0284150
885.232 .0284065
885.896 .0283976
886.559 .0283882
887.222 .0283784
887.885 .0283683
888.547 .0283579
889.208 .0283473
889.870 .0283364
890.531 .0283253
891.192 .0283138
891.852 .0283019
892.512 .0282897
893.171 .0282769
893.830 .0282636
894.489 .0282497
895.148 .0282353
895.806 .0282205
896.464 .0282054
897.121 .0281898
897.778 .0281739
898.434 .0281577
899.091 .0281319
899.747 .0281149
900.402 .0280976
901.057 .0280801
901.712 .0280624
902.366 .0280447
903.020 .0280268
903.674 .0280089
904.327 .0279910
904.980 .0279732
905.633 .0279553
906.285 .0279375
906.936 .0279198
907.588 .0279118
908.239 .0278946
908.889 .0278777
909.540 .0278613
910.190 .0278454
910.839 .0278301
911.488 .0278155
912.137 .0278014
912.785 .0277880
913.433 .0277752
914.081 .0277630
914.728 .0277513
915.375 .0277401
916.021 .0277295
916.668 .0277195
917.313 .0277100
917.959 .0277011
918.604 .0276927
919.248 .0276847
919.892 .0276772
920.536 .0276699
921.180 .0276629
921.823 .0276560
922.465 .0276493
923.108 .0276427
923.750 .0276362
924.391 .0276297
925.032 .0276232
925.673 .0276168
926.313 .0276102
926.953 .0276036
927.593 .0275967
928.232 .0275897
928.871 .0275823
929.510 .0275748
930.148 .0275669
930.786 .0275587
931.423 .0275502
932.060 .0275415
932.697 .0275325
933.333 .0275233
933.969 .0275139
934.604 .0275042
935.239 .0274943
935.874 .0274842
936.508 .0274737
937.142 .0274630
937.776 .0274520
938.409 .0274407
939.042 .0274292
939.674 .0274173
940.306 .0274050
940.938 .0273923
941.569 .0273792
942.200 .0273657
942.830 .0273518
943.460 .0273374
944.090 .0273227
944.720 .0273076
945.349 .0272922
945.977 .0272765
946.606 .0272605
947.233 .0272441
947.861 .0272274
948.488 .0272104
949.115 .0271930
949.741 .0271754
950.367 .0271576
950.993 .0271394
951.618 .0271211
952.243 .0271026
952.868 .0270838
953.492 .0270647
954.115 .0270454
954.739 .0270258
955.362 .0270059
955.984 .0269857
956.607 .0269655
957.229 .0269452
957.850 .0269249
958.471 .0269048
959.092 .0268849
959.713 .0268652
960.333 .0268458
960.952 .0268265
961.572 .0268074
962.191 .0267886
962.809 .0267699
963.428 .0267515
964.045 .0267333
964.663 .0267155
965.280 .0266980
965.897 .0266808
966.513 .0266638
967.129 .0266469
967.745 .0266301
968.361 .0266133
968.976 .0265966
969.590 .0265800
970.205 .0265635
970.818 .0265472
971.432 .0265312
972.045 .0265156
972.658 .0265004
973.271 .0264855
973.883 .0264710
974.495 .0264567
975.106 .0264426
975.717 .0264287
976.328 .0264151
976.938 .0264017
977.548 .0263887
978.158 .0263760
978.768 .0263591
979.377 .0263480
979.985 .0263375
980.594 .0263275
981.202 .0263180
981.809 .0263091
982.417 .0263007
983.024 .0262929
983.631 .0262858
984.237 .0262795
984.843 .0262739
985.449 .0262692
986.054 .0262654
986.659 .0262624
987.264 .0262632
987.868 .0262611
988.472 .0262595
989.076 .0262584
989.679 .0262577
990.282 .0262575
990.885 .0262578
991.487 .0262586
992.090 .0262601
992.691 .0262622
993.293 .0262649
993.894 .0262681
994.495 .0262717
995.095 .0262756
995.696 .0262798
996.296 .0262842
996.895 .0262887
997.494 .0262935
998.093 .0262986
998.692 .0263040
999.291 .0263097
999.889 .0263157
1000.487 .0263220
1001.084 .0263285
1001.681 .0263352
1002.278 .0263419
1002.875 .0263487
1003.471 .0263556
1004.067 .0263626
1004.663 .0263699
1005.258 .0263774
1005.854 .0263852
1006.449 .0263933
1007.043 .0264015
1007.638 .0264098
1008.232 .0264181
1008.826 .0264262
1009.419 .0264341
1010.012 .0264418
1010.605 .0264491
1011.198 .0264560
1011.791 .0264625
1012.383 .0264685
1012.975 .0264739
1013.566 .0264787
1014.158 .0264829
1014.749 .0264862
1015.340 .0264888
1015.931 .0264905
1016.521 .0264915
1017.111 .0264919
1017.701 .0264917
1018.291 .0264910
1018.880 .0264899
1019.470 .0264884
1020.059 .0264865
1020.647 .0264842
1021.236 .0264815
1021.824 .0264783
1022.412 .0264746
1023.000 .0264705
1023.588 .0264661
1024.175 .0264613
1024.762 .0264564
1025.349 .0264513
1025.936 .0264460
1026.523 .0264405
1027.109 .0264349
1027.695 .0264290
1028.281 .0264230
1028.867 .0264168
1029.452 .0264105
1030.038 .0264042
1030.623 .0263980
1031.208 .0263918
1031.792 .0263859
1032.377 .0263802
1032.961 .0263745
1033.546 .0263690
1034.130 .0263635
1034.714 .0263580
1035.297 .0263523
1035.881 .0263466
1036.464 .0263408
1037.047 .0263348
1037.630 .0263285
1038.213 .0263220
1038.796 .0263153
1039.378 .0263082
1039.961 .0263007
1040.543 .0262928
1041.125 .0262845
1041.707 .0262758
1042.289 .0262667
1042.871 .0262575
1043.452 .0262482
1044.034 .0262388
1044.615 .0262296
1045.196 .0262206
1045.777 .0262117
1046.358 .0262031
1046.939 .0261947
1047.520 .0261866
1048.101 .0261786
1048.681 .0261709
1049.262 .0261635
1049.842 .0261564
1050.422 .0261496
1051.002 .0261432
1051.582 .0261370
1052.162 .0261311
1052.742 .0261254
1053.322 .0261199
1053.902 .0261146
1054.482 .0261094
1055.061 .0261046
1055.641 .0261001
1056.220 .0260960
1056.800 .0260923
1057.379 .0260890
1057.958 .0260862
1058.538 .0260838
1059.117 .0260818
1059.696 .0260802
1060.275 .0260789
1060.854 .0260779
1061.433 .0260773
1062.012 .0260771
1062.592 .0260772
1063.171 .0260774
1063.750 .0260778
1064.329 .0260780
1064.908 .0260781
1065.487 .0260780
1066.066 .0260776
1066.645 .0260770
1067.224 .0260762
1067.803 .0260754
1068.382 .0260746
1068.961 .0260737
1069.540 .0260730
1070.119 .0260722
1070.698 .0260714
1071.278 .0260704
1071.857 .0260693
1072.436 .0260681
1073.016 .0260668
1073.595 .0260655
1074.175 .0260641
1074.754 .0260626
1075.334 .0260611
1075.913 .0260594
1076.493 .0260576
1077.073 .0260555
1077.653 .0260531
1078.233 .0260505
1078.813 .0260476
1079.393 .0260446
1079.974 .0260417
1080.554 .0260392
1081.135 .0260370
1081.716 .0260355
1082.296 .0260345
1082.877 .0260341
1083.458 .0260343
1084.040 .0260350
1084.621 .0260363
1085.202 .0260382
1085.784 .0260408
1086.366 .0260441
1086.948 .0260480
1087.530 .0260527
1088.112 .0260579
1088.695 .0260636
1089.277 .0260695
1089.860 .0260753
1090.443 .0260810
1091.026 .0260863
1091.610 .0260914
1092.193 .0260961
1092.777 .0261006
1093.361 .0261050
1093.946 .0261095
1094.530 .0261140
1095.115 .0261185
1095.700 .0261230
1096.285 .0261274
1096.871 .0261316
1097.456 .0261355
1098.042 .0261391
1098.628 .0261425
1099.215 .0261457
1099.802 .0261488
1100.389 .0261519
1100.976 .0261550
1101.564 .0261580
1102.152 .0261608
1102.740 .0261631
1103.329 .0261648
1103.917 .0261656
1104.507 .0261657
1105.096 .0261649
1105.686 .0261636
1106.276 .0261620
1106.867 .0261607
1107.457 .0261599
1108.049 .0261600
1108.640 .0261613
1109.232 .0261637
1109.825 .0261673
1110.417 .0261715
1111.010 .0261761
1111.604 .0261807
1112.198 .0261852
1112.792 .0261893
1113.387 .0261933
1113.982 .0261972
1114.577 .0262013
1115.173 .0262058
1115.769 .0262108
1116.366 .0262163
1116.963 .0262220
1117.561 .0262276
1118.159 .0262326
1118.758 .0262369
1119.357 .0262401
1119.957 .0262423
1120.557 .0262441
1121.157 .0262461
1121.758 .0262489
1122.360 .0262533
1122.962 .0262595
1123.564 .0262676
1124.167 .0262712
1124.771 .0262810
1125.375 .0262917
1125.980 .0263027
1126.585 .0263138
1127.191 .0263248
1127.797 .0263359
1128.404 .0263477
1129.012 .0263608
1129.620 .0263759
1130.229 .0263935
1130.838 .0264134
1131.448 .0264356
1132.058 .0264602
1132.669 .0264945
1133.281 .0265233
1133.894 .0265544
1134.507 .0265829
1135.120 .0266228
1135.735 .0266676
1136.350 .0267107
1136.965 .0266364
1137.582 .0266843
1138.199 .0267466
1138.816 .0268060
1139.435 .0268672
1140.054 .0269342
1140.674 .0270033
1141.294 .0270702
1141.916 .0271492
1142.538 .0270860
1143.160 .0273922
1143.784 .0275153
1144.408 .0274486
1145.033 .0277499
