Measurement Sequence started on: 14-45-04-498
Integration time: 36
Scans to Average: 2 
>>>>>Begin Spectral Data<<<<<
433.946 .0611804
434.870 .0504298
435.793 .0433040
436.715 .0423999
437.635 .0417942
438.555 .0421133
439.473 .0408121
440.389 .0401083
441.305 .0397433
442.219 .0394783
443.132 .0405415
444.044 .0399168
444.954 .0396620
445.863 .0394498
446.771 .0392642
447.678 .0390570
448.584 .0389135
449.488 .0388025
450.391 .0387057
451.293 .0386182
452.194 .0385359
453.094 .0384554
453.992 .0383745
454.890 .0382928
455.786 .0382110
456.681 .0381303
457.575 .0380514
458.468 .0379758
459.360 .0379035
460.250 .0378354
461.140 .0377709
462.028 .0377100
462.915 .0376524
463.801 .0375981
464.687 .0375470
465.571 .0374991
466.454 .0374540
467.335 .0374122
468.216 .0373731
469.096 .0373365
469.975 .0373018
470.853 .0372686
471.729 .0372368
472.605 .0372061
473.479 .0371764
474.353 .0371478
475.226 .0371199
476.097 .0370932
476.968 .0370670
477.838 .0370412
478.706 .0370154
479.574 .0369895
480.441 .0369634
481.306 .0369371
482.171 .0369104
483.035 .0368836
483.898 .0368564
484.760 .0368289
485.621 .0368006
486.481 .0367714
487.340 .0367407
488.198 .0367081
489.055 .0366735
489.912 .0366367
490.767 .0365976
491.622 .0365331
492.476 .0364910
493.329 .0364479
494.180 .0364041
495.032 .0363598
495.882 .0363149
496.731 .0362696
497.580 .0362241
498.427 .0361782
499.274 .0361321
500.120 .0361102
500.965 .0360647
501.809 .0360194
502.653 .0359750
503.495 .0359314
504.337 .0358892
505.178 .0358483
506.018 .0358090
506.858 .0357709
507.696 .0357344
508.534 .0356991
509.371 .0356650
510.208 .0356321
511.043 .0356007
511.878 .0355709
512.712 .0355436
513.545 .0355190
514.377 .0354972
515.209 .0354782
516.040 .0354618
516.870 .0354473
517.699 .0354340
518.528 .0354212
519.356 .0354082
520.183 .0353946
521.010 .0353802
521.836 .0353646
522.661 .0353478
523.485 .0353303
524.309 .0353118
525.132 .0352922
525.954 .0352708
526.776 .0352474
527.597 .0352212
528.417 .0351915
529.237 .0351577
530.056 .0351194
530.874 .0350765
531.692 .0350295
532.508 .0349788
533.325 .0349257
534.140 .0348711
534.955 .0348162
535.770 .0347617
536.583 .0347084
537.397 .0346562
538.209 .0346050
539.021 .0345548
539.832 .0345052
540.643 .0344562
541.453 .0344074
542.262 .0343590
543.071 .0343112
543.879 .0342643
544.687 .0342183
545.494 .0341736
546.300 .0341303
547.106 .0340879
547.911 .0340459
548.716 .0340037
549.520 .0339607
550.323 .0339164
551.126 .0338703
551.929 .0338222
552.731 .0337722
553.532 .0337206
554.332 .0336678
555.133 .0336144
555.932 .0335610
556.731 .0335081
557.530 .0334555
558.328 .0334034
559.125 .0333519
559.922 .0333009
560.719 .0332504
561.515 .0332005
562.310 .0331513
563.105 .0331031
563.899 .0330564
564.693 .0330112
565.487 .0329678
566.280 .0329264
567.072 .0328866
567.864 .0328483
568.655 .0328111
569.446 .0327748
570.236 .0327388
571.026 .0327032
571.816 .0326677
572.605 .0326320
573.393 .0325963
574.181 .0325606
574.969 .0325250
575.756 .0324897
576.543 .0324549
577.329 .0324207
578.115 .0323874
578.900 .0323551
579.685 .0323238
580.469 .0322934
581.253 .0322637
582.036 .0322347
582.820 .0322062
583.602 .0321782
584.384 .0321506
585.166 .0321235
585.947 .0320970
586.728 .0320711
587.509 .0320456
588.289 .0320207
589.069 .0319961
589.848 .0319716
590.627 .0319470
591.405 .0319221
592.183 .0318969
592.961 .0318712
593.738 .0318451
594.515 .0318186
595.291 .0317917
596.067 .0317646
596.843 .0317373
597.618 .0317101
598.393 .0316702
599.167 .0316438
599.941 .0316177
600.715 .0315921
601.488 .0315669
602.261 .0315423
603.034 .0315181
603.806 .0314946
604.578 .0314715
605.349 .0314491
606.121 .0314272
606.891 .0314180
607.662 .0313971
608.432 .0313769
609.201 .0313573
609.971 .0313384
610.740 .0313201
611.508 .0313025
612.277 .0312853
613.045 .0312686
613.812 .0312524
614.579 .0312365
615.346 .0312210
616.113 .0312057
616.879 .0311907
617.645 .0311759
618.411 .0311613
619.176 .0311469
619.941 .0311324
620.705 .0311180
621.470 .0311035
622.233 .0310888
622.997 .0310738
623.760 .0310586
624.523 .0310430
625.286 .0310270
626.048 .0310106
626.810 .0309937
627.572 .0309764
628.333 .0309585
629.095 .0309399
629.855 .0309206
630.616 .0309004
631.376 .0308794
632.136 .0308575
632.895 .0308346
633.655 .0308107
634.414 .0307858
635.172 .0307598
635.931 .0307328
636.689 .0307047
637.447 .0306755
638.204 .0306454
638.962 .0306144
639.718 .0305826
640.475 .0305503
641.231 .0305174
641.988 .0304843
642.743 .0304510
643.499 .0304177
644.254 .0303845
645.009 .0303516
645.764 .0303192
646.518 .0302873
647.272 .0302562
648.026 .0302261
648.780 .0301971
649.533 .0301693
650.286 .0301428
651.039 .0301178
651.792 .0300941
652.544 .0300718
653.296 .0300509
654.048 .0300314
654.799 .0300133
655.550 .0299965
656.301 .0299809
657.052 .0299664
657.802 .0299529
658.552 .0299404
659.302 .0299287
660.052 .0299177
660.801 .0299074
661.550 .0298976
662.299 .0298882
663.048 .0298793
663.796 .0298706
664.544 .0298622
665.292 .0298538
666.040 .0298455
666.787 .0298372
667.534 .0298288
668.281 .0298203
669.028 .0298118
669.774 .0298032
670.521 .0297946
671.266 .0297860
672.012 .0297774
672.758 .0297688
673.503 .0297603
674.248 .0297518
674.992 .0297433
675.737 .0297349
676.481 .0297265
677.225 .0297181
677.969 .0297096
678.712 .0297010
679.455 .0296922
680.199 .0296833
680.941 .0296742
681.684 .0296650
682.426 .0296555
683.168 .0296459
683.910 .0296359
684.652 .0296257
685.393 .0296151
686.134 .0296040
686.875 .0295924
687.616 .0295804
688.356 .0295679
689.097 .0295549
689.837 .0295415
690.576 .0295278
691.316 .0295137
692.055 .0294994
692.794 .0294847
693.533 .0294699
694.272 .0294547
695.010 .0294393
695.748 .0294236
696.486 .0294076
697.224 .0293915
697.962 .0293753
698.699 .0293590
699.436 .0293426
700.173 .0293263
700.909 .0293100
701.646 .0292939
702.382 .0292778
703.118 .0292619
703.853 .0292462
704.589 .0292307
705.324 .0292154
706.059 .0292003
706.794 .0291854
707.529 .0291706
708.263 .0291561
708.997 .0291416
709.731 .0291274
710.465 .0291132
711.198 .0290993
711.931 .0290856
712.664 .0290721
713.397 .0290588
714.130 .0290456
714.862 .0290326
715.594 .0290197
716.326 .0290068
717.058 .0289939
717.789 .0289810
718.520 .0289682
719.251 .0289556
719.982 .0289432
720.713 .0289312
721.443 .0289196
722.173 .0289086
722.903 .0288982
723.633 .0288883
724.362 .0288792
725.091 .0288708
725.820 .0288631
726.549 .0288560
727.278 .0288497
728.006 .0288440
728.734 .0288389
729.462 .0288345
730.190 .0288306
730.917 .0288272
731.644 .0288244
732.371 .0288220
733.098 .0288200
733.825 .0288185
734.551 .0288172
735.277 .0288162
736.003 .0288154
736.728 .0288146
737.454 .0288140
738.179 .0288133
738.904 .0288125
739.629 .0288116
740.353 .0288106
741.077 .0288093
741.801 .0288078
742.525 .0288060
743.249 .0288038
743.972 .0288012
744.695 .0287983
745.418 .0287950
746.141 .0287914
746.863 .0287876
747.585 .0287834
748.307 .0287789
749.029 .0287740
749.750 .0287688
750.472 .0287632
751.193 .0287572
751.913 .0287508
752.634 .0287440
753.354 .0287369
754.074 .0287294
754.794 .0287216
755.514 .0287134
756.233 .0287049
756.952 .0286959
757.671 .0286866
758.390 .0286770
759.108 .0286670
759.826 .0286567
760.544 .0286462
761.262 .0286356
761.979 .0286247
762.697 .0286138
763.414 .0286027
764.130 .0285914
764.847 .0285801
765.563 .0285689
766.279 .0285577
766.995 .0285467
767.710 .0285359
768.426 .0285254
769.141 .0285153
769.855 .0285053
770.570 .0284956
771.284 .0284860
771.998 .0284765
772.712 .0284670
773.426 .0284575
774.139 .0284480
774.852 .0284385
775.565 .0284291
776.277 .0284197
776.990 .0284105
777.702 .0284013
778.414 .0283920
779.125 .0283828
779.836 .0283735
780.547 .0283641
781.258 .0283545
781.969 .0283449
782.679 .0283352
783.389 .0283202
784.099 .0283104
784.808 .0283004
785.517 .0282904
786.226 .0282803
786.935 .0282702
787.643 .0282602
788.352 .0282502
789.060 .0282405
789.767 .0282310
790.475 .0282218
791.182 .0282129
791.889 .0282093
792.595 .0282009
793.301 .0281929
794.008 .0281852
794.713 .0281778
795.419 .0281707
796.124 .0281640
796.829 .0281576
797.534 .0281516
798.238 .0281459
798.942 .0281406
799.646 .0281356
800.350 .0281309
801.053 .0281264
801.756 .0281222
802.459 .0281181
803.162 .0281143
803.864 .0281106
804.566 .0281070
805.267 .0281035
805.969 .0281000
806.670 .0280966
807.371 .0280930
808.071 .0280895
808.772 .0280859
809.472 .0280822
810.171 .0280785
810.871 .0280747
811.570 .0280710
812.269 .0280672
812.967 .0280633
813.666 .0280594
814.364 .0280555
815.061 .0280515
815.759 .0280476
816.456 .0280436
817.153 .0280397
817.849 .0280358
818.545 .0280319
819.241 .0280281
819.937 .0280243
820.632 .0280205
821.327 .0280167
822.022 .0280128
822.717 .0280089
823.411 .0280049
824.105 .0280010
824.798 .0279971
825.491 .0279931
826.184 .0279891
826.877 .0279851
827.569 .0279809
828.261 .0279767
828.953 .0279724
829.645 .0279679
830.336 .0279635
831.027 .0279589
831.717 .0279543
832.407 .0279497
833.097 .0279450
833.787 .0279403
834.476 .0279354
835.165 .0279305
835.854 .0279254
836.542 .0279201
837.230 .0279146
837.918 .0279090
838.605 .0279031
839.292 .0278969
839.979 .0278906
840.665 .0278839
841.352 .0278769
842.037 .0278697
842.723 .0278621
843.408 .0278543
844.093 .0278460
844.777 .0278374
845.462 .0278283
846.145 .0278188
846.829 .0278088
847.512 .0277983
848.195 .0277872
848.878 .0277756
849.560 .0277635
850.242 .0277510
850.923 .0277380
851.605 .0277245
852.286 .0277107
852.966 .0276965
853.646 .0276819
854.326 .0276670
855.006 .0276518
855.685 .0276364
856.364 .0276209
857.043 .0276053
857.721 .0275896
858.399 .0275739
859.077 .0275582
859.754 .0275425
860.431 .0275269
861.107 .0275112
861.784 .0274956
862.459 .0274800
863.135 .0274645
863.810 .0274491
864.485 .0274337
865.160 .0274185
865.834 .0274034
866.508 .0273883
867.181 .0273734
867.854 .0273585
868.527 .0273438
869.199 .0273292
869.872 .0273148
870.543 .0273005
871.215 .0272864
871.886 .0272723
872.557 .0272584
873.227 .0272445
873.897 .0272307
874.567 .0272168
875.236 .0272028
875.905 .0271888
876.573 .0271746
877.242 .0271604
877.909 .0271460
878.577 .0271315
879.244 .0271169
879.911 .0271023
880.577 .0270877
881.243 .0270732
881.909 .0270587
882.575 .0270444
883.240 .0270303
883.904 .0270164
884.569 .0270028
885.232 .0269894
885.896 .0269764
886.559 .0269638
887.222 .0269516
887.885 .0269400
888.547 .0269289
889.208 .0269186
889.870 .0269090
890.531 .0269001
891.192 .0268921
891.852 .0268847
892.512 .0268782
893.171 .0268722
893.830 .0268670
894.489 .0268624
895.148 .0268584
895.806 .0268550
896.464 .0268522
897.121 .0268498
897.778 .0268478
898.434 .0268461
899.091 .0268437
899.747 .0268420
900.402 .0268403
901.057 .0268385
901.712 .0268366
902.366 .0268345
903.020 .0268323
903.674 .0268297
904.327 .0268269
904.980 .0268238
905.633 .0268203
906.285 .0268164
906.936 .0268120
907.588 .0268089
908.239 .0268040
908.889 .0267988
909.540 .0267932
910.190 .0267873
910.839 .0267811
911.488 .0267747
912.137 .0267682
912.785 .0267614
913.433 .0267545
914.081 .0267475
914.728 .0267403
915.375 .0267330
916.021 .0267256
916.668 .0267181
917.313 .0267106
917.959 .0267030
918.604 .0266954
919.248 .0266877
919.892 .0266800
920.536 .0266722
921.180 .0266644
921.823 .0266564
922.465 .0266484
923.108 .0266403
923.750 .0266321
924.391 .0266237
925.032 .0266152
925.673 .0266066
926.313 .0265978
926.953 .0265888
927.593 .0265796
928.232 .0265701
928.871 .0265605
929.510 .0265507
930.148 .0265407
930.786 .0265306
931.423 .0265203
932.060 .0265099
932.697 .0264993
933.333 .0264887
933.969 .0264779
934.604 .0264671
935.239 .0264562
935.874 .0264451
936.508 .0264339
937.142 .0264227
937.776 .0264113
938.409 .0263999
939.042 .0263883
939.674 .0263767
940.306 .0263649
940.938 .0263530
941.569 .0263410
942.200 .0263287
942.830 .0263162
943.460 .0263035
944.090 .0262905
944.720 .0262772
945.349 .0262636
945.977 .0262498
946.606 .0262358
947.233 .0262216
947.861 .0262073
948.488 .0261929
949.115 .0261784
949.741 .0261638
950.367 .0261492
950.993 .0261345
951.618 .0261198
952.243 .0261051
952.868 .0260903
953.492 .0260756
954.115 .0260609
954.739 .0260461
955.362 .0260314
955.984 .0260166
956.607 .0260017
957.229 .0259868
957.850 .0259718
958.471 .0259568
959.092 .0259419
959.713 .0259271
960.333 .0259124
960.952 .0258981
961.572 .0258840
962.191 .0258703
962.809 .0258570
963.428 .0258440
964.045 .0258314
964.663 .0258191
965.280 .0258070
965.897 .0257952
966.513 .0257836
967.129 .0257723
967.745 .0257611
968.361 .0257501
968.976 .0257392
969.590 .0257285
970.205 .0257178
970.818 .0257071
971.432 .0256963
972.045 .0256856
972.658 .0256748
973.271 .0256640
973.883 .0256531
974.495 .0256422
975.106 .0256313
975.717 .0256204
976.328 .0256094
976.938 .0255984
977.548 .0255873
978.158 .0255760
978.768 .0255579
979.377 .0255461
979.985 .0255340
980.594 .0255215
981.202 .0255088
981.809 .0254958
982.417 .0254826
983.024 .0254692
983.631 .0254556
984.237 .0254419
984.843 .0254282
985.449 .0254144
986.054 .0254006
986.659 .0253867
987.264 .0253800
987.868 .0253663
988.472 .0253525
989.076 .0253388
989.679 .0253253
990.282 .0253119
990.885 .0252987
991.487 .0252857
992.090 .0252730
992.691 .0252605
993.293 .0252483
993.894 .0252362
994.495 .0252244
995.095 .0252127
995.696 .0252012
996.296 .0251900
996.895 .0251791
997.494 .0251684
998.093 .0251581
998.692 .0251483
999.291 .0251388
999.889 .0251296
1000.487 .0251209
1001.084 .0251125
1001.681 .0251044
1002.278 .0250967
1002.875 .0250893
1003.471 .0250823
1004.067 .0250755
1004.663 .0250691
1005.258 .0250629
1005.854 .0250570
1006.449 .0250514
1007.043 .0250461
1007.638 .0250409
1008.232 .0250360
1008.826 .0250314
1009.419 .0250269
1010.012 .0250227
1010.605 .0250186
1011.198 .0250148
1011.791 .0250113
1012.383 .0250080
1012.975 .0250050
1013.566 .0250024
1014.158 .0250002
1014.749 .0249983
1015.340 .0249970
1015.931 .0249960
1016.521 .0249955
1017.111 .0249954
1017.701 .0249956
1018.291 .0249962
1018.880 .0249970
1019.470 .0249982
1020.059 .0249996
1020.647 .0250013
1021.236 .0250033
1021.824 .0250055
1022.412 .0250080
1023.000 .0250108
1023.588 .0250136
1024.175 .0250166
1024.762 .0250196
1025.349 .0250227
1025.936 .0250259
1026.523 .0250292
1027.109 .0250326
1027.695 .0250362
1028.281 .0250401
1028.867 .0250443
1029.452 .0250487
1030.038 .0250535
1030.623 .0250584
1031.208 .0250634
1031.792 .0250685
1032.377 .0250736
1032.961 .0250786
1033.546 .0250836
1034.130 .0250885
1034.714 .0250933
1035.297 .0250982
1035.881 .0251029
1036.464 .0251076
1037.047 .0251123
1037.630 .0251168
1038.213 .0251212
1038.796 .0251254
1039.378 .0251295
1039.961 .0251335
1040.543 .0251375
1041.125 .0251415
1041.707 .0251456
1042.289 .0251497
1042.871 .0251539
1043.452 .0251581
1044.034 .0251621
1044.615 .0251660
1045.196 .0251695
1045.777 .0251727
1046.358 .0251754
1046.939 .0251777
1047.520 .0251796
1048.101 .0251813
1048.681 .0251828
1049.262 .0251842
1049.842 .0251855
1050.422 .0251869
1051.002 .0251884
1051.582 .0251898
1052.162 .0251914
1052.742 .0251929
1053.322 .0251944
1053.902 .0251959
1054.482 .0251973
1055.061 .0251989
1055.641 .0252005
1056.220 .0252023
1056.800 .0252042
1057.379 .0252062
1057.958 .0252082
1058.538 .0252102
1059.117 .0252119
1059.696 .0252134
1060.275 .0252146
1060.854 .0252154
1061.433 .0252159
1062.012 .0252161
1062.592 .0252161
1063.171 .0252161
1063.750 .0252161
1064.329 .0252162
1064.908 .0252164
1065.487 .0252167
1066.066 .0252169
1066.645 .0252171
1067.224 .0252170
1067.803 .0252168
1068.382 .0252162
1068.961 .0252154
1069.540 .0252144
1070.119 .0252132
1070.698 .0252120
1071.278 .0252109
1071.857 .0252099
1072.436 .0252091
1073.016 .0252085
1073.595 .0252081
1074.175 .0252079
1074.754 .0252080
1075.334 .0252084
1075.913 .0252091
1076.493 .0252102
1077.073 .0252116
1077.653 .0252135
1078.233 .0252159
1078.813 .0252188
1079.393 .0252221
1079.974 .0252256
1080.554 .0252292
1081.135 .0252328
1081.716 .0252363
1082.296 .0252395
1082.877 .0252425
1083.458 .0252452
1084.040 .0252478
1084.621 .0252502
1085.202 .0252525
1085.784 .0252546
1086.366 .0252566
1086.948 .0252585
1087.530 .0252600
1088.112 .0252611
1088.695 .0252620
1089.277 .0252625
1089.860 .0252626
1090.443 .0252626
1091.026 .0252625
1091.610 .0252623
1092.193 .0252621
1092.777 .0252619
1093.361 .0252618
1093.946 .0252619
1094.530 .0252621
1095.115 .0252625
1095.700 .0252631
1096.285 .0252639
1096.871 .0252649
1097.456 .0252662
1098.042 .0252676
1098.628 .0252691
1099.215 .0252706
1099.802 .0252722
1100.389 .0252736
1100.976 .0252751
1101.564 .0252766
1102.152 .0252780
1102.740 .0252795
1103.329 .0252808
1103.917 .0252821
1104.507 .0252832
1105.096 .0252841
1105.686 .0252846
1106.276 .0252848
1106.867 .0252848
1107.457 .0252843
1108.049 .0252836
1108.640 .0252827
1109.232 .0252814
1109.825 .0252798
1110.417 .0252776
1111.010 .0252748
1111.604 .0252712
1112.198 .0252669
1112.792 .0252620
1113.387 .0252568
1113.982 .0252514
1114.577 .0252460
1115.173 .0252408
1115.769 .0252362
1116.366 .0252321
1116.963 .0252287
1117.561 .0252260
1118.159 .0252242
1118.758 .0252230
1119.357 .0252228
1119.957 .0252238
1120.557 .0252262
1121.157 .0252302
1121.758 .0252359
1122.360 .0252434
1122.962 .0252525
1123.564 .0252630
1124.167 .0252642
1124.771 .0252765
1125.375 .0252900
1125.980 .0253045
1126.585 .0253201
1127.191 .0253368
1127.797 .0253548
1128.404 .0253744
1129.012 .0253958
1129.620 .0254188
1130.229 .0254436
1130.838 .0254697
1131.448 .0254971
1132.058 .0255258
1132.669 .0255694
1133.281 .0256018
1133.894 .0256364
1134.507 .0256692
1135.120 .0257048
1135.735 .0257469
1136.350 .0257964
1136.965 .0257799
1137.582 .0258146
1138.199 .0258516
1138.816 .0258873
1139.435 .0259257
1140.054 .0259656
1140.674 .0260136
1141.294 .0260757
1141.916 .0261505
1142.538 .0261191
1143.160 .0262137
1143.784 .0264056
1144.408 .0266322
1145.033 .0267813
