Measurement Sequence started on: 14-45-04-498
Integration time: 36
Scans to Average: 2 
>>>>>Begin Spectral Data<<<<<
433.946 .0539740
434.870 .0519666
435.793 .0473070
436.715 .0452115
437.635 .0453474
438.555 .0458414
439.473 .0451634
440.389 .0447028
441.305 .0444550
442.219 .0442794
443.132 .0448564
444.044 .0444096
444.954 .0442032
445.863 .0441022
446.771 .0439891
447.678 .0438456
448.584 .0437340
449.488 .0436434
450.391 .0435631
451.293 .0434896
452.194 .0434223
453.094 .0433594
453.992 .0432982
454.890 .0432379
455.786 .0431770
456.681 .0431148
457.575 .0430509
458.468 .0429864
459.360 .0429226
460.250 .0428606
461.140 .0428009
462.028 .0427442
462.915 .0426904
463.801 .0426391
464.687 .0425892
465.571 .0425401
466.454 .0424909
467.335 .0424408
468.216 .0423899
469.096 .0423380
469.975 .0422856
470.853 .0422335
471.729 .0421816
472.605 .0421306
473.479 .0420801
474.353 .0420298
475.226 .0419790
476.097 .0419272
476.968 .0418745
477.838 .0418209
478.706 .0417668
479.574 .0417129
480.441 .0416601
481.306 .0416094
482.171 .0415613
483.035 .0415160
483.898 .0414737
484.760 .0414340
485.621 .0413964
486.481 .0413606
487.340 .0413261
488.198 .0412933
489.055 .0412625
489.912 .0412339
490.767 .0412083
491.622 .0411797
492.476 .0411606
493.329 .0411434
494.180 .0411273
495.032 .0411115
495.882 .0410947
496.731 .0410764
497.580 .0410557
498.427 .0410320
499.274 .0410051
500.120 .0409845
500.965 .0409519
501.809 .0409158
502.653 .0408766
503.495 .0408343
504.337 .0407887
505.178 .0407395
506.018 .0406863
506.858 .0406285
507.696 .0405658
508.534 .0404984
509.371 .0404265
510.208 .0403509
511.043 .0402726
511.878 .0401931
512.712 .0401137
513.545 .0400356
514.377 .0399600
515.209 .0398878
516.040 .0398196
516.870 .0397552
517.699 .0396947
518.528 .0396379
519.356 .0395848
520.183 .0395352
521.010 .0394891
521.836 .0394462
522.661 .0394063
523.485 .0393690
524.309 .0393339
525.132 .0393002
525.954 .0392668
526.776 .0392324
527.597 .0391959
528.417 .0391558
529.237 .0391110
530.056 .0390608
530.874 .0390055
531.692 .0389450
532.508 .0388798
533.325 .0388106
534.140 .0387384
534.955 .0386639
535.770 .0385882
536.583 .0385122
537.397 .0384364
538.209 .0383607
539.021 .0382853
539.832 .0382104
540.643 .0381367
541.453 .0380646
542.262 .0379948
543.071 .0379286
543.879 .0378671
544.687 .0378106
545.494 .0377600
546.300 .0377155
547.106 .0376766
547.911 .0376421
548.716 .0376109
549.520 .0375816
550.323 .0375535
551.126 .0375256
551.929 .0374978
552.731 .0374698
553.532 .0374417
554.332 .0374136
555.133 .0373860
555.932 .0373592
556.731 .0373337
557.530 .0373092
558.328 .0372860
559.125 .0372634
559.922 .0372409
560.719 .0372183
561.515 .0371952
562.310 .0371714
563.105 .0371468
563.899 .0371213
564.693 .0370949
565.487 .0370677
566.280 .0370399
567.072 .0370112
567.864 .0369817
568.655 .0369511
569.446 .0369189
570.236 .0368847
571.026 .0368486
571.816 .0368102
572.605 .0367697
573.393 .0367271
574.181 .0366828
574.969 .0366371
575.756 .0365908
576.543 .0365447
577.329 .0364992
578.115 .0364548
578.900 .0364117
579.685 .0363701
580.469 .0363300
581.253 .0362914
582.036 .0362542
582.820 .0362187
583.602 .0361845
584.384 .0361518
585.166 .0361204
585.947 .0360904
586.728 .0360616
587.509 .0360339
588.289 .0360069
589.069 .0359805
589.848 .0359544
590.627 .0359282
591.405 .0359019
592.183 .0358751
592.961 .0358477
593.738 .0358196
594.515 .0357910
595.291 .0357619
596.067 .0357325
596.843 .0357030
597.618 .0356737
598.393 .0356319
599.167 .0356038
599.941 .0355763
600.715 .0355495
601.488 .0355234
602.261 .0354979
603.034 .0354729
603.806 .0354483
604.578 .0354240
605.349 .0353998
606.121 .0353756
606.891 .0353638
607.662 .0353395
608.432 .0353154
609.201 .0352914
609.971 .0352676
610.740 .0352440
611.508 .0352206
612.277 .0351972
613.045 .0351738
613.812 .0351502
614.579 .0351264
615.346 .0351023
616.113 .0350778
616.879 .0350530
617.645 .0350279
618.411 .0350027
619.176 .0349772
619.941 .0349518
620.705 .0349262
621.470 .0349007
622.233 .0348751
622.997 .0348496
623.760 .0348240
624.523 .0347984
625.286 .0347727
626.048 .0347469
626.810 .0347210
627.572 .0346950
628.333 .0346689
629.095 .0346428
629.855 .0346167
630.616 .0345908
631.376 .0345651
632.136 .0345397
632.895 .0345146
633.655 .0344896
634.414 .0344647
635.172 .0344399
635.931 .0344149
636.689 .0343898
637.447 .0343644
638.204 .0343390
638.962 .0343135
639.718 .0342879
640.475 .0342625
641.231 .0342373
641.988 .0342124
642.743 .0341878
643.499 .0341635
644.254 .0341394
645.009 .0341157
645.764 .0340922
646.518 .0340691
647.272 .0340462
648.026 .0340236
648.780 .0340015
649.533 .0339798
650.286 .0339586
651.039 .0339380
651.792 .0339181
652.544 .0338988
653.296 .0338801
654.048 .0338620
654.799 .0338444
655.550 .0338271
656.301 .0338101
657.052 .0337933
657.802 .0337767
658.552 .0337603
659.302 .0337441
660.052 .0337282
660.801 .0337125
661.550 .0336970
662.299 .0336818
663.048 .0336666
663.796 .0336514
664.544 .0336361
665.292 .0336207
666.040 .0336050
666.787 .0335889
667.534 .0335726
668.281 .0335559
669.028 .0335389
669.774 .0335217
670.521 .0335042
671.266 .0334866
672.012 .0334687
672.758 .0334508
673.503 .0334327
674.248 .0334145
674.992 .0333962
675.737 .0333778
676.481 .0333592
677.225 .0333406
677.969 .0333218
678.712 .0333029
679.455 .0332841
680.199 .0332653
680.941 .0332466
681.684 .0332283
682.426 .0332102
683.168 .0331925
683.910 .0331752
684.652 .0331583
685.393 .0331418
686.134 .0331258
686.875 .0331101
687.616 .0330948
688.356 .0330799
689.097 .0330655
689.837 .0330516
690.576 .0330381
691.316 .0330251
692.055 .0330125
692.794 .0330003
693.533 .0329883
694.272 .0329766
695.010 .0329651
695.748 .0329536
696.486 .0329420
697.224 .0329304
697.962 .0329186
698.699 .0329066
699.436 .0328943
700.173 .0328817
700.909 .0328688
701.646 .0328555
702.382 .0328418
703.118 .0328278
703.853 .0328135
704.589 .0327989
705.324 .0327841
706.059 .0327690
706.794 .0327537
707.529 .0327382
708.263 .0327226
708.997 .0327067
709.731 .0326907
710.465 .0326746
711.198 .0326583
711.931 .0326419
712.664 .0326255
713.397 .0326091
714.130 .0325928
714.862 .0325765
715.594 .0325604
716.326 .0325445
717.058 .0325288
717.789 .0325133
718.520 .0324981
719.251 .0324831
719.982 .0324684
720.713 .0324539
721.443 .0324396
722.173 .0324256
722.903 .0324117
723.633 .0323981
724.362 .0323846
725.091 .0323714
725.820 .0323585
726.549 .0323460
727.278 .0323338
728.006 .0323220
728.734 .0323105
729.462 .0322995
730.190 .0322887
730.917 .0322781
731.644 .0322678
732.371 .0322576
733.098 .0322475
733.825 .0322376
734.551 .0322279
735.277 .0322184
736.003 .0322091
736.728 .0322000
737.454 .0321911
738.179 .0321822
738.904 .0321735
739.629 .0321647
740.353 .0321559
741.077 .0321470
741.801 .0321379
742.525 .0321286
743.249 .0321192
743.972 .0321095
744.695 .0320996
745.418 .0320895
746.141 .0320791
746.863 .0320685
747.585 .0320577
748.307 .0320466
749.029 .0320353
749.750 .0320237
750.472 .0320118
751.193 .0319996
751.913 .0319871
752.634 .0319742
753.354 .0319610
754.074 .0319475
754.794 .0319337
755.514 .0319197
756.233 .0319056
756.952 .0318915
757.671 .0318774
758.390 .0318634
759.108 .0318495
759.826 .0318358
760.544 .0318223
761.262 .0318090
761.979 .0317960
762.697 .0317832
763.414 .0317708
764.130 .0317588
764.847 .0317472
765.563 .0317360
766.279 .0317252
766.995 .0317148
767.710 .0317048
768.426 .0316953
769.141 .0316863
769.855 .0316779
770.570 .0316700
771.284 .0316628
771.998 .0316562
772.712 .0316502
773.426 .0316447
774.139 .0316398
774.852 .0316353
775.565 .0316313
776.277 .0316275
776.990 .0316241
777.702 .0316210
778.414 .0316182
779.125 .0316156
779.836 .0316132
780.547 .0316110
781.258 .0316089
781.969 .0316069
782.679 .0316048
783.389 .0316010
784.099 .0315981
784.808 .0315948
785.517 .0315909
786.226 .0315865
786.935 .0315813
787.643 .0315755
788.352 .0315688
789.060 .0315613
789.767 .0315529
790.475 .0315437
791.182 .0315336
791.889 .0315260
792.595 .0315147
793.301 .0315027
794.008 .0314899
794.713 .0314766
795.419 .0314626
796.124 .0314480
796.829 .0314330
797.534 .0314175
798.238 .0314017
798.942 .0313857
799.646 .0313696
800.350 .0313535
801.053 .0313376
801.756 .0313219
802.459 .0313067
803.162 .0312919
803.864 .0312776
804.566 .0312639
805.267 .0312509
805.969 .0312384
806.670 .0312266
807.371 .0312154
808.071 .0312049
808.772 .0311951
809.472 .0311859
810.171 .0311774
810.871 .0311695
811.570 .0311622
812.269 .0311554
812.967 .0311491
813.666 .0311431
814.364 .0311375
815.061 .0311321
815.759 .0311269
816.456 .0311219
817.153 .0311170
817.849 .0311121
818.545 .0311073
819.241 .0311025
819.937 .0310976
820.632 .0310927
821.327 .0310876
822.022 .0310824
822.717 .0310771
823.411 .0310716
824.105 .0310659
824.798 .0310601
825.491 .0310542
826.184 .0310482
826.877 .0310420
827.569 .0310357
828.261 .0310292
828.953 .0310225
829.645 .0310156
830.336 .0310085
831.027 .0310012
831.717 .0309937
832.407 .0309859
833.097 .0309780
833.787 .0309699
834.476 .0309616
835.165 .0309531
835.854 .0309443
836.542 .0309351
837.230 .0309256
837.918 .0309156
838.605 .0309052
839.292 .0308943
839.979 .0308829
840.665 .0308709
841.352 .0308583
842.037 .0308451
842.723 .0308314
843.408 .0308170
844.093 .0308021
844.777 .0307865
845.462 .0307705
846.145 .0307538
846.829 .0307367
847.512 .0307192
848.195 .0307012
848.878 .0306828
849.560 .0306641
850.242 .0306452
850.923 .0306260
851.605 .0306067
852.286 .0305872
852.966 .0305677
853.646 .0305482
854.326 .0305287
855.006 .0305093
855.685 .0304901
856.364 .0304712
857.043 .0304527
857.721 .0304347
858.399 .0304172
859.077 .0304004
859.754 .0303843
860.431 .0303688
861.107 .0303540
861.784 .0303399
862.459 .0303265
863.135 .0303139
863.810 .0303019
864.485 .0302908
865.160 .0302803
865.834 .0302706
866.508 .0302616
867.181 .0302533
867.854 .0302458
868.527 .0302389
869.199 .0302327
869.872 .0302271
870.543 .0302223
871.215 .0302180
871.886 .0302144
872.557 .0302113
873.227 .0302087
873.897 .0302064
874.567 .0302045
875.236 .0302029
875.905 .0302014
876.573 .0302002
877.242 .0301991
877.909 .0301980
878.577 .0301970
879.244 .0301960
879.911 .0301949
880.577 .0301936
881.243 .0301920
881.909 .0301902
882.575 .0301880
883.240 .0301855
883.904 .0301825
884.569 .0301791
885.232 .0301753
885.896 .0301709
886.559 .0301660
887.222 .0301605
887.885 .0301544
888.547 .0301476
889.208 .0301403
889.870 .0301323
890.531 .0301237
891.192 .0301146
891.852 .0301049
892.512 .0300946
893.171 .0300838
893.830 .0300722
894.489 .0300601
895.148 .0300474
895.806 .0300340
896.464 .0300200
897.121 .0300055
897.778 .0299905
898.434 .0299751
899.091 .0299500
899.747 .0299335
900.402 .0299166
901.057 .0298991
901.712 .0298812
902.366 .0298627
903.020 .0298437
903.674 .0298243
904.327 .0298046
904.980 .0297845
905.633 .0297642
906.285 .0297438
906.936 .0297232
907.588 .0297126
908.239 .0296921
908.889 .0296716
909.540 .0296512
910.190 .0296309
910.839 .0296108
911.488 .0295910
912.137 .0295714
912.785 .0295521
913.433 .0295332
914.081 .0295146
914.728 .0294963
915.375 .0294783
916.021 .0294605
916.668 .0294431
917.313 .0294259
917.959 .0294090
918.604 .0293925
919.248 .0293764
919.892 .0293607
920.536 .0293454
921.180 .0293306
921.823 .0293163
922.465 .0293024
923.108 .0292891
923.750 .0292762
924.391 .0292638
925.032 .0292519
925.673 .0292406
926.313 .0292297
926.953 .0292193
927.593 .0292092
928.232 .0291996
928.871 .0291904
929.510 .0291815
930.148 .0291730
930.786 .0291648
931.423 .0291569
932.060 .0291493
932.697 .0291420
933.333 .0291349
933.969 .0291280
934.604 .0291213
935.239 .0291147
935.874 .0291082
936.508 .0291017
937.142 .0290953
937.776 .0290888
938.409 .0290823
939.042 .0290756
939.674 .0290687
940.306 .0290616
940.938 .0290541
941.569 .0290463
942.200 .0290380
942.830 .0290294
943.460 .0290203
944.090 .0290108
944.720 .0290007
945.349 .0289902
945.977 .0289792
946.606 .0289676
947.233 .0289555
947.861 .0289429
948.488 .0289298
949.115 .0289162
949.741 .0289023
950.367 .0288879
950.993 .0288732
951.618 .0288580
952.243 .0288425
952.868 .0288264
953.492 .0288099
954.115 .0287930
954.739 .0287756
955.362 .0287577
955.984 .0287394
956.607 .0287209
957.229 .0287020
957.850 .0286829
958.471 .0286636
959.092 .0286441
959.713 .0286243
960.333 .0286044
960.952 .0285841
961.572 .0285637
962.191 .0285431
962.809 .0285223
963.428 .0285015
964.045 .0284805
964.663 .0284596
965.280 .0284388
965.897 .0284180
966.513 .0283972
967.129 .0283765
967.745 .0283557
968.361 .0283349
968.976 .0283141
969.590 .0282934
970.205 .0282727
970.818 .0282523
971.432 .0282321
972.045 .0282122
972.658 .0281927
973.271 .0281735
973.883 .0281547
974.495 .0281362
975.106 .0281180
975.717 .0281001
976.328 .0280826
976.938 .0280654
977.548 .0280487
978.158 .0280324
978.768 .0280100
979.377 .0279948
979.985 .0279801
980.594 .0279658
981.202 .0279518
981.809 .0279381
982.417 .0279247
983.024 .0279117
983.631 .0278991
984.237 .0278870
984.843 .0278754
985.449 .0278644
986.054 .0278540
986.659 .0278442
987.264 .0278408
987.868 .0278321
988.472 .0278241
989.076 .0278168
989.679 .0278102
990.282 .0278042
990.885 .0277989
991.487 .0277941
992.090 .0277900
992.691 .0277865
993.293 .0277836
993.894 .0277812
994.495 .0277794
995.095 .0277783
995.696 .0277777
996.296 .0277778
996.895 .0277785
997.494 .0277798
998.093 .0277818
998.692 .0277844
999.291 .0277877
999.889 .0277916
1000.487 .0277962
1001.084 .0278016
1001.681 .0278078
1002.278 .0278147
1002.875 .0278224
1003.471 .0278308
1004.067 .0278398
1004.663 .0278494
1005.258 .0278593
1005.854 .0278695
1006.449 .0278798
1007.043 .0278904
1007.638 .0279010
1008.232 .0279118
1008.826 .0279228
1009.419 .0279340
1010.012 .0279454
1010.605 .0279570
1011.198 .0279685
1011.791 .0279800
1012.383 .0279914
1012.975 .0280026
1013.566 .0280135
1014.158 .0280241
1014.749 .0280344
1015.340 .0280444
1015.931 .0280541
1016.521 .0280635
1017.111 .0280724
1017.701 .0280809
1018.291 .0280888
1018.880 .0280961
1019.470 .0281026
1020.059 .0281085
1020.647 .0281137
1021.236 .0281183
1021.824 .0281224
1022.412 .0281260
1023.000 .0281292
1023.588 .0281320
1024.175 .0281345
1024.762 .0281366
1025.349 .0281383
1025.936 .0281395
1026.523 .0281402
1027.109 .0281403
1027.695 .0281399
1028.281 .0281389
1028.867 .0281373
1029.452 .0281352
1030.038 .0281325
1030.623 .0281292
1031.208 .0281253
1031.792 .0281209
1032.377 .0281159
1032.961 .0281104
1033.546 .0281043
1034.130 .0280977
1034.714 .0280904
1035.297 .0280826
1035.881 .0280742
1036.464 .0280650
1037.047 .0280553
1037.630 .0280449
1038.213 .0280338
1038.796 .0280222
1039.378 .0280101
1039.961 .0279974
1040.543 .0279841
1041.125 .0279703
1041.707 .0279558
1042.289 .0279407
1042.871 .0279250
1043.452 .0279086
1044.034 .0278916
1044.615 .0278742
1045.196 .0278566
1045.777 .0278387
1046.358 .0278209
1046.939 .0278030
1047.520 .0277853
1048.101 .0277676
1048.681 .0277502
1049.262 .0277329
1049.842 .0277158
1050.422 .0276991
1051.002 .0276828
1051.582 .0276670
1052.162 .0276519
1052.742 .0276375
1053.322 .0276238
1053.902 .0276108
1054.482 .0275983
1055.061 .0275863
1055.641 .0275747
1056.220 .0275635
1056.800 .0275527
1057.379 .0275422
1057.958 .0275321
1058.538 .0275222
1059.117 .0275125
1059.696 .0275030
1060.275 .0274936
1060.854 .0274841
1061.433 .0274746
1062.012 .0274650
1062.592 .0274555
1063.171 .0274460
1063.750 .0274368
1064.329 .0274279
1064.908 .0274195
1065.487 .0274115
1066.066 .0274039
1066.645 .0273967
1067.224 .0273900
1067.803 .0273836
1068.382 .0273777
1068.961 .0273722
1069.540 .0273670
1070.119 .0273624
1070.698 .0273583
1071.278 .0273547
1071.857 .0273517
1072.436 .0273492
1073.016 .0273471
1073.595 .0273455
1074.175 .0273445
1074.754 .0273440
1075.334 .0273443
1075.913 .0273455
1076.493 .0273475
1077.073 .0273506
1077.653 .0273547
1078.233 .0273598
1078.813 .0273659
1079.393 .0273730
1079.974 .0273810
1080.554 .0273898
1081.135 .0273994
1081.716 .0274095
1082.296 .0274202
1082.877 .0274312
1083.458 .0274425
1084.040 .0274540
1084.621 .0274655
1085.202 .0274769
1085.784 .0274882
1086.366 .0274996
1086.948 .0275109
1087.530 .0275223
1088.112 .0275339
1088.695 .0275457
1089.277 .0275577
1089.860 .0275700
1090.443 .0275824
1091.026 .0275950
1091.610 .0276077
1092.193 .0276203
1092.777 .0276330
1093.361 .0276458
1093.946 .0276587
1094.530 .0276718
1095.115 .0276850
1095.700 .0276984
1096.285 .0277118
1096.871 .0277250
1097.456 .0277380
1098.042 .0277506
1098.628 .0277627
1099.215 .0277742
1099.802 .0277852
1100.389 .0277958
1100.976 .0278058
1101.564 .0278154
1102.152 .0278245
1102.740 .0278331
1103.329 .0278410
1103.917 .0278482
1104.507 .0278547
1105.096 .0278606
1105.686 .0278660
1106.276 .0278711
1106.867 .0278761
1107.457 .0278812
1108.049 .0278866
1108.640 .0278924
1109.232 .0278987
1109.825 .0279053
1110.417 .0279121
1111.010 .0279189
1111.604 .0279256
1112.198 .0279322
1112.792 .0279385
1113.387 .0279445
1113.982 .0279502
1114.577 .0279556
1115.173 .0279606
1115.769 .0279651
1116.366 .0279692
1116.963 .0279727
1117.561 .0279757
1118.159 .0279781
1118.758 .0279800
1119.357 .0279814
1119.957 .0279828
1120.557 .0279844
1121.157 .0279866
1121.758 .0279894
1122.360 .0279931
1122.962 .0279975
1123.564 .0280024
1124.167 .0280060
1124.771 .0280108
1125.375 .0280153
1125.980 .0280195
1126.585 .0280234
1127.191 .0280270
1127.797 .0280306
1128.404 .0280344
1129.012 .0280389
1129.620 .0280442
1130.229 .0280504
1130.838 .0280574
1131.448 .0280653
1132.058 .0280746
1132.669 .0280864
1133.281 .0280996
1133.894 .0281157
1134.507 .0281341
1135.120 .0281619
1135.735 .0281898
1136.350 .0282055
1136.965 .0281682
1137.582 .0282013
1138.199 .0282331
1138.816 .0282610
1139.435 .0282915
1140.054 .0283286
1140.674 .0283675
1141.294 .0284020
1141.916 .0284651
1142.538 .0285057
1143.160 .0287421
1143.784 .0287234
1144.408 .0283793
1145.033 .0292067
