Measurement Sequence started on: 14-45-04-498
Integration time: 36
Scans to Average: 2 
>>>>>Begin Spectral Data<<<<<
433.946 .0414625
434.870 .0576402
435.793 .0501711
436.715 .0511358
437.635 .0506447
438.555 .0501006
439.473 .0499165
440.389 .0492655
441.305 .0488698
442.219 .0484680
443.132 .0488595
444.044 .0482674
444.954 .0480625
445.863 .0478009
446.771 .0475596
447.678 .0473409
448.584 .0471256
449.488 .0469382
450.391 .0467648
451.293 .0466066
452.194 .0464609
453.094 .0463261
453.992 .0461982
454.890 .0460754
455.786 .0459569
456.681 .0458422
457.575 .0457309
458.468 .0456224
459.360 .0455171
460.250 .0454152
461.140 .0453162
462.028 .0452199
462.915 .0451265
463.801 .0450354
464.687 .0449462
465.571 .0448587
466.454 .0447721
467.335 .0446862
468.216 .0445998
469.096 .0445125
469.975 .0444241
470.853 .0443347
471.729 .0442446
472.605 .0441543
473.479 .0440641
474.353 .0439743
475.226 .0438849
476.097 .0437958
476.968 .0437071
477.838 .0436191
478.706 .0435321
479.574 .0434466
480.441 .0433636
481.306 .0432842
482.171 .0432094
483.035 .0431402
483.898 .0430771
484.760 .0430201
485.621 .0429693
486.481 .0429241
487.340 .0428840
488.198 .0428483
489.055 .0428167
489.912 .0427888
490.767 .0427642
491.622 .0427343
492.476 .0427142
493.329 .0426956
494.180 .0426778
495.032 .0426606
495.882 .0426434
496.731 .0426263
497.580 .0426089
498.427 .0425909
499.274 .0425722
500.120 .0425616
500.965 .0425416
501.809 .0425203
502.653 .0424973
503.495 .0424725
504.337 .0424464
505.178 .0424189
506.018 .0423904
506.858 .0423609
507.696 .0423307
508.534 .0422997
509.371 .0422675
510.208 .0422335
511.043 .0421972
511.878 .0421584
512.712 .0421169
513.545 .0420723
514.377 .0420241
515.209 .0419725
516.040 .0419176
516.870 .0418597
517.699 .0417986
518.528 .0417347
519.356 .0416678
520.183 .0415982
521.010 .0415255
521.836 .0414497
522.661 .0413711
523.485 .0412900
524.309 .0412070
525.132 .0411229
525.954 .0410386
526.776 .0409559
527.597 .0408761
528.417 .0408001
529.237 .0407277
530.056 .0406586
530.874 .0405919
531.692 .0405269
532.508 .0404632
533.325 .0404003
534.140 .0403387
534.955 .0402794
535.770 .0402234
536.583 .0401715
537.397 .0401248
538.209 .0400842
539.021 .0400493
539.832 .0400193
540.643 .0399934
541.453 .0399707
542.262 .0399505
543.071 .0399323
543.879 .0399156
544.687 .0399002
545.494 .0398862
546.300 .0398736
547.106 .0398629
547.911 .0398544
548.716 .0398480
549.520 .0398436
550.323 .0398403
551.126 .0398376
551.929 .0398345
552.731 .0398307
553.532 .0398255
554.332 .0398182
555.133 .0398089
555.932 .0397979
556.731 .0397854
557.530 .0397716
558.328 .0397563
559.125 .0397394
559.922 .0397204
560.719 .0396987
561.515 .0396739
562.310 .0396457
563.105 .0396142
563.899 .0395797
564.693 .0395427
565.487 .0395038
566.280 .0394637
567.072 .0394228
567.864 .0393812
568.655 .0393387
569.446 .0392950
570.236 .0392500
571.026 .0392038
571.816 .0391564
572.605 .0391080
573.393 .0390590
574.181 .0390099
574.969 .0389613
575.756 .0389134
576.543 .0388663
577.329 .0388203
578.115 .0387748
578.900 .0387299
579.685 .0386853
580.469 .0386410
581.253 .0385969
582.036 .0385529
582.820 .0385092
583.602 .0384661
584.384 .0384236
585.166 .0383822
585.947 .0383418
586.728 .0383025
587.509 .0382640
588.289 .0382261
589.069 .0381887
589.848 .0381514
590.627 .0381140
591.405 .0380765
592.183 .0380388
592.961 .0380009
593.738 .0379632
594.515 .0379260
595.291 .0378896
596.067 .0378542
596.843 .0378200
597.618 .0377869
598.393 .0377425
599.167 .0377124
599.941 .0376833
600.715 .0376550
601.488 .0376274
602.261 .0376006
603.034 .0375745
603.806 .0375493
604.578 .0375251
605.349 .0375018
606.121 .0374796
606.891 .0374694
607.662 .0374481
608.432 .0374273
609.201 .0374068
609.971 .0373863
610.740 .0373656
611.508 .0373444
612.277 .0373227
613.045 .0373002
613.812 .0372773
614.579 .0372537
615.346 .0372297
616.113 .0372053
616.879 .0371805
617.645 .0371553
618.411 .0371297
619.176 .0371036
619.941 .0370768
620.705 .0370494
621.470 .0370211
622.233 .0369919
622.997 .0369619
623.760 .0369311
624.523 .0368997
625.286 .0368677
626.048 .0368353
626.810 .0368027
627.572 .0367700
628.333 .0367373
629.095 .0367048
629.855 .0366725
630.616 .0366404
631.376 .0366087
632.136 .0365773
632.895 .0365464
633.655 .0365162
634.414 .0364868
635.172 .0364584
635.931 .0364312
636.689 .0364054
637.447 .0363811
638.204 .0363586
638.962 .0363377
639.718 .0363186
640.475 .0363010
641.231 .0362849
641.988 .0362700
642.743 .0362561
643.499 .0362430
644.254 .0362305
645.009 .0362185
645.764 .0362068
646.518 .0361954
647.272 .0361842
648.026 .0361731
648.780 .0361620
649.533 .0361506
650.286 .0361388
651.039 .0361264
651.792 .0361132
652.544 .0360990
653.296 .0360838
654.048 .0360675
654.799 .0360501
655.550 .0360317
656.301 .0360123
657.052 .0359919
657.802 .0359707
658.552 .0359487
659.302 .0359261
660.052 .0359029
660.801 .0358792
661.550 .0358553
662.299 .0358312
663.048 .0358070
663.796 .0357829
664.544 .0357588
665.292 .0357350
666.040 .0357114
666.787 .0356881
667.534 .0356652
668.281 .0356427
669.028 .0356207
669.774 .0355991
670.521 .0355779
671.266 .0355571
672.012 .0355367
672.758 .0355166
673.503 .0354967
674.248 .0354770
674.992 .0354576
675.737 .0354383
676.481 .0354192
677.225 .0354004
677.969 .0353816
678.712 .0353630
679.455 .0353445
680.199 .0353261
680.941 .0353079
681.684 .0352897
682.426 .0352717
683.168 .0352539
683.910 .0352362
684.652 .0352187
685.393 .0352015
686.134 .0351844
686.875 .0351675
687.616 .0351509
688.356 .0351345
689.097 .0351184
689.837 .0351026
690.576 .0350871
691.316 .0350719
692.055 .0350570
692.794 .0350423
693.533 .0350279
694.272 .0350139
695.010 .0350001
695.748 .0349866
696.486 .0349734
697.224 .0349605
697.962 .0349478
698.699 .0349353
699.436 .0349229
700.173 .0349104
700.909 .0348979
701.646 .0348854
702.382 .0348728
703.118 .0348602
703.853 .0348476
704.589 .0348348
705.324 .0348220
706.059 .0348089
706.794 .0347956
707.529 .0347820
708.263 .0347680
708.997 .0347538
709.731 .0347392
710.465 .0347244
711.198 .0347093
711.931 .0346939
712.664 .0346784
713.397 .0346626
714.130 .0346466
714.862 .0346304
715.594 .0346140
716.326 .0345975
717.058 .0345807
717.789 .0345638
718.520 .0345468
719.251 .0345295
719.982 .0345120
720.713 .0344943
721.443 .0344763
722.173 .0344581
722.903 .0344397
723.633 .0344211
724.362 .0344025
725.091 .0343839
725.820 .0343654
726.549 .0343469
727.278 .0343285
728.006 .0343101
728.734 .0342917
729.462 .0342734
730.190 .0342551
730.917 .0342368
731.644 .0342186
732.371 .0342004
733.098 .0341824
733.825 .0341645
734.551 .0341469
735.277 .0341294
736.003 .0341123
736.728 .0340954
737.454 .0340788
738.179 .0340626
738.904 .0340466
739.629 .0340309
740.353 .0340154
741.077 .0340001
741.801 .0339849
742.525 .0339699
743.249 .0339551
743.972 .0339404
744.695 .0339259
745.418 .0339117
746.141 .0338978
746.863 .0338842
747.585 .0338709
748.307 .0338579
749.029 .0338450
749.750 .0338323
750.472 .0338196
751.193 .0338069
751.913 .0337942
752.634 .0337815
753.354 .0337688
754.074 .0337562
754.794 .0337438
755.514 .0337316
756.233 .0337196
756.952 .0337079
757.671 .0336965
758.390 .0336852
759.108 .0336742
759.826 .0336632
760.544 .0336523
761.262 .0336414
761.979 .0336304
762.697 .0336194
763.414 .0336083
764.130 .0335972
764.847 .0335862
765.563 .0335752
766.279 .0335642
766.995 .0335534
767.710 .0335426
768.426 .0335320
769.141 .0335214
769.855 .0335109
770.570 .0335003
771.284 .0334896
771.998 .0334787
772.712 .0334676
773.426 .0334564
774.139 .0334449
774.852 .0334332
775.565 .0334214
776.277 .0334095
776.990 .0333975
777.702 .0333855
778.414 .0333734
779.125 .0333612
779.836 .0333488
780.547 .0333363
781.258 .0333237
781.969 .0333108
782.679 .0332978
783.389 .0332774
784.099 .0332637
784.808 .0332497
785.517 .0332354
786.226 .0332208
786.935 .0332059
787.643 .0331908
788.352 .0331755
789.060 .0331599
789.767 .0331441
790.475 .0331282
791.182 .0331122
791.889 .0331036
792.595 .0330876
793.301 .0330716
794.008 .0330556
794.713 .0330397
795.419 .0330239
796.124 .0330083
796.829 .0329929
797.534 .0329777
798.238 .0329627
798.942 .0329480
799.646 .0329336
800.350 .0329195
801.053 .0329057
801.756 .0328923
802.459 .0328791
803.162 .0328663
803.864 .0328537
804.566 .0328414
805.267 .0328293
805.969 .0328173
806.670 .0328054
807.371 .0327937
808.071 .0327822
808.772 .0327708
809.472 .0327595
810.171 .0327484
810.871 .0327374
811.570 .0327265
812.269 .0327156
812.967 .0327046
813.666 .0326935
814.364 .0326822
815.061 .0326708
815.759 .0326591
816.456 .0326474
817.153 .0326355
817.849 .0326236
818.545 .0326116
819.241 .0325996
819.937 .0325875
820.632 .0325754
821.327 .0325633
822.022 .0325510
822.717 .0325388
823.411 .0325264
824.105 .0325140
824.798 .0325016
825.491 .0324891
826.184 .0324766
826.877 .0324639
827.569 .0324510
828.261 .0324380
828.953 .0324247
829.645 .0324111
830.336 .0323973
831.027 .0323835
831.717 .0323696
832.407 .0323558
833.097 .0323421
833.787 .0323285
834.476 .0323151
835.165 .0323017
835.854 .0322882
836.542 .0322747
837.230 .0322611
837.918 .0322473
838.605 .0322333
839.292 .0322192
839.979 .0322050
840.665 .0321908
841.352 .0321765
842.037 .0321621
842.723 .0321476
843.408 .0321330
844.093 .0321183
844.777 .0321033
845.462 .0320882
846.145 .0320729
846.829 .0320576
847.512 .0320422
848.195 .0320268
848.878 .0320116
849.560 .0319964
850.242 .0319812
850.923 .0319660
851.605 .0319508
852.286 .0319355
852.966 .0319201
853.646 .0319046
854.326 .0318892
855.006 .0318738
855.685 .0318585
856.364 .0318435
857.043 .0318286
857.721 .0318140
858.399 .0317995
859.077 .0317851
859.754 .0317707
860.431 .0317565
861.107 .0317423
861.784 .0317282
862.459 .0317144
863.135 .0317007
863.810 .0316872
864.485 .0316737
865.160 .0316602
865.834 .0316466
866.508 .0316328
867.181 .0316186
867.854 .0316042
868.527 .0315894
869.199 .0315743
869.872 .0315590
870.543 .0315435
871.215 .0315278
871.886 .0315118
872.557 .0314957
873.227 .0314792
873.897 .0314626
874.567 .0314457
875.236 .0314286
875.905 .0314114
876.573 .0313943
877.242 .0313771
877.909 .0313601
878.577 .0313431
879.244 .0313262
879.911 .0313094
880.577 .0312925
881.243 .0312758
881.909 .0312591
882.575 .0312425
883.240 .0312261
883.904 .0312099
884.569 .0311940
885.232 .0311785
885.896 .0311633
886.559 .0311486
887.222 .0311342
887.885 .0311203
888.547 .0311068
889.208 .0310937
889.870 .0310811
890.531 .0310689
891.192 .0310572
891.852 .0310458
892.512 .0310348
893.171 .0310240
893.830 .0310136
894.489 .0310034
895.148 .0309935
895.806 .0309839
896.464 .0309744
897.121 .0309652
897.778 .0309562
898.434 .0309472
899.091 .0309336
899.747 .0309244
900.402 .0309149
901.057 .0309053
901.712 .0308955
902.366 .0308854
903.020 .0308752
903.674 .0308647
904.327 .0308541
904.980 .0308432
905.633 .0308321
906.285 .0308207
906.936 .0308089
907.588 .0308019
908.239 .0307895
908.889 .0307768
909.540 .0307638
910.190 .0307505
910.839 .0307369
911.488 .0307231
912.137 .0307092
912.785 .0306950
913.433 .0306808
914.081 .0306664
914.728 .0306520
915.375 .0306374
916.021 .0306229
916.668 .0306084
917.313 .0305939
917.959 .0305795
918.604 .0305652
919.248 .0305511
919.892 .0305371
920.536 .0305232
921.180 .0305094
921.823 .0304957
922.465 .0304819
923.108 .0304681
923.750 .0304541
924.391 .0304400
925.032 .0304257
925.673 .0304111
926.313 .0303962
926.953 .0303810
927.593 .0303653
928.232 .0303492
928.871 .0303326
929.510 .0303154
930.148 .0302977
930.786 .0302795
931.423 .0302606
932.060 .0302412
932.697 .0302211
933.333 .0302005
933.969 .0301792
934.604 .0301574
935.239 .0301351
935.874 .0301122
936.508 .0300887
937.142 .0300648
937.776 .0300405
938.409 .0300157
939.042 .0299907
939.674 .0299654
940.306 .0299400
940.938 .0299146
941.569 .0298892
942.200 .0298640
942.830 .0298391
943.460 .0298145
944.090 .0297904
944.720 .0297668
945.349 .0297437
945.977 .0297213
946.606 .0296995
947.233 .0296784
947.861 .0296578
948.488 .0296380
949.115 .0296188
949.741 .0296003
950.367 .0295825
950.993 .0295654
951.618 .0295489
952.243 .0295330
952.868 .0295175
953.492 .0295024
954.115 .0294876
954.739 .0294731
955.362 .0294588
955.984 .0294448
956.607 .0294310
957.229 .0294175
957.850 .0294042
958.471 .0293912
959.092 .0293785
959.713 .0293661
960.333 .0293538
960.952 .0293416
961.572 .0293297
962.191 .0293179
962.809 .0293063
963.428 .0292950
964.045 .0292839
964.663 .0292732
965.280 .0292627
965.897 .0292524
966.513 .0292423
967.129 .0292322
967.745 .0292223
968.361 .0292124
968.976 .0292026
969.590 .0291930
970.205 .0291835
970.818 .0291742
971.432 .0291649
972.045 .0291558
972.658 .0291467
973.271 .0291376
973.883 .0291285
974.495 .0291192
975.106 .0291099
975.717 .0291006
976.328 .0290913
976.938 .0290819
977.548 .0290725
978.158 .0290630
978.768 .0290473
979.377 .0290372
979.985 .0290267
980.594 .0290159
981.202 .0290046
981.809 .0289931
982.417 .0289813
983.024 .0289693
983.631 .0289571
984.237 .0289448
984.843 .0289324
985.449 .0289200
986.054 .0289075
986.659 .0288951
987.264 .0288893
987.868 .0288772
988.472 .0288653
989.076 .0288536
989.679 .0288421
990.282 .0288308
990.885 .0288198
991.487 .0288090
992.090 .0287984
992.691 .0287880
993.293 .0287779
993.894 .0287680
994.495 .0287585
995.095 .0287493
995.696 .0287405
996.296 .0287320
996.895 .0287239
997.494 .0287161
998.093 .0287087
998.692 .0287016
999.291 .0286948
999.889 .0286884
1000.487 .0286823
1001.084 .0286767
1001.681 .0286715
1002.278 .0286669
1002.875 .0286629
1003.471 .0286593
1004.067 .0286561
1004.663 .0286532
1005.258 .0286506
1005.854 .0286481
1006.449 .0286457
1007.043 .0286436
1007.638 .0286417
1008.232 .0286402
1008.826 .0286391
1009.419 .0286385
1010.012 .0286383
1010.605 .0286384
1011.198 .0286387
1011.791 .0286391
1012.383 .0286394
1012.975 .0286396
1013.566 .0286396
1014.158 .0286394
1014.749 .0286392
1015.340 .0286387
1015.931 .0286382
1016.521 .0286376
1017.111 .0286367
1017.701 .0286355
1018.291 .0286339
1018.880 .0286317
1019.470 .0286290
1020.059 .0286257
1020.647 .0286219
1021.236 .0286178
1021.824 .0286134
1022.412 .0286089
1023.000 .0286042
1023.588 .0285994
1024.175 .0285944
1024.762 .0285891
1025.349 .0285834
1025.936 .0285772
1026.523 .0285705
1027.109 .0285632
1027.695 .0285554
1028.281 .0285473
1028.867 .0285390
1029.452 .0285305
1030.038 .0285222
1030.623 .0285138
1031.208 .0285055
1031.792 .0284973
1032.377 .0284890
1032.961 .0284807
1033.546 .0284724
1034.130 .0284642
1034.714 .0284562
1035.297 .0284484
1035.881 .0284410
1036.464 .0284341
1037.047 .0284277
1037.630 .0284218
1038.213 .0284164
1038.796 .0284114
1039.378 .0284069
1039.961 .0284027
1040.543 .0283988
1041.125 .0283951
1041.707 .0283917
1042.289 .0283884
1042.871 .0283853
1043.452 .0283823
1044.034 .0283793
1044.615 .0283765
1045.196 .0283739
1045.777 .0283714
1046.358 .0283691
1046.939 .0283670
1047.520 .0283649
1048.101 .0283630
1048.681 .0283610
1049.262 .0283591
1049.842 .0283571
1050.422 .0283550
1051.002 .0283527
1051.582 .0283503
1052.162 .0283479
1052.742 .0283454
1053.322 .0283428
1053.902 .0283400
1054.482 .0283371
1055.061 .0283339
1055.641 .0283303
1056.220 .0283265
1056.800 .0283223
1057.379 .0283177
1057.958 .0283129
1058.538 .0283078
1059.117 .0283027
1059.696 .0282976
1060.275 .0282929
1060.854 .0282884
1061.433 .0282843
1062.012 .0282804
1062.592 .0282766
1063.171 .0282728
1063.750 .0282689
1064.329 .0282648
1064.908 .0282604
1065.487 .0282556
1066.066 .0282505
1066.645 .0282451
1067.224 .0282395
1067.803 .0282339
1068.382 .0282282
1068.961 .0282223
1069.540 .0282162
1070.119 .0282097
1070.698 .0282028
1071.278 .0281954
1071.857 .0281877
1072.436 .0281798
1073.016 .0281719
1073.595 .0281641
1074.175 .0281567
1074.754 .0281500
1075.334 .0281440
1075.913 .0281386
1076.493 .0281337
1077.073 .0281289
1077.653 .0281241
1078.233 .0281193
1078.813 .0281143
1079.393 .0281093
1079.974 .0281044
1080.554 .0280997
1081.135 .0280954
1081.716 .0280914
1082.296 .0280880
1082.877 .0280849
1083.458 .0280820
1084.040 .0280791
1084.621 .0280761
1085.202 .0280730
1085.784 .0280700
1086.366 .0280673
1086.948 .0280653
1087.530 .0280642
1088.112 .0280640
1088.695 .0280649
1089.277 .0280665
1089.860 .0280689
1090.443 .0280716
1091.026 .0280744
1091.610 .0280771
1092.193 .0280796
1092.777 .0280822
1093.361 .0280850
1093.946 .0280884
1094.530 .0280926
1095.115 .0280978
1095.700 .0281040
1096.285 .0281108
1096.871 .0281180
1097.456 .0281254
1098.042 .0281325
1098.628 .0281394
1099.215 .0281458
1099.802 .0281520
1100.389 .0281582
1100.976 .0281647
1101.564 .0281716
1102.152 .0281792
1102.740 .0281871
1103.329 .0281950
1103.917 .0282024
1104.507 .0282088
1105.096 .0282139
1105.686 .0282175
1106.276 .0282198
1106.867 .0282207
1107.457 .0282208
1108.049 .0282204
1108.640 .0282199
1109.232 .0282194
1109.825 .0282192
1110.417 .0282191
1111.010 .0282190
1111.604 .0282187
1112.198 .0282182
1112.792 .0282178
1113.387 .0282179
1113.982 .0282189
1114.577 .0282211
1115.173 .0282250
1115.769 .0282306
1116.366 .0282377
1116.963 .0282461
1117.561 .0282551
1118.159 .0282645
1118.758 .0282739
1119.357 .0282830
1119.957 .0282920
1120.557 .0283011
1121.157 .0283108
1121.758 .0283215
1122.360 .0283335
1122.962 .0283469
1123.564 .0283618
1124.167 .0283700
1124.771 .0283871
1125.375 .0284048
1125.980 .0284229
1126.585 .0284413
1127.191 .0284601
1127.797 .0284796
1128.404 .0285002
1129.012 .0285222
1129.620 .0285461
1130.229 .0285718
1130.838 .0285993
1131.448 .0286283
1132.058 .0286589
1132.669 .0287000
1133.281 .0287342
1133.894 .0287721
1134.507 .0288095
1135.120 .0288509
1135.735 .0289073
1136.350 .0289593
1136.965 .0288209
1137.582 .0288952
1138.199 .0289762
1138.816 .0290584
1139.435 .0291433
1140.054 .0292274
1140.674 .0293198
1141.294 .0294117
1141.916 .0295302
1142.538 .0295287
1143.160 .0296407
1143.784 .0300426
1144.408 .0299201
1145.033 .0305912
