Measurement Sequence started on: 14-45-04-498
Integration time: 36
Scans to Average: 2 
>>>>>Begin Spectral Data<<<<<
433.946 .0393189
434.870 .0499394
435.793 .0462731
436.715 .0451514
437.635 .0424616
438.555 .0428756
439.473 .0423524
440.389 .0415879
441.305 .0410215
442.219 .0405509
443.132 .0413802
444.044 .0407984
444.954 .0404049
445.863 .0400656
446.771 .0398635
447.678 .0396353
448.584 .0394304
449.488 .0392615
450.391 .0391177
451.293 .0389932
452.194 .0388820
453.094 .0387809
453.992 .0386861
454.890 .0385939
455.786 .0385016
456.681 .0384078
457.575 .0383109
458.468 .0382108
459.360 .0381085
460.250 .0380046
461.140 .0379001
462.028 .0377956
462.915 .0376916
463.801 .0375880
464.687 .0374850
465.571 .0373827
466.454 .0372816
467.335 .0371824
468.216 .0370862
469.096 .0369932
469.975 .0369048
470.853 .0368215
471.729 .0367440
472.605 .0366726
473.479 .0366073
474.353 .0365479
475.226 .0364940
476.097 .0364450
476.968 .0364005
477.838 .0363600
478.706 .0363234
479.574 .0362904
480.441 .0362606
481.306 .0362338
482.171 .0362096
483.035 .0361876
483.898 .0361673
484.760 .0361480
485.621 .0361294
486.481 .0361108
487.340 .0360919
488.198 .0360725
489.055 .0360523
489.912 .0360312
490.767 .0360093
491.622 .0359730
492.476 .0359491
493.329 .0359244
494.180 .0358985
495.032 .0358714
495.882 .0358426
496.731 .0358118
497.580 .0357788
498.427 .0357433
499.274 .0357052
500.120 .0356814
500.965 .0356391
501.809 .0355942
502.653 .0355473
503.495 .0354987
504.337 .0354486
505.178 .0353974
506.018 .0353450
506.858 .0352917
507.696 .0352373
508.534 .0351822
509.371 .0351265
510.208 .0350706
511.043 .0350152
511.878 .0349609
512.712 .0349086
513.545 .0348591
514.377 .0348129
515.209 .0347704
516.040 .0347314
516.870 .0346956
517.699 .0346626
518.528 .0346318
519.356 .0346029
520.183 .0345750
521.010 .0345473
521.836 .0345197
522.661 .0344912
523.485 .0344620
524.309 .0344316
525.132 .0343997
525.954 .0343660
526.776 .0343303
527.597 .0342921
528.417 .0342510
529.237 .0342071
530.056 .0341604
530.874 .0341109
531.692 .0340589
532.508 .0340043
533.325 .0339479
534.140 .0338904
534.955 .0338323
535.770 .0337740
536.583 .0337162
537.397 .0336593
538.209 .0336043
539.021 .0335515
539.832 .0335018
540.643 .0334551
541.453 .0334117
542.262 .0333714
543.071 .0333338
543.879 .0332984
544.687 .0332647
545.494 .0332320
546.300 .0331996
547.106 .0331667
547.911 .0331330
548.716 .0330981
549.520 .0330623
550.323 .0330257
551.126 .0329888
551.929 .0329518
552.731 .0329152
553.532 .0328790
554.332 .0328435
555.133 .0328087
555.932 .0327743
556.731 .0327404
557.530 .0327069
558.328 .0326739
559.125 .0326421
559.922 .0326120
560.719 .0325840
561.515 .0325586
562.310 .0325364
563.105 .0325170
563.899 .0325003
564.693 .0324857
565.487 .0324727
566.280 .0324607
567.072 .0324492
567.864 .0324376
568.655 .0324257
569.446 .0324136
570.236 .0324011
571.026 .0323878
571.816 .0323736
572.605 .0323583
573.393 .0323415
574.181 .0323228
574.969 .0323022
575.756 .0322796
576.543 .0322550
577.329 .0322288
578.115 .0322011
578.900 .0321722
579.685 .0321427
580.469 .0321127
581.253 .0320827
582.036 .0320531
582.820 .0320238
583.602 .0319951
584.384 .0319670
585.166 .0319395
585.947 .0319124
586.728 .0318858
587.509 .0318595
588.289 .0318336
589.069 .0318082
589.848 .0317833
590.627 .0317589
591.405 .0317353
592.183 .0317122
592.961 .0316895
593.738 .0316672
594.515 .0316451
595.291 .0316232
596.067 .0316013
596.843 .0315797
597.618 .0315583
598.393 .0315279
599.167 .0315080
599.941 .0314888
600.715 .0314703
601.488 .0314524
602.261 .0314352
603.034 .0314186
603.806 .0314024
604.578 .0313867
605.349 .0313714
606.121 .0313566
606.891 .0313505
607.662 .0313360
608.432 .0313218
609.201 .0313080
609.971 .0312946
610.740 .0312814
611.508 .0312684
612.277 .0312555
613.045 .0312426
613.812 .0312295
614.579 .0312162
615.346 .0312025
616.113 .0311884
616.879 .0311735
617.645 .0311580
618.411 .0311417
619.176 .0311245
619.941 .0311065
620.705 .0310878
621.470 .0310683
622.233 .0310482
622.997 .0310275
623.760 .0310062
624.523 .0309845
625.286 .0309625
626.048 .0309401
626.810 .0309176
627.572 .0308951
628.333 .0308724
629.095 .0308499
629.855 .0308275
630.616 .0308054
631.376 .0307837
632.136 .0307625
632.895 .0307417
633.655 .0307214
634.414 .0307018
635.172 .0306829
635.931 .0306646
636.689 .0306469
637.447 .0306299
638.204 .0306133
638.962 .0305972
639.718 .0305815
640.475 .0305661
641.231 .0305511
641.988 .0305364
642.743 .0305219
643.499 .0305078
644.254 .0304938
645.009 .0304801
645.764 .0304665
646.518 .0304530
647.272 .0304395
648.026 .0304259
648.780 .0304123
649.533 .0303986
650.286 .0303849
651.039 .0303713
651.792 .0303578
652.544 .0303445
653.296 .0303315
654.048 .0303187
654.799 .0303063
655.550 .0302943
656.301 .0302825
657.052 .0302712
657.802 .0302601
658.552 .0302493
659.302 .0302388
660.052 .0302284
660.801 .0302182
661.550 .0302080
662.299 .0301978
663.048 .0301875
663.796 .0301770
664.544 .0301663
665.292 .0301555
666.040 .0301446
666.787 .0301336
667.534 .0301225
668.281 .0301111
669.028 .0300996
669.774 .0300878
670.521 .0300756
671.266 .0300632
672.012 .0300506
672.758 .0300377
673.503 .0300248
674.248 .0300118
674.992 .0299989
675.737 .0299860
676.481 .0299732
677.225 .0299605
677.969 .0299479
678.712 .0299355
679.455 .0299231
680.199 .0299110
680.941 .0298992
681.684 .0298876
682.426 .0298763
683.168 .0298652
683.910 .0298544
684.652 .0298436
685.393 .0298330
686.134 .0298225
686.875 .0298120
687.616 .0298015
688.356 .0297912
689.097 .0297808
689.837 .0297706
690.576 .0297604
691.316 .0297503
692.055 .0297401
692.794 .0297299
693.533 .0297196
694.272 .0297093
695.010 .0296991
695.748 .0296888
696.486 .0296787
697.224 .0296686
697.962 .0296586
698.699 .0296487
699.436 .0296389
700.173 .0296292
700.909 .0296196
701.646 .0296101
702.382 .0296008
703.118 .0295915
703.853 .0295823
704.589 .0295732
705.324 .0295641
706.059 .0295549
706.794 .0295456
707.529 .0295362
708.263 .0295267
708.997 .0295169
709.731 .0295070
710.465 .0294969
711.198 .0294866
711.931 .0294762
712.664 .0294655
713.397 .0294547
714.130 .0294435
714.862 .0294320
715.594 .0294203
716.326 .0294082
717.058 .0293957
717.789 .0293830
718.520 .0293701
719.251 .0293569
719.982 .0293435
720.713 .0293299
721.443 .0293162
722.173 .0293023
722.903 .0292883
723.633 .0292742
724.362 .0292601
725.091 .0292460
725.820 .0292319
726.549 .0292180
727.278 .0292041
728.006 .0291905
728.734 .0291770
729.462 .0291636
730.190 .0291505
730.917 .0291377
731.644 .0291250
732.371 .0291127
733.098 .0291007
733.825 .0290891
734.551 .0290778
735.277 .0290669
736.003 .0290563
736.728 .0290460
737.454 .0290359
738.179 .0290260
738.904 .0290164
739.629 .0290069
740.353 .0289976
741.077 .0289883
741.801 .0289792
742.525 .0289701
743.249 .0289611
743.972 .0289520
744.695 .0289429
745.418 .0289338
746.141 .0289247
746.863 .0289154
747.585 .0289059
748.307 .0288962
749.029 .0288863
749.750 .0288762
750.472 .0288657
751.193 .0288550
751.913 .0288441
752.634 .0288329
753.354 .0288217
754.074 .0288103
754.794 .0287989
755.514 .0287875
756.233 .0287760
756.952 .0287645
757.671 .0287531
758.390 .0287416
759.108 .0287303
759.826 .0287191
760.544 .0287081
761.262 .0286973
761.979 .0286867
762.697 .0286763
763.414 .0286661
764.130 .0286560
764.847 .0286462
765.563 .0286365
766.279 .0286270
766.995 .0286177
767.710 .0286087
768.426 .0285998
769.141 .0285912
769.855 .0285828
770.570 .0285746
771.284 .0285667
771.998 .0285590
772.712 .0285515
773.426 .0285443
774.139 .0285373
774.852 .0285305
775.565 .0285239
776.277 .0285174
776.990 .0285111
777.702 .0285048
778.414 .0284985
779.125 .0284923
779.836 .0284861
780.547 .0284799
781.258 .0284737
781.969 .0284677
782.679 .0284618
783.389 .0284528
784.099 .0284472
784.808 .0284416
785.517 .0284361
786.226 .0284306
786.935 .0284251
787.643 .0284197
788.352 .0284142
789.060 .0284088
789.767 .0284034
790.475 .0283982
791.182 .0283930
791.889 .0283908
792.595 .0283857
793.301 .0283805
794.008 .0283752
794.713 .0283696
795.419 .0283638
796.124 .0283578
796.829 .0283515
797.534 .0283449
798.238 .0283379
798.942 .0283307
799.646 .0283232
800.350 .0283153
801.053 .0283071
801.756 .0282985
802.459 .0282896
803.162 .0282803
803.864 .0282706
804.566 .0282605
805.267 .0282500
805.969 .0282391
806.670 .0282279
807.371 .0282162
808.071 .0282042
808.772 .0281918
809.472 .0281791
810.171 .0281661
810.871 .0281528
811.570 .0281393
812.269 .0281257
812.967 .0281119
813.666 .0280979
814.364 .0280839
815.061 .0280698
815.759 .0280557
816.456 .0280415
817.153 .0280272
817.849 .0280129
818.545 .0279984
819.241 .0279838
819.937 .0279691
820.632 .0279543
821.327 .0279394
822.022 .0279244
822.717 .0279094
823.411 .0278943
824.105 .0278792
824.798 .0278641
825.491 .0278489
826.184 .0278337
826.877 .0278184
827.569 .0278031
828.261 .0277880
828.953 .0277729
829.645 .0277581
830.336 .0277436
831.027 .0277294
831.717 .0277155
832.407 .0277021
833.097 .0276890
833.787 .0276764
834.476 .0276642
835.165 .0276523
835.854 .0276408
836.542 .0276297
837.230 .0276190
837.918 .0276086
838.605 .0275985
839.292 .0275888
839.979 .0275794
840.665 .0275702
841.352 .0275614
842.037 .0275529
842.723 .0275446
843.408 .0275366
844.093 .0275288
844.777 .0275212
845.462 .0275138
846.145 .0275067
846.829 .0274997
847.512 .0274929
848.195 .0274863
848.878 .0274798
849.560 .0274736
850.242 .0274674
850.923 .0274613
851.605 .0274552
852.286 .0274491
852.966 .0274430
853.646 .0274369
854.326 .0274307
855.006 .0274245
855.685 .0274182
856.364 .0274118
857.043 .0274053
857.721 .0273987
858.399 .0273920
859.077 .0273853
859.754 .0273785
860.431 .0273718
861.107 .0273650
861.784 .0273583
862.459 .0273517
863.135 .0273451
863.810 .0273385
864.485 .0273318
865.160 .0273251
865.834 .0273183
866.508 .0273114
867.181 .0273044
867.854 .0272973
868.527 .0272901
869.199 .0272830
869.872 .0272758
870.543 .0272687
871.215 .0272614
871.886 .0272542
872.557 .0272468
873.227 .0272394
873.897 .0272317
874.567 .0272239
875.236 .0272160
875.905 .0272079
876.573 .0271996
877.242 .0271911
877.909 .0271825
878.577 .0271736
879.244 .0271644
879.911 .0271550
880.577 .0271452
881.243 .0271352
881.909 .0271247
882.575 .0271141
883.240 .0271031
883.904 .0270920
884.569 .0270806
885.232 .0270692
885.896 .0270576
886.559 .0270460
887.222 .0270343
887.885 .0270225
888.547 .0270109
889.208 .0269993
889.870 .0269878
890.531 .0269766
891.192 .0269656
891.852 .0269549
892.512 .0269443
893.171 .0269339
893.830 .0269236
894.489 .0269133
895.148 .0269030
895.806 .0268927
896.464 .0268823
897.121 .0268721
897.778 .0268618
898.434 .0268517
899.091 .0268366
899.747 .0268266
900.402 .0268167
901.057 .0268066
901.712 .0267965
902.366 .0267863
903.020 .0267759
903.674 .0267654
904.327 .0267548
904.980 .0267441
905.633 .0267333
906.285 .0267223
906.936 .0267113
907.588 .0267053
908.239 .0266939
908.889 .0266823
909.540 .0266702
910.190 .0266578
910.839 .0266451
911.488 .0266320
912.137 .0266185
912.785 .0266049
913.433 .0265910
914.081 .0265769
914.728 .0265626
915.375 .0265481
916.021 .0265334
916.668 .0265184
917.313 .0265031
917.959 .0264876
918.604 .0264718
919.248 .0264558
919.892 .0264396
920.536 .0264232
921.180 .0264067
921.823 .0263900
922.465 .0263731
923.108 .0263561
923.750 .0263389
924.391 .0263215
925.032 .0263039
925.673 .0262862
926.313 .0262683
926.953 .0262504
927.593 .0262325
928.232 .0262147
928.871 .0261971
929.510 .0261797
930.148 .0261626
930.786 .0261457
931.423 .0261291
932.060 .0261127
932.697 .0260965
933.333 .0260805
933.969 .0260648
934.604 .0260494
935.239 .0260343
935.874 .0260195
936.508 .0260051
937.142 .0259910
937.776 .0259773
938.409 .0259639
939.042 .0259508
939.674 .0259379
940.306 .0259253
940.938 .0259129
941.569 .0259008
942.200 .0258889
942.830 .0258773
943.460 .0258659
944.090 .0258549
944.720 .0258441
945.349 .0258335
945.977 .0258232
946.606 .0258131
947.233 .0258031
947.861 .0257931
948.488 .0257833
949.115 .0257735
949.741 .0257639
950.367 .0257544
950.993 .0257451
951.618 .0257360
952.243 .0257271
952.868 .0257184
953.492 .0257100
954.115 .0257018
954.739 .0256938
955.362 .0256860
955.984 .0256785
956.607 .0256713
957.229 .0256643
957.850 .0256577
958.471 .0256515
959.092 .0256455
959.713 .0256399
960.333 .0256346
960.952 .0256295
961.572 .0256247
962.191 .0256200
962.809 .0256156
963.428 .0256113
964.045 .0256072
964.663 .0256034
965.280 .0255997
965.897 .0255962
966.513 .0255929
967.129 .0255897
967.745 .0255865
968.361 .0255833
968.976 .0255800
969.590 .0255766
970.205 .0255732
970.818 .0255696
971.432 .0255658
972.045 .0255618
972.658 .0255576
973.271 .0255531
973.883 .0255483
974.495 .0255433
975.106 .0255380
975.717 .0255324
976.328 .0255265
976.938 .0255205
977.548 .0255142
978.158 .0255078
978.768 .0254974
979.377 .0254907
979.985 .0254839
980.594 .0254771
981.202 .0254702
981.809 .0254632
982.417 .0254563
983.024 .0254493
983.631 .0254424
984.237 .0254355
984.843 .0254287
985.449 .0254218
986.054 .0254148
986.659 .0254079
987.264 .0254048
987.868 .0253978
988.472 .0253909
989.076 .0253841
989.679 .0253773
990.282 .0253706
990.885 .0253641
991.487 .0253576
992.090 .0253513
992.691 .0253449
993.293 .0253386
993.894 .0253323
994.495 .0253259
995.095 .0253195
995.696 .0253131
996.296 .0253067
996.895 .0253003
997.494 .0252938
998.093 .0252874
998.692 .0252807
999.291 .0252739
999.889 .0252668
1000.487 .0252593
1001.084 .0252515
1001.681 .0252432
1002.278 .0252347
1002.875 .0252258
1003.471 .0252169
1004.067 .0252078
1004.663 .0251986
1005.258 .0251895
1005.854 .0251803
1006.449 .0251710
1007.043 .0251618
1007.638 .0251524
1008.232 .0251431
1008.826 .0251338
1009.419 .0251247
1010.012 .0251158
1010.605 .0251072
1011.198 .0250989
1011.791 .0250909
1012.383 .0250831
1012.975 .0250754
1013.566 .0250678
1014.158 .0250602
1014.749 .0250525
1015.340 .0250448
1015.931 .0250370
1016.521 .0250292
1017.111 .0250214
1017.701 .0250138
1018.291 .0250064
1018.880 .0249992
1019.470 .0249921
1020.059 .0249854
1020.647 .0249788
1021.236 .0249725
1021.824 .0249664
1022.412 .0249607
1023.000 .0249552
1023.588 .0249501
1024.175 .0249454
1024.762 .0249411
1025.349 .0249371
1025.936 .0249335
1026.523 .0249302
1027.109 .0249272
1027.695 .0249245
1028.281 .0249220
1028.867 .0249196
1029.452 .0249174
1030.038 .0249155
1030.623 .0249138
1031.208 .0249123
1031.792 .0249111
1032.377 .0249103
1032.961 .0249097
1033.546 .0249094
1034.130 .0249093
1034.714 .0249096
1035.297 .0249100
1035.881 .0249106
1036.464 .0249113
1037.047 .0249121
1037.630 .0249130
1038.213 .0249138
1038.796 .0249147
1039.378 .0249154
1039.961 .0249160
1040.543 .0249164
1041.125 .0249166
1041.707 .0249166
1042.289 .0249164
1042.871 .0249162
1043.452 .0249159
1044.034 .0249156
1044.615 .0249154
1045.196 .0249152
1045.777 .0249151
1046.358 .0249150
1046.939 .0249148
1047.520 .0249146
1048.101 .0249143
1048.681 .0249140
1049.262 .0249139
1049.842 .0249140
1050.422 .0249143
1051.002 .0249148
1051.582 .0249156
1052.162 .0249165
1052.742 .0249175
1053.322 .0249185
1053.902 .0249194
1054.482 .0249204
1055.061 .0249214
1055.641 .0249225
1056.220 .0249239
1056.800 .0249256
1057.379 .0249278
1057.958 .0249302
1058.538 .0249329
1059.117 .0249356
1059.696 .0249382
1060.275 .0249405
1060.854 .0249426
1061.433 .0249444
1062.012 .0249460
1062.592 .0249476
1063.171 .0249493
1063.750 .0249510
1064.329 .0249528
1064.908 .0249546
1065.487 .0249563
1066.066 .0249578
1066.645 .0249590
1067.224 .0249599
1067.803 .0249605
1068.382 .0249609
1068.961 .0249613
1069.540 .0249618
1070.119 .0249626
1070.698 .0249636
1071.278 .0249649
1071.857 .0249664
1072.436 .0249680
1073.016 .0249695
1073.595 .0249708
1074.175 .0249719
1074.754 .0249728
1075.334 .0249735
1075.913 .0249741
1076.493 .0249746
1077.073 .0249752
1077.653 .0249757
1078.233 .0249762
1078.813 .0249766
1079.393 .0249770
1079.974 .0249774
1080.554 .0249778
1081.135 .0249784
1081.716 .0249791
1082.296 .0249800
1082.877 .0249813
1083.458 .0249830
1084.040 .0249851
1084.621 .0249878
1085.202 .0249910
1085.784 .0249948
1086.366 .0249992
1086.948 .0250041
1087.530 .0250094
1088.112 .0250151
1088.695 .0250210
1089.277 .0250271
1089.860 .0250331
1090.443 .0250390
1091.026 .0250448
1091.610 .0250505
1092.193 .0250560
1092.777 .0250612
1093.361 .0250662
1093.946 .0250707
1094.530 .0250749
1095.115 .0250786
1095.700 .0250817
1096.285 .0250842
1096.871 .0250860
1097.456 .0250871
1098.042 .0250876
1098.628 .0250875
1099.215 .0250869
1099.802 .0250857
1100.389 .0250839
1100.976 .0250814
1101.564 .0250782
1102.152 .0250742
1102.740 .0250696
1103.329 .0250644
1103.917 .0250587
1104.507 .0250527
1105.096 .0250464
1105.686 .0250400
1106.276 .0250337
1106.867 .0250276
1107.457 .0250220
1108.049 .0250168
1108.640 .0250124
1109.232 .0250086
1109.825 .0250059
1110.417 .0250043
1111.010 .0250041
1111.604 .0250055
1112.198 .0250085
1112.792 .0250131
1113.387 .0250194
1113.982 .0250274
1114.577 .0250368
1115.173 .0250475
1115.769 .0250595
1116.366 .0250725
1116.963 .0250865
1117.561 .0251016
1118.159 .0251175
1118.758 .0251343
1119.357 .0251518
1119.957 .0251699
1120.557 .0251883
1121.157 .0252070
1121.758 .0252256
1122.360 .0252443
1122.962 .0252628
1123.564 .0252812
1124.167 .0252919
1124.771 .0253104
1125.375 .0253288
1125.980 .0253471
1126.585 .0253654
1127.191 .0253836
1127.797 .0254017
1128.404 .0254197
1129.012 .0254374
1129.620 .0254548
1130.229 .0254718
1130.838 .0254886
1131.448 .0255051
1132.058 .0255216
1132.669 .0255452
1133.281 .0255618
1133.894 .0255780
1134.507 .0255957
1135.120 .0256145
1135.735 .0256297
1136.350 .0256514
1136.965 .0256387
1137.582 .0256615
1138.199 .0256856
1138.816 .0257084
1139.435 .0257337
1140.054 .0257592
1140.674 .0257841
1141.294 .0258117
1141.916 .0258221
1142.538 .0258779
1143.160 .0259268
1143.784 .0258446
1144.408 .0260334
1145.033 .0255120
