Measurement Sequence started on: 14-45-04-498
Integration time: 36
Scans to Average: 2 
>>>>>Begin Spectral Data<<<<<
433.946 .0411895
434.870 .0543279
435.793 .0493675
436.715 .0458500
437.635 .0446000
438.555 .0449684
439.473 .0444843
440.389 .0437565
441.305 .0433412
442.219 .0430986
443.132 .0442966
444.044 .0436826
444.954 .0433268
445.863 .0431530
446.771 .0430408
447.678 .0429046
448.584 .0427882
449.488 .0427037
450.391 .0426337
451.293 .0425688
452.194 .0425043
453.094 .0424380
453.992 .0423685
454.890 .0422950
455.786 .0422166
456.681 .0421338
457.575 .0420458
458.468 .0419536
459.360 .0418568
460.250 .0417565
461.140 .0416525
462.028 .0415458
462.915 .0414371
463.801 .0413277
464.687 .0412187
465.571 .0411118
466.454 .0410080
467.335 .0409084
468.216 .0408129
469.096 .0407211
469.975 .0406320
470.853 .0405446
471.729 .0404575
472.605 .0403705
473.479 .0402835
474.353 .0401973
475.226 .0401125
476.097 .0400302
476.968 .0399514
477.838 .0398769
478.706 .0398070
479.574 .0397416
480.441 .0396802
481.306 .0396225
482.171 .0395675
483.035 .0395149
483.898 .0394645
484.760 .0394167
485.621 .0393720
486.481 .0393311
487.340 .0392942
488.198 .0392617
489.055 .0392333
489.912 .0392087
490.767 .0391869
491.622 .0391573
492.476 .0391366
493.329 .0391151
494.180 .0390923
495.032 .0390679
495.882 .0390418
496.731 .0390142
497.580 .0389855
498.427 .0389561
499.274 .0389265
500.120 .0389095
500.965 .0388806
501.809 .0388521
502.653 .0388246
503.495 .0387981
504.337 .0387729
505.178 .0387489
506.018 .0387263
506.858 .0387051
507.696 .0386853
508.534 .0386672
509.371 .0386507
510.208 .0386357
511.043 .0386223
511.878 .0386098
512.712 .0385983
513.545 .0385871
514.377 .0385757
515.209 .0385633
516.040 .0385493
516.870 .0385323
517.699 .0385113
518.528 .0384857
519.356 .0384542
520.183 .0384157
521.010 .0383698
521.836 .0383163
522.661 .0382552
523.485 .0381872
524.309 .0381132
525.132 .0380337
525.954 .0379501
526.776 .0378630
527.597 .0377726
528.417 .0376789
529.237 .0375822
530.056 .0374822
530.874 .0373792
531.692 .0372739
532.508 .0371672
533.325 .0370605
534.140 .0369560
534.955 .0368555
535.770 .0367603
536.583 .0366722
537.397 .0365922
538.209 .0365208
539.021 .0364582
539.832 .0364041
540.643 .0363584
541.453 .0363208
542.262 .0362911
543.071 .0362687
543.879 .0362535
544.687 .0362454
545.494 .0362439
546.300 .0362485
547.106 .0362586
547.911 .0362734
548.716 .0362914
549.520 .0363115
550.323 .0363321
551.126 .0363516
551.929 .0363691
552.731 .0363834
553.532 .0363940
554.332 .0364002
555.133 .0364020
555.932 .0363991
556.731 .0363912
557.530 .0363779
558.328 .0363587
559.125 .0363333
559.922 .0363013
560.719 .0362629
561.515 .0362185
562.310 .0361689
563.105 .0361149
563.899 .0360575
564.693 .0359981
565.487 .0359377
566.280 .0358772
567.072 .0358171
567.864 .0357577
568.655 .0356992
569.446 .0356413
570.236 .0355840
571.026 .0355272
571.816 .0354709
572.605 .0354152
573.393 .0353603
574.181 .0353066
574.969 .0352544
575.756 .0352040
576.543 .0351557
577.329 .0351095
578.115 .0350651
578.900 .0350224
579.685 .0349812
580.469 .0349413
581.253 .0349023
582.036 .0348640
582.820 .0348263
583.602 .0347894
584.384 .0347535
585.166 .0347188
585.947 .0346856
586.728 .0346542
587.509 .0346244
588.289 .0345963
589.069 .0345695
589.848 .0345437
590.627 .0345187
591.405 .0344941
592.183 .0344697
592.961 .0344452
593.738 .0344204
594.515 .0343954
595.291 .0343702
596.067 .0343449
596.843 .0343193
597.618 .0342935
598.393 .0342531
599.167 .0342265
599.941 .0341997
600.715 .0341726
601.488 .0341452
602.261 .0341175
603.034 .0340893
603.806 .0340609
604.578 .0340322
605.349 .0340033
606.121 .0339746
606.891 .0339609
607.662 .0339327
608.432 .0339048
609.201 .0338774
609.971 .0338505
610.740 .0338242
611.508 .0337985
612.277 .0337734
613.045 .0337491
613.812 .0337256
614.579 .0337027
615.346 .0336806
616.113 .0336591
616.879 .0336382
617.645 .0336177
618.411 .0335974
619.176 .0335773
619.941 .0335573
620.705 .0335374
621.470 .0335175
622.233 .0334977
622.997 .0334781
623.760 .0334585
624.523 .0334390
625.286 .0334194
626.048 .0333996
626.810 .0333796
627.572 .0333592
628.333 .0333384
629.095 .0333172
629.855 .0332957
630.616 .0332740
631.376 .0332522
632.136 .0332304
632.895 .0332088
633.655 .0331875
634.414 .0331664
635.172 .0331456
635.931 .0331249
636.689 .0331043
637.447 .0330836
638.204 .0330628
638.962 .0330417
639.718 .0330202
640.475 .0329985
641.231 .0329764
641.988 .0329540
642.743 .0329315
643.499 .0329088
644.254 .0328861
645.009 .0328636
645.764 .0328411
646.518 .0328188
647.272 .0327967
648.026 .0327747
648.780 .0327526
649.533 .0327305
650.286 .0327083
651.039 .0326860
651.792 .0326636
652.544 .0326411
653.296 .0326188
654.048 .0325968
654.799 .0325750
655.550 .0325536
656.301 .0325327
657.052 .0325120
657.802 .0324915
658.552 .0324711
659.302 .0324509
660.052 .0324306
660.801 .0324105
661.550 .0323905
662.299 .0323708
663.048 .0323513
663.796 .0323321
664.544 .0323134
665.292 .0322951
666.040 .0322773
666.787 .0322601
667.534 .0322435
668.281 .0322275
669.028 .0322122
669.774 .0321977
670.521 .0321840
671.266 .0321710
672.012 .0321587
672.758 .0321471
673.503 .0321363
674.248 .0321262
674.992 .0321168
675.737 .0321082
676.481 .0321002
677.225 .0320929
677.969 .0320860
678.712 .0320794
679.455 .0320730
680.199 .0320665
680.941 .0320599
681.684 .0320530
682.426 .0320456
683.168 .0320375
683.910 .0320287
684.652 .0320191
685.393 .0320085
686.134 .0319970
686.875 .0319846
687.616 .0319713
688.356 .0319571
689.097 .0319423
689.837 .0319267
690.576 .0319105
691.316 .0318937
692.055 .0318764
692.794 .0318587
693.533 .0318404
694.272 .0318217
695.010 .0318026
695.748 .0317832
696.486 .0317636
697.224 .0317438
697.962 .0317239
698.699 .0317040
699.436 .0316842
700.173 .0316646
700.909 .0316452
701.646 .0316261
702.382 .0316072
703.118 .0315887
703.853 .0315704
704.589 .0315522
705.324 .0315341
706.059 .0315160
706.794 .0314979
707.529 .0314798
708.263 .0314617
708.997 .0314437
709.731 .0314259
710.465 .0314083
711.198 .0313909
711.931 .0313737
712.664 .0313567
713.397 .0313398
714.130 .0313229
714.862 .0313062
715.594 .0312896
716.326 .0312731
717.058 .0312569
717.789 .0312409
718.520 .0312254
719.251 .0312104
719.982 .0311959
720.713 .0311820
721.443 .0311688
722.173 .0311563
722.903 .0311444
723.633 .0311332
724.362 .0311226
725.091 .0311126
725.820 .0311031
726.549 .0310941
727.278 .0310854
728.006 .0310771
728.734 .0310691
729.462 .0310614
730.190 .0310538
730.917 .0310465
731.644 .0310394
732.371 .0310324
733.098 .0310255
733.825 .0310188
734.551 .0310121
735.277 .0310053
736.003 .0309985
736.728 .0309916
737.454 .0309846
738.179 .0309774
738.904 .0309702
739.629 .0309629
740.353 .0309557
741.077 .0309486
741.801 .0309417
742.525 .0309349
743.249 .0309282
743.972 .0309216
744.695 .0309151
745.418 .0309087
746.141 .0309023
746.863 .0308960
747.585 .0308896
748.307 .0308831
749.029 .0308765
749.750 .0308697
750.472 .0308625
751.193 .0308548
751.913 .0308467
752.634 .0308380
753.354 .0308288
754.074 .0308189
754.794 .0308084
755.514 .0307973
756.233 .0307855
756.952 .0307731
757.671 .0307601
758.390 .0307465
759.108 .0307324
759.826 .0307177
760.544 .0307027
761.262 .0306873
761.979 .0306718
762.697 .0306561
763.414 .0306403
764.130 .0306247
764.847 .0306092
765.563 .0305938
766.279 .0305788
766.995 .0305640
767.710 .0305496
768.426 .0305355
769.141 .0305216
769.855 .0305080
770.570 .0304944
771.284 .0304809
771.998 .0304674
772.712 .0304538
773.426 .0304400
774.139 .0304260
774.852 .0304119
775.565 .0303976
776.277 .0303832
776.990 .0303687
777.702 .0303542
778.414 .0303397
779.125 .0303253
779.836 .0303110
780.547 .0302969
781.258 .0302828
781.969 .0302690
782.679 .0302553
783.389 .0302364
784.099 .0302235
784.808 .0302110
785.517 .0301988
786.226 .0301871
786.935 .0301759
787.643 .0301652
788.352 .0301549
789.060 .0301450
789.767 .0301353
790.475 .0301260
791.182 .0301169
791.889 .0301126
792.595 .0301038
793.301 .0300952
794.008 .0300870
794.713 .0300790
795.419 .0300714
796.124 .0300640
796.829 .0300570
797.534 .0300501
798.238 .0300434
798.942 .0300369
799.646 .0300307
800.350 .0300249
801.053 .0300195
801.756 .0300145
802.459 .0300099
803.162 .0300058
803.864 .0300021
804.566 .0299988
805.267 .0299958
805.969 .0299931
806.670 .0299907
807.371 .0299886
808.071 .0299869
808.772 .0299855
809.472 .0299844
810.171 .0299836
810.871 .0299829
811.570 .0299822
812.269 .0299814
812.967 .0299805
813.666 .0299792
814.364 .0299777
815.061 .0299758
815.759 .0299735
816.456 .0299709
817.153 .0299677
817.849 .0299640
818.545 .0299596
819.241 .0299546
819.937 .0299489
820.632 .0299424
821.327 .0299354
822.022 .0299277
822.717 .0299196
823.411 .0299112
824.105 .0299024
824.798 .0298935
825.491 .0298843
826.184 .0298749
826.877 .0298652
827.569 .0298554
828.261 .0298453
828.953 .0298351
829.645 .0298248
830.336 .0298145
831.027 .0298042
831.717 .0297940
832.407 .0297839
833.097 .0297738
833.787 .0297638
834.476 .0297537
835.165 .0297435
835.854 .0297330
836.542 .0297223
837.230 .0297112
837.918 .0296997
838.605 .0296877
839.292 .0296753
839.979 .0296624
840.665 .0296490
841.352 .0296349
842.037 .0296202
842.723 .0296047
843.408 .0295885
844.093 .0295715
844.777 .0295536
845.462 .0295351
846.145 .0295158
846.829 .0294958
847.512 .0294751
848.195 .0294537
848.878 .0294316
849.560 .0294088
850.242 .0293855
850.923 .0293617
851.605 .0293375
852.286 .0293131
852.966 .0292887
853.646 .0292645
854.326 .0292404
855.006 .0292167
855.685 .0291932
856.364 .0291701
857.043 .0291473
857.721 .0291248
858.399 .0291028
859.077 .0290813
859.754 .0290604
860.431 .0290402
861.107 .0290208
861.784 .0290019
862.459 .0289838
863.135 .0289661
863.810 .0289489
864.485 .0289320
865.160 .0289154
865.834 .0288992
866.508 .0288832
867.181 .0288676
867.854 .0288522
868.527 .0288372
869.199 .0288224
869.872 .0288079
870.543 .0287935
871.215 .0287793
871.886 .0287653
872.557 .0287514
873.227 .0287376
873.897 .0287241
874.567 .0287108
875.236 .0286978
875.905 .0286852
876.573 .0286728
877.242 .0286609
877.909 .0286495
878.577 .0286386
879.244 .0286283
879.911 .0286188
880.577 .0286100
881.243 .0286020
881.909 .0285950
882.575 .0285887
883.240 .0285832
883.904 .0285784
884.569 .0285744
885.232 .0285710
885.896 .0285683
886.559 .0285662
887.222 .0285648
887.885 .0285640
888.547 .0285637
889.208 .0285640
889.870 .0285648
890.531 .0285660
891.192 .0285678
891.852 .0285699
892.512 .0285723
893.171 .0285750
893.830 .0285780
894.489 .0285812
895.148 .0285845
895.806 .0285878
896.464 .0285911
897.121 .0285944
897.778 .0285976
898.434 .0286009
899.091 .0286058
899.747 .0286091
900.402 .0286124
901.057 .0286157
901.712 .0286188
902.366 .0286218
903.020 .0286244
903.674 .0286268
904.327 .0286287
904.980 .0286303
905.633 .0286316
906.285 .0286325
906.936 .0286332
907.588 .0286323
908.239 .0286322
908.889 .0286317
909.540 .0286305
910.190 .0286286
910.839 .0286257
911.488 .0286219
912.137 .0286170
912.785 .0286112
913.433 .0286043
914.081 .0285964
914.728 .0285876
915.375 .0285778
916.021 .0285671
916.668 .0285555
917.313 .0285430
917.959 .0285296
918.604 .0285154
919.248 .0285004
919.892 .0284848
920.536 .0284686
921.180 .0284518
921.823 .0284346
922.465 .0284170
923.108 .0283988
923.750 .0283802
924.391 .0283611
925.032 .0283416
925.673 .0283215
926.313 .0283011
926.953 .0282803
927.593 .0282593
928.232 .0282382
928.871 .0282170
929.510 .0281958
930.148 .0281746
930.786 .0281535
931.423 .0281323
932.060 .0281111
932.697 .0280897
933.333 .0280681
933.969 .0280464
934.604 .0280245
935.239 .0280024
935.874 .0279802
936.508 .0279577
937.142 .0279350
937.776 .0279121
938.409 .0278889
939.042 .0278654
939.674 .0278414
940.306 .0278170
940.938 .0277921
941.569 .0277668
942.200 .0277411
942.830 .0277152
943.460 .0276892
944.090 .0276631
944.720 .0276368
945.349 .0276106
945.977 .0275843
946.606 .0275578
947.233 .0275313
947.861 .0275047
948.488 .0274781
949.115 .0274516
949.741 .0274253
950.367 .0273992
950.993 .0273736
951.618 .0273483
952.243 .0273235
952.868 .0272991
953.492 .0272750
954.115 .0272512
954.739 .0272278
955.362 .0272048
955.984 .0271823
956.607 .0271604
957.229 .0271390
957.850 .0271183
958.471 .0270983
959.092 .0270788
959.713 .0270598
960.333 .0270412
960.952 .0270230
961.572 .0270051
962.191 .0269875
962.809 .0269702
963.428 .0269534
964.045 .0269370
964.663 .0269211
965.280 .0269057
965.897 .0268909
966.513 .0268765
967.129 .0268624
967.745 .0268486
968.361 .0268351
968.976 .0268217
969.590 .0268086
970.205 .0267956
970.818 .0267830
971.432 .0267705
972.045 .0267584
972.658 .0267465
973.271 .0267348
973.883 .0267234
974.495 .0267122
975.106 .0267011
975.717 .0266903
976.328 .0266796
976.938 .0266692
977.548 .0266591
978.158 .0266493
978.768 .0266356
979.377 .0266266
979.985 .0266179
980.594 .0266097
981.202 .0266018
981.809 .0265944
982.417 .0265873
983.024 .0265807
983.631 .0265745
984.237 .0265688
984.843 .0265636
985.449 .0265589
986.054 .0265547
986.659 .0265511
987.264 .0265510
987.868 .0265484
988.472 .0265462
989.076 .0265447
989.679 .0265436
990.282 .0265431
990.885 .0265430
991.487 .0265433
992.090 .0265440
992.691 .0265451
993.293 .0265464
993.894 .0265481
994.495 .0265502
995.095 .0265526
995.696 .0265553
996.296 .0265583
996.895 .0265617
997.494 .0265654
998.093 .0265693
998.692 .0265735
999.291 .0265778
999.889 .0265823
1000.487 .0265869
1001.084 .0265917
1001.681 .0265967
1002.278 .0266020
1002.875 .0266076
1003.471 .0266135
1004.067 .0266196
1004.663 .0266260
1005.258 .0266326
1005.854 .0266393
1006.449 .0266461
1007.043 .0266530
1007.638 .0266599
1008.232 .0266671
1008.826 .0266744
1009.419 .0266821
1010.012 .0266900
1010.605 .0266982
1011.198 .0267067
1011.791 .0267152
1012.383 .0267236
1012.975 .0267320
1013.566 .0267402
1014.158 .0267482
1014.749 .0267561
1015.340 .0267638
1015.931 .0267714
1016.521 .0267789
1017.111 .0267862
1017.701 .0267932
1018.291 .0268001
1018.880 .0268065
1019.470 .0268125
1020.059 .0268182
1020.647 .0268234
1021.236 .0268283
1021.824 .0268329
1022.412 .0268374
1023.000 .0268416
1023.588 .0268458
1024.175 .0268498
1024.762 .0268537
1025.349 .0268575
1025.936 .0268612
1026.523 .0268647
1027.109 .0268680
1027.695 .0268711
1028.281 .0268741
1028.867 .0268770
1029.452 .0268797
1030.038 .0268823
1030.623 .0268847
1031.208 .0268870
1031.792 .0268891
1032.377 .0268909
1032.961 .0268924
1033.546 .0268937
1034.130 .0268945
1034.714 .0268949
1035.297 .0268947
1035.881 .0268940
1036.464 .0268927
1037.047 .0268906
1037.630 .0268878
1038.213 .0268844
1038.796 .0268804
1039.378 .0268758
1039.961 .0268708
1040.543 .0268654
1041.125 .0268594
1041.707 .0268530
1042.289 .0268459
1042.871 .0268383
1043.452 .0268301
1044.034 .0268214
1044.615 .0268123
1045.196 .0268028
1045.777 .0267932
1046.358 .0267836
1046.939 .0267742
1047.520 .0267650
1048.101 .0267560
1048.681 .0267471
1049.262 .0267383
1049.842 .0267297
1050.422 .0267211
1051.002 .0267128
1051.582 .0267049
1052.162 .0266974
1052.742 .0266905
1053.322 .0266843
1053.902 .0266787
1054.482 .0266736
1055.061 .0266690
1055.641 .0266647
1056.220 .0266603
1056.800 .0266557
1057.379 .0266508
1057.958 .0266455
1058.538 .0266399
1059.117 .0266338
1059.696 .0266272
1060.275 .0266201
1060.854 .0266122
1061.433 .0266036
1062.012 .0265941
1062.592 .0265835
1063.171 .0265719
1063.750 .0265594
1064.329 .0265459
1064.908 .0265317
1065.487 .0265171
1066.066 .0265021
1066.645 .0264868
1067.224 .0264715
1067.803 .0264560
1068.382 .0264404
1068.961 .0264245
1069.540 .0264084
1070.119 .0263923
1070.698 .0263761
1071.278 .0263599
1071.857 .0263441
1072.436 .0263286
1073.016 .0263136
1073.595 .0262992
1074.175 .0262852
1074.754 .0262718
1075.334 .0262586
1075.913 .0262456
1076.493 .0262328
1077.073 .0262200
1077.653 .0262075
1078.233 .0261953
1078.813 .0261835
1079.393 .0261722
1079.974 .0261615
1080.554 .0261515
1081.135 .0261421
1081.716 .0261332
1082.296 .0261247
1082.877 .0261163
1083.458 .0261076
1084.040 .0260986
1084.621 .0260891
1085.202 .0260793
1085.784 .0260692
1086.366 .0260590
1086.948 .0260488
1087.530 .0260386
1088.112 .0260286
1088.695 .0260187
1089.277 .0260088
1089.860 .0259991
1090.443 .0259893
1091.026 .0259795
1091.610 .0259697
1092.193 .0259602
1092.777 .0259513
1093.361 .0259432
1093.946 .0259362
1094.530 .0259304
1095.115 .0259257
1095.700 .0259222
1096.285 .0259195
1096.871 .0259175
1097.456 .0259157
1098.042 .0259138
1098.628 .0259117
1099.215 .0259094
1099.802 .0259070
1100.389 .0259047
1100.976 .0259025
1101.564 .0259007
1102.152 .0258993
1102.740 .0258982
1103.329 .0258973
1103.917 .0258965
1104.507 .0258956
1105.096 .0258946
1105.686 .0258933
1106.276 .0258920
1106.867 .0258909
1107.457 .0258903
1108.049 .0258904
1108.640 .0258915
1109.232 .0258936
1109.825 .0258968
1110.417 .0259008
1111.010 .0259055
1111.604 .0259106
1112.198 .0259160
1112.792 .0259218
1113.387 .0259278
1113.982 .0259344
1114.577 .0259416
1115.173 .0259497
1115.769 .0259587
1116.366 .0259688
1116.963 .0259798
1117.561 .0259918
1118.159 .0260046
1118.758 .0260182
1119.357 .0260327
1119.957 .0260480
1120.557 .0260643
1121.157 .0260817
1121.758 .0261004
1122.360 .0261204
1122.962 .0261415
1123.564 .0261638
1124.167 .0261745
1124.771 .0261979
1125.375 .0262221
1125.980 .0262466
1126.585 .0262713
1127.191 .0262963
1127.797 .0263214
1128.404 .0263467
1129.012 .0263723
1129.620 .0263980
1130.229 .0264238
1130.838 .0264497
1131.448 .0264754
1132.058 .0265010
1132.669 .0265389
1133.281 .0265641
1133.894 .0265887
1134.507 .0266087
1135.120 .0266375
1135.735 .0266573
1136.350 .0266783
1136.965 .0267762
1137.582 .0268039
1138.199 .0268262
1138.816 .0268455
1139.435 .0268568
1140.054 .0268708
1140.674 .0268782
1141.294 .0268823
1141.916 .0268833
1142.538 .0267714
1143.160 .0270213
1143.784 .0267928
1144.408 .0268417
1145.033 .0268761
