Measurement Sequence started on: 14-45-04-498
Integration time: 36
Scans to Average: 2 
>>>>>Begin Spectral Data<<<<<
433.946 .0707639
434.870 .0535614
435.793 .0498732
436.715 .0512633
437.635 .0513892
438.555 .0521783
439.473 .0515030
440.389 .0514853
441.305 .0515550
442.219 .0515468
443.132 .0513731
444.044 .0512237
444.954 .0512625
445.863 .0512211
446.771 .0511653
447.678 .0510597
448.584 .0509812
449.488 .0508959
450.391 .0508003
451.293 .0506994
452.194 .0505955
453.094 .0504908
453.992 .0503856
454.890 .0502811
455.786 .0501771
456.681 .0500730
457.575 .0499676
458.468 .0498606
459.360 .0497522
460.250 .0496430
461.140 .0495338
462.028 .0494269
462.915 .0493240
463.801 .0492266
464.687 .0491350
465.571 .0490493
466.454 .0489681
467.335 .0488901
468.216 .0488137
469.096 .0487377
469.975 .0486617
470.853 .0485861
471.729 .0485116
472.605 .0484396
473.479 .0483713
474.353 .0483076
475.226 .0482487
476.097 .0481943
476.968 .0481436
477.838 .0480954
478.706 .0480485
479.574 .0480023
480.441 .0479561
481.306 .0479100
482.171 .0478644
483.035 .0478195
483.898 .0477759
484.760 .0477335
485.621 .0476923
486.481 .0476518
487.340 .0476117
488.198 .0475713
489.055 .0475300
489.912 .0474877
490.767 .0474445
491.622 .0473775
492.476 .0473333
493.329 .0472888
494.180 .0472442
495.032 .0472004
495.882 .0471575
496.731 .0471157
497.580 .0470756
498.427 .0470372
499.274 .0470005
500.120 .0469873
500.965 .0469523
501.809 .0469180
502.653 .0468840
503.495 .0468502
504.337 .0468162
505.178 .0467822
506.018 .0467483
506.858 .0467144
507.696 .0466808
508.534 .0466476
509.371 .0466153
510.208 .0465847
511.043 .0465562
511.878 .0465308
512.712 .0465092
513.545 .0464916
514.377 .0464784
515.209 .0464692
516.040 .0464636
516.870 .0464610
517.699 .0464609
518.528 .0464632
519.356 .0464669
520.183 .0464718
521.010 .0464779
521.836 .0464851
522.661 .0464928
523.485 .0465008
524.309 .0465084
525.132 .0465152
525.954 .0465203
526.776 .0465226
527.597 .0465212
528.417 .0465149
529.237 .0465032
530.056 .0464853
530.874 .0464606
531.692 .0464291
532.508 .0463910
533.325 .0463473
534.140 .0462984
534.955 .0462453
535.770 .0461886
536.583 .0461293
537.397 .0460682
538.209 .0460051
539.021 .0459401
539.832 .0458735
540.643 .0458054
541.453 .0457358
542.262 .0456650
543.071 .0455935
543.879 .0455222
544.687 .0454517
545.494 .0453821
546.300 .0453134
547.106 .0452455
547.911 .0451784
548.716 .0451112
549.520 .0450439
550.323 .0449758
551.126 .0449068
551.929 .0448370
552.731 .0447666
553.532 .0446957
554.332 .0446237
555.133 .0445513
555.932 .0444784
556.731 .0444048
557.530 .0443303
558.328 .0442552
559.125 .0441795
559.922 .0441031
560.719 .0440259
561.515 .0439479
562.310 .0438694
563.105 .0437906
563.899 .0437114
564.693 .0436320
565.487 .0435527
566.280 .0434738
567.072 .0433953
567.864 .0433177
568.655 .0432409
569.446 .0431654
570.236 .0430914
571.026 .0430195
571.816 .0429499
572.605 .0428828
573.393 .0428186
574.181 .0427572
574.969 .0426985
575.756 .0426425
576.543 .0425889
577.329 .0425378
578.115 .0424888
578.900 .0424418
579.685 .0423963
580.469 .0423525
581.253 .0423102
582.036 .0422693
582.820 .0422295
583.602 .0421907
584.384 .0421528
585.166 .0421157
585.947 .0420792
586.728 .0420433
587.509 .0420081
588.289 .0419735
589.069 .0419397
589.848 .0419065
590.627 .0418742
591.405 .0418427
592.183 .0418120
592.961 .0417820
593.738 .0417529
594.515 .0417245
595.291 .0416971
596.067 .0416706
596.843 .0416453
597.618 .0416211
598.393 .0415889
599.167 .0415675
599.941 .0415471
600.715 .0415277
601.488 .0415092
602.261 .0414913
603.034 .0414740
603.806 .0414572
604.578 .0414406
605.349 .0414243
606.121 .0414081
606.891 .0414002
607.662 .0413841
608.432 .0413680
609.201 .0413519
609.971 .0413360
610.740 .0413203
611.508 .0413046
612.277 .0412890
613.045 .0412734
613.812 .0412577
614.579 .0412419
615.346 .0412258
616.113 .0412095
616.879 .0411929
617.645 .0411760
618.411 .0411588
619.176 .0411413
619.941 .0411235
620.705 .0411054
621.470 .0410870
622.233 .0410681
622.997 .0410488
623.760 .0410292
624.523 .0410093
625.286 .0409892
626.048 .0409689
626.810 .0409485
627.572 .0409281
628.333 .0409076
629.095 .0408871
629.855 .0408665
630.616 .0408457
631.376 .0408249
632.136 .0408039
632.895 .0407828
633.655 .0407617
634.414 .0407405
635.172 .0407192
635.931 .0406978
636.689 .0406763
637.447 .0406546
638.204 .0406327
638.962 .0406107
639.718 .0405884
640.475 .0405659
641.231 .0405433
641.988 .0405203
642.743 .0404970
643.499 .0404732
644.254 .0404489
645.009 .0404241
645.764 .0403987
646.518 .0403727
647.272 .0403462
648.026 .0403192
648.780 .0402918
649.533 .0402641
650.286 .0402359
651.039 .0402074
651.792 .0401785
652.544 .0401493
653.296 .0401198
654.048 .0400901
654.799 .0400604
655.550 .0400306
656.301 .0400010
657.052 .0399716
657.802 .0399424
658.552 .0399135
659.302 .0398849
660.052 .0398566
660.801 .0398288
661.550 .0398014
662.299 .0397745
663.048 .0397481
663.796 .0397223
664.544 .0396972
665.292 .0396726
666.040 .0396486
666.787 .0396252
667.534 .0396023
668.281 .0395799
669.028 .0395580
669.774 .0395367
670.521 .0395158
671.266 .0394955
672.012 .0394757
672.758 .0394562
673.503 .0394371
674.248 .0394184
674.992 .0393998
675.737 .0393815
676.481 .0393632
677.225 .0393449
677.969 .0393265
678.712 .0393081
679.455 .0392896
680.199 .0392710
680.941 .0392524
681.684 .0392338
682.426 .0392152
683.168 .0391967
683.910 .0391783
684.652 .0391601
685.393 .0391421
686.134 .0391241
686.875 .0391062
687.616 .0390883
688.356 .0390703
689.097 .0390524
689.837 .0390344
690.576 .0390163
691.316 .0389981
692.055 .0389798
692.794 .0389615
693.533 .0389429
694.272 .0389243
695.010 .0389055
695.748 .0388866
696.486 .0388674
697.224 .0388480
697.962 .0388284
698.699 .0388084
699.436 .0387881
700.173 .0387676
700.909 .0387468
701.646 .0387257
702.382 .0387045
703.118 .0386830
703.853 .0386613
704.589 .0386395
705.324 .0386175
706.059 .0385953
706.794 .0385729
707.529 .0385503
708.263 .0385275
708.997 .0385046
709.731 .0384817
710.465 .0384589
711.198 .0384361
711.931 .0384135
712.664 .0383911
713.397 .0383689
714.130 .0383469
714.862 .0383251
715.594 .0383036
716.326 .0382824
717.058 .0382614
717.789 .0382407
718.520 .0382203
719.251 .0382004
719.982 .0381807
720.713 .0381615
721.443 .0381427
722.173 .0381242
722.903 .0381061
723.633 .0380884
724.362 .0380711
725.091 .0380542
725.820 .0380377
726.549 .0380216
727.278 .0380058
728.006 .0379905
728.734 .0379755
729.462 .0379610
730.190 .0379468
730.917 .0379331
731.644 .0379198
732.371 .0379069
733.098 .0378944
733.825 .0378823
734.551 .0378705
735.277 .0378591
736.003 .0378482
736.728 .0378376
737.454 .0378275
738.179 .0378180
738.904 .0378089
739.629 .0378005
740.353 .0377925
741.077 .0377850
741.801 .0377779
742.525 .0377711
743.249 .0377645
743.972 .0377580
744.695 .0377517
745.418 .0377454
746.141 .0377390
746.863 .0377326
747.585 .0377259
748.307 .0377189
749.029 .0377114
749.750 .0377034
750.472 .0376946
751.193 .0376851
751.913 .0376748
752.634 .0376637
753.354 .0376517
754.074 .0376390
754.794 .0376255
755.514 .0376113
756.233 .0375965
756.952 .0375811
757.671 .0375650
758.390 .0375484
759.108 .0375313
759.826 .0375138
760.544 .0374958
761.262 .0374775
761.979 .0374588
762.697 .0374399
763.414 .0374209
764.130 .0374019
764.847 .0373828
765.563 .0373640
766.279 .0373453
766.995 .0373268
767.710 .0373086
768.426 .0372907
769.141 .0372728
769.855 .0372552
770.570 .0372376
771.284 .0372201
771.998 .0372028
772.712 .0371855
773.426 .0371686
774.139 .0371518
774.852 .0371354
775.565 .0371194
776.277 .0371037
776.990 .0370884
777.702 .0370735
778.414 .0370589
779.125 .0370446
779.836 .0370306
780.547 .0370169
781.258 .0370034
781.969 .0369901
782.679 .0369771
783.389 .0369586
784.099 .0369460
784.808 .0369337
785.517 .0369215
786.226 .0369095
786.935 .0368976
787.643 .0368858
788.352 .0368739
789.060 .0368620
789.767 .0368501
790.475 .0368383
791.182 .0368265
791.889 .0368205
792.595 .0368090
793.301 .0367977
794.008 .0367865
794.713 .0367754
795.419 .0367644
796.124 .0367536
796.829 .0367427
797.534 .0367319
798.238 .0367211
798.942 .0367103
799.646 .0366996
800.350 .0366888
801.053 .0366781
801.756 .0366673
802.459 .0366565
803.162 .0366457
803.864 .0366349
804.566 .0366243
805.267 .0366137
805.969 .0366032
806.670 .0365929
807.371 .0365828
808.071 .0365728
808.772 .0365629
809.472 .0365532
810.171 .0365435
810.871 .0365337
811.570 .0365240
812.269 .0365142
812.967 .0365044
813.666 .0364943
814.364 .0364841
815.061 .0364737
815.759 .0364630
816.456 .0364519
817.153 .0364407
817.849 .0364291
818.545 .0364173
819.241 .0364052
819.937 .0363928
820.632 .0363801
821.327 .0363670
822.022 .0363534
822.717 .0363394
823.411 .0363247
824.105 .0363095
824.798 .0362937
825.491 .0362773
826.184 .0362604
826.877 .0362428
827.569 .0362248
828.261 .0362062
828.953 .0361871
829.645 .0361675
830.336 .0361475
831.027 .0361271
831.717 .0361065
832.407 .0360858
833.097 .0360649
833.787 .0360440
834.476 .0360232
835.165 .0360024
835.854 .0359817
836.542 .0359611
837.230 .0359407
837.918 .0359204
838.605 .0359003
839.292 .0358803
839.979 .0358604
840.665 .0358406
841.352 .0358209
842.037 .0358013
842.723 .0357816
843.408 .0357620
844.093 .0357422
844.777 .0357224
845.462 .0357024
846.145 .0356824
846.829 .0356623
847.512 .0356420
848.195 .0356217
848.878 .0356013
849.560 .0355807
850.242 .0355601
850.923 .0355392
851.605 .0355182
852.286 .0354969
852.966 .0354753
853.646 .0354535
854.326 .0354313
855.006 .0354089
855.685 .0353864
856.364 .0353638
857.043 .0353412
857.721 .0353186
858.399 .0352962
859.077 .0352741
859.754 .0352522
860.431 .0352306
861.107 .0352095
861.784 .0351888
862.459 .0351688
863.135 .0351493
863.810 .0351306
864.485 .0351125
865.160 .0350953
865.834 .0350788
866.508 .0350629
867.181 .0350478
867.854 .0350333
868.527 .0350194
869.199 .0350061
869.872 .0349934
870.543 .0349814
871.215 .0349699
871.886 .0349590
872.557 .0349487
873.227 .0349387
873.897 .0349292
874.567 .0349199
875.236 .0349108
875.905 .0349018
876.573 .0348928
877.242 .0348839
877.909 .0348750
878.577 .0348660
879.244 .0348570
879.911 .0348479
880.577 .0348388
881.243 .0348296
881.909 .0348203
882.575 .0348109
883.240 .0348014
883.904 .0347918
884.569 .0347822
885.232 .0347726
885.896 .0347630
886.559 .0347535
887.222 .0347442
887.885 .0347350
888.547 .0347262
889.208 .0347176
889.870 .0347094
890.531 .0347016
891.192 .0346941
891.852 .0346871
892.512 .0346804
893.171 .0346740
893.830 .0346678
894.489 .0346618
895.148 .0346560
895.806 .0346501
896.464 .0346443
897.121 .0346384
897.778 .0346325
898.434 .0346266
899.091 .0346172
899.747 .0346109
900.402 .0346043
901.057 .0345973
901.712 .0345898
902.366 .0345818
903.020 .0345732
903.674 .0345639
904.327 .0345539
904.980 .0345431
905.633 .0345317
906.285 .0345195
906.936 .0345065
907.588 .0344978
908.239 .0344834
908.889 .0344682
909.540 .0344522
910.190 .0344353
910.839 .0344175
911.488 .0343990
912.137 .0343798
912.785 .0343600
913.433 .0343394
914.081 .0343182
914.728 .0342962
915.375 .0342736
916.021 .0342502
916.668 .0342263
917.313 .0342018
917.959 .0341769
918.604 .0341516
919.248 .0341262
919.892 .0341004
920.536 .0340744
921.180 .0340481
921.823 .0340214
922.465 .0339942
923.108 .0339665
923.750 .0339383
924.391 .0339097
925.032 .0338808
925.673 .0338516
926.313 .0338221
926.953 .0337924
927.593 .0337625
928.232 .0337323
928.871 .0337019
929.510 .0336711
930.148 .0336401
930.786 .0336088
931.423 .0335774
932.060 .0335459
932.697 .0335145
933.333 .0334832
933.969 .0334521
934.604 .0334212
935.239 .0333905
935.874 .0333601
936.508 .0333299
937.142 .0332999
937.776 .0332703
938.409 .0332410
939.042 .0332121
939.674 .0331836
940.306 .0331556
940.938 .0331281
941.569 .0331010
942.200 .0330745
942.830 .0330484
943.460 .0330229
944.090 .0329979
944.720 .0329736
945.349 .0329500
945.977 .0329269
946.606 .0329045
947.233 .0328827
947.861 .0328614
948.488 .0328407
949.115 .0328204
949.741 .0328006
950.367 .0327811
950.993 .0327621
951.618 .0327434
952.243 .0327251
952.868 .0327070
953.492 .0326893
954.115 .0326718
954.739 .0326546
955.362 .0326378
955.984 .0326213
956.607 .0326053
957.229 .0325899
957.850 .0325750
958.471 .0325608
959.092 .0325472
959.713 .0325343
960.333 .0325220
960.952 .0325102
961.572 .0324991
962.191 .0324886
962.809 .0324789
963.428 .0324699
964.045 .0324617
964.663 .0324543
965.280 .0324478
965.897 .0324421
966.513 .0324370
967.129 .0324325
967.745 .0324285
968.361 .0324249
968.976 .0324217
969.590 .0324188
970.205 .0324163
970.818 .0324142
971.432 .0324125
972.045 .0324111
972.658 .0324101
973.271 .0324094
973.883 .0324087
974.495 .0324082
975.106 .0324076
975.717 .0324070
976.328 .0324064
976.938 .0324057
977.548 .0324051
978.158 .0324045
978.768 .0324031
979.377 .0324027
979.985 .0324022
980.594 .0324016
981.202 .0324008
981.809 .0324000
982.417 .0323990
983.024 .0323979
983.631 .0323969
984.237 .0323960
984.843 .0323952
985.449 .0323946
986.054 .0323942
986.659 .0323941
987.264 .0323949
987.868 .0323950
988.472 .0323952
989.076 .0323956
989.679 .0323962
990.282 .0323970
990.885 .0323981
991.487 .0323994
992.090 .0324010
992.691 .0324028
993.293 .0324048
993.894 .0324069
994.495 .0324089
995.095 .0324108
995.696 .0324124
996.296 .0324138
996.895 .0324149
997.494 .0324156
998.093 .0324161
998.692 .0324162
999.291 .0324159
999.889 .0324152
1000.487 .0324142
1001.084 .0324126
1001.681 .0324106
1002.278 .0324081
1002.875 .0324051
1003.471 .0324017
1004.067 .0323979
1004.663 .0323937
1005.258 .0323890
1005.854 .0323837
1006.449 .0323780
1007.043 .0323717
1007.638 .0323649
1008.232 .0323576
1008.826 .0323498
1009.419 .0323418
1010.012 .0323334
1010.605 .0323247
1011.198 .0323158
1011.791 .0323067
1012.383 .0322973
1012.975 .0322876
1013.566 .0322777
1014.158 .0322676
1014.749 .0322574
1015.340 .0322473
1015.931 .0322372
1016.521 .0322274
1017.111 .0322178
1017.701 .0322085
1018.291 .0321994
1018.880 .0321905
1019.470 .0321818
1020.059 .0321732
1020.647 .0321647
1021.236 .0321563
1021.824 .0321481
1022.412 .0321402
1023.000 .0321324
1023.588 .0321249
1024.175 .0321175
1024.762 .0321100
1025.349 .0321025
1025.936 .0320947
1026.523 .0320866
1027.109 .0320781
1027.695 .0320692
1028.281 .0320601
1028.867 .0320506
1029.452 .0320410
1030.038 .0320311
1030.623 .0320212
1031.208 .0320112
1031.792 .0320011
1032.377 .0319908
1032.961 .0319803
1033.546 .0319696
1034.130 .0319586
1034.714 .0319473
1035.297 .0319358
1035.881 .0319241
1036.464 .0319121
1037.047 .0319000
1037.630 .0318876
1038.213 .0318751
1038.796 .0318623
1039.378 .0318494
1039.961 .0318361
1040.543 .0318225
1041.125 .0318086
1041.707 .0317943
1042.289 .0317797
1042.871 .0317648
1043.452 .0317498
1044.034 .0317347
1044.615 .0317197
1045.196 .0317050
1045.777 .0316905
1046.358 .0316762
1046.939 .0316623
1047.520 .0316485
1048.101 .0316347
1048.681 .0316209
1049.262 .0316069
1049.842 .0315927
1050.422 .0315784
1051.002 .0315640
1051.582 .0315496
1052.162 .0315354
1052.742 .0315213
1053.322 .0315075
1053.902 .0314939
1054.482 .0314803
1055.061 .0314668
1055.641 .0314532
1056.220 .0314396
1056.800 .0314259
1057.379 .0314124
1057.958 .0313991
1058.538 .0313863
1059.117 .0313741
1059.696 .0313625
1060.275 .0313515
1060.854 .0313413
1061.433 .0313315
1062.012 .0313222
1062.592 .0313133
1063.171 .0313047
1063.750 .0312966
1064.329 .0312889
1064.908 .0312818
1065.487 .0312754
1066.066 .0312697
1066.645 .0312647
1067.224 .0312603
1067.803 .0312562
1068.382 .0312524
1068.961 .0312487
1069.540 .0312449
1070.119 .0312410
1070.698 .0312370
1071.278 .0312329
1071.857 .0312287
1072.436 .0312245
1073.016 .0312204
1073.595 .0312164
1074.175 .0312125
1074.754 .0312087
1075.334 .0312049
1075.913 .0312012
1076.493 .0311975
1077.073 .0311941
1077.653 .0311907
1078.233 .0311876
1078.813 .0311849
1079.393 .0311824
1079.974 .0311805
1080.554 .0311789
1081.135 .0311778
1081.716 .0311772
1082.296 .0311772
1082.877 .0311776
1083.458 .0311785
1084.040 .0311802
1084.621 .0311826
1085.202 .0311859
1085.784 .0311901
1086.366 .0311954
1086.948 .0312019
1087.530 .0312094
1088.112 .0312181
1088.695 .0312280
1089.277 .0312390
1089.860 .0312510
1090.443 .0312641
1091.026 .0312782
1091.610 .0312931
1092.193 .0313085
1092.777 .0313243
1093.361 .0313403
1093.946 .0313562
1094.530 .0313717
1095.115 .0313866
1095.700 .0314008
1096.285 .0314141
1096.871 .0314264
1097.456 .0314376
1098.042 .0314479
1098.628 .0314572
1099.215 .0314655
1099.802 .0314731
1100.389 .0314799
1100.976 .0314860
1101.564 .0314915
1102.152 .0314965
1102.740 .0315011
1103.329 .0315053
1103.917 .0315093
1104.507 .0315134
1105.096 .0315176
1105.686 .0315221
1106.276 .0315270
1106.867 .0315326
1107.457 .0315388
1108.049 .0315456
1108.640 .0315530
1109.232 .0315612
1109.825 .0315702
1110.417 .0315799
1111.010 .0315904
1111.604 .0316020
1112.198 .0316149
1112.792 .0316292
1113.387 .0316449
1113.982 .0316622
1114.577 .0316808
1115.173 .0317008
1115.769 .0317219
1116.366 .0317442
1116.963 .0317672
1117.561 .0317912
1118.159 .0318160
1118.758 .0318415
1119.357 .0318674
1119.957 .0318938
1120.557 .0319204
1121.157 .0319470
1121.758 .0319735
1122.360 .0319996
1122.962 .0320252
1123.564 .0320503
1124.167 .0320638
1124.771 .0320877
1125.375 .0321109
1125.980 .0321335
1126.585 .0321555
1127.191 .0321770
1127.797 .0321980
1128.404 .0322186
1129.012 .0322389
1129.620 .0322589
1130.229 .0322788
1130.838 .0322986
1131.448 .0323182
1132.058 .0323381
1132.669 .0323682
1133.281 .0323887
1133.894 .0324099
1134.507 .0324309
1135.120 .0324569
1135.735 .0324725
1136.350 .0324977
1136.965 .0324737
1137.582 .0324953
1138.199 .0325186
1138.816 .0325411
1139.435 .0325665
1140.054 .0326005
1140.674 .0326295
1141.294 .0326664
1141.916 .0327038
1142.538 .0327232
1143.160 .0328828
1143.784 .0326269
1144.408 .0329060
1145.033 .0329663
