Measurement Sequence started on: 14-45-04-498
Integration time: 36
Scans to Average: 2 
>>>>>Begin Spectral Data<<<<<
433.946 .0463501
434.870 .0444675
435.793 .0412633
436.715 .0414562
437.635 .0397200
438.555 .0402186
439.473 .0395915
440.389 .0391272
441.305 .0388149
442.219 .0385451
443.132 .0391900
444.044 .0388537
444.954 .0386839
445.863 .0385007
446.771 .0384049
447.678 .0382782
448.584 .0381796
449.488 .0381006
450.391 .0380328
451.293 .0379742
452.194 .0379204
453.094 .0378694
453.992 .0378187
454.890 .0377660
455.786 .0377102
456.681 .0376505
457.575 .0375868
458.468 .0375196
459.360 .0374503
460.250 .0373800
461.140 .0373099
462.028 .0372414
462.915 .0371758
463.801 .0371138
464.687 .0370559
465.571 .0370020
466.454 .0369520
467.335 .0369052
468.216 .0368613
469.096 .0368194
469.975 .0367790
470.853 .0367395
471.729 .0367002
472.605 .0366611
473.479 .0366224
474.353 .0365835
475.226 .0365441
476.097 .0365040
476.968 .0364627
477.838 .0364193
478.706 .0363735
479.574 .0363251
480.441 .0362741
481.306 .0362210
482.171 .0361663
483.035 .0361106
483.898 .0360552
484.760 .0360006
485.621 .0359477
486.481 .0358970
487.340 .0358489
488.198 .0358033
489.055 .0357600
489.912 .0357190
490.767 .0356800
491.622 .0356300
492.476 .0355959
493.329 .0355636
494.180 .0355328
495.032 .0355032
495.882 .0354745
496.731 .0354460
497.580 .0354175
498.427 .0353882
499.274 .0353581
500.120 .0353391
500.965 .0353069
501.809 .0352736
502.653 .0352395
503.495 .0352049
504.337 .0351701
505.178 .0351356
506.018 .0351016
506.858 .0350680
507.696 .0350352
508.534 .0350032
509.371 .0349721
510.208 .0349421
511.043 .0349138
511.878 .0348872
512.712 .0348628
513.545 .0348405
514.377 .0348204
515.209 .0348022
516.040 .0347852
516.870 .0347684
517.699 .0347508
518.528 .0347313
519.356 .0347090
520.183 .0346827
521.010 .0346521
521.836 .0346169
522.661 .0345766
523.485 .0345314
524.309 .0344816
525.132 .0344276
525.954 .0343697
526.776 .0343080
527.597 .0342425
528.417 .0341727
529.237 .0340987
530.056 .0340206
530.874 .0339389
531.692 .0338543
532.508 .0337678
533.325 .0336811
534.140 .0335958
534.955 .0335136
535.770 .0334362
536.583 .0333648
537.397 .0333004
538.209 .0332430
539.021 .0331923
539.832 .0331481
540.643 .0331099
541.453 .0330770
542.262 .0330483
543.071 .0330236
543.879 .0330021
544.687 .0329839
545.494 .0329689
546.300 .0329571
547.106 .0329480
547.911 .0329414
548.716 .0329363
549.520 .0329319
550.323 .0329272
551.126 .0329217
551.929 .0329145
552.731 .0329049
553.532 .0328926
554.332 .0328772
555.133 .0328588
555.932 .0328384
556.731 .0328160
557.530 .0327920
558.328 .0327667
559.125 .0327404
559.922 .0327131
560.719 .0326850
561.515 .0326561
562.310 .0326263
563.105 .0325956
563.899 .0325640
564.693 .0325314
565.487 .0324979
566.280 .0324640
567.072 .0324299
567.864 .0323955
568.655 .0323610
569.446 .0323262
570.236 .0322913
571.026 .0322563
571.816 .0322209
572.605 .0321850
573.393 .0321483
574.181 .0321111
574.969 .0320731
575.756 .0320347
576.543 .0319962
577.329 .0319580
578.115 .0319203
578.900 .0318835
579.685 .0318475
580.469 .0318125
581.253 .0317788
582.036 .0317463
582.820 .0317148
583.602 .0316842
584.384 .0316544
585.166 .0316254
585.947 .0315971
586.728 .0315694
587.509 .0315424
588.289 .0315162
589.069 .0314908
589.848 .0314661
590.627 .0314419
591.405 .0314182
592.183 .0313948
592.961 .0313714
593.738 .0313479
594.515 .0313242
595.291 .0313003
596.067 .0312764
596.843 .0312527
597.618 .0312292
598.393 .0311968
599.167 .0311748
599.941 .0311533
600.715 .0311323
601.488 .0311119
602.261 .0310919
603.034 .0310723
603.806 .0310531
604.578 .0310343
605.349 .0310158
606.121 .0309978
606.891 .0309894
607.662 .0309719
608.432 .0309548
609.201 .0309381
609.971 .0309218
610.740 .0309057
611.508 .0308899
612.277 .0308742
613.045 .0308586
613.812 .0308430
614.579 .0308274
615.346 .0308119
616.113 .0307964
616.879 .0307810
617.645 .0307655
618.411 .0307500
619.176 .0307344
619.941 .0307185
620.705 .0307023
621.470 .0306858
622.233 .0306688
622.997 .0306514
623.760 .0306335
624.523 .0306153
625.286 .0305969
626.048 .0305781
626.810 .0305592
627.572 .0305402
628.333 .0305210
629.095 .0305016
629.855 .0304821
630.616 .0304624
631.376 .0304425
632.136 .0304225
632.895 .0304024
633.655 .0303822
634.414 .0303621
635.172 .0303420
635.931 .0303221
636.689 .0303024
637.447 .0302830
638.204 .0302638
638.962 .0302448
639.718 .0302261
640.475 .0302075
641.231 .0301891
641.988 .0301708
642.743 .0301525
643.499 .0301343
644.254 .0301161
645.009 .0300979
645.764 .0300797
646.518 .0300616
647.272 .0300435
648.026 .0300255
648.780 .0300077
649.533 .0299899
650.286 .0299724
651.039 .0299552
651.792 .0299383
652.544 .0299218
653.296 .0299056
654.048 .0298899
654.799 .0298745
655.550 .0298596
656.301 .0298451
657.052 .0298310
657.802 .0298174
658.552 .0298042
659.302 .0297915
660.052 .0297792
660.801 .0297674
661.550 .0297560
662.299 .0297450
663.048 .0297343
663.796 .0297238
664.544 .0297134
665.292 .0297032
666.040 .0296930
666.787 .0296829
667.534 .0296728
668.281 .0296627
669.028 .0296526
669.774 .0296424
670.521 .0296323
671.266 .0296221
672.012 .0296120
672.758 .0296020
673.503 .0295919
674.248 .0295818
674.992 .0295717
675.737 .0295614
676.481 .0295510
677.225 .0295405
677.969 .0295297
678.712 .0295189
679.455 .0295078
680.199 .0294967
680.941 .0294856
681.684 .0294744
682.426 .0294632
683.168 .0294519
683.910 .0294405
684.652 .0294289
685.393 .0294173
686.134 .0294054
686.875 .0293934
687.616 .0293814
688.356 .0293693
689.097 .0293572
689.837 .0293452
690.576 .0293334
691.316 .0293216
692.055 .0293101
692.794 .0292986
693.533 .0292872
694.272 .0292759
695.010 .0292646
695.748 .0292533
696.486 .0292421
697.224 .0292308
697.962 .0292195
698.699 .0292081
699.436 .0291968
700.173 .0291854
700.909 .0291740
701.646 .0291625
702.382 .0291510
703.118 .0291394
703.853 .0291277
704.589 .0291159
705.324 .0291040
706.059 .0290919
706.794 .0290796
707.529 .0290673
708.263 .0290548
708.997 .0290422
709.731 .0290296
710.465 .0290169
711.198 .0290043
711.931 .0289916
712.664 .0289790
713.397 .0289663
714.130 .0289536
714.862 .0289408
715.594 .0289278
716.326 .0289146
717.058 .0289013
717.789 .0288878
718.520 .0288742
719.251 .0288603
719.982 .0288464
720.713 .0288323
721.443 .0288181
722.173 .0288038
722.903 .0287895
723.633 .0287752
724.362 .0287609
725.091 .0287466
725.820 .0287323
726.549 .0287182
727.278 .0287041
728.006 .0286902
728.734 .0286764
729.462 .0286627
730.190 .0286494
730.917 .0286362
731.644 .0286234
732.371 .0286108
733.098 .0285986
733.825 .0285866
734.551 .0285749
735.277 .0285634
736.003 .0285522
736.728 .0285413
737.454 .0285306
738.179 .0285202
738.904 .0285101
739.629 .0285003
740.353 .0284907
741.077 .0284813
741.801 .0284720
742.525 .0284630
743.249 .0284542
743.972 .0284455
744.695 .0284371
745.418 .0284290
746.141 .0284211
746.863 .0284133
747.585 .0284058
748.307 .0283984
749.029 .0283910
749.750 .0283837
750.472 .0283764
751.193 .0283691
751.913 .0283618
752.634 .0283546
753.354 .0283474
754.074 .0283401
754.794 .0283327
755.514 .0283253
756.233 .0283176
756.952 .0283099
757.671 .0283019
758.390 .0282938
759.108 .0282856
759.826 .0282772
760.544 .0282687
761.262 .0282601
761.979 .0282513
762.697 .0282422
763.414 .0282330
764.130 .0282235
764.847 .0282139
765.563 .0282042
766.279 .0281943
766.995 .0281844
767.710 .0281744
768.426 .0281643
769.141 .0281542
769.855 .0281438
770.570 .0281333
771.284 .0281227
771.998 .0281118
772.712 .0281008
773.426 .0280897
774.139 .0280785
774.852 .0280672
775.565 .0280558
776.277 .0280443
776.990 .0280327
777.702 .0280209
778.414 .0280091
779.125 .0279972
779.836 .0279853
780.547 .0279735
781.258 .0279618
781.969 .0279503
782.679 .0279390
783.389 .0279232
784.099 .0279126
784.808 .0279021
785.517 .0278918
786.226 .0278817
786.935 .0278718
787.643 .0278621
788.352 .0278528
789.060 .0278437
789.767 .0278350
790.475 .0278265
791.182 .0278182
791.889 .0278146
792.595 .0278066
793.301 .0277987
794.008 .0277911
794.713 .0277835
795.419 .0277761
796.124 .0277689
796.829 .0277618
797.534 .0277548
798.238 .0277479
798.942 .0277412
799.646 .0277344
800.350 .0277278
801.053 .0277211
801.756 .0277145
802.459 .0277080
803.162 .0277016
803.864 .0276952
804.566 .0276890
805.267 .0276829
805.969 .0276769
806.670 .0276709
807.371 .0276651
808.071 .0276592
808.772 .0276533
809.472 .0276474
810.171 .0276415
810.871 .0276355
811.570 .0276294
812.269 .0276231
812.967 .0276167
813.666 .0276099
814.364 .0276029
815.061 .0275955
815.759 .0275879
816.456 .0275798
817.153 .0275715
817.849 .0275629
818.545 .0275539
819.241 .0275445
819.937 .0275349
820.632 .0275249
821.327 .0275147
822.022 .0275040
822.717 .0274931
823.411 .0274819
824.105 .0274704
824.798 .0274586
825.491 .0274466
826.184 .0274343
826.877 .0274219
827.569 .0274094
828.261 .0273968
828.953 .0273842
829.645 .0273717
830.336 .0273592
831.027 .0273468
831.717 .0273344
832.407 .0273220
833.097 .0273098
833.787 .0272975
834.476 .0272853
835.165 .0272732
835.854 .0272613
836.542 .0272494
837.230 .0272376
837.918 .0272260
838.605 .0272143
839.292 .0272026
839.979 .0271908
840.665 .0271789
841.352 .0271667
842.037 .0271545
842.723 .0271420
843.408 .0271293
844.093 .0271165
844.777 .0271034
845.462 .0270902
846.145 .0270768
846.829 .0270631
847.512 .0270492
848.195 .0270350
848.878 .0270208
849.560 .0270064
850.242 .0269918
850.923 .0269772
851.605 .0269625
852.286 .0269478
852.966 .0269329
853.646 .0269181
854.326 .0269032
855.006 .0268883
855.685 .0268734
856.364 .0268587
857.043 .0268442
857.721 .0268300
858.399 .0268160
859.077 .0268023
859.754 .0267890
860.431 .0267760
861.107 .0267634
861.784 .0267511
862.459 .0267390
863.135 .0267272
863.810 .0267156
864.485 .0267043
865.160 .0266932
865.834 .0266823
866.508 .0266716
867.181 .0266611
867.854 .0266509
868.527 .0266409
869.199 .0266310
869.872 .0266214
870.543 .0266120
871.215 .0266028
871.886 .0265938
872.557 .0265850
873.227 .0265765
873.897 .0265682
874.567 .0265601
875.236 .0265521
875.905 .0265443
876.573 .0265365
877.242 .0265289
877.909 .0265214
878.577 .0265139
879.244 .0265066
879.911 .0264995
880.577 .0264925
881.243 .0264857
881.909 .0264790
882.575 .0264724
883.240 .0264659
883.904 .0264595
884.569 .0264532
885.232 .0264471
885.896 .0264412
886.559 .0264355
887.222 .0264300
887.885 .0264247
888.547 .0264197
889.208 .0264148
889.870 .0264100
890.531 .0264054
891.192 .0264008
891.852 .0263962
892.512 .0263918
893.171 .0263873
893.830 .0263829
894.489 .0263785
895.148 .0263741
895.806 .0263696
896.464 .0263651
897.121 .0263606
897.778 .0263560
898.434 .0263514
899.091 .0263441
899.747 .0263394
900.402 .0263348
901.057 .0263301
901.712 .0263254
902.366 .0263206
903.020 .0263157
903.674 .0263106
904.327 .0263053
904.980 .0262998
905.633 .0262941
906.285 .0262881
906.936 .0262819
907.588 .0262783
908.239 .0262716
908.889 .0262645
909.540 .0262571
910.190 .0262493
910.839 .0262411
911.488 .0262326
912.137 .0262237
912.785 .0262145
913.433 .0262049
914.081 .0261951
914.728 .0261849
915.375 .0261744
916.021 .0261636
916.668 .0261524
917.313 .0261409
917.959 .0261290
918.604 .0261167
919.248 .0261040
919.892 .0260910
920.536 .0260775
921.180 .0260636
921.823 .0260494
922.465 .0260347
923.108 .0260195
923.750 .0260040
924.391 .0259881
925.032 .0259719
925.673 .0259553
926.313 .0259383
926.953 .0259210
927.593 .0259035
928.232 .0258856
928.871 .0258675
929.510 .0258491
930.148 .0258303
930.786 .0258113
931.423 .0257919
932.060 .0257723
932.697 .0257525
933.333 .0257324
933.969 .0257121
934.604 .0256916
935.239 .0256709
935.874 .0256500
936.508 .0256289
937.142 .0256076
937.776 .0255861
938.409 .0255644
939.042 .0255427
939.674 .0255208
940.306 .0254990
940.938 .0254772
941.569 .0254554
942.200 .0254336
942.830 .0254119
943.460 .0253902
944.090 .0253686
944.720 .0253472
945.349 .0253259
945.977 .0253049
946.606 .0252842
947.233 .0252638
947.861 .0252438
948.488 .0252242
949.115 .0252050
949.741 .0251862
950.367 .0251677
950.993 .0251496
951.618 .0251320
952.243 .0251147
952.868 .0250978
953.492 .0250813
954.115 .0250652
954.739 .0250496
955.362 .0250345
955.984 .0250198
956.607 .0250057
957.229 .0249921
957.850 .0249790
958.471 .0249664
959.092 .0249544
959.713 .0249429
960.333 .0249320
960.952 .0249216
961.572 .0249118
962.191 .0249024
962.809 .0248936
963.428 .0248853
964.045 .0248775
964.663 .0248701
965.280 .0248631
965.897 .0248565
966.513 .0248503
967.129 .0248443
967.745 .0248386
968.361 .0248331
968.976 .0248278
969.590 .0248227
970.205 .0248179
970.818 .0248134
971.432 .0248090
972.045 .0248049
972.658 .0248010
973.271 .0247974
973.883 .0247939
974.495 .0247907
975.106 .0247878
975.717 .0247850
976.328 .0247826
976.938 .0247803
977.548 .0247783
978.158 .0247764
978.768 .0247746
979.377 .0247733
979.985 .0247721
980.594 .0247712
981.202 .0247704
981.809 .0247700
982.417 .0247698
983.024 .0247700
983.631 .0247705
984.237 .0247714
984.843 .0247727
985.449 .0247743
986.054 .0247763
986.659 .0247785
987.264 .0247803
987.868 .0247827
988.472 .0247854
989.076 .0247882
989.679 .0247911
990.282 .0247941
990.885 .0247971
991.487 .0248000
992.090 .0248028
992.691 .0248056
993.293 .0248082
993.894 .0248106
994.495 .0248129
995.095 .0248149
995.696 .0248168
996.296 .0248185
996.895 .0248201
997.494 .0248215
998.093 .0248227
998.692 .0248236
999.291 .0248244
999.889 .0248249
1000.487 .0248252
1001.084 .0248252
1001.681 .0248251
1002.278 .0248247
1002.875 .0248242
1003.471 .0248235
1004.067 .0248227
1004.663 .0248217
1005.258 .0248205
1005.854 .0248192
1006.449 .0248177
1007.043 .0248159
1007.638 .0248140
1008.232 .0248120
1008.826 .0248099
1009.419 .0248077
1010.012 .0248056
1010.605 .0248033
1011.198 .0248011
1011.791 .0247987
1012.383 .0247963
1012.975 .0247939
1013.566 .0247914
1014.158 .0247888
1014.749 .0247862
1015.340 .0247836
1015.931 .0247811
1016.521 .0247785
1017.111 .0247761
1017.701 .0247736
1018.291 .0247711
1018.880 .0247685
1019.470 .0247658
1020.059 .0247630
1020.647 .0247601
1021.236 .0247572
1021.824 .0247542
1022.412 .0247513
1023.000 .0247483
1023.588 .0247453
1024.175 .0247422
1024.762 .0247391
1025.349 .0247358
1025.936 .0247323
1026.523 .0247288
1027.109 .0247251
1027.695 .0247213
1028.281 .0247176
1028.867 .0247139
1029.452 .0247103
1030.038 .0247067
1030.623 .0247032
1031.208 .0246996
1031.792 .0246960
1032.377 .0246921
1032.961 .0246881
1033.546 .0246838
1034.130 .0246792
1034.714 .0246743
1035.297 .0246692
1035.881 .0246638
1036.464 .0246581
1037.047 .0246520
1037.630 .0246455
1038.213 .0246386
1038.796 .0246312
1039.378 .0246233
1039.961 .0246150
1040.543 .0246063
1041.125 .0245973
1041.707 .0245882
1042.289 .0245789
1042.871 .0245696
1043.452 .0245602
1044.034 .0245509
1044.615 .0245414
1045.196 .0245319
1045.777 .0245222
1046.358 .0245124
1046.939 .0245024
1047.520 .0244923
1048.101 .0244821
1048.681 .0244719
1049.262 .0244617
1049.842 .0244516
1050.422 .0244415
1051.002 .0244313
1051.582 .0244212
1052.162 .0244109
1052.742 .0244005
1053.322 .0243902
1053.902 .0243798
1054.482 .0243697
1055.061 .0243599
1055.641 .0243505
1056.220 .0243416
1056.800 .0243333
1057.379 .0243256
1057.958 .0243183
1058.538 .0243114
1059.117 .0243048
1059.696 .0242984
1060.275 .0242922
1060.854 .0242863
1061.433 .0242806
1062.012 .0242752
1062.592 .0242700
1063.171 .0242651
1063.750 .0242601
1064.329 .0242551
1064.908 .0242498
1065.487 .0242442
1066.066 .0242382
1066.645 .0242319
1067.224 .0242253
1067.803 .0242188
1068.382 .0242123
1068.961 .0242061
1069.540 .0242001
1070.119 .0241945
1070.698 .0241891
1071.278 .0241839
1071.857 .0241788
1072.436 .0241738
1073.016 .0241689
1073.595 .0241643
1074.175 .0241600
1074.754 .0241562
1075.334 .0241529
1075.913 .0241503
1076.493 .0241483
1077.073 .0241468
1077.653 .0241458
1078.233 .0241450
1078.813 .0241445
1079.393 .0241443
1079.974 .0241444
1080.554 .0241449
1081.135 .0241461
1081.716 .0241481
1082.296 .0241508
1082.877 .0241543
1083.458 .0241585
1084.040 .0241632
1084.621 .0241683
1085.202 .0241736
1085.784 .0241790
1086.366 .0241844
1086.948 .0241898
1087.530 .0241950
1088.112 .0242001
1088.695 .0242050
1089.277 .0242094
1089.860 .0242134
1090.443 .0242169
1091.026 .0242196
1091.610 .0242216
1092.193 .0242229
1092.777 .0242236
1093.361 .0242237
1093.946 .0242233
1094.530 .0242227
1095.115 .0242218
1095.700 .0242208
1096.285 .0242198
1096.871 .0242187
1097.456 .0242177
1098.042 .0242167
1098.628 .0242159
1099.215 .0242153
1099.802 .0242150
1100.389 .0242150
1100.976 .0242152
1101.564 .0242158
1102.152 .0242166
1102.740 .0242179
1103.329 .0242198
1103.917 .0242225
1104.507 .0242262
1105.096 .0242310
1105.686 .0242371
1106.276 .0242445
1106.867 .0242532
1107.457 .0242631
1108.049 .0242743
1108.640 .0242867
1109.232 .0243002
1109.825 .0243148
1110.417 .0243305
1111.010 .0243472
1111.604 .0243650
1112.198 .0243837
1112.792 .0244033
1113.387 .0244236
1113.982 .0244442
1114.577 .0244651
1115.173 .0244863
1115.769 .0245074
1116.366 .0245286
1116.963 .0245498
1117.561 .0245711
1118.159 .0245925
1118.758 .0246140
1119.357 .0246358
1119.957 .0246579
1120.557 .0246802
1121.157 .0247027
1121.758 .0247253
1122.360 .0247481
1122.962 .0247710
1123.564 .0247941
1124.167 .0248062
1124.771 .0248293
1125.375 .0248523
1125.980 .0248752
1126.585 .0248979
1127.191 .0249204
1127.797 .0249427
1128.404 .0249650
1129.012 .0249874
1129.620 .0250101
1130.229 .0250334
1130.838 .0250573
1131.448 .0250820
1132.058 .0251077
1132.669 .0251456
1133.281 .0251741
1133.894 .0252037
1134.507 .0252302
1135.120 .0252626
1135.735 .0253041
1136.350 .0253417
1136.965 .0253181
1137.582 .0253579
1138.199 .0253995
1138.816 .0254432
1139.435 .0254844
1140.054 .0255268
1140.674 .0255745
1141.294 .0256223
1141.916 .0256626
1142.538 .0255949
1143.160 .0257661
1143.784 .0260263
1144.408 .0259388
1145.033 .0256418
