Measurement Sequence started on: 14-45-04-498
Integration time: 36
Scans to Average: 2 
>>>>>Begin Spectral Data<<<<<
433.946 .0492159
434.870 .0492271
435.793 .0450941
436.715 .0426104
437.635 .0416078
438.555 .0426070
439.473 .0418983
440.389 .0413370
441.305 .0409821
442.219 .0407228
443.132 .0413771
444.044 .0408736
444.954 .0405847
445.863 .0404239
446.771 .0403131
447.678 .0401475
448.584 .0400166
449.488 .0399130
450.391 .0398250
451.293 .0397476
452.194 .0396781
453.094 .0396158
453.992 .0395587
454.890 .0395048
455.786 .0394522
456.681 .0394006
457.575 .0393490
458.468 .0392969
459.360 .0392445
460.250 .0391917
461.140 .0391385
462.028 .0390849
462.915 .0390308
463.801 .0389763
464.687 .0389212
465.571 .0388660
466.454 .0388106
467.335 .0387554
468.216 .0387007
469.096 .0386458
469.975 .0385910
470.853 .0385356
471.729 .0384796
472.605 .0384228
473.479 .0383656
474.353 .0383086
475.226 .0382523
476.097 .0381972
476.968 .0381439
477.838 .0380924
478.706 .0380430
479.574 .0379951
480.441 .0379486
481.306 .0379033
482.171 .0378587
483.035 .0378149
483.898 .0377718
484.760 .0377296
485.621 .0376887
486.481 .0376492
487.340 .0376112
488.198 .0375747
489.055 .0375393
489.912 .0375043
490.767 .0374692
491.622 .0374132
492.476 .0373753
493.329 .0373359
494.180 .0372949
495.032 .0372523
495.882 .0372084
496.731 .0371634
497.580 .0371173
498.427 .0370703
499.274 .0370221
500.120 .0369952
500.965 .0369452
501.809 .0368940
502.653 .0368417
503.495 .0367884
504.337 .0367346
505.178 .0366806
506.018 .0366270
506.858 .0365743
507.696 .0365233
508.534 .0364744
509.371 .0364283
510.208 .0363852
511.043 .0363454
511.878 .0363087
512.712 .0362757
513.545 .0362459
514.377 .0362194
515.209 .0361958
516.040 .0361749
516.870 .0361564
517.699 .0361399
518.528 .0361248
519.356 .0361103
520.183 .0360954
521.010 .0360796
521.836 .0360616
522.661 .0360413
523.485 .0360179
524.309 .0359911
525.132 .0359609
525.954 .0359272
526.776 .0358898
527.597 .0358492
528.417 .0358055
529.237 .0357590
530.056 .0357094
530.874 .0356572
531.692 .0356025
532.508 .0355459
533.325 .0354881
534.140 .0354301
534.955 .0353726
535.770 .0353166
536.583 .0352624
537.397 .0352105
538.209 .0351609
539.021 .0351137
539.832 .0350681
540.643 .0350241
541.453 .0349813
542.262 .0349393
543.071 .0348979
543.879 .0348572
544.687 .0348167
545.494 .0347763
546.300 .0347356
547.106 .0346945
547.911 .0346526
548.716 .0346098
549.520 .0345657
550.323 .0345201
551.126 .0344728
551.929 .0344237
552.731 .0343726
553.532 .0343201
554.332 .0342663
555.133 .0342120
555.932 .0341577
556.731 .0341044
557.530 .0340523
558.328 .0340016
559.125 .0339527
559.922 .0339057
560.719 .0338601
561.515 .0338160
562.310 .0337733
563.105 .0337321
563.899 .0336922
564.693 .0336537
565.487 .0336167
566.280 .0335813
567.072 .0335473
567.864 .0335145
568.655 .0334828
569.446 .0334522
570.236 .0334225
571.026 .0333938
571.816 .0333660
572.605 .0333389
573.393 .0333126
574.181 .0332870
574.969 .0332622
575.756 .0332378
576.543 .0332138
577.329 .0331902
578.115 .0331667
578.900 .0331434
579.685 .0331201
580.469 .0330968
581.253 .0330734
582.036 .0330499
582.820 .0330260
583.602 .0330017
584.384 .0329769
585.166 .0329515
585.947 .0329256
586.728 .0328990
587.509 .0328716
588.289 .0328435
589.069 .0328145
589.848 .0327846
590.627 .0327537
591.405 .0327218
592.183 .0326891
592.961 .0326555
593.738 .0326213
594.515 .0325868
595.291 .0325520
596.067 .0325173
596.843 .0324829
597.618 .0324487
598.393 .0323999
599.167 .0323674
599.941 .0323357
600.715 .0323048
601.488 .0322749
602.261 .0322458
603.034 .0322178
603.806 .0321908
604.578 .0321650
605.349 .0321405
606.121 .0321173
606.891 .0321086
607.662 .0320871
608.432 .0320668
609.201 .0320477
609.971 .0320296
610.740 .0320122
611.508 .0319953
612.277 .0319787
613.045 .0319623
613.812 .0319459
614.579 .0319296
615.346 .0319134
616.113 .0318971
616.879 .0318807
617.645 .0318643
618.411 .0318476
619.176 .0318305
619.941 .0318129
620.705 .0317947
621.470 .0317757
622.233 .0317559
622.997 .0317354
623.760 .0317142
624.523 .0316924
625.286 .0316701
626.048 .0316474
626.810 .0316244
627.572 .0316012
628.333 .0315777
629.095 .0315540
629.855 .0315300
630.616 .0315059
631.376 .0314815
632.136 .0314569
632.895 .0314321
633.655 .0314069
634.414 .0313815
635.172 .0313558
635.931 .0313298
636.689 .0313035
637.447 .0312770
638.204 .0312504
638.962 .0312237
639.718 .0311970
640.475 .0311703
641.231 .0311435
641.988 .0311168
642.743 .0310901
643.499 .0310633
644.254 .0310367
645.009 .0310101
645.764 .0309839
646.518 .0309580
647.272 .0309327
648.026 .0309080
648.780 .0308840
649.533 .0308607
650.286 .0308381
651.039 .0308162
651.792 .0307950
652.544 .0307745
653.296 .0307547
654.048 .0307357
654.799 .0307176
655.550 .0307003
656.301 .0306840
657.052 .0306685
657.802 .0306538
658.552 .0306399
659.302 .0306264
660.052 .0306135
660.801 .0306009
661.550 .0305886
662.299 .0305766
663.048 .0305648
663.796 .0305532
664.544 .0305418
665.292 .0305306
666.040 .0305195
666.787 .0305086
667.534 .0304978
668.281 .0304871
669.028 .0304764
669.774 .0304657
670.521 .0304551
671.266 .0304443
672.012 .0304335
672.758 .0304226
673.503 .0304116
674.248 .0304006
674.992 .0303894
675.737 .0303781
676.481 .0303667
677.225 .0303552
677.969 .0303434
678.712 .0303313
679.455 .0303188
680.199 .0303059
680.941 .0302924
681.684 .0302784
682.426 .0302639
683.168 .0302488
683.910 .0302332
684.652 .0302172
685.393 .0302008
686.134 .0301840
686.875 .0301669
687.616 .0301496
688.356 .0301320
689.097 .0301142
689.837 .0300962
690.576 .0300782
691.316 .0300600
692.055 .0300419
692.794 .0300237
693.533 .0300057
694.272 .0299879
695.010 .0299703
695.748 .0299530
696.486 .0299359
697.224 .0299193
697.962 .0299030
698.699 .0298872
699.436 .0298717
700.173 .0298567
700.909 .0298421
701.646 .0298278
702.382 .0298139
703.118 .0298004
703.853 .0297871
704.589 .0297741
705.324 .0297613
706.059 .0297488
706.794 .0297364
707.529 .0297242
708.263 .0297122
708.997 .0297004
709.731 .0296888
710.465 .0296774
711.198 .0296662
711.931 .0296551
712.664 .0296443
713.397 .0296335
714.130 .0296229
714.862 .0296123
715.594 .0296019
716.326 .0295914
717.058 .0295810
717.789 .0295707
718.520 .0295606
719.251 .0295506
719.982 .0295408
720.713 .0295312
721.443 .0295219
722.173 .0295129
722.903 .0295041
723.633 .0294957
724.362 .0294876
725.091 .0294798
725.820 .0294723
726.549 .0294652
727.278 .0294584
728.006 .0294519
728.734 .0294458
729.462 .0294398
730.190 .0294341
730.917 .0294286
731.644 .0294232
732.371 .0294178
733.098 .0294125
733.825 .0294073
734.551 .0294021
735.277 .0293968
736.003 .0293915
736.728 .0293860
737.454 .0293805
738.179 .0293748
738.904 .0293690
739.629 .0293629
740.353 .0293567
741.077 .0293501
741.801 .0293433
742.525 .0293361
743.249 .0293284
743.972 .0293203
744.695 .0293116
745.418 .0293024
746.141 .0292926
746.863 .0292823
747.585 .0292716
748.307 .0292604
749.029 .0292487
749.750 .0292365
750.472 .0292238
751.193 .0292105
751.913 .0291967
752.634 .0291825
753.354 .0291678
754.074 .0291529
754.794 .0291376
755.514 .0291223
756.233 .0291070
756.952 .0290916
757.671 .0290765
758.390 .0290614
759.108 .0290464
759.826 .0290316
760.544 .0290170
761.262 .0290025
761.979 .0289883
762.697 .0289744
763.414 .0289608
764.130 .0289476
764.847 .0289349
765.563 .0289227
766.279 .0289109
766.995 .0288998
767.710 .0288892
768.426 .0288791
769.141 .0288696
769.855 .0288605
770.570 .0288518
771.284 .0288436
771.998 .0288356
772.712 .0288279
773.426 .0288205
774.139 .0288132
774.852 .0288060
775.565 .0287990
776.277 .0287921
776.990 .0287854
777.702 .0287789
778.414 .0287725
779.125 .0287664
779.836 .0287605
780.547 .0287548
781.258 .0287493
781.969 .0287441
782.679 .0287390
783.389 .0287319
784.099 .0287272
784.808 .0287227
785.517 .0287184
786.226 .0287144
786.935 .0287106
787.643 .0287070
788.352 .0287037
789.060 .0287005
789.767 .0286974
790.475 .0286944
791.182 .0286916
791.889 .0286905
792.595 .0286877
793.301 .0286850
794.008 .0286825
794.713 .0286799
795.419 .0286775
796.124 .0286749
796.829 .0286723
797.534 .0286695
798.238 .0286666
798.942 .0286635
799.646 .0286603
800.350 .0286569
801.053 .0286535
801.756 .0286501
802.459 .0286466
803.162 .0286430
803.864 .0286393
804.566 .0286354
805.267 .0286312
805.969 .0286268
806.670 .0286221
807.371 .0286171
808.071 .0286120
808.772 .0286067
809.472 .0286013
810.171 .0285957
810.871 .0285900
811.570 .0285840
812.269 .0285778
812.967 .0285712
813.666 .0285643
814.364 .0285570
815.061 .0285493
815.759 .0285412
816.456 .0285328
817.153 .0285241
817.849 .0285151
818.545 .0285057
819.241 .0284959
819.937 .0284857
820.632 .0284751
821.327 .0284641
822.022 .0284526
822.717 .0284407
823.411 .0284284
824.105 .0284159
824.798 .0284031
825.491 .0283901
826.184 .0283768
826.877 .0283634
827.569 .0283497
828.261 .0283359
828.953 .0283218
829.645 .0283076
830.336 .0282932
831.027 .0282788
831.717 .0282645
832.407 .0282502
833.097 .0282361
833.787 .0282221
834.476 .0282084
835.165 .0281949
835.854 .0281816
836.542 .0281685
837.230 .0281555
837.918 .0281427
838.605 .0281299
839.292 .0281171
839.979 .0281043
840.665 .0280915
841.352 .0280785
842.037 .0280655
842.723 .0280524
843.408 .0280391
844.093 .0280257
844.777 .0280122
845.462 .0279986
846.145 .0279848
846.829 .0279709
847.512 .0279569
848.195 .0279427
848.878 .0279285
849.560 .0279143
850.242 .0279000
850.923 .0278856
851.605 .0278713
852.286 .0278569
852.966 .0278425
853.646 .0278281
854.326 .0278138
855.006 .0277997
855.685 .0277857
856.364 .0277721
857.043 .0277587
857.721 .0277456
858.399 .0277328
859.077 .0277202
859.754 .0277078
860.431 .0276957
861.107 .0276837
861.784 .0276720
862.459 .0276605
863.135 .0276495
863.810 .0276389
864.485 .0276287
865.160 .0276189
865.834 .0276094
866.508 .0276002
867.181 .0275912
867.854 .0275823
868.527 .0275735
869.199 .0275648
869.872 .0275561
870.543 .0275475
871.215 .0275391
871.886 .0275308
872.557 .0275226
873.227 .0275146
873.897 .0275068
874.567 .0274992
875.236 .0274918
875.905 .0274847
876.573 .0274779
877.242 .0274715
877.909 .0274654
878.577 .0274596
879.244 .0274540
879.911 .0274487
880.577 .0274436
881.243 .0274387
881.909 .0274341
882.575 .0274296
883.240 .0274254
883.904 .0274215
884.569 .0274178
885.232 .0274143
885.896 .0274109
886.559 .0274076
887.222 .0274044
887.885 .0274011
888.547 .0273979
889.208 .0273946
889.870 .0273914
890.531 .0273883
891.192 .0273851
891.852 .0273820
892.512 .0273789
893.171 .0273758
893.830 .0273725
894.489 .0273692
895.148 .0273657
895.806 .0273622
896.464 .0273586
897.121 .0273549
897.778 .0273513
898.434 .0273476
899.091 .0273420
899.747 .0273382
900.402 .0273343
901.057 .0273303
901.712 .0273261
902.366 .0273217
903.020 .0273172
903.674 .0273125
904.327 .0273077
904.980 .0273029
905.633 .0272978
906.285 .0272926
906.936 .0272871
907.588 .0272837
908.239 .0272776
908.889 .0272712
909.540 .0272643
910.190 .0272569
910.839 .0272491
911.488 .0272409
912.137 .0272322
912.785 .0272231
913.433 .0272135
914.081 .0272035
914.728 .0271930
915.375 .0271819
916.021 .0271702
916.668 .0271580
917.313 .0271452
917.959 .0271318
918.604 .0271179
919.248 .0271035
919.892 .0270886
920.536 .0270733
921.180 .0270576
921.823 .0270414
922.465 .0270248
923.108 .0270077
923.750 .0269902
924.391 .0269724
925.032 .0269542
925.673 .0269357
926.313 .0269170
926.953 .0268981
927.593 .0268790
928.232 .0268598
928.871 .0268404
929.510 .0268207
930.148 .0268010
930.786 .0267810
931.423 .0267609
932.060 .0267406
932.697 .0267202
933.333 .0266996
933.969 .0266789
934.604 .0266581
935.239 .0266371
935.874 .0266160
936.508 .0265948
937.142 .0265735
937.776 .0265521
938.409 .0265305
939.042 .0265088
939.674 .0264869
940.306 .0264649
940.938 .0264428
941.569 .0264204
942.200 .0263978
942.830 .0263752
943.460 .0263524
944.090 .0263296
944.720 .0263067
945.349 .0262840
945.977 .0262613
946.606 .0262388
947.233 .0262165
947.861 .0261944
948.488 .0261726
949.115 .0261511
949.741 .0261298
950.367 .0261090
950.993 .0260886
951.618 .0260687
952.243 .0260493
952.868 .0260303
953.492 .0260119
954.115 .0259940
954.739 .0259766
955.362 .0259597
955.984 .0259433
956.607 .0259275
957.229 .0259123
957.850 .0258976
958.471 .0258836
959.092 .0258700
959.713 .0258570
960.333 .0258444
960.952 .0258322
961.572 .0258204
962.191 .0258088
962.809 .0257977
963.428 .0257869
964.045 .0257765
964.663 .0257664
965.280 .0257567
965.897 .0257473
966.513 .0257382
967.129 .0257292
967.745 .0257204
968.361 .0257116
968.976 .0257030
969.590 .0256945
970.205 .0256862
970.818 .0256780
971.432 .0256702
972.045 .0256625
972.658 .0256551
973.271 .0256479
973.883 .0256409
974.495 .0256341
975.106 .0256274
975.717 .0256208
976.328 .0256145
976.938 .0256085
977.548 .0256029
978.158 .0255975
978.768 .0255903
979.377 .0255855
979.985 .0255808
980.594 .0255763
981.202 .0255718
981.809 .0255674
982.417 .0255632
983.024 .0255592
983.631 .0255556
984.237 .0255524
984.843 .0255498
985.449 .0255477
986.054 .0255461
986.659 .0255450
987.264 .0255457
987.868 .0255453
988.472 .0255453
989.076 .0255456
989.679 .0255463
990.282 .0255473
990.885 .0255488
991.487 .0255507
992.090 .0255531
992.691 .0255560
993.293 .0255593
993.894 .0255628
994.495 .0255665
995.095 .0255704
995.696 .0255742
996.296 .0255780
996.895 .0255818
997.494 .0255855
998.093 .0255892
998.692 .0255929
999.291 .0255965
999.889 .0256001
1000.487 .0256035
1001.084 .0256068
1001.681 .0256098
1002.278 .0256125
1002.875 .0256148
1003.471 .0256167
1004.067 .0256182
1004.663 .0256194
1005.258 .0256204
1005.854 .0256211
1006.449 .0256217
1007.043 .0256222
1007.638 .0256226
1008.232 .0256229
1008.826 .0256232
1009.419 .0256235
1010.012 .0256236
1010.605 .0256237
1011.198 .0256237
1011.791 .0256237
1012.383 .0256239
1012.975 .0256242
1013.566 .0256247
1014.158 .0256256
1014.749 .0256269
1015.340 .0256285
1015.931 .0256305
1016.521 .0256327
1017.111 .0256351
1017.701 .0256376
1018.291 .0256401
1018.880 .0256426
1019.470 .0256450
1020.059 .0256475
1020.647 .0256501
1021.236 .0256528
1021.824 .0256557
1022.412 .0256586
1023.000 .0256616
1023.588 .0256645
1024.175 .0256671
1024.762 .0256694
1025.349 .0256712
1025.936 .0256725
1026.523 .0256734
1027.109 .0256739
1027.695 .0256741
1028.281 .0256742
1028.867 .0256743
1029.452 .0256744
1030.038 .0256746
1030.623 .0256747
1031.208 .0256748
1031.792 .0256747
1032.377 .0256744
1032.961 .0256738
1033.546 .0256731
1034.130 .0256722
1034.714 .0256712
1035.297 .0256703
1035.881 .0256695
1036.464 .0256686
1037.047 .0256678
1037.630 .0256669
1038.213 .0256657
1038.796 .0256643
1039.378 .0256625
1039.961 .0256603
1040.543 .0256577
1041.125 .0256548
1041.707 .0256517
1042.289 .0256483
1042.871 .0256447
1043.452 .0256410
1044.034 .0256370
1044.615 .0256328
1045.196 .0256282
1045.777 .0256232
1046.358 .0256178
1046.939 .0256118
1047.520 .0256053
1048.101 .0255982
1048.681 .0255905
1049.262 .0255824
1049.842 .0255739
1050.422 .0255649
1051.002 .0255556
1051.582 .0255460
1052.162 .0255360
1052.742 .0255256
1053.322 .0255149
1053.902 .0255039
1054.482 .0254925
1055.061 .0254808
1055.641 .0254690
1056.220 .0254570
1056.800 .0254449
1057.379 .0254328
1057.958 .0254207
1058.538 .0254085
1059.117 .0253964
1059.696 .0253842
1060.275 .0253720
1060.854 .0253599
1061.433 .0253478
1062.012 .0253357
1062.592 .0253238
1063.171 .0253121
1063.750 .0253007
1064.329 .0252896
1064.908 .0252788
1065.487 .0252683
1066.066 .0252581
1066.645 .0252482
1067.224 .0252387
1067.803 .0252296
1068.382 .0252209
1068.961 .0252126
1069.540 .0252047
1070.119 .0251973
1070.698 .0251903
1071.278 .0251836
1071.857 .0251773
1072.436 .0251711
1073.016 .0251651
1073.595 .0251592
1074.175 .0251533
1074.754 .0251475
1075.334 .0251418
1075.913 .0251362
1076.493 .0251307
1077.073 .0251252
1077.653 .0251197
1078.233 .0251144
1078.813 .0251091
1079.393 .0251038
1079.974 .0250986
1080.554 .0250933
1081.135 .0250879
1081.716 .0250824
1082.296 .0250768
1082.877 .0250710
1083.458 .0250650
1084.040 .0250588
1084.621 .0250524
1085.202 .0250458
1085.784 .0250391
1086.366 .0250323
1086.948 .0250254
1087.530 .0250184
1088.112 .0250113
1088.695 .0250041
1089.277 .0249969
1089.860 .0249898
1090.443 .0249828
1091.026 .0249760
1091.610 .0249693
1092.193 .0249630
1092.777 .0249570
1093.361 .0249514
1093.946 .0249462
1094.530 .0249412
1095.115 .0249364
1095.700 .0249316
1096.285 .0249267
1096.871 .0249217
1097.456 .0249165
1098.042 .0249110
1098.628 .0249053
1099.215 .0248995
1099.802 .0248935
1100.389 .0248872
1100.976 .0248808
1101.564 .0248742
1102.152 .0248677
1102.740 .0248612
1103.329 .0248549
1103.917 .0248489
1104.507 .0248436
1105.096 .0248388
1105.686 .0248349
1106.276 .0248319
1106.867 .0248299
1107.457 .0248291
1108.049 .0248294
1108.640 .0248308
1109.232 .0248336
1109.825 .0248378
1110.417 .0248435
1111.010 .0248508
1111.604 .0248598
1112.198 .0248705
1112.792 .0248830
1113.387 .0248972
1113.982 .0249131
1114.577 .0249305
1115.173 .0249495
1115.769 .0249698
1116.366 .0249914
1116.963 .0250142
1117.561 .0250382
1118.159 .0250632
1118.758 .0250891
1119.357 .0251158
1119.957 .0251431
1120.557 .0251711
1121.157 .0251997
1121.758 .0252287
1122.360 .0252583
1122.962 .0252880
1123.564 .0253177
1124.167 .0253345
1124.771 .0253641
1125.375 .0253934
1125.980 .0254221
1126.585 .0254503
1127.191 .0254779
1127.797 .0255049
1128.404 .0255317
1129.012 .0255585
1129.620 .0255855
1130.229 .0256130
1130.838 .0256412
1131.448 .0256702
1132.058 .0257003
1132.669 .0257435
1133.281 .0257770
1133.894 .0258131
1134.507 .0258463
1135.120 .0258894
1135.735 .0259324
1136.350 .0259829
1136.965 .0258962
1137.582 .0259494
1138.199 .0260069
1138.816 .0260715
1139.435 .0261328
1140.054 .0261993
1140.674 .0262664
1141.294 .0263399
1141.916 .0264300
1142.538 .0263700
1143.160 .0266531
1143.784 .0266686
1144.408 .0268882
1145.033 .0271782
