Measurement Sequence started on: 14-45-04-498
Integration time: 36
Scans to Average: 2 
>>>>>Begin Spectral Data<<<<<
433.946 .0409360
434.870 .0497665
435.793 .0482953
436.715 .0499011
437.635 .0485619
438.555 .0483956
439.473 .0484823
440.389 .0482504
441.305 .0480517
442.219 .0478187
443.132 .0478770
444.044 .0477279
444.954 .0476549
445.863 .0474955
446.771 .0474048
447.678 .0473208
448.584 .0472298
449.488 .0471484
450.391 .0470742
451.293 .0470087
452.194 .0469485
453.094 .0468927
453.992 .0468392
454.890 .0467856
455.786 .0467309
456.681 .0466746
457.575 .0466161
458.468 .0465548
459.360 .0464907
460.250 .0464240
461.140 .0463548
462.028 .0462838
462.915 .0462117
463.801 .0461390
464.687 .0460656
465.571 .0459925
466.454 .0459194
467.335 .0458464
468.216 .0457737
469.096 .0457010
469.975 .0456285
470.853 .0455562
471.729 .0454844
472.605 .0454135
473.479 .0453437
474.353 .0452751
475.226 .0452074
476.097 .0451408
476.968 .0450746
477.838 .0450086
478.706 .0449423
479.574 .0448757
480.441 .0448087
481.306 .0447415
482.171 .0446745
483.035 .0446080
483.898 .0445431
484.760 .0444801
485.621 .0444199
486.481 .0443628
487.340 .0443092
488.198 .0442594
489.055 .0442134
489.912 .0441707
490.767 .0441311
491.622 .0440811
492.476 .0440452
493.329 .0440099
494.180 .0439745
495.032 .0439389
495.882 .0439025
496.731 .0438649
497.580 .0438260
498.427 .0437850
499.274 .0437417
500.120 .0437113
500.965 .0436633
501.809 .0436125
502.653 .0435588
503.495 .0435026
504.337 .0434441
505.178 .0433836
506.018 .0433220
506.858 .0432598
507.696 .0431980
508.534 .0431377
509.371 .0430800
510.208 .0430259
511.043 .0429764
511.878 .0429324
512.712 .0428947
513.545 .0428634
514.377 .0428385
515.209 .0428200
516.040 .0428074
516.870 .0428001
517.699 .0427973
518.528 .0427986
519.356 .0428034
520.183 .0428107
521.010 .0428194
521.836 .0428288
522.661 .0428376
523.485 .0428448
524.309 .0428495
525.132 .0428507
525.954 .0428473
526.776 .0428383
527.597 .0428231
528.417 .0428007
529.237 .0427710
530.056 .0427338
530.874 .0426894
531.692 .0426384
532.508 .0425813
533.325 .0425195
534.140 .0424550
534.955 .0423891
535.770 .0423228
536.583 .0422572
537.397 .0421931
538.209 .0421304
539.021 .0420690
539.832 .0420088
540.643 .0419496
541.453 .0418910
542.262 .0418329
543.071 .0417756
543.879 .0417195
544.687 .0416651
545.494 .0416124
546.300 .0415614
547.106 .0415116
547.911 .0414622
548.716 .0414126
549.520 .0413624
550.323 .0413112
551.126 .0412582
551.929 .0412036
552.731 .0411474
553.532 .0410903
554.332 .0410327
555.133 .0409753
555.932 .0409189
556.731 .0408641
557.530 .0408110
558.328 .0407600
559.125 .0407112
559.922 .0406646
560.719 .0406195
561.515 .0405759
562.310 .0405333
563.105 .0404915
563.899 .0404503
564.693 .0404097
565.487 .0403696
566.280 .0403298
567.072 .0402899
567.864 .0402497
568.655 .0402086
569.446 .0401663
570.236 .0401221
571.026 .0400760
571.816 .0400277
572.605 .0399773
573.393 .0399252
574.181 .0398717
574.969 .0398172
575.756 .0397621
576.543 .0397070
577.329 .0396523
578.115 .0395981
578.900 .0395452
579.685 .0394937
580.469 .0394444
581.253 .0393974
582.036 .0393532
582.820 .0393119
583.602 .0392736
584.384 .0392381
585.166 .0392052
585.947 .0391745
586.728 .0391458
587.509 .0391187
588.289 .0390930
589.069 .0390685
589.848 .0390449
590.627 .0390223
591.405 .0390007
592.183 .0389800
592.961 .0389601
593.738 .0389409
594.515 .0389223
595.291 .0389043
596.067 .0388866
596.843 .0388693
597.618 .0388522
598.393 .0388277
599.167 .0388115
599.941 .0387958
600.715 .0387807
601.488 .0387661
602.261 .0387520
603.034 .0387385
603.806 .0387255
604.578 .0387129
605.349 .0387007
606.121 .0386890
606.891 .0386846
607.662 .0386736
608.432 .0386632
609.201 .0386533
609.971 .0386439
610.740 .0386349
611.508 .0386263
612.277 .0386179
613.045 .0386097
613.812 .0386014
614.579 .0385930
615.346 .0385843
616.113 .0385754
616.879 .0385662
617.645 .0385565
618.411 .0385463
619.176 .0385356
619.941 .0385241
620.705 .0385118
621.470 .0384988
622.233 .0384848
622.997 .0384700
623.760 .0384543
624.523 .0384376
625.286 .0384201
626.048 .0384017
626.810 .0383825
627.572 .0383626
628.333 .0383421
629.095 .0383211
629.855 .0382996
630.616 .0382779
631.376 .0382560
632.136 .0382339
632.895 .0382118
633.655 .0381896
634.414 .0381674
635.172 .0381452
635.931 .0381230
636.689 .0381010
637.447 .0380791
638.204 .0380577
638.962 .0380367
639.718 .0380163
640.475 .0379964
641.231 .0379772
641.988 .0379585
642.743 .0379404
643.499 .0379227
644.254 .0379054
645.009 .0378885
645.764 .0378719
646.518 .0378556
647.272 .0378396
648.026 .0378239
648.780 .0378085
649.533 .0377934
650.286 .0377787
651.039 .0377643
651.792 .0377502
652.544 .0377364
653.296 .0377229
654.048 .0377096
654.799 .0376964
655.550 .0376833
656.301 .0376700
657.052 .0376566
657.802 .0376430
658.552 .0376292
659.302 .0376150
660.052 .0376007
660.801 .0375860
661.550 .0375710
662.299 .0375557
663.048 .0375399
663.796 .0375236
664.544 .0375068
665.292 .0374893
666.040 .0374713
666.787 .0374527
667.534 .0374336
668.281 .0374141
669.028 .0373942
669.774 .0373739
670.521 .0373534
671.266 .0373327
672.012 .0373118
672.758 .0372909
673.503 .0372700
674.248 .0372491
674.992 .0372285
675.737 .0372081
676.481 .0371878
677.225 .0371677
677.969 .0371478
678.712 .0371281
679.455 .0371086
680.199 .0370894
680.941 .0370705
681.684 .0370519
682.426 .0370337
683.168 .0370158
683.910 .0369982
684.652 .0369808
685.393 .0369636
686.134 .0369464
686.875 .0369292
687.616 .0369121
688.356 .0368950
689.097 .0368780
689.837 .0368612
690.576 .0368444
691.316 .0368277
692.055 .0368111
692.794 .0367947
693.533 .0367783
694.272 .0367620
695.010 .0367459
695.748 .0367300
696.486 .0367143
697.224 .0366988
697.962 .0366834
698.699 .0366682
699.436 .0366532
700.173 .0366384
700.909 .0366238
701.646 .0366096
702.382 .0365956
703.118 .0365820
703.853 .0365686
704.589 .0365556
705.324 .0365427
706.059 .0365299
706.794 .0365172
707.529 .0365044
708.263 .0364917
708.997 .0364789
709.731 .0364662
710.465 .0364535
711.198 .0364408
711.931 .0364281
712.664 .0364153
713.397 .0364025
714.130 .0363897
714.862 .0363767
715.594 .0363635
716.326 .0363502
717.058 .0363367
717.789 .0363228
718.520 .0363086
719.251 .0362941
719.982 .0362791
720.713 .0362637
721.443 .0362479
722.173 .0362318
722.903 .0362154
723.633 .0361988
724.362 .0361820
725.091 .0361651
725.820 .0361480
726.549 .0361307
727.278 .0361133
728.006 .0360957
728.734 .0360780
729.462 .0360603
730.190 .0360426
730.917 .0360249
731.644 .0360074
732.371 .0359900
733.098 .0359728
733.825 .0359559
734.551 .0359393
735.277 .0359229
736.003 .0359068
736.728 .0358910
737.454 .0358755
738.179 .0358603
738.904 .0358454
739.629 .0358306
740.353 .0358161
741.077 .0358017
741.801 .0357875
742.525 .0357734
743.249 .0357596
743.972 .0357459
744.695 .0357324
745.418 .0357190
746.141 .0357056
746.863 .0356923
747.585 .0356791
748.307 .0356657
749.029 .0356523
749.750 .0356389
750.472 .0356255
751.193 .0356122
751.913 .0355989
752.634 .0355857
753.354 .0355726
754.074 .0355596
754.794 .0355468
755.514 .0355342
756.233 .0355218
756.952 .0355096
757.671 .0354978
758.390 .0354863
759.108 .0354750
759.826 .0354640
760.544 .0354533
761.262 .0354428
761.979 .0354324
762.697 .0354222
763.414 .0354122
764.130 .0354023
764.847 .0353925
765.563 .0353828
766.279 .0353732
766.995 .0353638
767.710 .0353545
768.426 .0353452
769.141 .0353360
769.855 .0353269
770.570 .0353177
771.284 .0353086
771.998 .0352996
772.712 .0352906
773.426 .0352817
774.139 .0352728
774.852 .0352641
775.565 .0352554
776.277 .0352469
776.990 .0352385
777.702 .0352303
778.414 .0352222
779.125 .0352144
779.836 .0352068
780.547 .0351994
781.258 .0351923
781.969 .0351853
782.679 .0351786
783.389 .0351689
784.099 .0351623
784.808 .0351556
785.517 .0351489
786.226 .0351421
786.935 .0351352
787.643 .0351279
788.352 .0351204
789.060 .0351124
789.767 .0351040
790.475 .0350950
791.182 .0350855
791.889 .0350792
792.595 .0350686
793.301 .0350575
794.008 .0350457
794.713 .0350332
795.419 .0350201
796.124 .0350063
796.829 .0349919
797.534 .0349768
798.238 .0349611
798.942 .0349448
799.646 .0349280
800.350 .0349108
801.053 .0348932
801.756 .0348754
802.459 .0348573
803.162 .0348391
803.864 .0348209
804.566 .0348026
805.267 .0347843
805.969 .0347660
806.670 .0347478
807.371 .0347298
808.071 .0347119
808.772 .0346941
809.472 .0346764
810.171 .0346590
810.871 .0346416
811.570 .0346244
812.269 .0346072
812.967 .0345902
813.666 .0345732
814.364 .0345562
815.061 .0345392
815.759 .0345221
816.456 .0345051
817.153 .0344879
817.849 .0344707
818.545 .0344533
819.241 .0344359
819.937 .0344184
820.632 .0344007
821.327 .0343830
822.022 .0343652
822.717 .0343473
823.411 .0343294
824.105 .0343116
824.798 .0342940
825.491 .0342765
826.184 .0342594
826.877 .0342425
827.569 .0342261
828.261 .0342101
828.953 .0341946
829.645 .0341796
830.336 .0341652
831.027 .0341514
831.717 .0341384
832.407 .0341261
833.097 .0341146
833.787 .0341038
834.476 .0340939
835.165 .0340846
835.854 .0340760
836.542 .0340680
837.230 .0340605
837.918 .0340535
838.605 .0340469
839.292 .0340405
839.979 .0340345
840.665 .0340286
841.352 .0340228
842.037 .0340171
842.723 .0340113
843.408 .0340055
844.093 .0339995
844.777 .0339934
845.462 .0339871
846.145 .0339806
846.829 .0339740
847.512 .0339671
848.195 .0339599
848.878 .0339524
849.560 .0339446
850.242 .0339363
850.923 .0339277
851.605 .0339187
852.286 .0339092
852.966 .0338993
853.646 .0338890
854.326 .0338783
855.006 .0338672
855.685 .0338559
856.364 .0338442
857.043 .0338322
857.721 .0338201
858.399 .0338077
859.077 .0337951
859.754 .0337824
860.431 .0337696
861.107 .0337567
861.784 .0337437
862.459 .0337306
863.135 .0337175
863.810 .0337045
864.485 .0336914
865.160 .0336784
865.834 .0336654
866.508 .0336523
867.181 .0336392
867.854 .0336261
868.527 .0336130
869.199 .0335998
869.872 .0335865
870.543 .0335733
871.215 .0335600
871.886 .0335467
872.557 .0335333
873.227 .0335198
873.897 .0335062
874.567 .0334924
875.236 .0334784
875.905 .0334641
876.573 .0334496
877.242 .0334348
877.909 .0334197
878.577 .0334042
879.244 .0333883
879.911 .0333719
880.577 .0333551
881.243 .0333378
881.909 .0333200
882.575 .0333016
883.240 .0332828
883.904 .0332636
884.569 .0332439
885.232 .0332239
885.896 .0332036
886.559 .0331831
887.222 .0331625
887.885 .0331419
888.547 .0331214
889.208 .0331010
889.870 .0330808
890.531 .0330609
891.192 .0330412
891.852 .0330217
892.512 .0330025
893.171 .0329836
893.830 .0329648
894.489 .0329463
895.148 .0329279
895.806 .0329097
896.464 .0328915
897.121 .0328735
897.778 .0328556
898.434 .0328378
899.091 .0328111
899.747 .0327932
900.402 .0327753
901.057 .0327575
901.712 .0327396
902.366 .0327216
903.020 .0327036
903.674 .0326854
904.327 .0326670
904.980 .0326484
905.633 .0326297
906.285 .0326108
906.936 .0325917
907.588 .0325818
908.239 .0325627
908.889 .0325434
909.540 .0325240
910.190 .0325043
910.839 .0324845
911.488 .0324645
912.137 .0324445
912.785 .0324244
913.433 .0324044
914.081 .0323845
914.728 .0323647
915.375 .0323452
916.021 .0323259
916.668 .0323068
917.313 .0322879
917.959 .0322693
918.604 .0322509
919.248 .0322329
919.892 .0322152
920.536 .0321978
921.180 .0321806
921.823 .0321638
922.465 .0321471
923.108 .0321307
923.750 .0321144
924.391 .0320982
925.032 .0320821
925.673 .0320661
926.313 .0320502
926.953 .0320345
927.593 .0320190
928.232 .0320038
928.871 .0319887
929.510 .0319740
930.148 .0319594
930.786 .0319452
931.423 .0319312
932.060 .0319174
932.697 .0319038
933.333 .0318905
933.969 .0318775
934.604 .0318647
935.239 .0318521
935.874 .0318399
936.508 .0318280
937.142 .0318165
937.776 .0318054
938.409 .0317947
939.042 .0317844
939.674 .0317744
940.306 .0317648
940.938 .0317554
941.569 .0317463
942.200 .0317375
942.830 .0317289
943.460 .0317206
944.090 .0317126
944.720 .0317050
945.349 .0316977
945.977 .0316908
946.606 .0316842
947.233 .0316777
947.861 .0316713
948.488 .0316651
949.115 .0316588
949.741 .0316525
950.367 .0316463
950.993 .0316400
951.618 .0316336
952.243 .0316272
952.868 .0316206
953.492 .0316137
954.115 .0316066
954.739 .0315991
955.362 .0315912
955.984 .0315829
956.607 .0315744
957.229 .0315656
957.850 .0315566
958.471 .0315475
959.092 .0315384
959.713 .0315291
960.333 .0315198
960.952 .0315103
961.572 .0315008
962.191 .0314913
962.809 .0314817
963.428 .0314723
964.045 .0314630
964.663 .0314537
965.280 .0314446
965.897 .0314355
966.513 .0314264
967.129 .0314171
967.745 .0314078
968.361 .0313983
968.976 .0313886
969.590 .0313787
970.205 .0313687
970.818 .0313583
971.432 .0313477
972.045 .0313368
972.658 .0313254
973.271 .0313136
973.883 .0313013
974.495 .0312886
975.106 .0312756
975.717 .0312622
976.328 .0312485
976.938 .0312346
977.548 .0312204
978.158 .0312058
978.768 .0311824
979.377 .0311672
979.985 .0311517
980.594 .0311360
981.202 .0311201
981.809 .0311042
982.417 .0310884
983.024 .0310727
983.631 .0310571
984.237 .0310418
984.843 .0310266
985.449 .0310116
986.054 .0309968
986.659 .0309823
987.264 .0309764
987.868 .0309622
988.472 .0309484
989.076 .0309350
989.679 .0309220
990.282 .0309095
990.885 .0308974
991.487 .0308855
992.090 .0308738
992.691 .0308621
993.293 .0308502
993.894 .0308380
994.495 .0308254
995.095 .0308124
995.696 .0307990
996.296 .0307850
996.895 .0307706
997.494 .0307557
998.093 .0307402
998.692 .0307242
999.291 .0307077
999.889 .0306906
1000.487 .0306730
1001.084 .0306550
1001.681 .0306367
1002.278 .0306183
1002.875 .0305999
1003.471 .0305815
1004.067 .0305634
1004.663 .0305454
1005.258 .0305276
1005.854 .0305099
1006.449 .0304924
1007.043 .0304750
1007.638 .0304576
1008.232 .0304405
1008.826 .0304237
1009.419 .0304073
1010.012 .0303914
1010.605 .0303761
1011.198 .0303615
1011.791 .0303478
1012.383 .0303348
1012.975 .0303226
1013.566 .0303111
1014.158 .0303006
1014.749 .0302908
1015.340 .0302819
1015.931 .0302739
1016.521 .0302668
1017.111 .0302604
1017.701 .0302548
1018.291 .0302498
1018.880 .0302454
1019.470 .0302412
1020.059 .0302374
1020.647 .0302337
1021.236 .0302301
1021.824 .0302267
1022.412 .0302235
1023.000 .0302205
1023.588 .0302179
1024.175 .0302156
1024.762 .0302138
1025.349 .0302123
1025.936 .0302112
1026.523 .0302105
1027.109 .0302102
1027.695 .0302102
1028.281 .0302105
1028.867 .0302111
1029.452 .0302120
1030.038 .0302132
1030.623 .0302147
1031.208 .0302164
1031.792 .0302182
1032.377 .0302200
1032.961 .0302219
1033.546 .0302237
1034.130 .0302253
1034.714 .0302268
1035.297 .0302281
1035.881 .0302294
1036.464 .0302307
1037.047 .0302321
1037.630 .0302336
1038.213 .0302355
1038.796 .0302376
1039.378 .0302401
1039.961 .0302429
1040.543 .0302458
1041.125 .0302489
1041.707 .0302519
1042.289 .0302548
1042.871 .0302574
1043.452 .0302599
1044.034 .0302621
1044.615 .0302642
1045.196 .0302660
1045.777 .0302677
1046.358 .0302692
1046.939 .0302704
1047.520 .0302713
1048.101 .0302719
1048.681 .0302720
1049.262 .0302719
1049.842 .0302716
1050.422 .0302712
1051.002 .0302709
1051.582 .0302708
1052.162 .0302711
1052.742 .0302717
1053.322 .0302726
1053.902 .0302738
1054.482 .0302752
1055.061 .0302768
1055.641 .0302785
1056.220 .0302805
1056.800 .0302828
1057.379 .0302853
1057.958 .0302881
1058.538 .0302913
1059.117 .0302948
1059.696 .0302984
1060.275 .0303022
1060.854 .0303061
1061.433 .0303100
1062.012 .0303139
1062.592 .0303179
1063.171 .0303221
1063.750 .0303264
1064.329 .0303310
1064.908 .0303359
1065.487 .0303411
1066.066 .0303463
1066.645 .0303517
1067.224 .0303572
1067.803 .0303625
1068.382 .0303679
1068.961 .0303732
1069.540 .0303785
1070.119 .0303838
1070.698 .0303890
1071.278 .0303943
1071.857 .0303994
1072.436 .0304045
1073.016 .0304094
1073.595 .0304143
1074.175 .0304192
1074.754 .0304242
1075.334 .0304294
1075.913 .0304350
1076.493 .0304408
1077.073 .0304469
1077.653 .0304531
1078.233 .0304593
1078.813 .0304655
1079.393 .0304715
1079.974 .0304774
1080.554 .0304833
1081.135 .0304891
1081.716 .0304949
1082.296 .0305007
1082.877 .0305064
1083.458 .0305118
1084.040 .0305168
1084.621 .0305212
1085.202 .0305249
1085.784 .0305279
1086.366 .0305303
1086.948 .0305322
1087.530 .0305335
1088.112 .0305343
1088.695 .0305345
1089.277 .0305342
1089.860 .0305333
1090.443 .0305315
1091.026 .0305290
1091.610 .0305255
1092.193 .0305213
1092.777 .0305163
1093.361 .0305109
1093.946 .0305050
1094.530 .0304990
1095.115 .0304927
1095.700 .0304863
1096.285 .0304796
1096.871 .0304726
1097.456 .0304651
1098.042 .0304571
1098.628 .0304486
1099.215 .0304396
1099.802 .0304301
1100.389 .0304204
1100.976 .0304105
1101.564 .0304006
1102.152 .0303905
1102.740 .0303805
1103.329 .0303703
1103.917 .0303599
1104.507 .0303495
1105.096 .0303390
1105.686 .0303283
1106.276 .0303179
1106.867 .0303077
1107.457 .0302979
1108.049 .0302889
1108.640 .0302804
1109.232 .0302727
1109.825 .0302655
1110.417 .0302589
1111.010 .0302526
1111.604 .0302467
1112.198 .0302413
1112.792 .0302364
1113.387 .0302322
1113.982 .0302292
1114.577 .0302274
1115.173 .0302274
1115.769 .0302292
1116.366 .0302329
1116.963 .0302385
1117.561 .0302458
1118.159 .0302549
1118.758 .0302656
1119.357 .0302780
1119.957 .0302920
1120.557 .0303078
1121.157 .0303252
1121.758 .0303441
1122.360 .0303645
1122.962 .0303860
1123.564 .0304082
1124.167 .0304178
1124.771 .0304409
1125.375 .0304637
1125.980 .0304861
1126.585 .0305081
1127.191 .0305300
1127.797 .0305523
1128.404 .0305756
1129.012 .0306002
1129.620 .0306264
1130.229 .0306544
1130.838 .0306841
1131.448 .0307156
1132.058 .0307487
1132.669 .0307985
1133.281 .0308359
1133.894 .0308764
1134.507 .0309188
1135.120 .0309668
1135.735 .0310275
1136.350 .0310795
1136.965 .0309281
1137.582 .0309834
1138.199 .0310417
1138.816 .0311047
1139.435 .0311739
1140.054 .0312490
1140.674 .0313420
1141.294 .0314396
1141.916 .0315615
1142.538 .0316411
1143.160 .0318250
1143.784 .0321975
1144.408 .0319879
1145.033 .0324242
