Measurement Sequence started on: 14-45-04-498
Integration time: 36
Scans to Average: 2 
>>>>>Begin Spectral Data<<<<<
433.946 .0459512
434.870 .0418874
435.793 .0418433
436.715 .0412431
437.635 .0407068
438.555 .0408648
439.473 .0404539
440.389 .0401878
441.305 .0399430
442.219 .0397357
443.132 .0399626
444.044 .0398179
444.954 .0396744
445.863 .0395610
446.771 .0394736
447.678 .0393759
448.584 .0392976
449.488 .0392311
450.391 .0391748
451.293 .0391266
452.194 .0390844
453.094 .0390465
453.992 .0390100
454.890 .0389721
455.786 .0389314
456.681 .0388866
457.575 .0388365
458.468 .0387814
459.360 .0387216
460.250 .0386581
461.140 .0385922
462.028 .0385248
462.915 .0384569
463.801 .0383892
464.687 .0383215
465.571 .0382541
466.454 .0381870
467.335 .0381205
468.216 .0380549
469.096 .0379909
469.975 .0379292
470.853 .0378705
471.729 .0378155
472.605 .0377648
473.479 .0377188
474.353 .0376771
475.226 .0376390
476.097 .0376038
476.968 .0375706
477.838 .0375384
478.706 .0375065
479.574 .0374746
480.441 .0374428
481.306 .0374113
482.171 .0373801
483.035 .0373497
483.898 .0373201
484.760 .0372911
485.621 .0372624
486.481 .0372338
487.340 .0372052
488.198 .0371764
489.055 .0371473
489.912 .0371185
490.767 .0370901
491.622 .0370516
492.476 .0370255
493.329 .0370001
494.180 .0369750
495.032 .0369501
495.882 .0369248
496.731 .0368988
497.580 .0368716
498.427 .0368429
499.274 .0368126
500.120 .0367931
500.965 .0367595
501.809 .0367238
502.653 .0366865
503.495 .0366476
504.337 .0366072
505.178 .0365654
506.018 .0365224
506.858 .0364778
507.696 .0364317
508.534 .0363840
509.371 .0363349
510.208 .0362842
511.043 .0362323
511.878 .0361795
512.712 .0361266
513.545 .0360740
514.377 .0360220
515.209 .0359708
516.040 .0359202
516.870 .0358692
517.699 .0358170
518.528 .0357631
519.356 .0357071
520.183 .0356486
521.010 .0355880
521.836 .0355258
522.661 .0354627
523.485 .0353993
524.309 .0353366
525.132 .0352752
525.954 .0352155
526.776 .0351576
527.597 .0351019
528.417 .0350480
529.237 .0349960
530.056 .0349457
530.874 .0348972
531.692 .0348505
532.508 .0348058
533.325 .0347637
534.140 .0347251
534.955 .0346911
535.770 .0346624
536.583 .0346390
537.397 .0346211
538.209 .0346080
539.021 .0345984
539.832 .0345910
540.643 .0345849
541.453 .0345789
542.262 .0345720
543.071 .0345639
543.879 .0345544
544.687 .0345436
545.494 .0345316
546.300 .0345182
547.106 .0345031
547.911 .0344858
548.716 .0344662
549.520 .0344438
550.323 .0344187
551.126 .0343910
551.929 .0343609
552.731 .0343287
553.532 .0342951
554.332 .0342599
555.133 .0342235
555.932 .0341864
556.731 .0341485
557.530 .0341095
558.328 .0340698
559.125 .0340290
559.922 .0339872
560.719 .0339443
561.515 .0339002
562.310 .0338546
563.105 .0338078
563.899 .0337599
564.693 .0337111
565.487 .0336615
566.280 .0336114
567.072 .0335608
567.864 .0335099
568.655 .0334585
569.446 .0334065
570.236 .0333543
571.026 .0333020
571.816 .0332499
572.605 .0331981
573.393 .0331472
574.181 .0330975
574.969 .0330494
575.756 .0330030
576.543 .0329585
577.329 .0329162
578.115 .0328760
578.900 .0328382
579.685 .0328028
580.469 .0327698
581.253 .0327392
582.036 .0327109
582.820 .0326846
583.602 .0326601
584.384 .0326368
585.166 .0326145
585.947 .0325927
586.728 .0325709
587.509 .0325489
588.289 .0325265
589.069 .0325034
589.848 .0324796
590.627 .0324548
591.405 .0324290
592.183 .0324021
592.961 .0323742
593.738 .0323450
594.515 .0323147
595.291 .0322833
596.067 .0322506
596.843 .0322169
597.618 .0321821
598.393 .0321273
599.167 .0320909
599.941 .0320540
600.715 .0320171
601.488 .0319801
602.261 .0319434
603.034 .0319072
603.806 .0318714
604.578 .0318362
605.349 .0318016
606.121 .0317676
606.891 .0317525
607.662 .0317197
608.432 .0316878
609.201 .0316566
609.971 .0316264
610.740 .0315969
611.508 .0315684
612.277 .0315407
613.045 .0315140
613.812 .0314882
614.579 .0314633
615.346 .0314392
616.113 .0314160
616.879 .0313936
617.645 .0313719
618.411 .0313509
619.176 .0313305
619.941 .0313106
620.705 .0312912
621.470 .0312724
622.233 .0312542
622.997 .0312366
623.760 .0312197
624.523 .0312035
625.286 .0311879
626.048 .0311729
626.810 .0311583
627.572 .0311441
628.333 .0311303
629.095 .0311168
629.855 .0311035
630.616 .0310905
631.376 .0310776
632.136 .0310649
632.895 .0310522
633.655 .0310394
634.414 .0310263
635.172 .0310128
635.931 .0309987
636.689 .0309840
637.447 .0309684
638.204 .0309521
638.962 .0309349
639.718 .0309168
640.475 .0308980
641.231 .0308782
641.988 .0308575
642.743 .0308360
643.499 .0308135
644.254 .0307900
645.009 .0307655
645.764 .0307401
646.518 .0307139
647.272 .0306868
648.026 .0306591
648.780 .0306309
649.533 .0306023
650.286 .0305734
651.039 .0305443
651.792 .0305153
652.544 .0304865
653.296 .0304579
654.048 .0304296
654.799 .0304017
655.550 .0303742
656.301 .0303470
657.052 .0303201
657.802 .0302935
658.552 .0302674
659.302 .0302416
660.052 .0302162
660.801 .0301914
661.550 .0301672
662.299 .0301435
663.048 .0301204
663.796 .0300980
664.544 .0300760
665.292 .0300547
666.040 .0300338
666.787 .0300134
667.534 .0299935
668.281 .0299742
669.028 .0299554
669.774 .0299373
670.521 .0299198
671.266 .0299031
672.012 .0298871
672.758 .0298720
673.503 .0298577
674.248 .0298443
674.992 .0298318
675.737 .0298200
676.481 .0298090
677.225 .0297988
677.969 .0297892
678.712 .0297803
679.455 .0297720
680.199 .0297644
680.941 .0297575
681.684 .0297513
682.426 .0297457
683.168 .0297407
683.910 .0297362
684.652 .0297322
685.393 .0297284
686.134 .0297250
686.875 .0297217
687.616 .0297185
688.356 .0297155
689.097 .0297125
689.837 .0297095
690.576 .0297065
691.316 .0297033
692.055 .0296999
692.794 .0296961
693.533 .0296920
694.272 .0296874
695.010 .0296823
695.748 .0296768
696.486 .0296707
697.224 .0296642
697.962 .0296570
698.699 .0296492
699.436 .0296409
700.173 .0296319
700.909 .0296224
701.646 .0296123
702.382 .0296016
703.118 .0295905
703.853 .0295788
704.589 .0295666
705.324 .0295539
706.059 .0295406
706.794 .0295268
707.529 .0295125
708.263 .0294976
708.997 .0294822
709.731 .0294665
710.465 .0294504
711.198 .0294340
711.931 .0294174
712.664 .0294005
713.397 .0293833
714.130 .0293658
714.862 .0293481
715.594 .0293302
716.326 .0293121
717.058 .0292939
717.789 .0292755
718.520 .0292569
719.251 .0292383
719.982 .0292196
720.713 .0292008
721.443 .0291821
722.173 .0291634
722.903 .0291450
723.633 .0291268
724.362 .0291091
725.091 .0290918
725.820 .0290752
726.549 .0290591
727.278 .0290435
728.006 .0290286
728.734 .0290142
729.462 .0290005
730.190 .0289875
730.917 .0289752
731.644 .0289637
732.371 .0289529
733.098 .0289429
733.825 .0289336
734.551 .0289250
735.277 .0289169
736.003 .0289094
736.728 .0289024
737.454 .0288957
738.179 .0288894
738.904 .0288834
739.629 .0288776
740.353 .0288719
741.077 .0288664
741.801 .0288609
742.525 .0288554
743.249 .0288499
743.972 .0288445
744.695 .0288391
745.418 .0288339
746.141 .0288288
746.863 .0288239
747.585 .0288191
748.307 .0288144
749.029 .0288098
749.750 .0288051
750.472 .0288006
751.193 .0287960
751.913 .0287916
752.634 .0287874
753.354 .0287834
754.074 .0287798
754.794 .0287766
755.514 .0287737
756.233 .0287713
756.952 .0287693
757.671 .0287676
758.390 .0287663
759.108 .0287653
759.826 .0287646
760.544 .0287641
761.262 .0287638
761.979 .0287635
762.697 .0287632
763.414 .0287628
764.130 .0287623
764.847 .0287617
765.563 .0287610
766.279 .0287601
766.995 .0287592
767.710 .0287581
768.426 .0287567
769.141 .0287552
769.855 .0287532
770.570 .0287508
771.284 .0287479
771.998 .0287444
772.712 .0287404
773.426 .0287358
774.139 .0287307
774.852 .0287251
775.565 .0287192
776.277 .0287129
776.990 .0287062
777.702 .0286991
778.414 .0286917
779.125 .0286839
779.836 .0286757
780.547 .0286671
781.258 .0286581
781.969 .0286487
782.679 .0286389
783.389 .0286232
784.099 .0286127
784.808 .0286018
785.517 .0285907
786.226 .0285792
786.935 .0285674
787.643 .0285553
788.352 .0285430
789.060 .0285303
789.767 .0285174
790.475 .0285042
791.182 .0284908
791.889 .0284834
792.595 .0284699
793.301 .0284562
794.008 .0284423
794.713 .0284283
795.419 .0284142
796.124 .0284000
796.829 .0283858
797.534 .0283716
798.238 .0283575
798.942 .0283434
799.646 .0283294
800.350 .0283154
801.053 .0283016
801.756 .0282878
802.459 .0282740
803.162 .0282603
803.864 .0282467
804.566 .0282333
805.267 .0282200
805.969 .0282071
806.670 .0281945
807.371 .0281821
808.071 .0281701
808.772 .0281583
809.472 .0281467
810.171 .0281354
810.871 .0281243
811.570 .0281135
812.269 .0281030
812.967 .0280928
813.666 .0280830
814.364 .0280735
815.061 .0280644
815.759 .0280556
816.456 .0280470
817.153 .0280387
817.849 .0280306
818.545 .0280227
819.241 .0280149
819.937 .0280074
820.632 .0280000
821.327 .0279929
822.022 .0279859
822.717 .0279791
823.411 .0279725
824.105 .0279661
824.798 .0279597
825.491 .0279535
826.184 .0279474
826.877 .0279414
827.569 .0279355
828.261 .0279296
828.953 .0279239
829.645 .0279182
830.336 .0279127
831.027 .0279073
831.717 .0279020
832.407 .0278969
833.097 .0278921
833.787 .0278876
834.476 .0278835
835.165 .0278798
835.854 .0278766
836.542 .0278738
837.230 .0278714
837.918 .0278693
838.605 .0278676
839.292 .0278662
839.979 .0278651
840.665 .0278643
841.352 .0278636
842.037 .0278631
842.723 .0278628
843.408 .0278626
844.093 .0278624
844.777 .0278621
845.462 .0278617
846.145 .0278611
846.829 .0278603
847.512 .0278592
848.195 .0278577
848.878 .0278560
849.560 .0278539
850.242 .0278514
850.923 .0278485
851.605 .0278451
852.286 .0278413
852.966 .0278370
853.646 .0278322
854.326 .0278270
855.006 .0278215
855.685 .0278156
856.364 .0278094
857.043 .0278030
857.721 .0277964
858.399 .0277895
859.077 .0277824
859.754 .0277749
860.431 .0277670
861.107 .0277588
861.784 .0277502
862.459 .0277413
863.135 .0277320
863.810 .0277224
864.485 .0277125
865.160 .0277021
865.834 .0276914
866.508 .0276801
867.181 .0276684
867.854 .0276561
868.527 .0276433
869.199 .0276299
869.872 .0276162
870.543 .0276020
871.215 .0275875
871.886 .0275725
872.557 .0275573
873.227 .0275416
873.897 .0275256
874.567 .0275092
875.236 .0274924
875.905 .0274753
876.573 .0274581
877.242 .0274408
877.909 .0274234
878.577 .0274060
879.244 .0273888
879.911 .0273716
880.577 .0273545
881.243 .0273375
881.909 .0273206
882.575 .0273038
883.240 .0272872
883.904 .0272707
884.569 .0272545
885.232 .0272384
885.896 .0272226
886.559 .0272070
887.222 .0271915
887.885 .0271762
888.547 .0271610
889.208 .0271458
889.870 .0271308
890.531 .0271158
891.192 .0271009
891.852 .0270862
892.512 .0270715
893.171 .0270570
893.830 .0270425
894.489 .0270283
895.148 .0270141
895.806 .0270000
896.464 .0269862
897.121 .0269725
897.778 .0269590
898.434 .0269458
899.091 .0269269
899.747 .0269143
900.402 .0269020
901.057 .0268899
901.712 .0268779
902.366 .0268662
903.020 .0268546
903.674 .0268431
904.327 .0268317
904.980 .0268204
905.633 .0268091
906.285 .0267980
906.936 .0267869
907.588 .0267815
908.239 .0267705
908.889 .0267596
909.540 .0267488
910.190 .0267381
910.839 .0267274
911.488 .0267168
912.137 .0267063
912.785 .0266957
913.433 .0266851
914.081 .0266745
914.728 .0266638
915.375 .0266530
916.021 .0266420
916.668 .0266309
917.313 .0266197
917.959 .0266083
918.604 .0265968
919.248 .0265851
919.892 .0265734
920.536 .0265615
921.180 .0265496
921.823 .0265377
922.465 .0265257
923.108 .0265136
923.750 .0265016
924.391 .0264895
925.032 .0264775
925.673 .0264655
926.313 .0264536
926.953 .0264417
927.593 .0264299
928.232 .0264181
928.871 .0264064
929.510 .0263947
930.148 .0263831
930.786 .0263715
931.423 .0263601
932.060 .0263487
932.697 .0263375
933.333 .0263265
933.969 .0263156
934.604 .0263049
935.239 .0262945
935.874 .0262842
936.508 .0262741
937.142 .0262642
937.776 .0262544
938.409 .0262448
939.042 .0262353
939.674 .0262260
940.306 .0262168
940.938 .0262079
941.569 .0261991
942.200 .0261905
942.830 .0261820
943.460 .0261736
944.090 .0261653
944.720 .0261571
945.349 .0261490
945.977 .0261409
946.606 .0261330
947.233 .0261252
947.861 .0261175
948.488 .0261100
949.115 .0261028
949.741 .0260958
950.367 .0260891
950.993 .0260826
951.618 .0260763
952.243 .0260702
952.868 .0260642
953.492 .0260583
954.115 .0260526
954.739 .0260469
955.362 .0260413
955.984 .0260358
956.607 .0260304
957.229 .0260251
957.850 .0260199
958.471 .0260148
959.092 .0260098
959.713 .0260050
960.333 .0260001
960.952 .0259954
961.572 .0259906
962.191 .0259859
962.809 .0259811
963.428 .0259765
964.045 .0259718
964.663 .0259672
965.280 .0259627
965.897 .0259582
966.513 .0259536
967.129 .0259488
967.745 .0259439
968.361 .0259387
968.976 .0259332
969.590 .0259275
970.205 .0259216
970.818 .0259156
971.432 .0259094
972.045 .0259032
972.658 .0258969
973.271 .0258905
973.883 .0258839
974.495 .0258772
975.106 .0258702
975.717 .0258629
976.328 .0258554
976.938 .0258477
977.548 .0258398
978.158 .0258317
978.768 .0258185
979.377 .0258099
979.985 .0258010
980.594 .0257918
981.202 .0257823
981.809 .0257724
982.417 .0257622
983.024 .0257517
983.631 .0257411
984.237 .0257303
984.843 .0257194
985.449 .0257084
986.054 .0256975
986.659 .0256866
987.264 .0256810
987.868 .0256703
988.472 .0256597
989.076 .0256493
989.679 .0256389
990.282 .0256287
990.885 .0256186
991.487 .0256086
992.090 .0255987
992.691 .0255889
993.293 .0255791
993.894 .0255693
994.495 .0255595
995.095 .0255497
995.696 .0255400
996.296 .0255303
996.895 .0255206
997.494 .0255109
998.093 .0255012
998.692 .0254915
999.291 .0254818
999.889 .0254719
1000.487 .0254620
1001.084 .0254519
1001.681 .0254418
1002.278 .0254317
1002.875 .0254215
1003.471 .0254114
1004.067 .0254011
1004.663 .0253908
1005.258 .0253804
1005.854 .0253698
1006.449 .0253590
1007.043 .0253480
1007.638 .0253369
1008.232 .0253257
1008.826 .0253146
1009.419 .0253036
1010.012 .0252927
1010.605 .0252820
1011.198 .0252715
1011.791 .0252610
1012.383 .0252507
1012.975 .0252404
1013.566 .0252301
1014.158 .0252198
1014.749 .0252096
1015.340 .0251995
1015.931 .0251895
1016.521 .0251798
1017.111 .0251704
1017.701 .0251612
1018.291 .0251522
1018.880 .0251435
1019.470 .0251350
1020.059 .0251267
1020.647 .0251187
1021.236 .0251111
1021.824 .0251038
1022.412 .0250969
1023.000 .0250905
1023.588 .0250845
1024.175 .0250791
1024.762 .0250741
1025.349 .0250695
1025.936 .0250653
1026.523 .0250613
1027.109 .0250576
1027.695 .0250541
1028.281 .0250507
1028.867 .0250476
1029.452 .0250446
1030.038 .0250417
1030.623 .0250390
1031.208 .0250365
1031.792 .0250341
1032.377 .0250319
1032.961 .0250299
1033.546 .0250281
1034.130 .0250264
1034.714 .0250248
1035.297 .0250233
1035.881 .0250217
1036.464 .0250199
1037.047 .0250181
1037.630 .0250160
1038.213 .0250136
1038.796 .0250111
1039.378 .0250084
1039.961 .0250055
1040.543 .0250025
1041.125 .0249992
1041.707 .0249956
1042.289 .0249917
1042.871 .0249874
1043.452 .0249828
1044.034 .0249777
1044.615 .0249723
1045.196 .0249668
1045.777 .0249612
1046.358 .0249558
1046.939 .0249505
1047.520 .0249457
1048.101 .0249413
1048.681 .0249373
1049.262 .0249337
1049.842 .0249304
1050.422 .0249275
1051.002 .0249250
1051.582 .0249227
1052.162 .0249209
1052.742 .0249196
1053.322 .0249189
1053.902 .0249189
1054.482 .0249195
1055.061 .0249207
1055.641 .0249225
1056.220 .0249248
1056.800 .0249275
1057.379 .0249307
1057.958 .0249342
1058.538 .0249380
1059.117 .0249421
1059.696 .0249464
1060.275 .0249510
1060.854 .0249558
1061.433 .0249607
1062.012 .0249659
1062.592 .0249711
1063.171 .0249765
1063.750 .0249820
1064.329 .0249875
1064.908 .0249929
1065.487 .0249982
1066.066 .0250033
1066.645 .0250082
1067.224 .0250127
1067.803 .0250170
1068.382 .0250209
1068.961 .0250244
1069.540 .0250277
1070.119 .0250306
1070.698 .0250333
1071.278 .0250358
1071.857 .0250381
1072.436 .0250403
1073.016 .0250423
1073.595 .0250440
1074.175 .0250457
1074.754 .0250472
1075.334 .0250486
1075.913 .0250501
1076.493 .0250517
1077.073 .0250535
1077.653 .0250557
1078.233 .0250583
1078.813 .0250615
1079.393 .0250652
1079.974 .0250696
1080.554 .0250746
1081.135 .0250802
1081.716 .0250865
1082.296 .0250936
1082.877 .0251015
1083.458 .0251103
1084.040 .0251198
1084.621 .0251303
1085.202 .0251416
1085.784 .0251536
1086.366 .0251663
1086.948 .0251794
1087.530 .0251927
1088.112 .0252062
1088.695 .0252196
1089.277 .0252330
1089.860 .0252462
1090.443 .0252592
1091.026 .0252720
1091.610 .0252844
1092.193 .0252963
1092.777 .0253079
1093.361 .0253189
1093.946 .0253295
1094.530 .0253395
1095.115 .0253488
1095.700 .0253575
1096.285 .0253652
1096.871 .0253721
1097.456 .0253781
1098.042 .0253830
1098.628 .0253870
1099.215 .0253902
1099.802 .0253924
1100.389 .0253939
1100.976 .0253946
1101.564 .0253947
1102.152 .0253942
1102.740 .0253932
1103.329 .0253917
1103.917 .0253899
1104.507 .0253880
1105.096 .0253862
1105.686 .0253846
1106.276 .0253836
1106.867 .0253832
1107.457 .0253837
1108.049 .0253851
1108.640 .0253874
1109.232 .0253907
1109.825 .0253949
1110.417 .0254000
1111.010 .0254057
1111.604 .0254122
1112.198 .0254196
1112.792 .0254278
1113.387 .0254370
1113.982 .0254471
1114.577 .0254582
1115.173 .0254701
1115.769 .0254830
1116.366 .0254963
1116.963 .0255100
1117.561 .0255238
1118.159 .0255374
1118.758 .0255508
1119.357 .0255638
1119.957 .0255766
1120.557 .0255889
1121.157 .0256010
1121.758 .0256127
1122.360 .0256239
1122.962 .0256345
1123.564 .0256442
1124.167 .0256517
1124.771 .0256597
1125.375 .0256664
1125.980 .0256718
1126.585 .0256761
1127.191 .0256799
1127.797 .0256834
1128.404 .0256874
1129.012 .0256922
1129.620 .0256981
1130.229 .0257054
1130.838 .0257141
1131.448 .0257242
1132.058 .0257359
1132.669 .0257505
1133.281 .0257662
1133.894 .0257841
1134.507 .0258021
1135.120 .0258276
1135.735 .0258614
1136.350 .0258943
1136.965 .0257123
1137.582 .0257610
1138.199 .0258158
1138.816 .0258764
1139.435 .0259394
1140.054 .0260073
1140.674 .0260819
1141.294 .0261589
1141.916 .0262303
1142.538 .0262352
1143.160 .0264390
1143.784 .0266564
1144.408 .0266260
1145.033 .0263869
