Measurement Sequence started on: 14-45-04-498
Integration time: 36
Scans to Average: 2 
>>>>>Begin Spectral Data<<<<<
433.946 .0548233
434.870 .0486525
435.793 .0476522
436.715 .0501334
437.635 .0503613
438.555 .0501247
439.473 .0500702
440.389 .0501769
441.305 .0502549
442.219 .0502293
443.132 .0496553
444.044 .0496593
444.954 .0497087
445.863 .0496204
446.771 .0495127
447.678 .0494101
448.584 .0493029
449.488 .0491832
450.391 .0490530
451.293 .0489185
452.194 .0487823
453.094 .0486464
453.992 .0485112
454.890 .0483785
455.786 .0482496
456.681 .0481244
457.575 .0480028
458.468 .0478840
459.360 .0477674
460.250 .0476530
461.140 .0475406
462.028 .0474304
462.915 .0473228
463.801 .0472183
464.687 .0471170
465.571 .0470186
466.454 .0469228
467.335 .0468286
468.216 .0467356
469.096 .0466428
469.975 .0465501
470.853 .0464581
471.729 .0463678
472.605 .0462804
473.479 .0461971
474.353 .0461185
475.226 .0460451
476.097 .0459768
476.968 .0459130
477.838 .0458530
478.706 .0457962
479.574 .0457422
480.441 .0456910
481.306 .0456426
482.171 .0455976
483.035 .0455563
483.898 .0455192
484.760 .0454860
485.621 .0454563
486.481 .0454292
487.340 .0454039
488.198 .0453791
489.055 .0453543
489.912 .0453285
490.767 .0453016
491.622 .0452576
492.476 .0452282
493.329 .0451981
494.180 .0451672
495.032 .0451354
495.882 .0451024
496.731 .0450677
497.580 .0450310
498.427 .0449921
499.274 .0449510
500.120 .0449259
500.965 .0448825
501.809 .0448374
502.653 .0447907
503.495 .0447429
504.337 .0446944
505.178 .0446454
506.018 .0445963
506.858 .0445476
507.696 .0444997
508.534 .0444532
509.371 .0444083
510.208 .0443654
511.043 .0443248
511.878 .0442867
512.712 .0442510
513.545 .0442174
514.377 .0441856
515.209 .0441551
516.040 .0441253
516.870 .0440955
517.699 .0440651
518.528 .0440339
519.356 .0440017
520.183 .0439685
521.010 .0439345
521.836 .0438998
522.661 .0438642
523.485 .0438280
524.309 .0437910
525.132 .0437528
525.954 .0437130
526.776 .0436715
527.597 .0436282
528.417 .0435833
529.237 .0435374
530.056 .0434913
530.874 .0434464
531.692 .0434036
532.508 .0433635
533.325 .0433265
534.140 .0432927
534.955 .0432619
535.770 .0432333
536.583 .0432062
537.397 .0431802
538.209 .0431545
539.021 .0431288
539.832 .0431030
540.643 .0430771
541.453 .0430511
542.262 .0430251
543.071 .0429994
543.879 .0429735
544.687 .0429470
545.494 .0429193
546.300 .0428899
547.106 .0428580
547.911 .0428228
548.716 .0427835
549.520 .0427402
550.323 .0426932
551.126 .0426429
551.929 .0425902
552.731 .0425361
553.532 .0424817
554.332 .0424273
555.133 .0423734
555.932 .0423207
556.731 .0422689
557.530 .0422177
558.328 .0421671
559.125 .0421167
559.922 .0420661
560.719 .0420154
561.515 .0419647
562.310 .0419142
563.105 .0418639
563.899 .0418139
564.693 .0417642
565.487 .0417150
566.280 .0416661
567.072 .0416173
567.864 .0415684
568.655 .0415194
569.446 .0414701
570.236 .0414204
571.026 .0413709
571.816 .0413216
572.605 .0412727
573.393 .0412247
574.181 .0411776
574.969 .0411317
575.756 .0410871
576.543 .0410438
577.329 .0410020
578.115 .0409615
578.900 .0409224
579.685 .0408845
580.469 .0408481
581.253 .0408134
582.036 .0407803
582.820 .0407488
583.602 .0407190
584.384 .0406909
585.166 .0406642
585.947 .0406388
586.728 .0406142
587.509 .0405904
588.289 .0405670
589.069 .0405437
589.848 .0405203
590.627 .0404965
591.405 .0404724
592.183 .0404475
592.961 .0404221
593.738 .0403960
594.515 .0403693
595.291 .0403422
596.067 .0403150
596.843 .0402875
597.618 .0402601
598.393 .0402200
599.167 .0401932
599.941 .0401667
600.715 .0401403
601.488 .0401141
602.261 .0400882
603.034 .0400627
603.806 .0400376
604.578 .0400131
605.349 .0399893
606.121 .0399663
606.891 .0399563
607.662 .0399343
608.432 .0399131
609.201 .0398926
609.971 .0398729
610.740 .0398540
611.508 .0398358
612.277 .0398183
613.045 .0398014
613.812 .0397851
614.579 .0397692
615.346 .0397538
616.113 .0397387
616.879 .0397237
617.645 .0397090
618.411 .0396946
619.176 .0396802
619.941 .0396660
620.705 .0396517
621.470 .0396373
622.233 .0396226
622.997 .0396075
623.760 .0395917
624.523 .0395754
625.286 .0395585
626.048 .0395408
626.810 .0395225
627.572 .0395035
628.333 .0394837
629.095 .0394632
629.855 .0394420
630.616 .0394199
631.376 .0393971
632.136 .0393735
632.895 .0393493
633.655 .0393246
634.414 .0392995
635.172 .0392741
635.931 .0392485
636.689 .0392227
637.447 .0391968
638.204 .0391707
638.962 .0391447
639.718 .0391188
640.475 .0390930
641.231 .0390675
641.988 .0390424
642.743 .0390176
643.499 .0389933
644.254 .0389693
645.009 .0389458
645.764 .0389227
646.518 .0389000
647.272 .0388775
648.026 .0388553
648.780 .0388334
649.533 .0388117
650.286 .0387903
651.039 .0387691
651.792 .0387482
652.544 .0387275
653.296 .0387071
654.048 .0386870
654.799 .0386671
655.550 .0386476
656.301 .0386284
657.052 .0386095
657.802 .0385909
658.552 .0385726
659.302 .0385544
660.052 .0385366
660.801 .0385189
661.550 .0385015
662.299 .0384843
663.048 .0384674
663.796 .0384507
664.544 .0384342
665.292 .0384181
666.040 .0384023
666.787 .0383868
667.534 .0383715
668.281 .0383565
669.028 .0383416
669.774 .0383270
670.521 .0383125
671.266 .0382981
672.012 .0382838
672.758 .0382697
673.503 .0382556
674.248 .0382416
674.992 .0382277
675.737 .0382139
676.481 .0382000
677.225 .0381860
677.969 .0381719
678.712 .0381575
679.455 .0381429
680.199 .0381280
680.941 .0381130
681.684 .0380977
682.426 .0380821
683.168 .0380663
683.910 .0380501
684.652 .0380337
685.393 .0380168
686.134 .0379995
686.875 .0379816
687.616 .0379633
688.356 .0379446
689.097 .0379254
689.837 .0379060
690.576 .0378862
691.316 .0378662
692.055 .0378460
692.794 .0378255
693.533 .0378049
694.272 .0377841
695.010 .0377633
695.748 .0377423
696.486 .0377213
697.224 .0377003
697.962 .0376792
698.699 .0376582
699.436 .0376373
700.173 .0376164
700.909 .0375958
701.646 .0375753
702.382 .0375552
703.118 .0375353
703.853 .0375157
704.589 .0374964
705.324 .0374774
706.059 .0374585
706.794 .0374399
707.529 .0374213
708.263 .0374028
708.997 .0373846
709.731 .0373665
710.465 .0373487
711.198 .0373313
711.931 .0373143
712.664 .0372977
713.397 .0372814
714.130 .0372654
714.862 .0372496
715.594 .0372340
716.326 .0372185
717.058 .0372030
717.789 .0371876
718.520 .0371723
719.251 .0371571
719.982 .0371420
720.713 .0371271
721.443 .0371123
722.173 .0370976
722.903 .0370830
723.633 .0370685
724.362 .0370540
725.091 .0370396
725.820 .0370253
726.549 .0370110
727.278 .0369968
728.006 .0369826
728.734 .0369686
729.462 .0369547
730.190 .0369410
730.917 .0369274
731.644 .0369139
732.371 .0369006
733.098 .0368874
733.825 .0368744
734.551 .0368614
735.277 .0368485
736.003 .0368356
736.728 .0368227
737.454 .0368098
738.179 .0367968
738.904 .0367839
739.629 .0367710
740.353 .0367579
741.077 .0367448
741.801 .0367315
742.525 .0367179
743.249 .0367041
743.972 .0366900
744.695 .0366756
745.418 .0366609
746.141 .0366459
746.863 .0366307
747.585 .0366152
748.307 .0365995
749.029 .0365836
749.750 .0365674
750.472 .0365511
751.193 .0365345
751.913 .0365177
752.634 .0365007
753.354 .0364836
754.074 .0364663
754.794 .0364489
755.514 .0364313
756.233 .0364137
756.952 .0363960
757.671 .0363783
758.390 .0363606
759.108 .0363429
759.826 .0363252
760.544 .0363074
761.262 .0362896
761.979 .0362717
762.697 .0362537
763.414 .0362356
764.130 .0362173
764.847 .0361990
765.563 .0361808
766.279 .0361626
766.995 .0361445
767.710 .0361268
768.426 .0361093
769.141 .0360922
769.855 .0360755
770.570 .0360592
771.284 .0360433
771.998 .0360278
772.712 .0360128
773.426 .0359982
774.139 .0359841
774.852 .0359706
775.565 .0359577
776.277 .0359454
776.990 .0359336
777.702 .0359226
778.414 .0359122
779.125 .0359024
779.836 .0358932
780.547 .0358847
781.258 .0358766
781.969 .0358691
782.679 .0358619
783.389 .0358519
784.099 .0358451
784.808 .0358384
785.517 .0358318
786.226 .0358251
786.935 .0358185
787.643 .0358120
788.352 .0358054
789.060 .0357989
789.767 .0357924
790.475 .0357858
791.182 .0357791
791.889 .0357752
792.595 .0357682
793.301 .0357611
794.008 .0357537
794.713 .0357461
795.419 .0357381
796.124 .0357299
796.829 .0357213
797.534 .0357124
798.238 .0357031
798.942 .0356934
799.646 .0356834
800.350 .0356731
801.053 .0356626
801.756 .0356519
802.459 .0356409
803.162 .0356298
803.864 .0356183
804.566 .0356066
805.267 .0355946
805.969 .0355822
806.670 .0355695
807.371 .0355565
808.071 .0355433
808.772 .0355300
809.472 .0355165
810.171 .0355029
810.871 .0354891
811.570 .0354751
812.269 .0354609
812.967 .0354463
813.666 .0354313
814.364 .0354160
815.061 .0354002
815.759 .0353841
816.456 .0353677
817.153 .0353511
817.849 .0353341
818.545 .0353169
819.241 .0352995
819.937 .0352818
820.632 .0352639
821.327 .0352458
822.022 .0352275
822.717 .0352089
823.411 .0351900
824.105 .0351707
824.798 .0351512
825.491 .0351313
826.184 .0351111
826.877 .0350906
827.569 .0350698
828.261 .0350488
828.953 .0350278
829.645 .0350066
830.336 .0349854
831.027 .0349643
831.717 .0349434
832.407 .0349226
833.097 .0349020
833.787 .0348818
834.476 .0348618
835.165 .0348421
835.854 .0348228
836.542 .0348037
837.230 .0347849
837.918 .0347663
838.605 .0347479
839.292 .0347299
839.979 .0347121
840.665 .0346948
841.352 .0346779
842.037 .0346614
842.723 .0346454
843.408 .0346298
844.093 .0346146
844.777 .0345997
845.462 .0345851
846.145 .0345708
846.829 .0345568
847.512 .0345432
848.195 .0345298
848.878 .0345167
849.560 .0345040
850.242 .0344914
850.923 .0344790
851.605 .0344667
852.286 .0344544
852.966 .0344420
853.646 .0344296
854.326 .0344171
855.006 .0344045
855.685 .0343920
856.364 .0343794
857.043 .0343669
857.721 .0343545
858.399 .0343421
859.077 .0343297
859.754 .0343174
860.431 .0343051
861.107 .0342928
861.784 .0342806
862.459 .0342685
863.135 .0342564
863.810 .0342444
864.485 .0342324
865.160 .0342205
865.834 .0342086
866.508 .0341967
867.181 .0341848
867.854 .0341730
868.527 .0341614
869.199 .0341500
869.872 .0341389
870.543 .0341282
871.215 .0341178
871.886 .0341079
872.557 .0340984
873.227 .0340893
873.897 .0340806
874.567 .0340721
875.236 .0340637
875.905 .0340556
876.573 .0340475
877.242 .0340394
877.909 .0340312
878.577 .0340230
879.244 .0340146
879.911 .0340059
880.577 .0339970
881.243 .0339877
881.909 .0339782
882.575 .0339682
883.240 .0339579
883.904 .0339473
884.569 .0339363
885.232 .0339250
885.896 .0339134
886.559 .0339014
887.222 .0338892
887.885 .0338767
888.547 .0338639
889.208 .0338508
889.870 .0338376
890.531 .0338241
891.192 .0338105
891.852 .0337967
892.512 .0337828
893.171 .0337689
893.830 .0337548
894.489 .0337407
895.148 .0337265
895.806 .0337123
896.464 .0336982
897.121 .0336840
897.778 .0336699
898.434 .0336559
899.091 .0336349
899.747 .0336209
900.402 .0336068
901.057 .0335927
901.712 .0335783
902.366 .0335637
903.020 .0335487
903.674 .0335332
904.327 .0335171
904.980 .0335003
905.633 .0334829
906.285 .0334647
906.936 .0334459
907.588 .0334344
908.239 .0334145
908.889 .0333940
909.540 .0333729
910.190 .0333511
910.839 .0333289
911.488 .0333062
912.137 .0332832
912.785 .0332598
913.433 .0332362
914.081 .0332124
914.728 .0331885
915.375 .0331644
916.021 .0331402
916.668 .0331157
917.313 .0330911
917.959 .0330663
918.604 .0330413
919.248 .0330160
919.892 .0329904
920.536 .0329647
921.180 .0329388
921.823 .0329127
922.465 .0328865
923.108 .0328602
923.750 .0328337
924.391 .0328072
925.032 .0327805
925.673 .0327538
926.313 .0327271
926.953 .0327004
927.593 .0326738
928.232 .0326474
928.871 .0326211
929.510 .0325951
930.148 .0325692
930.786 .0325436
931.423 .0325181
932.060 .0324928
932.697 .0324677
933.333 .0324428
933.969 .0324182
934.604 .0323939
935.239 .0323699
935.874 .0323464
936.508 .0323234
937.142 .0323010
937.776 .0322791
938.409 .0322579
939.042 .0322374
939.674 .0322176
940.306 .0321985
940.938 .0321802
941.569 .0321626
942.200 .0321457
942.830 .0321295
943.460 .0321139
944.090 .0320989
944.720 .0320845
945.349 .0320706
945.977 .0320572
946.606 .0320441
947.233 .0320314
947.861 .0320190
948.488 .0320068
949.115 .0319949
949.741 .0319832
950.367 .0319718
950.993 .0319606
951.618 .0319496
952.243 .0319389
952.868 .0319284
953.492 .0319181
954.115 .0319080
954.739 .0318981
955.362 .0318884
955.984 .0318789
956.607 .0318696
957.229 .0318604
957.850 .0318515
958.471 .0318428
959.092 .0318344
959.713 .0318264
960.333 .0318187
960.952 .0318112
961.572 .0318042
962.191 .0317974
962.809 .0317909
963.428 .0317848
964.045 .0317790
964.663 .0317735
965.280 .0317684
965.897 .0317636
966.513 .0317592
967.129 .0317550
967.745 .0317511
968.361 .0317474
968.976 .0317439
969.590 .0317405
970.205 .0317372
970.818 .0317341
971.432 .0317311
972.045 .0317282
972.658 .0317254
973.271 .0317227
973.883 .0317201
974.495 .0317175
975.106 .0317149
975.717 .0317122
976.328 .0317095
976.938 .0317067
977.548 .0317038
978.158 .0317008
978.768 .0316956
979.377 .0316922
979.985 .0316886
980.594 .0316848
981.202 .0316807
981.809 .0316764
982.417 .0316719
983.024 .0316673
983.631 .0316625
984.237 .0316577
984.843 .0316528
985.449 .0316478
986.054 .0316427
986.659 .0316375
987.264 .0316345
987.868 .0316288
988.472 .0316228
989.076 .0316166
989.679 .0316101
990.282 .0316034
990.885 .0315964
991.487 .0315891
992.090 .0315815
992.691 .0315736
993.293 .0315653
993.894 .0315565
994.495 .0315473
995.095 .0315377
995.696 .0315278
996.296 .0315176
996.895 .0315072
997.494 .0314969
998.093 .0314865
998.692 .0314763
999.291 .0314660
999.889 .0314556
1000.487 .0314451
1001.084 .0314343
1001.681 .0314234
1002.278 .0314121
1002.875 .0314007
1003.471 .0313891
1004.067 .0313774
1004.663 .0313655
1005.258 .0313535
1005.854 .0313412
1006.449 .0313287
1007.043 .0313158
1007.638 .0313026
1008.232 .0312890
1008.826 .0312752
1009.419 .0312613
1010.012 .0312474
1010.605 .0312336
1011.198 .0312200
1011.791 .0312065
1012.383 .0311933
1012.975 .0311802
1013.566 .0311671
1014.158 .0311539
1014.749 .0311407
1015.340 .0311273
1015.931 .0311138
1016.521 .0311001
1017.111 .0310865
1017.701 .0310728
1018.291 .0310590
1018.880 .0310453
1019.470 .0310316
1020.059 .0310178
1020.647 .0310040
1021.236 .0309901
1021.824 .0309763
1022.412 .0309624
1023.000 .0309485
1023.588 .0309348
1024.175 .0309213
1024.762 .0309081
1025.349 .0308951
1025.936 .0308824
1026.523 .0308700
1027.109 .0308579
1027.695 .0308460
1028.281 .0308343
1028.867 .0308228
1029.452 .0308115
1030.038 .0308004
1030.623 .0307895
1031.208 .0307787
1031.792 .0307681
1032.377 .0307577
1032.961 .0307474
1033.546 .0307372
1034.130 .0307272
1034.714 .0307172
1035.297 .0307074
1035.881 .0306976
1036.464 .0306878
1037.047 .0306780
1037.630 .0306680
1038.213 .0306580
1038.796 .0306480
1039.378 .0306379
1039.961 .0306278
1040.543 .0306178
1041.125 .0306080
1041.707 .0305984
1042.289 .0305890
1042.871 .0305799
1043.452 .0305710
1044.034 .0305624
1044.615 .0305540
1045.196 .0305458
1045.777 .0305378
1046.358 .0305300
1046.939 .0305223
1047.520 .0305147
1048.101 .0305073
1048.681 .0305000
1049.262 .0304928
1049.842 .0304859
1050.422 .0304791
1051.002 .0304725
1051.582 .0304661
1052.162 .0304600
1052.742 .0304542
1053.322 .0304488
1053.902 .0304439
1054.482 .0304395
1055.061 .0304356
1055.641 .0304326
1056.220 .0304303
1056.800 .0304289
1057.379 .0304283
1057.958 .0304285
1058.538 .0304294
1059.117 .0304308
1059.696 .0304324
1060.275 .0304342
1060.854 .0304359
1061.433 .0304374
1062.012 .0304386
1062.592 .0304395
1063.171 .0304400
1063.750 .0304403
1064.329 .0304404
1064.908 .0304404
1065.487 .0304402
1066.066 .0304400
1066.645 .0304399
1067.224 .0304397
1067.803 .0304397
1068.382 .0304396
1068.961 .0304397
1069.540 .0304399
1070.119 .0304402
1070.698 .0304407
1071.278 .0304413
1071.857 .0304422
1072.436 .0304431
1073.016 .0304439
1073.595 .0304447
1074.175 .0304454
1074.754 .0304460
1075.334 .0304465
1075.913 .0304469
1076.493 .0304473
1077.073 .0304477
1077.653 .0304483
1078.233 .0304492
1078.813 .0304505
1079.393 .0304524
1079.974 .0304548
1080.554 .0304579
1081.135 .0304616
1081.716 .0304659
1082.296 .0304708
1082.877 .0304761
1083.458 .0304817
1084.040 .0304875
1084.621 .0304934
1085.202 .0304993
1085.784 .0305054
1086.366 .0305115
1086.948 .0305177
1087.530 .0305238
1088.112 .0305299
1088.695 .0305359
1089.277 .0305417
1089.860 .0305474
1090.443 .0305529
1091.026 .0305583
1091.610 .0305635
1092.193 .0305687
1092.777 .0305741
1093.361 .0305796
1093.946 .0305853
1094.530 .0305912
1095.115 .0305972
1095.700 .0306031
1096.285 .0306090
1096.871 .0306145
1097.456 .0306198
1098.042 .0306249
1098.628 .0306296
1099.215 .0306340
1099.802 .0306382
1100.389 .0306423
1100.976 .0306463
1101.564 .0306506
1102.152 .0306551
1102.740 .0306599
1103.329 .0306652
1103.917 .0306709
1104.507 .0306772
1105.096 .0306841
1105.686 .0306918
1106.276 .0307001
1106.867 .0307093
1107.457 .0307195
1108.049 .0307306
1108.640 .0307428
1109.232 .0307563
1109.825 .0307708
1110.417 .0307863
1111.010 .0308026
1111.604 .0308195
1112.198 .0308367
1112.792 .0308539
1113.387 .0308710
1113.982 .0308880
1114.577 .0309046
1115.173 .0309209
1115.769 .0309370
1116.366 .0309530
1116.963 .0309687
1117.561 .0309843
1118.159 .0309996
1118.758 .0310147
1119.357 .0310293
1119.957 .0310436
1120.557 .0310575
1121.157 .0310711
1121.758 .0310844
1122.360 .0310978
1122.962 .0311113
1123.564 .0311250
1124.167 .0311336
1124.771 .0311471
1125.375 .0311608
1125.980 .0311748
1126.585 .0311892
1127.191 .0312043
1127.797 .0312204
1128.404 .0312378
1129.012 .0312570
1129.620 .0312787
1130.229 .0313031
1130.838 .0313306
1131.448 .0313615
1132.058 .0313961
1132.669 .0314449
1133.281 .0314891
1133.894 .0315376
1134.507 .0315889
1135.120 .0316510
1135.735 .0317146
1136.350 .0317835
1136.965 .0316958
1137.582 .0317759
1138.199 .0318590
1138.816 .0319455
1139.435 .0320337
1140.054 .0321321
1140.674 .0322354
1141.294 .0323482
1141.916 .0324610
1142.538 .0325409
1143.160 .0328318
1143.784 .0328688
1144.408 .0330143
1145.033 .0329087
