Measurement Sequence started on: 14-45-04-498
Integration time: 36
Scans to Average: 2 
>>>>>Begin Spectral Data<<<<<
433.946 .0435976
434.870 .0483799
435.793 .0443340
436.715 .0452811
437.635 .0443890
438.555 .0444184
439.473 .0441435
440.389 .0437558
441.305 .0435037
442.219 .0432414
443.132 .0436162
444.044 .0433122
444.954 .0432195
445.863 .0430749
446.771 .0429744
447.678 .0428700
448.584 .0427770
449.488 .0427012
450.391 .0426346
451.293 .0425777
452.194 .0425267
453.094 .0424796
453.992 .0424320
454.890 .0423820
455.786 .0423271
456.681 .0422667
457.575 .0422000
458.468 .0421277
459.360 .0420504
460.250 .0419694
461.140 .0418854
462.028 .0417998
462.915 .0417132
463.801 .0416267
464.687 .0415397
465.571 .0414529
466.454 .0413660
467.335 .0412796
468.216 .0411937
469.096 .0411088
469.975 .0410257
470.853 .0409452
471.729 .0408678
472.605 .0407945
473.479 .0407255
474.353 .0406612
475.226 .0406016
476.097 .0405462
476.968 .0404944
477.838 .0404456
478.706 .0403993
479.574 .0403554
480.441 .0403140
481.306 .0402756
482.171 .0402406
483.035 .0402094
483.898 .0401825
484.760 .0401599
485.621 .0401416
486.481 .0401271
487.340 .0401160
488.198 .0401076
489.055 .0401010
489.912 .0400955
490.767 .0400904
491.622 .0400817
492.476 .0400742
493.329 .0400652
494.180 .0400546
495.032 .0400421
495.882 .0400275
496.731 .0400104
497.580 .0399907
498.427 .0399683
499.274 .0399432
500.120 .0399234
500.965 .0398948
501.809 .0398633
502.653 .0398289
503.495 .0397919
504.337 .0397522
505.178 .0397101
506.018 .0396660
506.858 .0396206
507.696 .0395744
508.534 .0395281
509.371 .0394824
510.208 .0394381
511.043 .0393955
511.878 .0393547
512.712 .0393153
513.545 .0392769
514.377 .0392388
515.209 .0392002
516.040 .0391605
516.870 .0391195
517.699 .0390770
518.528 .0390333
519.356 .0389889
520.183 .0389439
521.010 .0388982
521.836 .0388519
522.661 .0388043
523.485 .0387548
524.309 .0387026
525.132 .0386468
525.954 .0385872
526.776 .0385234
527.597 .0384557
528.417 .0383844
529.237 .0383109
530.056 .0382364
530.874 .0381620
531.692 .0380887
532.508 .0380175
533.325 .0379492
534.140 .0378838
534.955 .0378213
535.770 .0377614
536.583 .0377034
537.397 .0376469
538.209 .0375918
539.021 .0375387
539.832 .0374881
540.643 .0374406
541.453 .0373970
542.262 .0373575
543.071 .0373225
543.879 .0372917
544.687 .0372642
545.494 .0372392
546.300 .0372152
547.106 .0371911
547.911 .0371660
548.716 .0371395
549.520 .0371114
550.323 .0370818
551.126 .0370511
551.929 .0370193
552.731 .0369867
553.532 .0369534
554.332 .0369197
555.133 .0368853
555.932 .0368499
556.731 .0368132
557.530 .0367748
558.328 .0367349
559.125 .0366934
559.922 .0366503
560.719 .0366060
561.515 .0365610
562.310 .0365159
563.105 .0364708
563.899 .0364262
564.693 .0363822
565.487 .0363388
566.280 .0362958
567.072 .0362530
567.864 .0362102
568.655 .0361676
569.446 .0361252
570.236 .0360832
571.026 .0360420
571.816 .0360018
572.605 .0359629
573.393 .0359256
574.181 .0358899
574.969 .0358557
575.756 .0358227
576.543 .0357910
577.329 .0357601
578.115 .0357300
578.900 .0357007
579.685 .0356720
580.469 .0356439
581.253 .0356166
582.036 .0355900
582.820 .0355640
583.602 .0355387
584.384 .0355136
585.166 .0354886
585.947 .0354638
586.728 .0354388
587.509 .0354137
588.289 .0353882
589.069 .0353626
589.848 .0353365
590.627 .0353099
591.405 .0352829
592.183 .0352553
592.961 .0352273
593.738 .0351989
594.515 .0351700
595.291 .0351407
596.067 .0351110
596.843 .0350810
597.618 .0350508
598.393 .0350047
599.167 .0349744
599.941 .0349441
600.715 .0349138
601.488 .0348837
602.261 .0348539
603.034 .0348244
603.806 .0347954
604.578 .0347669
605.349 .0347390
606.121 .0347118
606.891 .0347005
607.662 .0346746
608.432 .0346496
609.201 .0346253
609.971 .0346019
610.740 .0345791
611.508 .0345570
612.277 .0345356
613.045 .0345146
613.812 .0344942
614.579 .0344742
615.346 .0344546
616.113 .0344352
616.879 .0344161
617.645 .0343972
618.411 .0343782
619.176 .0343591
619.941 .0343397
620.705 .0343198
621.470 .0342994
622.233 .0342785
622.997 .0342570
623.760 .0342349
624.523 .0342125
625.286 .0341898
626.048 .0341669
626.810 .0341439
627.572 .0341208
628.333 .0340977
629.095 .0340746
629.855 .0340515
630.616 .0340283
631.376 .0340050
632.136 .0339818
632.895 .0339585
633.655 .0339352
634.414 .0339121
635.172 .0338891
635.931 .0338663
636.689 .0338437
637.447 .0338212
638.204 .0337989
638.962 .0337767
639.718 .0337546
640.475 .0337325
641.231 .0337106
641.988 .0336886
642.743 .0336666
643.499 .0336445
644.254 .0336224
645.009 .0336002
645.764 .0335780
646.518 .0335559
647.272 .0335339
648.026 .0335121
648.780 .0334906
649.533 .0334693
650.286 .0334481
651.039 .0334272
651.792 .0334063
652.544 .0333855
653.296 .0333648
654.048 .0333444
654.799 .0333243
655.550 .0333046
656.301 .0332854
657.052 .0332667
657.802 .0332485
658.552 .0332307
659.302 .0332133
660.052 .0331962
660.801 .0331793
661.550 .0331627
662.299 .0331463
663.048 .0331302
663.796 .0331145
664.544 .0330990
665.292 .0330839
666.040 .0330690
666.787 .0330543
667.534 .0330398
668.281 .0330255
669.028 .0330113
669.774 .0329973
670.521 .0329834
671.266 .0329697
672.012 .0329560
672.758 .0329424
673.503 .0329287
674.248 .0329151
674.992 .0329014
675.737 .0328877
676.481 .0328738
677.225 .0328598
677.969 .0328456
678.712 .0328311
679.455 .0328163
680.199 .0328011
680.941 .0327855
681.684 .0327694
682.426 .0327529
683.168 .0327359
683.910 .0327185
684.652 .0327008
685.393 .0326827
686.134 .0326644
686.875 .0326457
687.616 .0326268
688.356 .0326076
689.097 .0325882
689.837 .0325686
690.576 .0325490
691.316 .0325292
692.055 .0325095
692.794 .0324898
693.533 .0324702
694.272 .0324507
695.010 .0324314
695.748 .0324124
696.486 .0323936
697.224 .0323751
697.962 .0323570
698.699 .0323393
699.436 .0323220
700.173 .0323050
700.909 .0322884
701.646 .0322722
702.382 .0322562
703.118 .0322405
703.853 .0322251
704.589 .0322099
705.324 .0321949
706.059 .0321801
706.794 .0321656
707.529 .0321512
708.263 .0321369
708.997 .0321227
709.731 .0321085
710.465 .0320943
711.198 .0320801
711.931 .0320659
712.664 .0320515
713.397 .0320370
714.130 .0320224
714.862 .0320076
715.594 .0319927
716.326 .0319776
717.058 .0319622
717.789 .0319467
718.520 .0319311
719.251 .0319154
719.982 .0318997
720.713 .0318841
721.443 .0318684
722.173 .0318528
722.903 .0318373
723.633 .0318219
724.362 .0318066
725.091 .0317913
725.820 .0317763
726.549 .0317615
727.278 .0317470
728.006 .0317328
728.734 .0317191
729.462 .0317057
730.190 .0316927
730.917 .0316799
731.644 .0316675
732.371 .0316552
733.098 .0316431
733.825 .0316312
734.551 .0316194
735.277 .0316078
736.003 .0315964
736.728 .0315852
737.454 .0315741
738.179 .0315632
738.904 .0315524
739.629 .0315416
740.353 .0315309
741.077 .0315202
741.801 .0315094
742.525 .0314987
743.249 .0314880
743.972 .0314771
744.695 .0314662
745.418 .0314551
746.141 .0314439
746.863 .0314327
747.585 .0314214
748.307 .0314100
749.029 .0313986
749.750 .0313871
750.472 .0313755
751.193 .0313637
751.913 .0313517
752.634 .0313393
753.354 .0313267
754.074 .0313137
754.794 .0313004
755.514 .0312867
756.233 .0312728
756.952 .0312587
757.671 .0312443
758.390 .0312298
759.108 .0312150
759.826 .0312001
760.544 .0311849
761.262 .0311696
761.979 .0311541
762.697 .0311385
763.414 .0311227
764.130 .0311069
764.847 .0310910
765.563 .0310753
766.279 .0310598
766.995 .0310446
767.710 .0310297
768.426 .0310152
769.141 .0310011
769.855 .0309874
770.570 .0309742
771.284 .0309613
771.998 .0309488
772.712 .0309366
773.426 .0309247
774.139 .0309130
774.852 .0309017
775.565 .0308906
776.277 .0308796
776.990 .0308689
777.702 .0308583
778.414 .0308479
779.125 .0308376
779.836 .0308275
780.547 .0308174
781.258 .0308073
781.969 .0307973
782.679 .0307873
783.389 .0307722
784.099 .0307622
784.808 .0307522
785.517 .0307423
786.226 .0307324
786.935 .0307226
787.643 .0307129
788.352 .0307034
789.060 .0306942
789.767 .0306851
790.475 .0306762
791.182 .0306675
791.889 .0306636
792.595 .0306550
793.301 .0306465
794.008 .0306381
794.713 .0306297
795.419 .0306215
796.124 .0306133
796.829 .0306051
797.534 .0305971
798.238 .0305890
798.942 .0305808
799.646 .0305726
800.350 .0305644
801.053 .0305560
801.756 .0305476
802.459 .0305390
803.162 .0305304
803.864 .0305217
804.566 .0305130
805.267 .0305041
805.969 .0304952
806.670 .0304862
807.371 .0304770
808.071 .0304678
808.772 .0304585
809.472 .0304492
810.171 .0304398
810.871 .0304305
811.570 .0304210
812.269 .0304115
812.967 .0304019
813.666 .0303920
814.364 .0303818
815.061 .0303713
815.759 .0303604
816.456 .0303492
817.153 .0303376
817.849 .0303256
818.545 .0303133
819.241 .0303007
819.937 .0302878
820.632 .0302745
821.327 .0302608
822.022 .0302466
822.717 .0302320
823.411 .0302169
824.105 .0302015
824.798 .0301857
825.491 .0301697
826.184 .0301534
826.877 .0301369
827.569 .0301202
828.261 .0301034
828.953 .0300865
829.645 .0300695
830.336 .0300524
831.027 .0300353
831.717 .0300184
832.407 .0300016
833.097 .0299850
833.787 .0299688
834.476 .0299527
835.165 .0299369
835.854 .0299212
836.542 .0299057
837.230 .0298904
837.918 .0298752
838.605 .0298602
839.292 .0298453
839.979 .0298306
840.665 .0298161
841.352 .0298017
842.037 .0297874
842.723 .0297731
843.408 .0297588
844.093 .0297445
844.777 .0297300
845.462 .0297155
846.145 .0297009
846.829 .0296862
847.512 .0296715
848.195 .0296568
848.878 .0296421
849.560 .0296275
850.242 .0296129
850.923 .0295984
851.605 .0295840
852.286 .0295697
852.966 .0295555
853.646 .0295414
854.326 .0295274
855.006 .0295135
855.685 .0294997
856.364 .0294860
857.043 .0294723
857.721 .0294587
858.399 .0294452
859.077 .0294318
859.754 .0294186
860.431 .0294055
861.107 .0293927
861.784 .0293800
862.459 .0293676
863.135 .0293554
863.810 .0293433
864.485 .0293314
865.160 .0293196
865.834 .0293079
866.508 .0292964
867.181 .0292849
867.854 .0292735
868.527 .0292623
869.199 .0292513
869.872 .0292404
870.543 .0292298
871.215 .0292193
871.886 .0292091
872.557 .0291991
873.227 .0291892
873.897 .0291796
874.567 .0291701
875.236 .0291608
875.905 .0291516
876.573 .0291426
877.242 .0291336
877.909 .0291247
878.577 .0291159
879.244 .0291070
879.911 .0290983
880.577 .0290896
881.243 .0290810
881.909 .0290725
882.575 .0290642
883.240 .0290561
883.904 .0290482
884.569 .0290404
885.232 .0290329
885.896 .0290255
886.559 .0290184
887.222 .0290115
887.885 .0290047
888.547 .0289983
889.208 .0289922
889.870 .0289864
890.531 .0289808
891.192 .0289756
891.852 .0289705
892.512 .0289655
893.171 .0289607
893.830 .0289559
894.489 .0289510
895.148 .0289461
895.806 .0289410
896.464 .0289358
897.121 .0289303
897.778 .0289246
898.434 .0289186
899.091 .0289079
899.747 .0289012
900.402 .0288942
901.057 .0288868
901.712 .0288790
902.366 .0288708
903.020 .0288621
903.674 .0288529
904.327 .0288431
904.980 .0288329
905.633 .0288222
906.285 .0288110
906.936 .0287994
907.588 .0287928
908.239 .0287808
908.889 .0287683
909.540 .0287554
910.190 .0287421
910.839 .0287286
911.488 .0287147
912.137 .0287008
912.785 .0286867
913.433 .0286726
914.081 .0286585
914.728 .0286445
915.375 .0286304
916.021 .0286163
916.668 .0286019
917.313 .0285873
917.959 .0285723
918.604 .0285569
919.248 .0285410
919.892 .0285247
920.536 .0285080
921.180 .0284909
921.823 .0284734
922.465 .0284555
923.108 .0284372
923.750 .0284184
924.391 .0283992
925.032 .0283795
925.673 .0283594
926.313 .0283389
926.953 .0283181
927.593 .0282971
928.232 .0282759
928.871 .0282547
929.510 .0282334
930.148 .0282122
930.786 .0281909
931.423 .0281696
932.060 .0281484
932.697 .0281271
933.333 .0281057
933.969 .0280844
934.604 .0280631
935.239 .0280419
935.874 .0280208
936.508 .0279998
937.142 .0279789
937.776 .0279580
938.409 .0279371
939.042 .0279161
939.674 .0278951
940.306 .0278740
940.938 .0278527
941.569 .0278314
942.200 .0278100
942.830 .0277885
943.460 .0277670
944.090 .0277454
944.720 .0277238
945.349 .0277022
945.977 .0276805
946.606 .0276587
947.233 .0276367
947.861 .0276146
948.488 .0275924
949.115 .0275702
949.741 .0275481
950.367 .0275260
950.993 .0275042
951.618 .0274826
952.243 .0274613
952.868 .0274402
953.492 .0274195
954.115 .0273992
954.739 .0273793
955.362 .0273598
955.984 .0273409
956.607 .0273224
957.229 .0273046
957.850 .0272874
958.471 .0272708
959.092 .0272549
959.713 .0272396
960.333 .0272250
960.952 .0272109
961.572 .0271975
962.191 .0271846
962.809 .0271722
963.428 .0271604
964.045 .0271490
964.663 .0271382
965.280 .0271279
965.897 .0271180
966.513 .0271085
967.129 .0270994
967.745 .0270906
968.361 .0270821
968.976 .0270739
969.590 .0270660
970.205 .0270583
970.818 .0270510
971.432 .0270440
972.045 .0270373
972.658 .0270309
973.271 .0270248
973.883 .0270191
974.495 .0270136
975.106 .0270084
975.717 .0270034
976.328 .0269986
976.938 .0269940
977.548 .0269896
978.158 .0269854
978.768 .0269795
979.377 .0269757
979.985 .0269721
980.594 .0269687
981.202 .0269656
981.809 .0269626
982.417 .0269598
983.024 .0269572
983.631 .0269547
984.237 .0269524
984.843 .0269503
985.449 .0269483
986.054 .0269465
986.659 .0269448
987.264 .0269446
987.868 .0269431
988.472 .0269418
989.076 .0269406
989.679 .0269395
990.282 .0269386
990.885 .0269377
991.487 .0269368
992.090 .0269359
992.691 .0269350
993.293 .0269340
993.894 .0269330
994.495 .0269319
995.095 .0269308
995.696 .0269297
996.296 .0269285
996.895 .0269274
997.494 .0269263
998.093 .0269253
998.692 .0269244
999.291 .0269234
999.889 .0269224
1000.487 .0269214
1001.084 .0269204
1001.681 .0269194
1002.278 .0269185
1002.875 .0269177
1003.471 .0269170
1004.067 .0269165
1004.663 .0269163
1005.258 .0269161
1005.854 .0269162
1006.449 .0269162
1007.043 .0269163
1007.638 .0269164
1008.232 .0269164
1008.826 .0269164
1009.419 .0269165
1010.012 .0269165
1010.605 .0269167
1011.198 .0269170
1011.791 .0269173
1012.383 .0269177
1012.975 .0269179
1013.566 .0269180
1014.158 .0269178
1014.749 .0269172
1015.340 .0269163
1015.931 .0269149
1016.521 .0269131
1017.111 .0269111
1017.701 .0269087
1018.291 .0269062
1018.880 .0269035
1019.470 .0269007
1020.059 .0268977
1020.647 .0268946
1021.236 .0268912
1021.824 .0268876
1022.412 .0268839
1023.000 .0268800
1023.588 .0268760
1024.175 .0268720
1024.762 .0268680
1025.349 .0268640
1025.936 .0268602
1026.523 .0268565
1027.109 .0268530
1027.695 .0268495
1028.281 .0268460
1028.867 .0268426
1029.452 .0268392
1030.038 .0268358
1030.623 .0268324
1031.208 .0268291
1031.792 .0268259
1032.377 .0268229
1032.961 .0268199
1033.546 .0268171
1034.130 .0268144
1034.714 .0268117
1035.297 .0268089
1035.881 .0268059
1036.464 .0268027
1037.047 .0267992
1037.630 .0267953
1038.213 .0267910
1038.796 .0267864
1039.378 .0267814
1039.961 .0267760
1040.543 .0267702
1041.125 .0267639
1041.707 .0267571
1042.289 .0267496
1042.871 .0267415
1043.452 .0267328
1044.034 .0267234
1044.615 .0267136
1045.196 .0267034
1045.777 .0266929
1046.358 .0266822
1046.939 .0266715
1047.520 .0266608
1048.101 .0266500
1048.681 .0266392
1049.262 .0266282
1049.842 .0266172
1050.422 .0266060
1051.002 .0265948
1051.582 .0265836
1052.162 .0265725
1052.742 .0265616
1053.322 .0265509
1053.902 .0265405
1054.482 .0265303
1055.061 .0265204
1055.641 .0265106
1056.220 .0265011
1056.800 .0264917
1057.379 .0264826
1057.958 .0264737
1058.538 .0264652
1059.117 .0264571
1059.696 .0264493
1060.275 .0264419
1060.854 .0264348
1061.433 .0264279
1062.012 .0264212
1062.592 .0264145
1063.171 .0264078
1063.750 .0264010
1064.329 .0263943
1064.908 .0263874
1065.487 .0263805
1066.066 .0263736
1066.645 .0263666
1067.224 .0263596
1067.803 .0263526
1068.382 .0263455
1068.961 .0263384
1069.540 .0263313
1070.119 .0263243
1070.698 .0263173
1071.278 .0263104
1071.857 .0263035
1072.436 .0262968
1073.016 .0262901
1073.595 .0262833
1074.175 .0262766
1074.754 .0262699
1075.334 .0262631
1075.913 .0262563
1076.493 .0262495
1077.073 .0262426
1077.653 .0262358
1078.233 .0262289
1078.813 .0262222
1079.393 .0262155
1079.974 .0262088
1080.554 .0262022
1081.135 .0261956
1081.716 .0261892
1082.296 .0261827
1082.877 .0261764
1083.458 .0261702
1084.040 .0261642
1084.621 .0261583
1085.202 .0261526
1085.784 .0261470
1086.366 .0261415
1086.948 .0261358
1087.530 .0261298
1088.112 .0261234
1088.695 .0261165
1089.277 .0261091
1089.860 .0261013
1090.443 .0260931
1091.026 .0260848
1091.610 .0260765
1092.193 .0260683
1092.777 .0260604
1093.361 .0260530
1093.946 .0260460
1094.530 .0260395
1095.115 .0260333
1095.700 .0260276
1096.285 .0260224
1096.871 .0260178
1097.456 .0260141
1098.042 .0260113
1098.628 .0260098
1099.215 .0260097
1099.802 .0260111
1100.389 .0260140
1100.976 .0260184
1101.564 .0260242
1102.152 .0260313
1102.740 .0260395
1103.329 .0260487
1103.917 .0260590
1104.507 .0260705
1105.096 .0260831
1105.686 .0260971
1106.276 .0261125
1106.867 .0261294
1107.457 .0261478
1108.049 .0261677
1108.640 .0261889
1109.232 .0262111
1109.825 .0262342
1110.417 .0262578
1111.010 .0262817
1111.604 .0263058
1112.198 .0263301
1112.792 .0263545
1113.387 .0263790
1113.982 .0264036
1114.577 .0264283
1115.173 .0264529
1115.769 .0264773
1116.366 .0265011
1116.963 .0265241
1117.561 .0265461
1118.159 .0265668
1118.758 .0265863
1119.357 .0266046
1119.957 .0266217
1120.557 .0266384
1121.157 .0266548
1121.758 .0266713
1122.360 .0266884
1122.962 .0267061
1123.564 .0267244
1124.167 .0267334
1124.771 .0267519
1125.375 .0267706
1125.980 .0267898
1126.585 .0268093
1127.191 .0268295
1127.797 .0268506
1128.404 .0268730
1129.012 .0268971
1129.620 .0269232
1130.229 .0269515
1130.838 .0269819
1131.448 .0270143
1132.058 .0270486
1132.669 .0270969
1133.281 .0271358
1133.894 .0271777
1134.507 .0272175
1135.120 .0272639
1135.735 .0273128
1136.350 .0273720
1136.965 .0273301
1137.582 .0273936
1138.199 .0274628
1138.816 .0275343
1139.435 .0276062
1140.054 .0276787
1140.674 .0277504
1141.294 .0278278
1141.916 .0279214
1142.538 .0278733
1143.160 .0280536
1143.784 .0281211
1144.408 .0284002
1145.033 .0287833
