Measurement Sequence started on: 14-45-04-498
Integration time: 36
Scans to Average: 2 
>>>>>Begin Spectral Data<<<<<
433.946 .0380598
434.870 .0506566
435.793 .0466278
436.715 .0438083
437.635 .0424042
438.555 .0433706
439.473 .0431585
440.389 .0426702
441.305 .0423895
442.219 .0422013
443.132 .0427068
444.044 .0421866
444.954 .0418696
445.863 .0416917
446.771 .0415782
447.678 .0414049
448.584 .0412354
449.488 .0410861
450.391 .0409467
451.293 .0408131
452.194 .0406845
453.094 .0405623
453.992 .0404462
454.890 .0403336
455.786 .0402241
456.681 .0401170
457.575 .0400110
458.468 .0399069
459.360 .0398063
460.250 .0397114
461.140 .0396242
462.028 .0395466
462.915 .0394793
463.801 .0394224
464.687 .0393753
465.571 .0393363
466.454 .0393036
467.335 .0392761
468.216 .0392529
469.096 .0392333
469.975 .0392170
470.853 .0392038
471.729 .0391936
472.605 .0391865
473.479 .0391821
474.353 .0391799
475.226 .0391794
476.097 .0391798
476.968 .0391804
477.838 .0391809
478.706 .0391806
479.574 .0391793
480.441 .0391773
481.306 .0391746
482.171 .0391710
483.035 .0391663
483.898 .0391602
484.760 .0391529
485.621 .0391441
486.481 .0391339
487.340 .0391226
488.198 .0391108
489.055 .0390986
489.912 .0390865
490.767 .0390742
491.622 .0390523
492.476 .0390366
493.329 .0390185
494.180 .0389974
495.032 .0389730
495.882 .0389458
496.731 .0389160
497.580 .0388845
498.427 .0388520
499.274 .0388192
500.120 .0388017
500.965 .0387698
501.809 .0387378
502.653 .0387056
503.495 .0386732
504.337 .0386406
505.178 .0386077
506.018 .0385746
506.858 .0385413
507.696 .0385080
508.534 .0384745
509.371 .0384404
510.208 .0384057
511.043 .0383700
511.878 .0383329
512.712 .0382943
513.545 .0382542
514.377 .0382125
515.209 .0381686
516.040 .0381223
516.870 .0380725
517.699 .0380185
518.528 .0379597
519.356 .0378958
520.183 .0378267
521.010 .0377531
521.836 .0376756
522.661 .0375957
523.485 .0375149
524.309 .0374347
525.132 .0373565
525.954 .0372814
526.776 .0372102
527.597 .0371435
528.417 .0370816
529.237 .0370249
530.056 .0369730
530.874 .0369257
531.692 .0368825
532.508 .0368433
533.325 .0368076
534.140 .0367761
534.955 .0367491
535.770 .0367266
536.583 .0367087
537.397 .0366953
538.209 .0366861
539.021 .0366801
539.832 .0366762
540.643 .0366726
541.453 .0366684
542.262 .0366623
543.071 .0366535
543.879 .0366422
544.687 .0366287
545.494 .0366128
546.300 .0365948
547.106 .0365744
547.911 .0365514
548.716 .0365251
549.520 .0364954
550.323 .0364622
551.126 .0364254
551.929 .0363853
552.731 .0363426
553.532 .0362978
554.332 .0362515
555.133 .0362038
555.932 .0361548
556.731 .0361047
557.530 .0360536
558.328 .0360013
559.125 .0359484
559.922 .0358957
560.719 .0358436
561.515 .0357925
562.310 .0357432
563.105 .0356960
563.899 .0356513
564.693 .0356093
565.487 .0355702
566.280 .0355342
567.072 .0355011
567.864 .0354707
568.655 .0354432
569.446 .0354183
570.236 .0353958
571.026 .0353757
571.816 .0353578
572.605 .0353417
573.393 .0353271
574.181 .0353138
574.969 .0353013
575.756 .0352893
576.543 .0352772
577.329 .0352647
578.115 .0352511
578.900 .0352365
579.685 .0352206
580.469 .0352034
581.253 .0351853
582.036 .0351666
582.820 .0351476
583.602 .0351286
584.384 .0351099
585.166 .0350916
585.947 .0350738
586.728 .0350561
587.509 .0350385
588.289 .0350206
589.069 .0350022
589.848 .0349832
590.627 .0349636
591.405 .0349431
592.183 .0349220
592.961 .0349000
593.738 .0348773
594.515 .0348539
595.291 .0348297
596.067 .0348045
596.843 .0347783
597.618 .0347510
598.393 .0347060
599.167 .0346766
599.941 .0346465
600.715 .0346158
601.488 .0345848
602.261 .0345534
603.034 .0345218
603.806 .0344902
604.578 .0344588
605.349 .0344277
606.121 .0343970
606.891 .0343826
607.662 .0343524
608.432 .0343228
609.201 .0342939
609.971 .0342654
610.740 .0342376
611.508 .0342103
612.277 .0341838
613.045 .0341580
613.812 .0341332
614.579 .0341093
615.346 .0340866
616.113 .0340648
616.879 .0340440
617.645 .0340240
618.411 .0340046
619.176 .0339858
619.941 .0339674
620.705 .0339495
621.470 .0339320
622.233 .0339150
622.997 .0338985
623.760 .0338824
624.523 .0338666
625.286 .0338511
626.048 .0338356
626.810 .0338202
627.572 .0338046
628.333 .0337889
629.095 .0337730
629.855 .0337570
630.616 .0337409
631.376 .0337248
632.136 .0337088
632.895 .0336927
633.655 .0336767
634.414 .0336606
635.172 .0336444
635.931 .0336280
636.689 .0336114
637.447 .0335947
638.204 .0335780
638.962 .0335613
639.718 .0335448
640.475 .0335285
641.231 .0335124
641.988 .0334967
642.743 .0334811
643.499 .0334658
644.254 .0334505
645.009 .0334353
645.764 .0334202
646.518 .0334050
647.272 .0333898
648.026 .0333747
648.780 .0333597
649.533 .0333446
650.286 .0333295
651.039 .0333142
651.792 .0332988
652.544 .0332832
653.296 .0332674
654.048 .0332514
654.799 .0332352
655.550 .0332189
656.301 .0332024
657.052 .0331858
657.802 .0331691
658.552 .0331521
659.302 .0331350
660.052 .0331177
660.801 .0331002
661.550 .0330825
662.299 .0330648
663.048 .0330469
663.796 .0330290
664.544 .0330108
665.292 .0329925
666.040 .0329739
666.787 .0329551
667.534 .0329361
668.281 .0329170
669.028 .0328977
669.774 .0328785
670.521 .0328594
671.266 .0328404
672.012 .0328216
672.758 .0328029
673.503 .0327843
674.248 .0327659
674.992 .0327475
675.737 .0327292
676.481 .0327110
677.225 .0326930
677.969 .0326753
678.712 .0326580
679.455 .0326409
680.199 .0326243
680.941 .0326081
681.684 .0325922
682.426 .0325767
683.168 .0325613
683.910 .0325463
684.652 .0325314
685.393 .0325166
686.134 .0325020
686.875 .0324876
687.616 .0324734
688.356 .0324596
689.097 .0324461
689.837 .0324331
690.576 .0324204
691.316 .0324081
692.055 .0323962
692.794 .0323845
693.533 .0323730
694.272 .0323617
695.010 .0323505
695.748 .0323394
696.486 .0323284
697.224 .0323176
697.962 .0323070
698.699 .0322966
699.436 .0322865
700.173 .0322764
700.909 .0322666
701.646 .0322568
702.382 .0322470
703.118 .0322371
703.853 .0322271
704.589 .0322168
705.324 .0322062
706.059 .0321953
706.794 .0321839
707.529 .0321723
708.263 .0321604
708.997 .0321483
709.731 .0321362
710.465 .0321242
711.198 .0321123
711.931 .0321005
712.664 .0320888
713.397 .0320772
714.130 .0320655
714.862 .0320537
715.594 .0320418
716.326 .0320298
717.058 .0320176
717.789 .0320054
718.520 .0319933
719.251 .0319812
719.982 .0319693
720.713 .0319573
721.443 .0319453
722.173 .0319331
722.903 .0319206
723.633 .0319078
724.362 .0318945
725.091 .0318807
725.820 .0318663
726.549 .0318515
727.278 .0318361
728.006 .0318202
728.734 .0318039
729.462 .0317871
730.190 .0317699
730.917 .0317525
731.644 .0317348
732.371 .0317168
733.098 .0316987
733.825 .0316805
734.551 .0316620
735.277 .0316435
736.003 .0316248
736.728 .0316060
737.454 .0315872
738.179 .0315685
738.904 .0315499
739.629 .0315316
740.353 .0315137
741.077 .0314961
741.801 .0314789
742.525 .0314620
743.249 .0314454
743.972 .0314291
744.695 .0314130
745.418 .0313973
746.141 .0313817
746.863 .0313665
747.585 .0313514
748.307 .0313364
749.029 .0313216
749.750 .0313069
750.472 .0312923
751.193 .0312777
751.913 .0312633
752.634 .0312490
753.354 .0312350
754.074 .0312211
754.794 .0312075
755.514 .0311942
756.233 .0311812
756.952 .0311683
757.671 .0311558
758.390 .0311435
759.108 .0311315
759.826 .0311199
760.544 .0311088
761.262 .0310980
761.979 .0310875
762.697 .0310774
763.414 .0310676
764.130 .0310580
764.847 .0310486
765.563 .0310395
766.279 .0310307
766.995 .0310222
767.710 .0310140
768.426 .0310061
769.141 .0309986
769.855 .0309913
770.570 .0309841
771.284 .0309771
771.998 .0309703
772.712 .0309636
773.426 .0309571
774.139 .0309508
774.852 .0309447
775.565 .0309388
776.277 .0309329
776.990 .0309271
777.702 .0309213
778.414 .0309155
779.125 .0309096
779.836 .0309037
780.547 .0308977
781.258 .0308919
781.969 .0308860
782.679 .0308801
783.389 .0308707
784.099 .0308647
784.808 .0308585
785.517 .0308521
786.226 .0308456
786.935 .0308388
787.643 .0308320
788.352 .0308251
789.060 .0308182
789.767 .0308114
790.475 .0308047
791.182 .0307979
791.889 .0307948
792.595 .0307880
793.301 .0307811
794.008 .0307742
794.713 .0307671
795.419 .0307598
796.124 .0307525
796.829 .0307450
797.534 .0307373
798.238 .0307294
798.942 .0307213
799.646 .0307128
800.350 .0307040
801.053 .0306948
801.756 .0306851
802.459 .0306749
803.162 .0306641
803.864 .0306528
804.566 .0306408
805.267 .0306283
805.969 .0306152
806.670 .0306016
807.371 .0305874
808.071 .0305727
808.772 .0305577
809.472 .0305424
810.171 .0305268
810.871 .0305110
811.570 .0304952
812.269 .0304792
812.967 .0304631
813.666 .0304469
814.364 .0304305
815.061 .0304141
815.759 .0303975
816.456 .0303808
817.153 .0303640
817.849 .0303471
818.545 .0303301
819.241 .0303131
819.937 .0302959
820.632 .0302788
821.327 .0302615
822.022 .0302443
822.717 .0302270
823.411 .0302097
824.105 .0301923
824.798 .0301749
825.491 .0301573
826.184 .0301397
826.877 .0301218
827.569 .0301039
828.261 .0300858
828.953 .0300676
829.645 .0300493
830.336 .0300311
831.027 .0300129
831.717 .0299948
832.407 .0299770
833.097 .0299595
833.787 .0299422
834.476 .0299253
835.165 .0299089
835.854 .0298929
836.542 .0298773
837.230 .0298622
837.918 .0298477
838.605 .0298338
839.292 .0298204
839.979 .0298077
840.665 .0297956
841.352 .0297840
842.037 .0297731
842.723 .0297627
843.408 .0297528
844.093 .0297432
844.777 .0297340
845.462 .0297250
846.145 .0297161
846.829 .0297074
847.512 .0296988
848.195 .0296903
848.878 .0296818
849.560 .0296733
850.242 .0296648
850.923 .0296563
851.605 .0296476
852.286 .0296388
852.966 .0296299
853.646 .0296208
854.326 .0296117
855.006 .0296023
855.685 .0295929
856.364 .0295833
857.043 .0295735
857.721 .0295635
858.399 .0295532
859.077 .0295428
859.754 .0295322
860.431 .0295216
861.107 .0295111
861.784 .0295007
862.459 .0294905
863.135 .0294805
863.810 .0294705
864.485 .0294606
865.160 .0294506
865.834 .0294404
866.508 .0294301
867.181 .0294197
867.854 .0294091
868.527 .0293985
869.199 .0293879
869.872 .0293773
870.543 .0293667
871.215 .0293559
871.886 .0293450
872.557 .0293339
873.227 .0293225
873.897 .0293108
874.567 .0292990
875.236 .0292869
875.905 .0292748
876.573 .0292626
877.242 .0292503
877.909 .0292380
878.577 .0292256
879.244 .0292134
879.911 .0292012
880.577 .0291892
881.243 .0291774
881.909 .0291659
882.575 .0291549
883.240 .0291444
883.904 .0291345
884.569 .0291251
885.232 .0291162
885.896 .0291078
886.559 .0290999
887.222 .0290923
887.885 .0290852
888.547 .0290784
889.208 .0290720
889.870 .0290660
890.531 .0290604
891.192 .0290551
891.852 .0290500
892.512 .0290451
893.171 .0290401
893.830 .0290349
894.489 .0290293
895.148 .0290233
895.806 .0290167
896.464 .0290095
897.121 .0290016
897.778 .0289931
898.434 .0289839
899.091 .0289666
899.747 .0289558
900.402 .0289443
901.057 .0289323
901.712 .0289196
902.366 .0289064
903.020 .0288927
903.674 .0288786
904.327 .0288640
904.980 .0288489
905.633 .0288335
906.285 .0288178
906.936 .0288016
907.588 .0287930
908.239 .0287764
908.889 .0287594
909.540 .0287422
910.190 .0287248
910.839 .0287072
911.488 .0286896
912.137 .0286719
912.785 .0286543
913.433 .0286368
914.081 .0286193
914.728 .0286020
915.375 .0285848
916.021 .0285677
916.668 .0285507
917.313 .0285338
917.959 .0285169
918.604 .0285001
919.248 .0284834
919.892 .0284667
920.536 .0284500
921.180 .0284332
921.823 .0284164
922.465 .0283996
923.108 .0283826
923.750 .0283656
924.391 .0283485
925.032 .0283314
925.673 .0283142
926.313 .0282970
926.953 .0282797
927.593 .0282624
928.232 .0282450
928.871 .0282274
929.510 .0282098
930.148 .0281921
930.786 .0281743
931.423 .0281563
932.060 .0281383
932.697 .0281201
933.333 .0281017
933.969 .0280832
934.604 .0280645
935.239 .0280456
935.874 .0280264
936.508 .0280070
937.142 .0279874
937.776 .0279677
938.409 .0279478
939.042 .0279279
939.674 .0279080
940.306 .0278881
940.938 .0278682
941.569 .0278484
942.200 .0278286
942.830 .0278089
943.460 .0277891
944.090 .0277695
944.720 .0277498
945.349 .0277302
945.977 .0277107
946.606 .0276913
947.233 .0276719
947.861 .0276527
948.488 .0276337
949.115 .0276149
949.741 .0275963
950.367 .0275779
950.993 .0275599
951.618 .0275422
952.243 .0275247
952.868 .0275075
953.492 .0274907
954.115 .0274741
954.739 .0274578
955.362 .0274418
955.984 .0274261
956.607 .0274109
957.229 .0273960
957.850 .0273815
958.471 .0273675
959.092 .0273539
959.713 .0273407
960.333 .0273278
960.952 .0273154
961.572 .0273033
962.191 .0272916
962.809 .0272804
963.428 .0272697
964.045 .0272594
964.663 .0272497
965.280 .0272404
965.897 .0272314
966.513 .0272226
967.129 .0272139
967.745 .0272053
968.361 .0271966
968.976 .0271880
969.590 .0271795
970.205 .0271711
970.818 .0271628
971.432 .0271547
972.045 .0271467
972.658 .0271389
973.271 .0271311
973.883 .0271233
974.495 .0271155
975.106 .0271077
975.717 .0270999
976.328 .0270922
976.938 .0270847
977.548 .0270772
978.158 .0270700
978.768 .0270595
979.377 .0270525
979.985 .0270454
980.594 .0270383
981.202 .0270313
981.809 .0270243
982.417 .0270175
983.024 .0270110
983.631 .0270048
984.237 .0269990
984.843 .0269936
985.449 .0269886
986.054 .0269838
986.659 .0269794
987.264 .0269779
987.868 .0269738
988.472 .0269701
989.076 .0269666
989.679 .0269634
990.282 .0269605
990.885 .0269580
991.487 .0269557
992.090 .0269537
992.691 .0269520
993.293 .0269505
993.894 .0269492
994.495 .0269481
995.095 .0269471
995.696 .0269463
996.296 .0269455
996.895 .0269447
997.494 .0269439
998.093 .0269431
998.692 .0269422
999.291 .0269412
999.889 .0269402
1000.487 .0269392
1001.084 .0269380
1001.681 .0269368
1002.278 .0269354
1002.875 .0269337
1003.471 .0269317
1004.067 .0269292
1004.663 .0269263
1005.258 .0269228
1005.854 .0269188
1006.449 .0269143
1007.043 .0269095
1007.638 .0269044
1008.232 .0268991
1008.826 .0268938
1009.419 .0268884
1010.012 .0268829
1010.605 .0268773
1011.198 .0268717
1011.791 .0268660
1012.383 .0268603
1012.975 .0268547
1013.566 .0268492
1014.158 .0268440
1014.749 .0268393
1015.340 .0268349
1015.931 .0268310
1016.521 .0268274
1017.111 .0268241
1017.701 .0268210
1018.291 .0268180
1018.880 .0268151
1019.470 .0268122
1020.059 .0268093
1020.647 .0268067
1021.236 .0268043
1021.824 .0268022
1022.412 .0268004
1023.000 .0267991
1023.588 .0267981
1024.175 .0267974
1024.762 .0267969
1025.349 .0267966
1025.936 .0267964
1026.523 .0267962
1027.109 .0267960
1027.695 .0267959
1028.281 .0267955
1028.867 .0267951
1029.452 .0267944
1030.038 .0267934
1030.623 .0267921
1031.208 .0267904
1031.792 .0267881
1032.377 .0267853
1032.961 .0267820
1033.546 .0267781
1034.130 .0267737
1034.714 .0267689
1035.297 .0267637
1035.881 .0267583
1036.464 .0267526
1037.047 .0267468
1037.630 .0267411
1038.213 .0267355
1038.796 .0267299
1039.378 .0267245
1039.961 .0267192
1040.543 .0267139
1041.125 .0267088
1041.707 .0267038
1042.289 .0266990
1042.871 .0266943
1043.452 .0266899
1044.034 .0266856
1044.615 .0266817
1045.196 .0266780
1045.777 .0266747
1046.358 .0266717
1046.939 .0266689
1047.520 .0266662
1048.101 .0266637
1048.681 .0266612
1049.262 .0266588
1049.842 .0266564
1050.422 .0266541
1051.002 .0266517
1051.582 .0266495
1052.162 .0266473
1052.742 .0266450
1053.322 .0266426
1053.902 .0266401
1054.482 .0266372
1055.061 .0266340
1055.641 .0266304
1056.220 .0266266
1056.800 .0266226
1057.379 .0266184
1057.958 .0266142
1058.538 .0266098
1059.117 .0266053
1059.696 .0266005
1060.275 .0265955
1060.854 .0265901
1061.433 .0265842
1062.012 .0265778
1062.592 .0265708
1063.171 .0265634
1063.750 .0265557
1064.329 .0265479
1064.908 .0265400
1065.487 .0265321
1066.066 .0265244
1066.645 .0265169
1067.224 .0265097
1067.803 .0265027
1068.382 .0264960
1068.961 .0264897
1069.540 .0264839
1070.119 .0264786
1070.698 .0264739
1071.278 .0264700
1071.857 .0264668
1072.436 .0264643
1073.016 .0264624
1073.595 .0264609
1074.175 .0264597
1074.754 .0264586
1075.334 .0264573
1075.913 .0264559
1076.493 .0264543
1077.073 .0264526
1077.653 .0264508
1078.233 .0264490
1078.813 .0264476
1079.393 .0264465
1079.974 .0264457
1080.554 .0264453
1081.135 .0264452
1081.716 .0264454
1082.296 .0264457
1082.877 .0264461
1083.458 .0264467
1084.040 .0264476
1084.621 .0264487
1085.202 .0264502
1085.784 .0264521
1086.366 .0264544
1086.948 .0264570
1087.530 .0264597
1088.112 .0264624
1088.695 .0264649
1089.277 .0264671
1089.860 .0264690
1090.443 .0264704
1091.026 .0264715
1091.610 .0264723
1092.193 .0264727
1092.777 .0264730
1093.361 .0264732
1093.946 .0264734
1094.530 .0264736
1095.115 .0264737
1095.700 .0264738
1096.285 .0264738
1096.871 .0264737
1097.456 .0264735
1098.042 .0264730
1098.628 .0264724
1099.215 .0264718
1099.802 .0264711
1100.389 .0264703
1100.976 .0264695
1101.564 .0264687
1102.152 .0264677
1102.740 .0264666
1103.329 .0264652
1103.917 .0264636
1104.507 .0264618
1105.096 .0264597
1105.686 .0264576
1106.276 .0264556
1106.867 .0264538
1107.457 .0264525
1108.049 .0264517
1108.640 .0264515
1109.232 .0264519
1109.825 .0264527
1110.417 .0264539
1111.010 .0264553
1111.604 .0264568
1112.198 .0264583
1112.792 .0264598
1113.387 .0264614
1113.982 .0264631
1114.577 .0264650
1115.173 .0264672
1115.769 .0264697
1116.366 .0264723
1116.963 .0264750
1117.561 .0264777
1118.159 .0264801
1118.758 .0264822
1119.357 .0264839
1119.957 .0264851
1120.557 .0264862
1121.157 .0264874
1121.758 .0264890
1122.360 .0264914
1122.962 .0264947
1123.564 .0264991
1124.167 .0265003
1124.771 .0265056
1125.375 .0265117
1125.980 .0265187
1126.585 .0265266
1127.191 .0265356
1127.797 .0265461
1128.404 .0265583
1129.012 .0265726
1129.620 .0265894
1130.229 .0266087
1130.838 .0266306
1131.448 .0266548
1132.058 .0266814
1132.669 .0267182
1133.281 .0267503
1133.894 .0267840
1134.507 .0268200
1135.120 .0268595
1135.735 .0269010
1136.350 .0269451
1136.965 .0268992
1137.582 .0269625
1138.199 .0270315
1138.816 .0270985
1139.435 .0271668
1140.054 .0272353
1140.674 .0273019
1141.294 .0273673
1141.916 .0274117
1142.538 .0274718
1143.160 .0275655
1143.784 .0276127
1144.408 .0276784
1145.033 .0272306
