Measurement Sequence started on: 14-45-04-498
Integration time: 36
Scans to Average: 2 
>>>>>Begin Spectral Data<<<<<
433.946 .0441884
434.870 .0460227
435.793 .0425951
436.715 .0419330
437.635 .0413167
438.555 .0408968
439.473 .0402680
440.389 .0396640
441.305 .0392330
442.219 .0388713
443.132 .0394851
444.044 .0390405
444.954 .0387732
445.863 .0385368
446.771 .0383281
447.678 .0381367
448.584 .0379735
449.488 .0378374
450.391 .0377197
451.293 .0376175
452.194 .0375274
453.094 .0374468
453.992 .0373721
454.890 .0373014
455.786 .0372336
456.681 .0371673
457.575 .0371013
458.468 .0370359
459.360 .0369709
460.250 .0369075
461.140 .0368467
462.028 .0367894
462.915 .0367365
463.801 .0366888
464.687 .0366461
465.571 .0366082
466.454 .0365746
467.335 .0365448
468.216 .0365179
469.096 .0364941
469.975 .0364731
470.853 .0364550
471.729 .0364400
472.605 .0364279
473.479 .0364183
474.353 .0364107
475.226 .0364040
476.097 .0363973
476.968 .0363900
477.838 .0363816
478.706 .0363719
479.574 .0363610
480.441 .0363492
481.306 .0363369
482.171 .0363243
483.035 .0363115
483.898 .0362982
484.760 .0362841
485.621 .0362688
486.481 .0362515
487.340 .0362318
488.198 .0362098
489.055 .0361854
489.912 .0361591
490.767 .0361318
491.622 .0360871
492.476 .0360595
493.329 .0360317
494.180 .0360034
495.032 .0359738
495.882 .0359423
496.731 .0359084
497.580 .0358719
498.427 .0358328
499.274 .0357917
500.120 .0357697
500.965 .0357272
501.809 .0356837
502.653 .0356393
503.495 .0355943
504.337 .0355480
505.178 .0354997
506.018 .0354485
506.858 .0353936
507.696 .0353342
508.534 .0352701
509.371 .0352012
510.208 .0351277
511.043 .0350500
511.878 .0349683
512.712 .0348827
513.545 .0347932
514.377 .0346999
515.209 .0346024
516.040 .0345008
516.870 .0343944
517.699 .0342829
518.528 .0341667
519.356 .0340460
520.183 .0339212
521.010 .0337934
521.836 .0336636
522.661 .0335332
523.485 .0334036
524.309 .0332762
525.132 .0331526
525.954 .0330342
526.776 .0329215
527.597 .0328151
528.417 .0327151
529.237 .0326223
530.056 .0325370
530.874 .0324600
531.692 .0323918
532.508 .0323330
533.325 .0322836
534.140 .0322441
534.955 .0322142
535.770 .0321933
536.583 .0321812
537.397 .0321776
538.209 .0321814
539.021 .0321921
539.832 .0322092
540.643 .0322323
541.453 .0322604
542.262 .0322926
543.071 .0323273
543.879 .0323636
544.687 .0324005
545.494 .0324372
546.300 .0324727
547.106 .0325069
547.911 .0325389
548.716 .0325684
549.520 .0325952
550.323 .0326194
551.126 .0326409
551.929 .0326603
552.731 .0326776
553.532 .0326930
554.332 .0327064
555.133 .0327181
555.932 .0327281
556.731 .0327362
557.530 .0327417
558.328 .0327447
559.125 .0327448
559.922 .0327421
560.719 .0327367
561.515 .0327289
562.310 .0327188
563.105 .0327069
563.899 .0326930
564.693 .0326771
565.487 .0326593
566.280 .0326395
567.072 .0326176
567.864 .0325934
568.655 .0325670
569.446 .0325387
570.236 .0325088
571.026 .0324778
571.816 .0324461
572.605 .0324139
573.393 .0323814
574.181 .0323488
574.969 .0323160
575.756 .0322831
576.543 .0322503
577.329 .0322176
578.115 .0321853
578.900 .0321536
579.685 .0321228
580.469 .0320930
581.253 .0320646
582.036 .0320375
582.820 .0320118
583.602 .0319875
584.384 .0319642
585.166 .0319419
585.947 .0319203
586.728 .0318992
587.509 .0318784
588.289 .0318579
589.069 .0318374
589.848 .0318170
590.627 .0317968
591.405 .0317766
592.183 .0317565
592.961 .0317364
593.738 .0317161
594.515 .0316957
595.291 .0316751
596.067 .0316542
596.843 .0316331
597.618 .0316119
598.393 .0315805
599.167 .0315595
599.941 .0315387
600.715 .0315180
601.488 .0314975
602.261 .0314772
603.034 .0314570
603.806 .0314369
604.578 .0314169
605.349 .0313971
606.121 .0313774
606.891 .0313681
607.662 .0313487
608.432 .0313297
609.201 .0313112
609.971 .0312932
610.740 .0312757
611.508 .0312585
612.277 .0312417
613.045 .0312251
613.812 .0312087
614.579 .0311925
615.346 .0311764
616.113 .0311605
616.879 .0311448
617.645 .0311292
618.411 .0311137
619.176 .0310982
619.941 .0310827
620.705 .0310671
621.470 .0310513
622.233 .0310353
622.997 .0310192
623.760 .0310029
624.523 .0309864
625.286 .0309698
626.048 .0309530
626.810 .0309360
627.572 .0309188
628.333 .0309013
629.095 .0308835
629.855 .0308655
630.616 .0308471
631.376 .0308286
632.136 .0308099
632.895 .0307911
633.655 .0307722
634.414 .0307533
635.172 .0307344
635.931 .0307155
636.689 .0306967
637.447 .0306780
638.204 .0306595
638.962 .0306414
639.718 .0306236
640.475 .0306064
641.231 .0305897
641.988 .0305736
642.743 .0305581
643.499 .0305432
644.254 .0305290
645.009 .0305153
645.764 .0305023
646.518 .0304900
647.272 .0304783
648.026 .0304674
648.780 .0304573
649.533 .0304479
650.286 .0304393
651.039 .0304314
651.792 .0304241
652.544 .0304174
653.296 .0304113
654.048 .0304056
654.799 .0304003
655.550 .0303954
656.301 .0303906
657.052 .0303861
657.802 .0303816
658.552 .0303770
659.302 .0303723
660.052 .0303673
660.801 .0303618
661.550 .0303559
662.299 .0303494
663.048 .0303422
663.796 .0303344
664.544 .0303259
665.292 .0303168
666.040 .0303070
666.787 .0302965
667.534 .0302854
668.281 .0302737
669.028 .0302616
669.774 .0302489
670.521 .0302359
671.266 .0302227
672.012 .0302093
672.758 .0301958
673.503 .0301823
674.248 .0301688
674.992 .0301555
675.737 .0301423
676.481 .0301292
677.225 .0301164
677.969 .0301038
678.712 .0300914
679.455 .0300794
680.199 .0300677
680.941 .0300564
681.684 .0300455
682.426 .0300349
683.168 .0300246
683.910 .0300145
684.652 .0300045
685.393 .0299947
686.134 .0299849
686.875 .0299752
687.616 .0299654
688.356 .0299557
689.097 .0299460
689.837 .0299363
690.576 .0299267
691.316 .0299170
692.055 .0299074
692.794 .0298977
693.533 .0298881
694.272 .0298784
695.010 .0298686
695.748 .0298588
696.486 .0298489
697.224 .0298388
697.962 .0298285
698.699 .0298179
699.436 .0298070
700.173 .0297959
700.909 .0297844
701.646 .0297727
702.382 .0297607
703.118 .0297484
703.853 .0297358
704.589 .0297230
705.324 .0297098
706.059 .0296962
706.794 .0296822
707.529 .0296679
708.263 .0296532
708.997 .0296383
709.731 .0296231
710.465 .0296078
711.198 .0295925
711.931 .0295772
712.664 .0295620
713.397 .0295471
714.130 .0295324
714.862 .0295181
715.594 .0295042
716.326 .0294907
717.058 .0294777
717.789 .0294650
718.520 .0294527
719.251 .0294407
719.982 .0294292
720.713 .0294180
721.443 .0294072
722.173 .0293967
722.903 .0293867
723.633 .0293770
724.362 .0293675
725.091 .0293583
725.820 .0293491
726.549 .0293399
727.278 .0293307
728.006 .0293213
728.734 .0293117
729.462 .0293018
730.190 .0292917
730.917 .0292814
731.644 .0292709
732.371 .0292602
733.098 .0292494
733.825 .0292385
734.551 .0292276
735.277 .0292166
736.003 .0292056
736.728 .0291947
737.454 .0291837
738.179 .0291728
738.904 .0291618
739.629 .0291509
740.353 .0291399
741.077 .0291290
741.801 .0291181
742.525 .0291074
743.249 .0290967
743.972 .0290861
744.695 .0290756
745.418 .0290651
746.141 .0290546
746.863 .0290440
747.585 .0290334
748.307 .0290227
749.029 .0290118
749.750 .0290008
750.472 .0289897
751.193 .0289785
751.913 .0289672
752.634 .0289559
753.354 .0289445
754.074 .0289332
754.794 .0289219
755.514 .0289108
756.233 .0288997
756.952 .0288889
757.671 .0288782
758.390 .0288678
759.108 .0288576
759.826 .0288477
760.544 .0288381
761.262 .0288290
761.979 .0288203
762.697 .0288121
763.414 .0288043
764.130 .0287969
764.847 .0287899
765.563 .0287834
766.279 .0287772
766.995 .0287713
767.710 .0287657
768.426 .0287605
769.141 .0287555
769.855 .0287508
770.570 .0287462
771.284 .0287418
771.998 .0287374
772.712 .0287330
773.426 .0287286
774.139 .0287240
774.852 .0287193
775.565 .0287144
776.277 .0287094
776.990 .0287042
777.702 .0286988
778.414 .0286933
779.125 .0286875
779.836 .0286815
780.547 .0286754
781.258 .0286690
781.969 .0286624
782.679 .0286556
783.389 .0286443
784.099 .0286370
784.808 .0286294
785.517 .0286216
786.226 .0286136
786.935 .0286055
787.643 .0285972
788.352 .0285889
789.060 .0285804
789.767 .0285718
790.475 .0285631
791.182 .0285542
791.889 .0285494
792.595 .0285401
793.301 .0285306
794.008 .0285208
794.713 .0285108
795.419 .0285007
796.124 .0284905
796.829 .0284801
797.534 .0284696
798.238 .0284592
798.942 .0284487
799.646 .0284384
800.350 .0284282
801.053 .0284182
801.756 .0284086
802.459 .0283993
803.162 .0283903
803.864 .0283817
804.566 .0283735
805.267 .0283656
805.969 .0283582
806.670 .0283511
807.371 .0283445
808.071 .0283384
808.772 .0283327
809.472 .0283275
810.171 .0283227
810.871 .0283182
811.570 .0283140
812.269 .0283099
812.967 .0283060
813.666 .0283022
814.364 .0282984
815.061 .0282946
815.759 .0282910
816.456 .0282873
817.153 .0282835
817.849 .0282796
818.545 .0282754
819.241 .0282709
819.937 .0282660
820.632 .0282606
821.327 .0282547
822.022 .0282483
822.717 .0282413
823.411 .0282337
824.105 .0282255
824.798 .0282167
825.491 .0282072
826.184 .0281971
826.877 .0281863
827.569 .0281748
828.261 .0281628
828.953 .0281502
829.645 .0281372
830.336 .0281238
831.027 .0281101
831.717 .0280961
832.407 .0280818
833.097 .0280673
833.787 .0280526
834.476 .0280378
835.165 .0280228
835.854 .0280076
836.542 .0279924
837.230 .0279771
837.918 .0279618
838.605 .0279465
839.292 .0279313
839.979 .0279162
840.665 .0279013
841.352 .0278866
842.037 .0278722
842.723 .0278582
843.408 .0278446
844.093 .0278313
844.777 .0278184
845.462 .0278060
846.145 .0277938
846.829 .0277821
847.512 .0277707
848.195 .0277597
848.878 .0277490
849.560 .0277387
850.242 .0277286
850.923 .0277187
851.605 .0277090
852.286 .0276994
852.966 .0276900
853.646 .0276805
854.326 .0276711
855.006 .0276617
855.685 .0276522
856.364 .0276427
857.043 .0276331
857.721 .0276235
858.399 .0276138
859.077 .0276040
859.754 .0275943
860.431 .0275846
861.107 .0275750
861.784 .0275656
862.459 .0275565
863.135 .0275477
863.810 .0275394
864.485 .0275315
865.160 .0275241
865.834 .0275171
866.508 .0275106
867.181 .0275044
867.854 .0274987
868.527 .0274935
869.199 .0274888
869.872 .0274845
870.543 .0274809
871.215 .0274778
871.886 .0274752
872.557 .0274731
873.227 .0274712
873.897 .0274696
874.567 .0274681
875.236 .0274665
875.905 .0274647
876.573 .0274627
877.242 .0274604
877.909 .0274576
878.577 .0274543
879.244 .0274503
879.911 .0274456
880.577 .0274399
881.243 .0274333
881.909 .0274257
882.575 .0274171
883.240 .0274076
883.904 .0273971
884.569 .0273857
885.232 .0273734
885.896 .0273604
886.559 .0273466
887.222 .0273322
887.885 .0273171
888.547 .0273014
889.208 .0272852
889.870 .0272686
890.531 .0272517
891.192 .0272345
891.852 .0272172
892.512 .0271997
893.171 .0271821
893.830 .0271644
894.489 .0271467
895.148 .0271289
895.806 .0271110
896.464 .0270932
897.121 .0270754
897.778 .0270577
898.434 .0270401
899.091 .0270134
899.747 .0269960
900.402 .0269788
901.057 .0269618
901.712 .0269449
902.366 .0269283
903.020 .0269118
903.674 .0268954
904.327 .0268793
904.980 .0268633
905.633 .0268476
906.285 .0268321
906.936 .0268170
907.588 .0268107
908.239 .0267963
908.889 .0267822
909.540 .0267685
910.190 .0267553
910.839 .0267426
911.488 .0267305
912.137 .0267190
912.785 .0267083
913.433 .0266983
914.081 .0266891
914.728 .0266807
915.375 .0266731
916.021 .0266661
916.668 .0266597
917.313 .0266538
917.959 .0266482
918.604 .0266430
919.248 .0266381
919.892 .0266334
920.536 .0266289
921.180 .0266246
921.823 .0266203
922.465 .0266161
923.108 .0266119
923.750 .0266075
924.391 .0266029
925.032 .0265981
925.673 .0265931
926.313 .0265878
926.953 .0265823
927.593 .0265767
928.232 .0265708
928.871 .0265646
929.510 .0265582
930.148 .0265515
930.786 .0265444
931.423 .0265367
932.060 .0265285
932.697 .0265198
933.333 .0265106
933.969 .0265009
934.604 .0264908
935.239 .0264803
935.874 .0264695
936.508 .0264583
937.142 .0264467
937.776 .0264346
938.409 .0264221
939.042 .0264091
939.674 .0263956
940.306 .0263817
940.938 .0263673
941.569 .0263525
942.200 .0263373
942.830 .0263218
943.460 .0263058
944.090 .0262895
944.720 .0262728
945.349 .0262556
945.977 .0262381
946.606 .0262201
947.233 .0262018
947.861 .0261831
948.488 .0261642
949.115 .0261450
949.741 .0261256
950.367 .0261060
950.993 .0260861
951.618 .0260660
952.243 .0260456
952.868 .0260250
953.492 .0260041
954.115 .0259831
954.739 .0259618
955.362 .0259404
955.984 .0259189
956.607 .0258973
957.229 .0258757
957.850 .0258540
958.471 .0258323
959.092 .0258105
959.713 .0257887
960.333 .0257669
960.952 .0257452
961.572 .0257235
962.191 .0257020
962.809 .0256808
963.428 .0256597
964.045 .0256389
964.663 .0256185
965.280 .0255984
965.897 .0255786
966.513 .0255593
967.129 .0255404
967.745 .0255221
968.361 .0255043
968.976 .0254871
969.590 .0254706
970.205 .0254548
970.818 .0254397
971.432 .0254256
972.045 .0254122
972.658 .0253998
973.271 .0253883
973.883 .0253777
974.495 .0253681
975.106 .0253594
975.717 .0253517
976.328 .0253450
976.938 .0253393
977.548 .0253344
978.158 .0253304
978.768 .0253278
979.377 .0253256
979.985 .0253241
980.594 .0253233
981.202 .0253231
981.809 .0253235
982.417 .0253245
983.024 .0253260
983.631 .0253281
984.237 .0253306
984.843 .0253334
985.449 .0253365
986.054 .0253399
986.659 .0253435
987.264 .0253455
987.868 .0253491
988.472 .0253527
989.076 .0253564
989.679 .0253600
990.282 .0253635
990.885 .0253670
991.487 .0253705
992.090 .0253739
992.691 .0253773
993.293 .0253807
993.894 .0253841
994.495 .0253874
995.095 .0253908
995.696 .0253941
996.296 .0253973
996.895 .0254005
997.494 .0254037
998.093 .0254069
998.692 .0254101
999.291 .0254133
999.889 .0254166
1000.487 .0254199
1001.084 .0254232
1001.681 .0254266
1002.278 .0254301
1002.875 .0254336
1003.471 .0254371
1004.067 .0254408
1004.663 .0254444
1005.258 .0254482
1005.854 .0254521
1006.449 .0254562
1007.043 .0254605
1007.638 .0254649
1008.232 .0254695
1008.826 .0254742
1009.419 .0254790
1010.012 .0254837
1010.605 .0254884
1011.198 .0254929
1011.791 .0254972
1012.383 .0255011
1012.975 .0255046
1013.566 .0255076
1014.158 .0255101
1014.749 .0255120
1015.340 .0255133
1015.931 .0255138
1016.521 .0255135
1017.111 .0255124
1017.701 .0255102
1018.291 .0255071
1018.880 .0255031
1019.470 .0254981
1020.059 .0254923
1020.647 .0254859
1021.236 .0254788
1021.824 .0254711
1022.412 .0254629
1023.000 .0254542
1023.588 .0254451
1024.175 .0254354
1024.762 .0254254
1025.349 .0254149
1025.936 .0254043
1026.523 .0253934
1027.109 .0253825
1027.695 .0253717
1028.281 .0253610
1028.867 .0253505
1029.452 .0253402
1030.038 .0253302
1030.623 .0253206
1031.208 .0253113
1031.792 .0253024
1032.377 .0252941
1032.961 .0252862
1033.546 .0252790
1034.130 .0252724
1034.714 .0252664
1035.297 .0252612
1035.881 .0252566
1036.464 .0252526
1037.047 .0252491
1037.630 .0252461
1038.213 .0252435
1038.796 .0252410
1039.378 .0252388
1039.961 .0252366
1040.543 .0252343
1041.125 .0252318
1041.707 .0252291
1042.289 .0252261
1042.871 .0252227
1043.452 .0252189
1044.034 .0252147
1044.615 .0252101
1045.196 .0252051
1045.777 .0251998
1046.358 .0251942
1046.939 .0251884
1047.520 .0251824
1048.101 .0251763
1048.681 .0251700
1049.262 .0251636
1049.842 .0251571
1050.422 .0251505
1051.002 .0251439
1051.582 .0251373
1052.162 .0251308
1052.742 .0251244
1053.322 .0251182
1053.902 .0251122
1054.482 .0251063
1055.061 .0251008
1055.641 .0250954
1056.220 .0250904
1056.800 .0250857
1057.379 .0250813
1057.958 .0250775
1058.538 .0250741
1059.117 .0250713
1059.696 .0250691
1060.275 .0250675
1060.854 .0250665
1061.433 .0250661
1062.012 .0250662
1062.592 .0250667
1063.171 .0250676
1063.750 .0250689
1064.329 .0250705
1064.908 .0250725
1065.487 .0250747
1066.066 .0250772
1066.645 .0250799
1067.224 .0250830
1067.803 .0250864
1068.382 .0250900
1068.961 .0250938
1069.540 .0250978
1070.119 .0251019
1070.698 .0251060
1071.278 .0251102
1071.857 .0251143
1072.436 .0251183
1073.016 .0251223
1073.595 .0251262
1074.175 .0251301
1074.754 .0251339
1075.334 .0251377
1075.913 .0251414
1076.493 .0251449
1077.073 .0251482
1077.653 .0251513
1078.233 .0251541
1078.813 .0251567
1079.393 .0251592
1079.974 .0251616
1080.554 .0251640
1081.135 .0251664
1081.716 .0251689
1082.296 .0251716
1082.877 .0251743
1083.458 .0251772
1084.040 .0251801
1084.621 .0251832
1085.202 .0251864
1085.784 .0251897
1086.366 .0251933
1086.948 .0251971
1087.530 .0252011
1088.112 .0252054
1088.695 .0252100
1089.277 .0252146
1089.860 .0252193
1090.443 .0252241
1091.026 .0252287
1091.610 .0252331
1092.193 .0252372
1092.777 .0252411
1093.361 .0252445
1093.946 .0252476
1094.530 .0252503
1095.115 .0252525
1095.700 .0252543
1096.285 .0252555
1096.871 .0252563
1097.456 .0252567
1098.042 .0252568
1098.628 .0252568
1099.215 .0252570
1099.802 .0252575
1100.389 .0252586
1100.976 .0252602
1101.564 .0252626
1102.152 .0252656
1102.740 .0252691
1103.329 .0252732
1103.917 .0252777
1104.507 .0252824
1105.096 .0252875
1105.686 .0252928
1106.276 .0252985
1106.867 .0253047
1107.457 .0253113
1108.049 .0253184
1108.640 .0253259
1109.232 .0253337
1109.825 .0253417
1110.417 .0253496
1111.010 .0253575
1111.604 .0253652
1112.198 .0253727
1112.792 .0253802
1113.387 .0253877
1113.982 .0253952
1114.577 .0254027
1115.173 .0254100
1115.769 .0254170
1116.366 .0254233
1116.963 .0254288
1117.561 .0254331
1118.159 .0254362
1118.758 .0254379
1119.357 .0254385
1119.957 .0254380
1120.557 .0254368
1121.157 .0254351
1121.758 .0254331
1122.360 .0254311
1122.962 .0254294
1123.564 .0254280
1124.167 .0254256
1124.771 .0254242
1125.375 .0254236
1125.980 .0254238
1126.585 .0254251
1127.191 .0254277
1127.797 .0254320
1128.404 .0254383
1129.012 .0254466
1129.620 .0254574
1130.229 .0254706
1130.838 .0254864
1131.448 .0255047
1132.058 .0255253
1132.669 .0255540
1133.281 .0255816
1133.894 .0256127
1134.507 .0256421
1135.120 .0256756
1135.735 .0257186
1136.350 .0257770
1136.965 .0257090
1137.582 .0257585
1138.199 .0258132
1138.816 .0258718
1139.435 .0259302
1140.054 .0259887
1140.674 .0260545
1141.294 .0261362
1141.916 .0262242
1142.538 .0261670
1143.160 .0262669
1143.784 .0265183
1144.408 .0269267
1145.033 .0268561
