Measurement Sequence started on: 14-45-04-498
Integration time: 36
Scans to Average: 2 
>>>>>Begin Spectral Data<<<<<
433.946 .0469669
434.870 .0441971
435.793 .0408941
436.715 .0418069
437.635 .0435895
438.555 .0432864
439.473 .0432017
440.389 .0431906
441.305 .0432163
442.219 .0431642
443.132 .0427838
444.044 .0426692
444.954 .0427224
445.863 .0427219
446.771 .0426223
447.678 .0425338
448.584 .0424450
449.488 .0423523
450.391 .0422536
451.293 .0421532
452.194 .0420542
453.094 .0419562
453.992 .0418587
454.890 .0417613
455.786 .0416636
456.681 .0415665
457.575 .0414707
458.468 .0413773
459.360 .0412871
460.250 .0412005
461.140 .0411179
462.028 .0410395
462.915 .0409654
463.801 .0408959
464.687 .0408309
465.571 .0407703
466.454 .0407138
467.335 .0406612
468.216 .0406120
469.096 .0405659
469.975 .0405228
470.853 .0404823
471.729 .0404447
472.605 .0404099
473.479 .0403781
474.353 .0403496
475.226 .0403241
476.097 .0403011
476.968 .0402801
477.838 .0402603
478.706 .0402406
479.574 .0402201
480.441 .0401985
481.306 .0401752
482.171 .0401502
483.035 .0401236
483.898 .0400956
484.760 .0400667
485.621 .0400372
486.481 .0400073
487.340 .0399768
488.198 .0399460
489.055 .0399145
489.912 .0398822
490.767 .0398490
491.622 .0397973
492.476 .0397621
493.329 .0397263
494.180 .0396901
495.032 .0396540
495.882 .0396184
496.731 .0395835
497.580 .0395497
498.427 .0395169
499.274 .0394855
500.120 .0394722
500.965 .0394425
501.809 .0394138
502.653 .0393861
503.495 .0393593
504.337 .0393334
505.178 .0393084
506.018 .0392845
506.858 .0392614
507.696 .0392391
508.534 .0392175
509.371 .0391966
510.208 .0391767
511.043 .0391577
511.878 .0391394
512.712 .0391216
513.545 .0391038
514.377 .0390856
515.209 .0390662
516.040 .0390449
516.870 .0390208
517.699 .0389933
518.528 .0389619
519.356 .0389265
520.183 .0388864
521.010 .0388416
521.836 .0387922
522.661 .0387378
523.485 .0386783
524.309 .0386135
525.132 .0385439
525.954 .0384694
526.776 .0383904
527.597 .0383072
528.417 .0382201
529.237 .0381302
530.056 .0380385
530.874 .0379459
531.692 .0378533
532.508 .0377617
533.325 .0376719
534.140 .0375849
534.955 .0375011
535.770 .0374208
536.583 .0373441
537.397 .0372715
538.209 .0372032
539.021 .0371393
539.832 .0370804
540.643 .0370275
541.453 .0369808
542.262 .0369407
543.071 .0369072
543.879 .0368803
544.687 .0368592
545.494 .0368432
546.300 .0368313
547.106 .0368223
547.911 .0368154
548.716 .0368105
549.520 .0368069
550.323 .0368051
551.126 .0368047
551.929 .0368058
552.731 .0368082
553.532 .0368118
554.332 .0368154
555.133 .0368185
555.932 .0368206
556.731 .0368205
557.530 .0368172
558.328 .0368106
559.125 .0368001
559.922 .0367857
560.719 .0367672
561.515 .0367451
562.310 .0367193
563.105 .0366903
563.899 .0366579
564.693 .0366222
565.487 .0365832
566.280 .0365409
567.072 .0364952
567.864 .0364464
568.655 .0363950
569.446 .0363415
570.236 .0362865
571.026 .0362312
571.816 .0361761
572.605 .0361221
573.393 .0360698
574.181 .0360195
574.969 .0359715
575.756 .0359257
576.543 .0358822
577.329 .0358408
578.115 .0358015
578.900 .0357643
579.685 .0357292
580.469 .0356963
581.253 .0356656
582.036 .0356371
582.820 .0356107
583.602 .0355861
584.384 .0355630
585.166 .0355412
585.947 .0355204
586.728 .0355003
587.509 .0354808
588.289 .0354617
589.069 .0354427
589.848 .0354236
590.627 .0354042
591.405 .0353846
592.183 .0353645
592.961 .0353440
593.738 .0353232
594.515 .0353020
595.291 .0352807
596.067 .0352590
596.843 .0352372
597.618 .0352150
598.393 .0351799
599.167 .0351568
599.941 .0351331
600.715 .0351090
601.488 .0350844
602.261 .0350594
603.034 .0350341
603.806 .0350086
604.578 .0349828
605.349 .0349567
606.121 .0349305
606.891 .0349170
607.662 .0348905
608.432 .0348638
609.201 .0348370
609.971 .0348101
610.740 .0347832
611.508 .0347564
612.277 .0347297
613.045 .0347031
613.812 .0346765
614.579 .0346502
615.346 .0346239
616.113 .0345980
616.879 .0345724
617.645 .0345472
618.411 .0345225
619.176 .0344984
619.941 .0344748
620.705 .0344517
621.470 .0344290
622.233 .0344066
622.997 .0343846
623.760 .0343630
624.523 .0343418
625.286 .0343209
626.048 .0343005
626.810 .0342805
627.572 .0342608
628.333 .0342415
629.095 .0342224
629.855 .0342036
630.616 .0341850
631.376 .0341667
632.136 .0341484
632.895 .0341304
633.655 .0341124
634.414 .0340946
635.172 .0340767
635.931 .0340587
636.689 .0340407
637.447 .0340226
638.204 .0340044
638.962 .0339863
639.718 .0339683
640.475 .0339505
641.231 .0339329
641.988 .0339156
642.743 .0338985
643.499 .0338815
644.254 .0338645
645.009 .0338474
645.764 .0338302
646.518 .0338129
647.272 .0337955
648.026 .0337781
648.780 .0337607
649.533 .0337432
650.286 .0337258
651.039 .0337085
651.792 .0336911
652.544 .0336738
653.296 .0336564
654.048 .0336389
654.799 .0336214
655.550 .0336036
656.301 .0335855
657.052 .0335673
657.802 .0335487
658.552 .0335298
659.302 .0335105
660.052 .0334910
660.801 .0334713
661.550 .0334514
662.299 .0334314
663.048 .0334113
663.796 .0333913
664.544 .0333711
665.292 .0333510
666.040 .0333307
666.787 .0333103
667.534 .0332897
668.281 .0332689
669.028 .0332479
669.774 .0332267
670.521 .0332055
671.266 .0331842
672.012 .0331631
672.758 .0331422
673.503 .0331215
674.248 .0331010
674.992 .0330808
675.737 .0330609
676.481 .0330412
677.225 .0330217
677.969 .0330023
678.712 .0329831
679.455 .0329641
680.199 .0329454
680.941 .0329271
681.684 .0329092
682.426 .0328917
683.168 .0328748
683.910 .0328583
684.652 .0328423
685.393 .0328266
686.134 .0328114
686.875 .0327965
687.616 .0327819
688.356 .0327676
689.097 .0327534
689.837 .0327395
690.576 .0327258
691.316 .0327122
692.055 .0326987
692.794 .0326853
693.533 .0326721
694.272 .0326592
695.010 .0326465
695.748 .0326341
696.486 .0326219
697.224 .0326100
697.962 .0325983
698.699 .0325867
699.436 .0325752
700.173 .0325638
700.909 .0325525
701.646 .0325413
702.382 .0325302
703.118 .0325194
703.853 .0325087
704.589 .0324982
705.324 .0324879
706.059 .0324776
706.794 .0324673
707.529 .0324569
708.263 .0324464
708.997 .0324357
709.731 .0324248
710.465 .0324137
711.198 .0324023
711.931 .0323906
712.664 .0323786
713.397 .0323663
714.130 .0323536
714.862 .0323407
715.594 .0323274
716.326 .0323138
717.058 .0322999
717.789 .0322857
718.520 .0322712
719.251 .0322564
719.982 .0322413
720.713 .0322258
721.443 .0322101
722.173 .0321941
722.903 .0321779
723.633 .0321617
724.362 .0321454
725.091 .0321292
725.820 .0321131
726.549 .0320971
727.278 .0320811
728.006 .0320653
728.734 .0320494
729.462 .0320336
730.190 .0320178
730.917 .0320020
731.644 .0319862
732.371 .0319705
733.098 .0319548
733.825 .0319392
734.551 .0319237
735.277 .0319083
736.003 .0318929
736.728 .0318777
737.454 .0318625
738.179 .0318475
738.904 .0318324
739.629 .0318175
740.353 .0318025
741.077 .0317877
741.801 .0317729
742.525 .0317581
743.249 .0317435
743.972 .0317290
744.695 .0317147
745.418 .0317004
746.141 .0316863
746.863 .0316723
747.585 .0316583
748.307 .0316444
749.029 .0316305
749.750 .0316166
750.472 .0316028
751.193 .0315889
751.913 .0315750
752.634 .0315611
753.354 .0315472
754.074 .0315333
754.794 .0315193
755.514 .0315055
756.233 .0314917
756.952 .0314781
757.671 .0314647
758.390 .0314515
759.108 .0314386
759.826 .0314259
760.544 .0314135
761.262 .0314013
761.979 .0313894
762.697 .0313778
763.414 .0313665
764.130 .0313557
764.847 .0313452
765.563 .0313353
766.279 .0313258
766.995 .0313169
767.710 .0313085
768.426 .0313007
769.141 .0312933
769.855 .0312863
770.570 .0312798
771.284 .0312736
771.998 .0312677
772.712 .0312621
773.426 .0312566
774.139 .0312514
774.852 .0312463
775.565 .0312414
776.277 .0312365
776.990 .0312317
777.702 .0312269
778.414 .0312221
779.125 .0312174
779.836 .0312127
780.547 .0312078
781.258 .0312029
781.969 .0311978
782.679 .0311925
783.389 .0311835
784.099 .0311774
784.808 .0311711
785.517 .0311645
786.226 .0311575
786.935 .0311503
787.643 .0311428
788.352 .0311350
789.060 .0311270
789.767 .0311188
790.475 .0311102
791.182 .0311014
791.889 .0310964
792.595 .0310872
793.301 .0310778
794.008 .0310682
794.713 .0310584
795.419 .0310484
796.124 .0310382
796.829 .0310279
797.534 .0310174
798.238 .0310067
798.942 .0309959
799.646 .0309849
800.350 .0309737
801.053 .0309624
801.756 .0309509
802.459 .0309393
803.162 .0309276
803.864 .0309158
804.566 .0309040
805.267 .0308920
805.969 .0308799
806.670 .0308678
807.371 .0308556
808.071 .0308434
808.772 .0308311
809.472 .0308188
810.171 .0308064
810.871 .0307940
811.570 .0307816
812.269 .0307691
812.967 .0307565
813.666 .0307440
814.364 .0307314
815.061 .0307187
815.759 .0307060
816.456 .0306932
817.153 .0306803
817.849 .0306673
818.545 .0306541
819.241 .0306408
819.937 .0306274
820.632 .0306139
821.327 .0306003
822.022 .0305865
822.717 .0305727
823.411 .0305587
824.105 .0305446
824.798 .0305304
825.491 .0305160
826.184 .0305015
826.877 .0304869
827.569 .0304722
828.261 .0304573
828.953 .0304424
829.645 .0304275
830.336 .0304124
831.027 .0303974
831.717 .0303822
832.407 .0303671
833.097 .0303519
833.787 .0303366
834.476 .0303214
835.165 .0303062
835.854 .0302911
836.542 .0302760
837.230 .0302609
837.918 .0302459
838.605 .0302310
839.292 .0302161
839.979 .0302014
840.665 .0301866
841.352 .0301720
842.037 .0301575
842.723 .0301431
843.408 .0301290
844.093 .0301149
844.777 .0301011
845.462 .0300874
846.145 .0300739
846.829 .0300605
847.512 .0300473
848.195 .0300343
848.878 .0300215
849.560 .0300088
850.242 .0299963
850.923 .0299841
851.605 .0299720
852.286 .0299601
852.966 .0299485
853.646 .0299371
854.326 .0299259
855.006 .0299149
855.685 .0299043
856.364 .0298939
857.043 .0298837
857.721 .0298738
858.399 .0298641
859.077 .0298545
859.754 .0298450
860.431 .0298355
861.107 .0298260
861.784 .0298166
862.459 .0298072
863.135 .0297977
863.810 .0297883
864.485 .0297789
865.160 .0297694
865.834 .0297598
866.508 .0297501
867.181 .0297402
867.854 .0297303
868.527 .0297202
869.199 .0297100
869.872 .0296997
870.543 .0296893
871.215 .0296787
871.886 .0296680
872.557 .0296572
873.227 .0296463
873.897 .0296352
874.567 .0296240
875.236 .0296128
875.905 .0296016
876.573 .0295904
877.242 .0295792
877.909 .0295680
878.577 .0295568
879.244 .0295456
879.911 .0295344
880.577 .0295233
881.243 .0295121
881.909 .0295011
882.575 .0294901
883.240 .0294793
883.904 .0294686
884.569 .0294581
885.232 .0294478
885.896 .0294378
886.559 .0294280
887.222 .0294185
887.885 .0294093
888.547 .0294004
889.208 .0293917
889.870 .0293834
890.531 .0293752
891.192 .0293671
891.852 .0293592
892.512 .0293514
893.171 .0293437
893.830 .0293359
894.489 .0293281
895.148 .0293203
895.806 .0293123
896.464 .0293040
897.121 .0292955
897.778 .0292866
898.434 .0292774
899.091 .0292616
899.747 .0292512
900.402 .0292405
901.057 .0292294
901.712 .0292180
902.366 .0292062
903.020 .0291940
903.674 .0291816
904.327 .0291687
904.980 .0291556
905.633 .0291423
906.285 .0291287
906.936 .0291149
907.588 .0291077
908.239 .0290938
908.889 .0290797
909.540 .0290655
910.190 .0290510
910.839 .0290363
911.488 .0290215
912.137 .0290065
912.785 .0289914
913.433 .0289761
914.081 .0289608
914.728 .0289454
915.375 .0289299
916.021 .0289142
916.668 .0288984
917.313 .0288825
917.959 .0288663
918.604 .0288500
919.248 .0288336
919.892 .0288169
920.536 .0287999
921.180 .0287827
921.823 .0287652
922.465 .0287474
923.108 .0287293
923.750 .0287110
924.391 .0286925
925.032 .0286738
925.673 .0286551
926.313 .0286363
926.953 .0286175
927.593 .0285987
928.232 .0285798
928.871 .0285609
929.510 .0285421
930.148 .0285233
930.786 .0285046
931.423 .0284859
932.060 .0284674
932.697 .0284490
933.333 .0284307
933.969 .0284124
934.604 .0283941
935.239 .0283756
935.874 .0283571
936.508 .0283383
937.142 .0283194
937.776 .0283003
938.409 .0282811
939.042 .0282618
939.674 .0282424
940.306 .0282230
940.938 .0282034
941.569 .0281838
942.200 .0281639
942.830 .0281438
943.460 .0281236
944.090 .0281033
944.720 .0280828
945.349 .0280624
945.977 .0280420
946.606 .0280218
947.233 .0280016
947.861 .0279816
948.488 .0279618
949.115 .0279421
949.741 .0279226
950.367 .0279033
950.993 .0278843
951.618 .0278657
952.243 .0278475
952.868 .0278297
953.492 .0278123
954.115 .0277954
954.739 .0277789
955.362 .0277628
955.984 .0277470
956.607 .0277315
957.229 .0277163
957.850 .0277014
958.471 .0276868
959.092 .0276724
959.713 .0276585
960.333 .0276448
960.952 .0276314
961.572 .0276183
962.191 .0276053
962.809 .0275926
963.428 .0275801
964.045 .0275679
964.663 .0275559
965.280 .0275443
965.897 .0275331
966.513 .0275223
967.129 .0275120
967.745 .0275022
968.361 .0274928
968.976 .0274839
969.590 .0274754
970.205 .0274675
970.818 .0274600
971.432 .0274531
972.045 .0274467
972.658 .0274407
973.271 .0274352
973.883 .0274301
974.495 .0274253
975.106 .0274207
975.717 .0274164
976.328 .0274122
976.938 .0274083
977.548 .0274045
978.158 .0274009
978.768 .0273953
979.377 .0273916
979.985 .0273878
980.594 .0273839
981.202 .0273798
981.809 .0273756
982.417 .0273711
983.024 .0273665
983.631 .0273617
984.237 .0273567
984.843 .0273516
985.449 .0273462
986.054 .0273407
986.659 .0273349
987.264 .0273313
987.868 .0273252
988.472 .0273189
989.076 .0273125
989.679 .0273060
990.282 .0272994
990.885 .0272929
991.487 .0272864
992.090 .0272800
992.691 .0272736
993.293 .0272672
993.894 .0272609
994.495 .0272545
995.095 .0272482
995.696 .0272421
996.296 .0272361
996.895 .0272303
997.494 .0272249
998.093 .0272197
998.692 .0272148
999.291 .0272101
999.889 .0272055
1000.487 .0272010
1001.084 .0271965
1001.681 .0271920
1002.278 .0271875
1002.875 .0271832
1003.471 .0271791
1004.067 .0271753
1004.663 .0271716
1005.258 .0271683
1005.854 .0271650
1006.449 .0271617
1007.043 .0271584
1007.638 .0271549
1008.232 .0271513
1008.826 .0271474
1009.419 .0271435
1010.012 .0271395
1010.605 .0271356
1011.198 .0271316
1011.791 .0271278
1012.383 .0271239
1012.975 .0271200
1013.566 .0271161
1014.158 .0271120
1014.749 .0271078
1015.340 .0271035
1015.931 .0270993
1016.521 .0270951
1017.111 .0270911
1017.701 .0270873
1018.291 .0270838
1018.880 .0270805
1019.470 .0270775
1020.059 .0270746
1020.647 .0270719
1021.236 .0270693
1021.824 .0270666
1022.412 .0270641
1023.000 .0270616
1023.588 .0270591
1024.175 .0270568
1024.762 .0270546
1025.349 .0270525
1025.936 .0270506
1026.523 .0270487
1027.109 .0270469
1027.695 .0270453
1028.281 .0270438
1028.867 .0270424
1029.452 .0270411
1030.038 .0270400
1030.623 .0270390
1031.208 .0270381
1031.792 .0270374
1032.377 .0270368
1032.961 .0270364
1033.546 .0270361
1034.130 .0270361
1034.714 .0270362
1035.297 .0270366
1035.881 .0270371
1036.464 .0270378
1037.047 .0270386
1037.630 .0270394
1038.213 .0270402
1038.796 .0270410
1039.378 .0270416
1039.961 .0270423
1040.543 .0270428
1041.125 .0270433
1041.707 .0270438
1042.289 .0270441
1042.871 .0270441
1043.452 .0270438
1044.034 .0270431
1044.615 .0270420
1045.196 .0270403
1045.777 .0270380
1046.358 .0270353
1046.939 .0270321
1047.520 .0270286
1048.101 .0270247
1048.681 .0270206
1049.262 .0270162
1049.842 .0270114
1050.422 .0270062
1051.002 .0270006
1051.582 .0269945
1052.162 .0269880
1052.742 .0269810
1053.322 .0269736
1053.902 .0269660
1054.482 .0269580
1055.061 .0269499
1055.641 .0269418
1056.220 .0269336
1056.800 .0269254
1057.379 .0269172
1057.958 .0269090
1058.538 .0269007
1059.117 .0268925
1059.696 .0268842
1060.275 .0268760
1060.854 .0268679
1061.433 .0268598
1062.012 .0268519
1062.592 .0268441
1063.171 .0268366
1063.750 .0268294
1064.329 .0268223
1064.908 .0268155
1065.487 .0268088
1066.066 .0268024
1066.645 .0267961
1067.224 .0267900
1067.803 .0267841
1068.382 .0267784
1068.961 .0267728
1069.540 .0267673
1070.119 .0267621
1070.698 .0267569
1071.278 .0267519
1071.857 .0267469
1072.436 .0267419
1073.016 .0267369
1073.595 .0267319
1074.175 .0267268
1074.754 .0267219
1075.334 .0267171
1075.913 .0267125
1076.493 .0267081
1077.073 .0267040
1077.653 .0267002
1078.233 .0266966
1078.813 .0266932
1079.393 .0266900
1079.974 .0266870
1080.554 .0266842
1081.135 .0266815
1081.716 .0266791
1082.296 .0266770
1082.877 .0266750
1083.458 .0266731
1084.040 .0266712
1084.621 .0266691
1085.202 .0266667
1085.784 .0266639
1086.366 .0266608
1086.948 .0266571
1087.530 .0266529
1088.112 .0266483
1088.695 .0266434
1089.277 .0266381
1089.860 .0266325
1090.443 .0266267
1091.026 .0266205
1091.610 .0266141
1092.193 .0266073
1092.777 .0266002
1093.361 .0265929
1093.946 .0265855
1094.530 .0265780
1095.115 .0265707
1095.700 .0265636
1096.285 .0265570
1096.871 .0265508
1097.456 .0265453
1098.042 .0265404
1098.628 .0265362
1099.215 .0265328
1099.802 .0265302
1100.389 .0265285
1100.976 .0265277
1101.564 .0265279
1102.152 .0265290
1102.740 .0265311
1103.329 .0265341
1103.917 .0265381
1104.507 .0265428
1105.096 .0265482
1105.686 .0265541
1106.276 .0265607
1106.867 .0265677
1107.457 .0265751
1108.049 .0265830
1108.640 .0265913
1109.232 .0265999
1109.825 .0266088
1110.417 .0266179
1111.010 .0266271
1111.604 .0266364
1112.198 .0266458
1112.792 .0266553
1113.387 .0266649
1113.982 .0266748
1114.577 .0266849
1115.173 .0266955
1115.769 .0267066
1116.366 .0267182
1116.963 .0267305
1117.561 .0267436
1118.159 .0267575
1118.758 .0267724
1119.357 .0267884
1119.957 .0268055
1120.557 .0268240
1121.157 .0268439
1121.758 .0268653
1122.360 .0268881
1122.962 .0269124
1123.564 .0269381
1124.167 .0269455
1124.771 .0269734
1125.375 .0270026
1125.980 .0270329
1126.585 .0270640
1127.191 .0270959
1127.797 .0271282
1128.404 .0271608
1129.012 .0271933
1129.620 .0272259
1130.229 .0272585
1130.838 .0272909
1131.448 .0273234
1132.058 .0273560
1132.669 .0274087
1133.281 .0274408
1133.894 .0274737
1134.507 .0275067
1135.120 .0275369
1135.735 .0275663
1136.350 .0275969
1136.965 .0276248
1137.582 .0276253
1138.199 .0276298
1138.816 .0276386
1139.435 .0276582
1140.054 .0276846
1140.674 .0277178
1141.294 .0277542
1141.916 .0278179
1142.538 .0278730
1143.160 .0278451
1143.784 .0278710
1144.408 .0279565
1145.033 .0286583
