Measurement Sequence started on: 14-45-04-498
Integration time: 36
Scans to Average: 2 
>>>>>Begin Spectral Data<<<<<
433.946 .0649418
434.870 .0630299
435.793 .0551646
436.715 .0570630
437.635 .0537187
438.555 .0551491
439.473 .0543236
440.389 .0537779
441.305 .0535831
442.219 .0534064
443.132 .0544291
444.044 .0539275
444.954 .0538389
445.863 .0536490
446.771 .0536330
447.678 .0535391
448.584 .0534851
449.488 .0534552
450.391 .0534305
451.293 .0534095
452.194 .0533842
453.094 .0533527
453.992 .0533131
454.890 .0532639
455.786 .0532052
456.681 .0531369
457.575 .0530596
458.468 .0529747
459.360 .0528833
460.250 .0527862
461.140 .0526836
462.028 .0525766
462.915 .0524662
463.801 .0523535
464.687 .0522391
465.571 .0521236
466.454 .0520075
467.335 .0518909
468.216 .0517750
469.096 .0516601
469.975 .0515473
470.853 .0514375
471.729 .0513322
472.605 .0512325
473.479 .0511389
474.353 .0510518
475.226 .0509709
476.097 .0508960
476.968 .0508257
477.838 .0507585
478.706 .0506935
479.574 .0506303
480.441 .0505689
481.306 .0505098
482.171 .0504539
483.035 .0504021
483.898 .0503547
484.760 .0503112
485.621 .0502707
486.481 .0502321
487.340 .0501937
488.198 .0501538
489.055 .0501111
489.912 .0500646
490.767 .0500139
491.622 .0499249
492.476 .0498645
493.329 .0498020
494.180 .0497381
495.032 .0496733
495.882 .0496072
496.731 .0495395
497.580 .0494694
498.427 .0493961
499.274 .0493195
500.120 .0492758
500.965 .0491959
501.809 .0491141
502.653 .0490317
503.495 .0489505
504.337 .0488716
505.178 .0487968
506.018 .0487270
506.858 .0486628
507.696 .0486045
508.534 .0485519
509.371 .0485047
510.208 .0484623
511.043 .0484248
511.878 .0483925
512.712 .0483659
513.545 .0483459
514.377 .0483332
515.209 .0483288
516.040 .0483330
516.870 .0483459
517.699 .0483673
518.528 .0483963
519.356 .0484324
520.183 .0484741
521.010 .0485203
521.836 .0485694
522.661 .0486205
523.485 .0486724
524.309 .0487243
525.132 .0487752
525.954 .0488238
526.776 .0488690
527.597 .0489096
528.417 .0489443
529.237 .0489718
530.056 .0489910
530.874 .0490008
531.692 .0490002
532.508 .0489887
533.325 .0489657
534.140 .0489309
534.955 .0488846
535.770 .0488275
536.583 .0487599
537.397 .0486826
538.209 .0485967
539.021 .0485040
539.832 .0484052
540.643 .0483020
541.453 .0481951
542.262 .0480859
543.071 .0479756
543.879 .0478658
544.687 .0477577
545.494 .0476527
546.300 .0475511
547.106 .0474538
547.911 .0473610
548.716 .0472730
549.520 .0471892
550.323 .0471101
551.126 .0470356
551.929 .0469653
552.731 .0468987
553.532 .0468354
554.332 .0467745
555.133 .0467155
555.932 .0466570
556.731 .0465986
557.530 .0465395
558.328 .0464798
559.125 .0464196
559.922 .0463593
560.719 .0462990
561.515 .0462387
562.310 .0461784
563.105 .0461181
563.899 .0460574
564.693 .0459958
565.487 .0459330
566.280 .0458695
567.072 .0458053
567.864 .0457408
568.655 .0456763
569.446 .0456128
570.236 .0455505
571.026 .0454897
571.816 .0454304
572.605 .0453728
573.393 .0453170
574.181 .0452633
574.969 .0452112
575.756 .0451608
576.543 .0451120
577.329 .0450650
578.115 .0450195
578.900 .0449757
579.685 .0449334
580.469 .0448927
581.253 .0448537
582.036 .0448168
582.820 .0447816
583.602 .0447480
584.384 .0447158
585.166 .0446846
585.947 .0446539
586.728 .0446235
587.509 .0445931
588.289 .0445626
589.069 .0445318
589.848 .0445008
590.627 .0444693
591.405 .0444376
592.183 .0444057
592.961 .0443736
593.738 .0443415
594.515 .0443094
595.291 .0442775
596.067 .0442461
596.843 .0442155
597.618 .0441859
598.393 .0441477
599.167 .0441223
599.941 .0440984
600.715 .0440761
601.488 .0440554
602.261 .0440362
603.034 .0440184
603.806 .0440019
604.578 .0439865
605.349 .0439720
606.121 .0439584
606.891 .0439532
607.662 .0439401
608.432 .0439277
609.201 .0439159
609.971 .0439047
610.740 .0438939
611.508 .0438833
612.277 .0438727
613.045 .0438621
613.812 .0438513
614.579 .0438401
615.346 .0438287
616.113 .0438170
616.879 .0438052
617.645 .0437934
618.411 .0437816
619.176 .0437698
619.941 .0437581
620.705 .0437464
621.470 .0437346
622.233 .0437227
622.997 .0437106
623.760 .0436983
624.523 .0436859
625.286 .0436734
626.048 .0436606
626.810 .0436477
627.572 .0436345
628.333 .0436209
629.095 .0436067
629.855 .0435918
630.616 .0435762
631.376 .0435598
632.136 .0435427
632.895 .0435248
633.655 .0435062
634.414 .0434868
635.172 .0434667
635.931 .0434458
636.689 .0434243
637.447 .0434024
638.204 .0433801
638.962 .0433577
639.718 .0433353
640.475 .0433130
641.231 .0432910
641.988 .0432693
642.743 .0432479
643.499 .0432267
644.254 .0432059
645.009 .0431855
645.764 .0431655
646.518 .0431462
647.272 .0431276
648.026 .0431097
648.780 .0430923
649.533 .0430755
650.286 .0430589
651.039 .0430424
651.792 .0430259
652.544 .0430093
653.296 .0429926
654.048 .0429756
654.799 .0429585
655.550 .0429414
656.301 .0429243
657.052 .0429073
657.802 .0428903
658.552 .0428732
659.302 .0428560
660.052 .0428386
660.801 .0428209
661.550 .0428027
662.299 .0427842
663.048 .0427651
663.796 .0427455
664.544 .0427256
665.292 .0427053
666.040 .0426849
666.787 .0426644
667.534 .0426439
668.281 .0426235
669.028 .0426032
669.774 .0425829
670.521 .0425625
671.266 .0425420
672.012 .0425211
672.758 .0424998
673.503 .0424781
674.248 .0424559
674.992 .0424333
675.737 .0424105
676.481 .0423875
677.225 .0423644
677.969 .0423415
678.712 .0423187
679.455 .0422961
680.199 .0422736
680.941 .0422511
681.684 .0422286
682.426 .0422059
683.168 .0421830
683.910 .0421600
684.652 .0421368
685.393 .0421136
686.134 .0420905
686.875 .0420676
687.616 .0420450
688.356 .0420227
689.097 .0420009
689.837 .0419795
690.576 .0419584
691.316 .0419376
692.055 .0419169
692.794 .0418964
693.533 .0418760
694.272 .0418558
695.010 .0418359
695.748 .0418161
696.486 .0417966
697.224 .0417774
697.962 .0417585
698.699 .0417400
699.436 .0417217
700.173 .0417038
700.909 .0416861
701.646 .0416685
702.382 .0416509
703.118 .0416333
703.853 .0416155
704.589 .0415977
705.324 .0415796
706.059 .0415614
706.794 .0415430
707.529 .0415245
708.263 .0415060
708.997 .0414874
709.731 .0414689
710.465 .0414503
711.198 .0414317
711.931 .0414130
712.664 .0413942
713.397 .0413752
714.130 .0413561
714.862 .0413367
715.594 .0413171
716.326 .0412973
717.058 .0412772
717.789 .0412569
718.520 .0412364
719.251 .0412158
719.982 .0411950
720.713 .0411742
721.443 .0411533
722.173 .0411324
722.903 .0411116
723.633 .0410907
724.362 .0410700
725.091 .0410493
725.820 .0410287
726.549 .0410083
727.278 .0409881
728.006 .0409681
728.734 .0409483
729.462 .0409289
730.190 .0409099
730.917 .0408913
731.644 .0408731
732.371 .0408555
733.098 .0408385
733.825 .0408221
734.551 .0408064
735.277 .0407915
736.003 .0407772
736.728 .0407636
737.454 .0407506
738.179 .0407380
738.904 .0407258
739.629 .0407139
740.353 .0407022
741.077 .0406906
741.801 .0406791
742.525 .0406677
743.249 .0406563
743.972 .0406448
744.695 .0406332
745.418 .0406213
746.141 .0406091
746.863 .0405963
747.585 .0405830
748.307 .0405691
749.029 .0405544
749.750 .0405392
750.472 .0405233
751.193 .0405069
751.913 .0404900
752.634 .0404728
753.354 .0404554
754.074 .0404378
754.794 .0404203
755.514 .0404029
756.233 .0403856
756.952 .0403687
757.671 .0403521
758.390 .0403358
759.108 .0403196
759.826 .0403037
760.544 .0402877
761.262 .0402719
761.979 .0402561
762.697 .0402404
763.414 .0402249
764.130 .0402095
764.847 .0401944
765.563 .0401795
766.279 .0401647
766.995 .0401501
767.710 .0401353
768.426 .0401202
769.141 .0401048
769.855 .0400888
770.570 .0400724
771.284 .0400555
771.998 .0400382
772.712 .0400205
773.426 .0400026
774.139 .0399844
774.852 .0399661
775.565 .0399477
776.277 .0399293
776.990 .0399109
777.702 .0398925
778.414 .0398743
779.125 .0398563
779.836 .0398384
780.547 .0398209
781.258 .0398038
781.969 .0397870
782.679 .0397708
783.389 .0397485
784.099 .0397336
784.808 .0397193
785.517 .0397055
786.226 .0396923
786.935 .0396794
787.643 .0396670
788.352 .0396549
789.060 .0396431
789.767 .0396313
790.475 .0396197
791.182 .0396080
791.889 .0396025
792.595 .0395907
793.301 .0395789
794.008 .0395672
794.713 .0395555
795.419 .0395439
796.124 .0395322
796.829 .0395205
797.534 .0395087
798.238 .0394966
798.942 .0394844
799.646 .0394720
800.350 .0394596
801.053 .0394471
801.756 .0394347
802.459 .0394223
803.162 .0394101
803.864 .0393980
804.566 .0393858
805.267 .0393737
805.969 .0393615
806.670 .0393494
807.371 .0393373
808.071 .0393255
808.772 .0393139
809.472 .0393027
810.171 .0392919
810.871 .0392813
811.570 .0392709
812.269 .0392605
812.967 .0392499
813.666 .0392390
814.364 .0392277
815.061 .0392159
815.759 .0392037
816.456 .0391910
817.153 .0391779
817.849 .0391641
818.545 .0391497
819.241 .0391345
819.937 .0391184
820.632 .0391013
821.327 .0390834
822.022 .0390647
822.717 .0390451
823.411 .0390249
824.105 .0390042
824.798 .0389828
825.491 .0389609
826.184 .0389383
826.877 .0389151
827.569 .0388913
828.261 .0388671
828.953 .0388427
829.645 .0388181
830.336 .0387936
831.027 .0387694
831.717 .0387454
832.407 .0387219
833.097 .0386987
833.787 .0386760
834.476 .0386538
835.165 .0386320
835.854 .0386109
836.542 .0385904
837.230 .0385706
837.918 .0385516
838.605 .0385335
839.292 .0385161
839.979 .0384994
840.665 .0384834
841.352 .0384679
842.037 .0384527
842.723 .0384379
843.408 .0384232
844.093 .0384087
844.777 .0383941
845.462 .0383795
846.145 .0383648
846.829 .0383499
847.512 .0383350
848.195 .0383199
848.878 .0383045
849.560 .0382890
850.242 .0382732
850.923 .0382570
851.605 .0382405
852.286 .0382235
852.966 .0382060
853.646 .0381879
854.326 .0381691
855.006 .0381498
855.685 .0381300
856.364 .0381096
857.043 .0380887
857.721 .0380674
858.399 .0380458
859.077 .0380241
859.754 .0380022
860.431 .0379803
861.107 .0379585
861.784 .0379369
862.459 .0379157
863.135 .0378948
863.810 .0378743
864.485 .0378544
865.160 .0378350
865.834 .0378164
866.508 .0377984
867.181 .0377811
867.854 .0377647
868.527 .0377491
869.199 .0377344
869.872 .0377206
870.543 .0377075
871.215 .0376953
871.886 .0376837
872.557 .0376728
873.227 .0376623
873.897 .0376523
874.567 .0376427
875.236 .0376334
875.905 .0376243
876.573 .0376155
877.242 .0376067
877.909 .0375980
878.577 .0375892
879.244 .0375801
879.911 .0375707
880.577 .0375608
881.243 .0375505
881.909 .0375396
882.575 .0375281
883.240 .0375161
883.904 .0375035
884.569 .0374903
885.232 .0374765
885.896 .0374621
886.559 .0374471
887.222 .0374315
887.885 .0374155
888.547 .0373991
889.208 .0373824
889.870 .0373657
890.531 .0373490
891.192 .0373323
891.852 .0373156
892.512 .0372990
893.171 .0372824
893.830 .0372657
894.489 .0372490
895.148 .0372322
895.806 .0372152
896.464 .0371983
897.121 .0371814
897.778 .0371644
898.434 .0371475
899.091 .0371217
899.747 .0371044
900.402 .0370869
901.057 .0370690
901.712 .0370507
902.366 .0370320
903.020 .0370128
903.674 .0369932
904.327 .0369732
904.980 .0369526
905.633 .0369315
906.285 .0369098
906.936 .0368874
907.588 .0368745
908.239 .0368514
908.889 .0368277
909.540 .0368034
910.190 .0367787
910.839 .0367535
911.488 .0367282
912.137 .0367026
912.785 .0366769
913.433 .0366510
914.081 .0366251
914.728 .0365990
915.375 .0365727
916.021 .0365464
916.668 .0365200
917.313 .0364936
917.959 .0364672
918.604 .0364410
919.248 .0364149
919.892 .0363891
920.536 .0363634
921.180 .0363379
921.823 .0363126
922.465 .0362875
923.108 .0362624
923.750 .0362376
924.391 .0362130
925.032 .0361886
925.673 .0361645
926.313 .0361408
926.953 .0361174
927.593 .0360943
928.232 .0360715
928.871 .0360491
929.510 .0360270
930.148 .0360053
930.786 .0359840
931.423 .0359631
932.060 .0359427
932.697 .0359229
933.333 .0359037
933.969 .0358851
934.604 .0358672
935.239 .0358501
935.874 .0358337
936.508 .0358181
937.142 .0358033
937.776 .0357894
938.409 .0357762
939.042 .0357637
939.674 .0357520
940.306 .0357410
940.938 .0357306
941.569 .0357206
942.200 .0357111
942.830 .0357018
943.460 .0356927
944.090 .0356838
944.720 .0356749
945.349 .0356660
945.977 .0356570
946.606 .0356479
947.233 .0356385
947.861 .0356288
948.488 .0356188
949.115 .0356085
949.741 .0355978
950.367 .0355867
950.993 .0355752
951.618 .0355632
952.243 .0355508
952.868 .0355379
953.492 .0355246
954.115 .0355108
954.739 .0354965
955.362 .0354820
955.984 .0354671
956.607 .0354519
957.229 .0354365
957.850 .0354211
958.471 .0354056
959.092 .0353901
959.713 .0353747
960.333 .0353594
960.952 .0353443
961.572 .0353294
962.191 .0353148
962.809 .0353006
963.428 .0352868
964.045 .0352735
964.663 .0352606
965.280 .0352483
965.897 .0352362
966.513 .0352244
967.129 .0352128
967.745 .0352012
968.361 .0351896
968.976 .0351778
969.590 .0351660
970.205 .0351540
970.818 .0351419
971.432 .0351296
972.045 .0351172
972.658 .0351046
973.271 .0350917
973.883 .0350784
974.495 .0350647
975.106 .0350505
975.717 .0350360
976.328 .0350210
976.938 .0350057
977.548 .0349902
978.158 .0349745
978.768 .0349495
979.377 .0349331
979.985 .0349164
980.594 .0348994
981.202 .0348820
981.809 .0348644
982.417 .0348465
983.024 .0348287
983.631 .0348109
984.237 .0347932
984.843 .0347757
985.449 .0347585
986.054 .0347415
986.659 .0347248
987.264 .0347174
987.868 .0347012
988.472 .0346854
989.076 .0346699
989.679 .0346547
990.282 .0346400
990.885 .0346257
991.487 .0346118
992.090 .0345982
992.691 .0345850
993.293 .0345720
993.894 .0345591
994.495 .0345463
995.095 .0345336
995.696 .0345208
996.296 .0345081
996.895 .0344954
997.494 .0344826
998.093 .0344699
998.692 .0344571
999.291 .0344443
999.889 .0344314
1000.487 .0344183
1001.084 .0344053
1001.681 .0343921
1002.278 .0343790
1002.875 .0343660
1003.471 .0343530
1004.067 .0343400
1004.663 .0343271
1005.258 .0343141
1005.854 .0343011
1006.449 .0342880
1007.043 .0342749
1007.638 .0342618
1008.232 .0342487
1008.826 .0342358
1009.419 .0342231
1010.012 .0342106
1010.605 .0341984
1011.198 .0341865
1011.791 .0341751
1012.383 .0341640
1012.975 .0341533
1013.566 .0341431
1014.158 .0341333
1014.749 .0341241
1015.340 .0341154
1015.931 .0341074
1016.521 .0340999
1017.111 .0340930
1017.701 .0340869
1018.291 .0340813
1018.880 .0340765
1019.470 .0340722
1020.059 .0340686
1020.647 .0340657
1021.236 .0340633
1021.824 .0340615
1022.412 .0340603
1023.000 .0340597
1023.588 .0340596
1024.175 .0340601
1024.762 .0340611
1025.349 .0340626
1025.936 .0340647
1026.523 .0340672
1027.109 .0340701
1027.695 .0340733
1028.281 .0340768
1028.867 .0340806
1029.452 .0340847
1030.038 .0340891
1030.623 .0340938
1031.208 .0340990
1031.792 .0341045
1032.377 .0341105
1032.961 .0341168
1033.546 .0341234
1034.130 .0341302
1034.714 .0341372
1035.297 .0341443
1035.881 .0341514
1036.464 .0341585
1037.047 .0341657
1037.630 .0341729
1038.213 .0341800
1038.796 .0341872
1039.378 .0341943
1039.961 .0342012
1040.543 .0342076
1041.125 .0342135
1041.707 .0342186
1042.289 .0342229
1042.871 .0342263
1043.452 .0342288
1044.034 .0342306
1044.615 .0342318
1045.196 .0342325
1045.777 .0342329
1046.358 .0342330
1046.939 .0342327
1047.520 .0342322
1048.101 .0342312
1048.681 .0342298
1049.262 .0342279
1049.842 .0342255
1050.422 .0342227
1051.002 .0342197
1051.582 .0342166
1052.162 .0342136
1052.742 .0342107
1053.322 .0342080
1053.902 .0342054
1054.482 .0342029
1055.061 .0342004
1055.641 .0341979
1056.220 .0341954
1056.800 .0341929
1057.379 .0341905
1057.958 .0341881
1058.538 .0341859
1059.117 .0341839
1059.696 .0341822
1060.275 .0341806
1060.854 .0341792
1061.433 .0341777
1062.012 .0341761
1062.592 .0341743
1063.171 .0341719
1063.750 .0341690
1064.329 .0341654
1064.908 .0341610
1065.487 .0341557
1066.066 .0341496
1066.645 .0341426
1067.224 .0341348
1067.803 .0341262
1068.382 .0341169
1068.961 .0341069
1069.540 .0340963
1070.119 .0340852
1070.698 .0340736
1071.278 .0340617
1071.857 .0340494
1072.436 .0340368
1073.016 .0340241
1073.595 .0340114
1074.175 .0339988
1074.754 .0339866
1075.334 .0339749
1075.913 .0339636
1076.493 .0339527
1077.073 .0339422
1077.653 .0339319
1078.233 .0339218
1078.813 .0339116
1079.393 .0339014
1079.974 .0338913
1080.554 .0338814
1081.135 .0338719
1081.716 .0338629
1082.296 .0338548
1082.877 .0338473
1083.458 .0338404
1084.040 .0338339
1084.621 .0338275
1085.202 .0338209
1085.784 .0338142
1086.366 .0338071
1086.948 .0337996
1087.530 .0337919
1088.112 .0337839
1088.695 .0337757
1089.277 .0337672
1089.860 .0337582
1090.443 .0337486
1091.026 .0337379
1091.610 .0337259
1092.193 .0337124
1092.777 .0336974
1093.361 .0336811
1093.946 .0336636
1094.530 .0336451
1095.115 .0336258
1095.700 .0336060
1096.285 .0335857
1096.871 .0335646
1097.456 .0335430
1098.042 .0335207
1098.628 .0334977
1099.215 .0334739
1099.802 .0334497
1100.389 .0334254
1100.976 .0334014
1101.564 .0333782
1102.152 .0333562
1102.740 .0333359
1103.329 .0333172
1103.917 .0333004
1104.507 .0332852
1105.096 .0332715
1105.686 .0332594
1106.276 .0332489
1106.867 .0332404
1107.457 .0332341
1108.049 .0332304
1108.640 .0332297
1109.232 .0332320
1109.825 .0332374
1110.417 .0332453
1111.010 .0332555
1111.604 .0332673
1112.198 .0332803
1112.792 .0332944
1113.387 .0333095
1113.982 .0333258
1114.577 .0333436
1115.173 .0333632
1115.769 .0333848
1116.366 .0334085
1116.963 .0334340
1117.561 .0334612
1118.159 .0334896
1118.758 .0335188
1119.357 .0335483
1119.957 .0335779
1120.557 .0336075
1121.157 .0336370
1121.758 .0336667
1122.360 .0336967
1122.962 .0337271
1123.564 .0337579
1124.167 .0337725
1124.771 .0338032
1125.375 .0338337
1125.980 .0338642
1126.585 .0338948
1127.191 .0339256
1127.797 .0339568
1128.404 .0339889
1129.012 .0340221
1129.620 .0340569
1130.229 .0340937
1130.838 .0341326
1131.448 .0341738
1132.058 .0342176
1132.669 .0342839
1133.281 .0343337
1133.894 .0343871
1134.507 .0344433
1135.120 .0345051
1135.735 .0345681
1136.350 .0346283
1136.965 .0345966
1137.582 .0346466
1138.199 .0347000
1138.816 .0347583
1139.435 .0348257
1140.054 .0349104
1140.674 .0350042
1141.294 .0351043
1141.916 .0352320
1142.538 .0353407
1143.160 .0355226
1143.784 .0355812
1144.408 .0355343
1145.033 .0363327
