Measurement Sequence started on: 14-45-04-498
Integration time: 36
Scans to Average: 2 
>>>>>Begin Spectral Data<<<<<
433.946 .0518170
434.870 .0604064
435.793 .0576462
436.715 .0566894
437.635 .0564559
438.555 .0564834
439.473 .0563893
440.389 .0560432
441.305 .0558050
442.219 .0555920
443.132 .0557524
444.044 .0554190
444.954 .0552221
445.863 .0550668
446.771 .0549146
447.678 .0547524
448.584 .0545864
449.488 .0544304
450.391 .0542783
451.293 .0541293
452.194 .0539827
453.094 .0538381
453.992 .0536929
454.890 .0535464
455.786 .0533971
456.681 .0532449
457.575 .0530889
458.468 .0529302
459.360 .0527699
460.250 .0526095
461.140 .0524500
462.028 .0522925
462.915 .0521377
463.801 .0519859
464.687 .0518369
465.571 .0516908
466.454 .0515469
467.335 .0514056
468.216 .0512662
469.096 .0511288
469.975 .0509939
470.853 .0508620
471.729 .0507337
472.605 .0506098
473.479 .0504910
474.353 .0503777
475.226 .0502699
476.097 .0501674
476.968 .0500699
477.838 .0499771
478.706 .0498884
479.574 .0498035
480.441 .0497225
481.306 .0496451
482.171 .0495717
483.035 .0495023
483.898 .0494372
484.760 .0493761
485.621 .0493188
486.481 .0492647
487.340 .0492132
488.198 .0491636
489.055 .0491152
489.912 .0490673
490.767 .0490195
491.622 .0489450
492.476 .0488944
493.329 .0488419
494.180 .0487869
495.032 .0487293
495.882 .0486685
496.731 .0486042
497.580 .0485366
498.427 .0484657
499.274 .0483916
500.120 .0483471
500.965 .0482698
501.809 .0481900
502.653 .0481079
503.495 .0480237
504.337 .0479376
505.178 .0478497
506.018 .0477603
506.858 .0476699
507.696 .0475790
508.534 .0474883
509.371 .0473982
510.208 .0473093
511.043 .0472218
511.878 .0471355
512.712 .0470501
513.545 .0469654
514.377 .0468815
515.209 .0467981
516.040 .0467154
516.870 .0466335
517.699 .0465525
518.528 .0464727
519.356 .0463946
520.183 .0463185
521.010 .0462446
521.836 .0461729
522.661 .0461030
523.485 .0460350
524.309 .0459687
525.132 .0459038
525.954 .0458402
526.776 .0457780
527.597 .0457169
528.417 .0456573
529.237 .0455996
530.056 .0455441
530.874 .0454913
531.692 .0454412
532.508 .0453933
533.325 .0453472
534.140 .0453021
534.955 .0452577
535.770 .0452134
536.583 .0451688
537.397 .0451236
538.209 .0450780
539.021 .0450324
539.832 .0449874
540.643 .0449433
541.453 .0449005
542.262 .0448586
543.071 .0448175
543.879 .0447768
544.687 .0447361
545.494 .0446948
546.300 .0446527
547.106 .0446098
547.911 .0445660
548.716 .0445216
549.520 .0444771
550.323 .0444326
551.126 .0443886
551.929 .0443451
552.731 .0443020
553.532 .0442590
554.332 .0442157
555.133 .0441716
555.932 .0441260
556.731 .0440785
557.530 .0440284
558.328 .0439754
559.125 .0439197
559.922 .0438614
560.719 .0438009
561.515 .0437388
562.310 .0436757
563.105 .0436118
563.899 .0435474
564.693 .0434825
565.487 .0434170
566.280 .0433506
567.072 .0432833
567.864 .0432151
568.655 .0431459
569.446 .0430761
570.236 .0430056
571.026 .0429351
571.816 .0428648
572.605 .0427949
573.393 .0427256
574.181 .0426572
574.969 .0425896
575.756 .0425230
576.543 .0424573
577.329 .0423927
578.115 .0423292
578.900 .0422668
579.685 .0422055
580.469 .0421453
581.253 .0420863
582.036 .0420285
582.820 .0419720
583.602 .0419167
584.384 .0418627
585.166 .0418100
585.947 .0417587
586.728 .0417087
587.509 .0416601
588.289 .0416126
589.069 .0415663
589.848 .0415211
590.627 .0414767
591.405 .0414331
592.183 .0413900
592.961 .0413472
593.738 .0413048
594.515 .0412625
595.291 .0412206
596.067 .0411790
596.843 .0411379
597.618 .0410975
598.393 .0410395
599.167 .0410013
599.941 .0409639
600.715 .0409275
601.488 .0408919
602.261 .0408570
603.034 .0408229
603.806 .0407895
604.578 .0407569
605.349 .0407249
606.121 .0406937
606.891 .0406799
607.662 .0406492
608.432 .0406191
609.201 .0405893
609.971 .0405599
610.740 .0405305
611.508 .0405012
612.277 .0404718
613.045 .0404423
613.812 .0404126
614.579 .0403827
615.346 .0403526
616.113 .0403222
616.879 .0402914
617.645 .0402604
618.411 .0402290
619.176 .0401973
619.941 .0401652
620.705 .0401330
621.470 .0401005
622.233 .0400680
622.997 .0400353
623.760 .0400028
624.523 .0399702
625.286 .0399377
626.048 .0399054
626.810 .0398730
627.572 .0398408
628.333 .0398087
629.095 .0397766
629.855 .0397445
630.616 .0397125
631.376 .0396806
632.136 .0396488
632.895 .0396170
633.655 .0395853
634.414 .0395536
635.172 .0395218
635.931 .0394899
636.689 .0394579
637.447 .0394257
638.204 .0393932
638.962 .0393605
639.718 .0393275
640.475 .0392943
641.231 .0392609
641.988 .0392273
642.743 .0391935
643.499 .0391596
644.254 .0391256
645.009 .0390916
645.764 .0390576
646.518 .0390237
647.272 .0389900
648.026 .0389564
648.780 .0389231
649.533 .0388900
650.286 .0388573
651.039 .0388249
651.792 .0387930
652.544 .0387617
653.296 .0387309
654.048 .0387009
654.799 .0386716
655.550 .0386430
656.301 .0386153
657.052 .0385883
657.802 .0385620
658.552 .0385363
659.302 .0385113
660.052 .0384868
660.801 .0384628
661.550 .0384393
662.299 .0384162
663.048 .0383936
663.796 .0383714
664.544 .0383495
665.292 .0383278
666.040 .0383062
666.787 .0382847
667.534 .0382631
668.281 .0382415
669.028 .0382196
669.774 .0381975
670.521 .0381751
671.266 .0381526
672.012 .0381298
672.758 .0381068
673.503 .0380837
674.248 .0380604
674.992 .0380369
675.737 .0380132
676.481 .0379893
677.225 .0379652
677.969 .0379409
678.712 .0379164
679.455 .0378916
680.199 .0378667
680.941 .0378416
681.684 .0378163
682.426 .0377910
683.168 .0377657
683.910 .0377403
684.652 .0377150
685.393 .0376899
686.134 .0376648
686.875 .0376399
687.616 .0376152
688.356 .0375907
689.097 .0375665
689.837 .0375425
690.576 .0375188
691.316 .0374954
692.055 .0374724
692.794 .0374498
693.533 .0374277
694.272 .0374061
695.010 .0373850
695.748 .0373645
696.486 .0373447
697.224 .0373253
697.962 .0373065
698.699 .0372881
699.436 .0372701
700.173 .0372524
700.909 .0372349
701.646 .0372175
702.382 .0372001
703.118 .0371828
703.853 .0371655
704.589 .0371481
705.324 .0371306
706.059 .0371128
706.794 .0370949
707.529 .0370765
708.263 .0370579
708.997 .0370388
709.731 .0370194
710.465 .0369998
711.198 .0369799
711.931 .0369599
712.664 .0369398
713.397 .0369196
714.130 .0368995
714.862 .0368793
715.594 .0368591
716.326 .0368390
717.058 .0368190
717.789 .0367990
718.520 .0367792
719.251 .0367594
719.982 .0367398
720.713 .0367203
721.443 .0367008
722.173 .0366813
722.903 .0366619
723.633 .0366426
724.362 .0366233
725.091 .0366041
725.820 .0365849
726.549 .0365659
727.278 .0365468
728.006 .0365278
728.734 .0365086
729.462 .0364894
730.190 .0364701
730.917 .0364508
731.644 .0364316
732.371 .0364125
733.098 .0363936
733.825 .0363748
734.551 .0363563
735.277 .0363378
736.003 .0363195
736.728 .0363012
737.454 .0362829
738.179 .0362648
738.904 .0362469
739.629 .0362293
740.353 .0362119
741.077 .0361948
741.801 .0361781
742.525 .0361616
743.249 .0361453
743.972 .0361292
744.695 .0361131
745.418 .0360971
746.141 .0360811
746.863 .0360650
747.585 .0360489
748.307 .0360326
749.029 .0360161
749.750 .0359994
750.472 .0359823
751.193 .0359648
751.913 .0359471
752.634 .0359292
753.354 .0359110
754.074 .0358929
754.794 .0358747
755.514 .0358567
756.233 .0358387
756.952 .0358208
757.671 .0358031
758.390 .0357855
759.108 .0357682
759.826 .0357511
760.544 .0357343
761.262 .0357179
761.979 .0357020
762.697 .0356865
763.414 .0356715
764.130 .0356568
764.847 .0356426
765.563 .0356286
766.279 .0356150
766.995 .0356016
767.710 .0355884
768.426 .0355754
769.141 .0355625
769.855 .0355498
770.570 .0355372
771.284 .0355246
771.998 .0355120
772.712 .0354994
773.426 .0354866
774.139 .0354738
774.852 .0354609
775.565 .0354479
776.277 .0354347
776.990 .0354215
777.702 .0354081
778.414 .0353947
779.125 .0353811
779.836 .0353675
780.547 .0353539
781.258 .0353403
781.969 .0353268
782.679 .0353135
783.389 .0352941
784.099 .0352810
784.808 .0352680
785.517 .0352552
786.226 .0352427
786.935 .0352304
787.643 .0352185
788.352 .0352069
789.060 .0351955
789.767 .0351843
790.475 .0351732
791.182 .0351622
791.889 .0351568
792.595 .0351457
793.301 .0351344
794.008 .0351231
794.713 .0351115
795.419 .0350997
796.124 .0350877
796.829 .0350754
797.534 .0350627
798.238 .0350496
798.942 .0350360
799.646 .0350221
800.350 .0350078
801.053 .0349933
801.756 .0349786
802.459 .0349637
803.162 .0349486
803.864 .0349334
804.566 .0349179
805.267 .0349023
805.969 .0348864
806.670 .0348704
807.371 .0348542
808.071 .0348379
808.772 .0348216
809.472 .0348053
810.171 .0347890
810.871 .0347729
811.570 .0347568
812.269 .0347407
812.967 .0347247
813.666 .0347086
814.364 .0346925
815.061 .0346764
815.759 .0346602
816.456 .0346439
817.153 .0346275
817.849 .0346111
818.545 .0345945
819.241 .0345779
819.937 .0345610
820.632 .0345438
821.327 .0345263
822.022 .0345083
822.717 .0344898
823.411 .0344708
824.105 .0344511
824.798 .0344309
825.491 .0344102
826.184 .0343890
826.877 .0343674
827.569 .0343455
828.261 .0343232
828.953 .0343008
829.645 .0342780
830.336 .0342551
831.027 .0342320
831.717 .0342089
832.407 .0341858
833.097 .0341629
833.787 .0341404
834.476 .0341183
835.165 .0340968
835.854 .0340758
836.542 .0340554
837.230 .0340356
837.918 .0340165
838.605 .0339979
839.292 .0339801
839.979 .0339630
840.665 .0339467
841.352 .0339312
842.037 .0339166
842.723 .0339027
843.408 .0338896
844.093 .0338770
844.777 .0338650
845.462 .0338534
846.145 .0338422
846.829 .0338313
847.512 .0338207
848.195 .0338105
848.878 .0338005
849.560 .0337908
850.242 .0337813
850.923 .0337718
851.605 .0337623
852.286 .0337526
852.966 .0337428
853.646 .0337327
854.326 .0337224
855.006 .0337118
855.685 .0337010
856.364 .0336900
857.043 .0336789
857.721 .0336676
858.399 .0336563
859.077 .0336448
859.754 .0336331
860.431 .0336214
861.107 .0336096
861.784 .0335978
862.459 .0335860
863.135 .0335742
863.810 .0335625
864.485 .0335511
865.160 .0335398
865.834 .0335289
866.508 .0335182
867.181 .0335078
867.854 .0334977
868.527 .0334877
869.199 .0334778
869.872 .0334680
870.543 .0334582
871.215 .0334484
871.886 .0334385
872.557 .0334285
873.227 .0334184
873.897 .0334081
874.567 .0333975
875.236 .0333865
875.905 .0333753
876.573 .0333636
877.242 .0333515
877.909 .0333390
878.577 .0333262
879.244 .0333130
879.911 .0332995
880.577 .0332856
881.243 .0332713
881.909 .0332566
882.575 .0332414
883.240 .0332257
883.904 .0332094
884.569 .0331927
885.232 .0331755
885.896 .0331581
886.559 .0331405
887.222 .0331227
887.885 .0331048
888.547 .0330869
889.208 .0330690
889.870 .0330510
890.531 .0330329
891.192 .0330147
891.852 .0329966
892.512 .0329784
893.171 .0329603
893.830 .0329423
894.489 .0329243
895.148 .0329065
895.806 .0328886
896.464 .0328707
897.121 .0328528
897.778 .0328348
898.434 .0328168
899.091 .0327896
899.747 .0327714
900.402 .0327533
901.057 .0327351
901.712 .0327170
902.366 .0326989
903.020 .0326808
903.674 .0326628
904.327 .0326450
904.980 .0326272
905.633 .0326095
906.285 .0325921
906.936 .0325747
907.588 .0325665
908.239 .0325494
908.889 .0325324
909.540 .0325155
910.190 .0324987
910.839 .0324821
911.488 .0324655
912.137 .0324491
912.785 .0324329
913.433 .0324168
914.081 .0324010
914.728 .0323854
915.375 .0323701
916.021 .0323550
916.668 .0323401
917.313 .0323255
917.959 .0323110
918.604 .0322967
919.248 .0322824
919.892 .0322682
920.536 .0322538
921.180 .0322393
921.823 .0322245
922.465 .0322094
923.108 .0321940
923.750 .0321781
924.391 .0321619
925.032 .0321452
925.673 .0321282
926.313 .0321107
926.953 .0320929
927.593 .0320748
928.232 .0320564
928.871 .0320376
929.510 .0320187
930.148 .0319996
930.786 .0319802
931.423 .0319608
932.060 .0319411
932.697 .0319214
933.333 .0319015
933.969 .0318816
934.604 .0318616
935.239 .0318416
935.874 .0318217
936.508 .0318018
937.142 .0317820
937.776 .0317624
938.409 .0317429
939.042 .0317237
939.674 .0317048
940.306 .0316862
940.938 .0316680
941.569 .0316502
942.200 .0316328
942.830 .0316159
943.460 .0315995
944.090 .0315836
944.720 .0315681
945.349 .0315530
945.977 .0315383
946.606 .0315238
947.233 .0315097
947.861 .0314958
948.488 .0314821
949.115 .0314685
949.741 .0314552
950.367 .0314419
950.993 .0314289
951.618 .0314159
952.243 .0314029
952.868 .0313901
953.492 .0313773
954.115 .0313646
954.739 .0313519
955.362 .0313393
955.984 .0313268
956.607 .0313144
957.229 .0313022
957.850 .0312903
958.471 .0312785
959.092 .0312670
959.713 .0312557
960.333 .0312446
960.952 .0312337
961.572 .0312229
962.191 .0312122
962.809 .0312016
963.428 .0311912
964.045 .0311809
964.663 .0311707
965.280 .0311606
965.897 .0311506
966.513 .0311404
967.129 .0311301
967.745 .0311196
968.361 .0311087
968.976 .0310975
969.590 .0310858
970.205 .0310739
970.818 .0310616
971.432 .0310490
972.045 .0310361
972.658 .0310229
973.271 .0310093
973.883 .0309953
974.495 .0309809
975.106 .0309659
975.717 .0309505
976.328 .0309346
976.938 .0309184
977.548 .0309018
978.158 .0308849
978.768 .0308585
979.377 .0308412
979.985 .0308235
980.594 .0308055
981.202 .0307871
981.809 .0307685
982.417 .0307498
983.024 .0307312
983.631 .0307127
984.237 .0306945
984.843 .0306767
985.449 .0306593
986.054 .0306425
986.659 .0306263
987.264 .0306196
987.868 .0306042
988.472 .0305893
989.076 .0305750
989.679 .0305614
990.282 .0305484
990.885 .0305362
991.487 .0305248
992.090 .0305141
992.691 .0305041
993.293 .0304946
993.894 .0304856
994.495 .0304770
995.095 .0304687
995.696 .0304608
996.296 .0304531
996.895 .0304458
997.494 .0304388
998.093 .0304321
998.692 .0304257
999.291 .0304194
999.889 .0304132
1000.487 .0304069
1001.084 .0304004
1001.681 .0303936
1002.278 .0303865
1002.875 .0303790
1003.471 .0303711
1004.067 .0303627
1004.663 .0303539
1005.258 .0303446
1005.854 .0303348
1006.449 .0303244
1007.043 .0303134
1007.638 .0303018
1008.232 .0302897
1008.826 .0302773
1009.419 .0302646
1010.012 .0302518
1010.605 .0302391
1011.198 .0302267
1011.791 .0302145
1012.383 .0302028
1012.975 .0301915
1013.566 .0301808
1014.158 .0301706
1014.749 .0301611
1015.340 .0301524
1015.931 .0301445
1016.521 .0301376
1017.111 .0301318
1017.701 .0301271
1018.291 .0301236
1018.880 .0301212
1019.470 .0301199
1020.059 .0301196
1020.647 .0301204
1021.236 .0301220
1021.824 .0301247
1022.412 .0301283
1023.000 .0301330
1023.588 .0301387
1024.175 .0301453
1024.762 .0301529
1025.349 .0301613
1025.936 .0301704
1026.523 .0301800
1027.109 .0301899
1027.695 .0301999
1028.281 .0302101
1028.867 .0302202
1029.452 .0302302
1030.038 .0302399
1030.623 .0302494
1031.208 .0302585
1031.792 .0302672
1032.377 .0302753
1032.961 .0302829
1033.546 .0302898
1034.130 .0302959
1034.714 .0303014
1035.297 .0303062
1035.881 .0303104
1036.464 .0303140
1037.047 .0303172
1037.630 .0303200
1038.213 .0303226
1038.796 .0303250
1039.378 .0303272
1039.961 .0303292
1040.543 .0303311
1041.125 .0303328
1041.707 .0303345
1042.289 .0303361
1042.871 .0303377
1043.452 .0303395
1044.034 .0303415
1044.615 .0303437
1045.196 .0303461
1045.777 .0303488
1046.358 .0303515
1046.939 .0303544
1047.520 .0303573
1048.101 .0303602
1048.681 .0303631
1049.262 .0303660
1049.842 .0303690
1050.422 .0303722
1051.002 .0303755
1051.582 .0303790
1052.162 .0303827
1052.742 .0303865
1053.322 .0303904
1053.902 .0303942
1054.482 .0303980
1055.061 .0304018
1055.641 .0304055
1056.220 .0304091
1056.800 .0304127
1057.379 .0304163
1057.958 .0304199
1058.538 .0304234
1059.117 .0304267
1059.696 .0304297
1060.275 .0304323
1060.854 .0304343
1061.433 .0304357
1062.012 .0304365
1062.592 .0304366
1063.171 .0304362
1063.750 .0304353
1064.329 .0304340
1064.908 .0304324
1065.487 .0304304
1066.066 .0304282
1066.645 .0304256
1067.224 .0304227
1067.803 .0304195
1068.382 .0304160
1068.961 .0304122
1069.540 .0304081
1070.119 .0304038
1070.698 .0303993
1071.278 .0303945
1071.857 .0303895
1072.436 .0303840
1073.016 .0303781
1073.595 .0303716
1074.175 .0303645
1074.754 .0303569
1075.334 .0303488
1075.913 .0303401
1076.493 .0303310
1077.073 .0303214
1077.653 .0303115
1078.233 .0303011
1078.813 .0302905
1079.393 .0302796
1079.974 .0302685
1080.554 .0302573
1081.135 .0302462
1081.716 .0302353
1082.296 .0302246
1082.877 .0302144
1083.458 .0302046
1084.040 .0301954
1084.621 .0301866
1085.202 .0301785
1085.784 .0301709
1086.366 .0301639
1086.948 .0301574
1087.530 .0301516
1088.112 .0301463
1088.695 .0301416
1089.277 .0301375
1089.860 .0301339
1090.443 .0301309
1091.026 .0301281
1091.610 .0301256
1092.193 .0301233
1092.777 .0301209
1093.361 .0301185
1093.946 .0301158
1094.530 .0301129
1095.115 .0301098
1095.700 .0301064
1096.285 .0301027
1096.871 .0300990
1097.456 .0300951
1098.042 .0300910
1098.628 .0300869
1099.215 .0300827
1099.802 .0300785
1100.389 .0300741
1100.976 .0300696
1101.564 .0300648
1102.152 .0300598
1102.740 .0300545
1103.329 .0300488
1103.917 .0300428
1104.507 .0300365
1105.096 .0300301
1105.686 .0300237
1106.276 .0300174
1106.867 .0300112
1107.457 .0300054
1108.049 .0300000
1108.640 .0299951
1109.232 .0299906
1109.825 .0299868
1110.417 .0299837
1111.010 .0299815
1111.604 .0299805
1112.198 .0299809
1112.792 .0299828
1113.387 .0299863
1113.982 .0299913
1114.577 .0299978
1115.173 .0300054
1115.769 .0300139
1116.366 .0300231
1116.963 .0300326
1117.561 .0300424
1118.159 .0300526
1118.758 .0300631
1119.357 .0300744
1119.957 .0300864
1120.557 .0300995
1121.157 .0301140
1121.758 .0301297
1122.360 .0301467
1122.962 .0301651
1123.564 .0301848
1124.167 .0301921
1124.771 .0302135
1125.375 .0302365
1125.980 .0302612
1126.585 .0302880
1127.191 .0303169
1127.797 .0303482
1128.404 .0303816
1129.012 .0304171
1129.620 .0304545
1130.229 .0304937
1130.838 .0305344
1131.448 .0305766
1132.058 .0306206
1132.669 .0306839
1133.281 .0307328
1133.894 .0307846
1134.507 .0308394
1135.120 .0308984
1135.735 .0309540
1136.350 .0310092
1136.965 .0310411
1137.582 .0311103
1138.199 .0311782
1138.816 .0312448
1139.435 .0313145
1140.054 .0313865
1140.674 .0314594
1141.294 .0315284
1141.916 .0316205
1142.538 .0317111
1143.160 .0318345
1143.784 .0317588
1144.408 .0317680
1145.033 .0325400
