Measurement Sequence started on: 14-45-04-498
Integration time: 36
Scans to Average: 2 
>>>>>Begin Spectral Data<<<<<
433.946 .0422553
434.870 .0460563
435.793 .0453104
436.715 .0421793
437.635 .0432198
438.555 .0443377
439.473 .0445177
440.389 .0446003
441.305 .0446934
442.219 .0448077
443.132 .0445047
444.044 .0444078
444.954 .0443429
445.863 .0444343
446.771 .0444617
447.678 .0444206
448.584 .0443604
449.488 .0442864
450.391 .0441982
451.293 .0440949
452.194 .0439817
453.094 .0438617
453.992 .0437363
454.890 .0436042
455.786 .0434651
456.681 .0433180
457.575 .0431625
458.468 .0429989
459.360 .0428284
460.250 .0426529
461.140 .0424746
462.028 .0422959
462.915 .0421189
463.801 .0419447
464.687 .0417743
465.571 .0416079
466.454 .0414459
467.335 .0412881
468.216 .0411351
469.096 .0409868
469.975 .0408440
470.853 .0407072
471.729 .0405772
472.605 .0404549
473.479 .0403413
474.353 .0402366
475.226 .0401411
476.097 .0400548
476.968 .0399770
477.838 .0399074
478.706 .0398454
479.574 .0397904
480.441 .0397423
481.306 .0397008
482.171 .0396658
483.035 .0396367
483.898 .0396133
484.760 .0395949
485.621 .0395809
486.481 .0395704
487.340 .0395627
488.198 .0395569
489.055 .0395519
489.912 .0395471
490.767 .0395415
491.622 .0395259
492.476 .0395144
493.329 .0395005
494.180 .0394834
495.032 .0394626
495.882 .0394376
496.731 .0394075
497.580 .0393721
498.427 .0393310
499.274 .0392841
500.120 .0392478
500.965 .0391930
501.809 .0391331
502.653 .0390684
503.495 .0389992
504.337 .0389258
505.178 .0388482
506.018 .0387667
506.858 .0386813
507.696 .0385922
508.534 .0384993
509.371 .0384031
510.208 .0383037
511.043 .0382015
511.878 .0380971
512.712 .0379916
513.545 .0378862
514.377 .0377821
515.209 .0376806
516.040 .0375830
516.870 .0374901
517.699 .0374024
518.528 .0373200
519.356 .0372431
520.183 .0371711
521.010 .0371043
521.836 .0370425
522.661 .0369861
523.485 .0369358
524.309 .0368922
525.132 .0368553
525.954 .0368252
526.776 .0368011
527.597 .0367820
528.417 .0367662
529.237 .0367524
530.056 .0367386
530.874 .0367237
531.692 .0367069
532.508 .0366878
533.325 .0366665
534.140 .0366432
534.955 .0366176
535.770 .0365900
536.583 .0365602
537.397 .0365282
538.209 .0364933
539.021 .0364559
539.832 .0364160
540.643 .0363738
541.453 .0363296
542.262 .0362842
543.071 .0362379
543.879 .0361922
544.687 .0361478
545.494 .0361057
546.300 .0360667
547.106 .0360318
547.911 .0360010
548.716 .0359746
549.520 .0359521
550.323 .0359330
551.126 .0359166
551.929 .0359031
552.731 .0358920
553.532 .0358834
554.332 .0358773
555.133 .0358741
555.932 .0358735
556.731 .0358752
557.530 .0358788
558.328 .0358837
559.125 .0358894
559.922 .0358955
560.719 .0359011
561.515 .0359061
562.310 .0359100
563.105 .0359126
563.899 .0359136
564.693 .0359125
565.487 .0359087
566.280 .0359020
567.072 .0358919
567.864 .0358784
568.655 .0358611
569.446 .0358400
570.236 .0358153
571.026 .0357872
571.816 .0357559
572.605 .0357216
573.393 .0356849
574.181 .0356460
574.969 .0356052
575.756 .0355628
576.543 .0355191
577.329 .0354748
578.115 .0354303
578.900 .0353861
579.685 .0353425
580.469 .0352998
581.253 .0352584
582.036 .0352183
582.820 .0351797
583.602 .0351425
584.384 .0351065
585.166 .0350719
585.947 .0350386
586.728 .0350064
587.509 .0349756
588.289 .0349460
589.069 .0349175
589.848 .0348899
590.627 .0348629
591.405 .0348363
592.183 .0348099
592.961 .0347836
593.738 .0347575
594.515 .0347317
595.291 .0347064
596.067 .0346818
596.843 .0346583
597.618 .0346359
598.393 .0346070
599.167 .0345872
599.941 .0345684
600.715 .0345504
601.488 .0345331
602.261 .0345162
603.034 .0344998
603.806 .0344836
604.578 .0344675
605.349 .0344515
606.121 .0344355
606.891 .0344265
607.662 .0344100
608.432 .0343936
609.201 .0343773
609.971 .0343608
610.740 .0343442
611.508 .0343273
612.277 .0343100
613.045 .0342921
613.812 .0342735
614.579 .0342544
615.346 .0342347
616.113 .0342146
616.879 .0341942
617.645 .0341737
618.411 .0341531
619.176 .0341323
619.941 .0341116
620.705 .0340907
621.470 .0340698
622.233 .0340489
622.997 .0340278
623.760 .0340068
624.523 .0339859
625.286 .0339650
626.048 .0339442
626.810 .0339235
627.572 .0339026
628.333 .0338816
629.095 .0338604
629.855 .0338389
630.616 .0338173
631.376 .0337955
632.136 .0337738
632.895 .0337520
633.655 .0337303
634.414 .0337086
635.172 .0336869
635.931 .0336652
636.689 .0336435
637.447 .0336219
638.204 .0336003
638.962 .0335791
639.718 .0335582
640.475 .0335378
641.231 .0335179
641.988 .0334987
642.743 .0334798
643.499 .0334614
644.254 .0334432
645.009 .0334254
645.764 .0334080
646.518 .0333910
647.272 .0333744
648.026 .0333584
648.780 .0333428
649.533 .0333277
650.286 .0333129
651.039 .0332982
651.792 .0332835
652.544 .0332686
653.296 .0332536
654.048 .0332383
654.799 .0332228
655.550 .0332072
656.301 .0331913
657.052 .0331753
657.802 .0331590
658.552 .0331424
659.302 .0331254
660.052 .0331081
660.801 .0330904
661.550 .0330724
662.299 .0330544
663.048 .0330364
663.796 .0330186
664.544 .0330011
665.292 .0329840
666.040 .0329674
666.787 .0329512
667.534 .0329357
668.281 .0329208
669.028 .0329067
669.774 .0328933
670.521 .0328807
671.266 .0328690
672.012 .0328580
672.758 .0328477
673.503 .0328380
674.248 .0328289
674.992 .0328201
675.737 .0328117
676.481 .0328035
677.225 .0327956
677.969 .0327877
678.712 .0327799
679.455 .0327720
680.199 .0327640
680.941 .0327556
681.684 .0327468
682.426 .0327374
683.168 .0327275
683.910 .0327169
684.652 .0327056
685.393 .0326935
686.134 .0326807
686.875 .0326673
687.616 .0326533
688.356 .0326388
689.097 .0326239
689.837 .0326086
690.576 .0325932
691.316 .0325775
692.055 .0325618
692.794 .0325461
693.533 .0325304
694.272 .0325148
695.010 .0324993
695.748 .0324838
696.486 .0324685
697.224 .0324534
697.962 .0324384
698.699 .0324237
699.436 .0324092
700.173 .0323950
700.909 .0323812
701.646 .0323678
702.382 .0323547
703.118 .0323420
703.853 .0323295
704.589 .0323171
705.324 .0323047
706.059 .0322923
706.794 .0322798
707.529 .0322671
708.263 .0322545
708.997 .0322418
709.731 .0322291
710.465 .0322164
711.198 .0322036
711.931 .0321907
712.664 .0321776
713.397 .0321640
714.130 .0321500
714.862 .0321356
715.594 .0321207
716.326 .0321055
717.058 .0320901
717.789 .0320746
718.520 .0320589
719.251 .0320433
719.982 .0320277
720.713 .0320121
721.443 .0319965
722.173 .0319810
722.903 .0319655
723.633 .0319500
724.362 .0319344
725.091 .0319189
725.820 .0319033
726.549 .0318875
727.278 .0318715
728.006 .0318554
728.734 .0318392
729.462 .0318228
730.190 .0318065
730.917 .0317902
731.644 .0317739
732.371 .0317577
733.098 .0317413
733.825 .0317248
734.551 .0317082
735.277 .0316914
736.003 .0316745
736.728 .0316574
737.454 .0316404
738.179 .0316235
738.904 .0316067
739.629 .0315901
740.353 .0315738
741.077 .0315575
741.801 .0315414
742.525 .0315253
743.249 .0315094
743.972 .0314935
744.695 .0314778
745.418 .0314623
746.141 .0314471
746.863 .0314321
747.585 .0314175
748.307 .0314032
749.029 .0313892
749.750 .0313754
750.472 .0313618
751.193 .0313484
751.913 .0313351
752.634 .0313221
753.354 .0313092
754.074 .0312965
754.794 .0312841
755.514 .0312718
756.233 .0312599
756.952 .0312482
757.671 .0312370
758.390 .0312261
759.108 .0312155
759.826 .0312053
760.544 .0311955
761.262 .0311858
761.979 .0311763
762.697 .0311669
763.414 .0311575
764.130 .0311481
764.847 .0311386
765.563 .0311290
766.279 .0311194
766.995 .0311097
767.710 .0310999
768.426 .0310898
769.141 .0310795
769.855 .0310687
770.570 .0310576
771.284 .0310461
771.998 .0310341
772.712 .0310218
773.426 .0310092
774.139 .0309964
774.852 .0309836
775.565 .0309708
776.277 .0309580
776.990 .0309453
777.702 .0309327
778.414 .0309202
779.125 .0309078
779.836 .0308956
780.547 .0308836
781.258 .0308717
781.969 .0308600
782.679 .0308485
783.389 .0308318
784.099 .0308202
784.808 .0308085
785.517 .0307967
786.226 .0307847
786.935 .0307726
787.643 .0307603
788.352 .0307478
789.060 .0307351
789.767 .0307222
790.475 .0307089
791.182 .0306952
791.889 .0306871
792.595 .0306729
793.301 .0306581
794.008 .0306428
794.713 .0306271
795.419 .0306109
796.124 .0305943
796.829 .0305773
797.534 .0305601
798.238 .0305425
798.942 .0305246
799.646 .0305064
800.350 .0304880
801.053 .0304695
801.756 .0304508
802.459 .0304322
803.162 .0304137
803.864 .0303952
804.566 .0303769
805.267 .0303587
805.969 .0303406
806.670 .0303226
807.371 .0303046
808.071 .0302868
808.772 .0302691
809.472 .0302516
810.171 .0302343
810.871 .0302173
811.570 .0302007
812.269 .0301842
812.967 .0301681
813.666 .0301521
814.364 .0301362
815.061 .0301204
815.759 .0301048
816.456 .0300894
817.153 .0300742
817.849 .0300592
818.545 .0300447
819.241 .0300305
819.937 .0300168
820.632 .0300035
821.327 .0299906
822.022 .0299780
822.717 .0299658
823.411 .0299539
824.105 .0299423
824.798 .0299310
825.491 .0299199
826.184 .0299091
826.877 .0298987
827.569 .0298885
828.261 .0298787
828.953 .0298693
829.645 .0298602
830.336 .0298514
831.027 .0298431
831.717 .0298352
832.407 .0298277
833.097 .0298205
833.787 .0298136
834.476 .0298070
835.165 .0298005
835.854 .0297941
836.542 .0297877
837.230 .0297812
837.918 .0297745
838.605 .0297675
839.292 .0297603
839.979 .0297529
840.665 .0297452
841.352 .0297372
842.037 .0297289
842.723 .0297201
843.408 .0297110
844.093 .0297013
844.777 .0296910
845.462 .0296803
846.145 .0296690
846.829 .0296574
847.512 .0296454
848.195 .0296331
848.878 .0296205
849.560 .0296078
850.242 .0295948
850.923 .0295815
851.605 .0295679
852.286 .0295539
852.966 .0295395
853.646 .0295247
854.326 .0295096
855.006 .0294941
855.685 .0294783
856.364 .0294623
857.043 .0294461
857.721 .0294297
858.399 .0294132
859.077 .0293966
859.754 .0293798
860.431 .0293629
861.107 .0293458
861.784 .0293286
862.459 .0293112
863.135 .0292936
863.810 .0292758
864.485 .0292579
865.160 .0292397
865.834 .0292212
866.508 .0292023
867.181 .0291830
867.854 .0291633
868.527 .0291431
869.199 .0291223
869.872 .0291011
870.543 .0290795
871.215 .0290574
871.886 .0290351
872.557 .0290125
873.227 .0289898
873.897 .0289670
874.567 .0289440
875.236 .0289210
875.905 .0288980
876.573 .0288751
877.242 .0288523
877.909 .0288297
878.577 .0288074
879.244 .0287856
879.911 .0287642
880.577 .0287433
881.243 .0287229
881.909 .0287030
882.575 .0286836
883.240 .0286647
883.904 .0286465
884.569 .0286290
885.232 .0286124
885.896 .0285967
886.559 .0285822
887.222 .0285687
887.885 .0285564
888.547 .0285451
889.208 .0285348
889.870 .0285253
890.531 .0285167
891.192 .0285088
891.852 .0285017
892.512 .0284952
893.171 .0284894
893.830 .0284843
894.489 .0284797
895.148 .0284756
895.806 .0284718
896.464 .0284682
897.121 .0284649
897.778 .0284617
898.434 .0284587
899.091 .0284545
899.747 .0284515
900.402 .0284487
901.057 .0284459
901.712 .0284431
902.366 .0284403
903.020 .0284375
903.674 .0284347
904.327 .0284317
904.980 .0284286
905.633 .0284253
906.285 .0284217
906.936 .0284178
907.588 .0284150
908.239 .0284105
908.889 .0284056
909.540 .0284005
910.190 .0283950
910.839 .0283893
911.488 .0283833
912.137 .0283772
912.785 .0283707
913.433 .0283641
914.081 .0283572
914.728 .0283500
915.375 .0283425
916.021 .0283347
916.668 .0283267
917.313 .0283184
917.959 .0283099
918.604 .0283012
919.248 .0282921
919.892 .0282826
920.536 .0282727
921.180 .0282622
921.823 .0282513
922.465 .0282398
923.108 .0282278
923.750 .0282155
924.391 .0282028
925.032 .0281900
925.673 .0281769
926.313 .0281636
926.953 .0281500
927.593 .0281361
928.232 .0281218
928.871 .0281073
929.510 .0280924
930.148 .0280773
930.786 .0280619
931.423 .0280463
932.060 .0280305
932.697 .0280145
933.333 .0279982
933.969 .0279817
934.604 .0279647
935.239 .0279475
935.874 .0279299
936.508 .0279119
937.142 .0278938
937.776 .0278755
938.409 .0278571
939.042 .0278384
939.674 .0278195
940.306 .0278004
940.938 .0277808
941.569 .0277609
942.200 .0277405
942.830 .0277198
943.460 .0276987
944.090 .0276773
944.720 .0276556
945.349 .0276338
945.977 .0276117
946.606 .0275894
947.233 .0275667
947.861 .0275437
948.488 .0275204
949.115 .0274969
949.741 .0274732
950.367 .0274495
950.993 .0274258
951.618 .0274022
952.243 .0273787
952.868 .0273553
953.492 .0273319
954.115 .0273086
954.739 .0272854
955.362 .0272622
955.984 .0272391
956.607 .0272162
957.229 .0271936
957.850 .0271714
958.471 .0271497
959.092 .0271286
959.713 .0271079
960.333 .0270878
960.952 .0270682
961.572 .0270491
962.191 .0270305
962.809 .0270123
963.428 .0269947
964.045 .0269777
964.663 .0269614
965.280 .0269456
965.897 .0269305
966.513 .0269159
967.129 .0269019
967.745 .0268883
968.361 .0268752
968.976 .0268625
969.590 .0268502
970.205 .0268384
970.818 .0268272
971.432 .0268166
972.045 .0268066
972.658 .0267972
973.271 .0267885
973.883 .0267805
974.495 .0267731
975.106 .0267663
975.717 .0267600
976.328 .0267542
976.938 .0267489
977.548 .0267441
978.158 .0267397
978.768 .0267345
979.377 .0267308
979.985 .0267273
980.594 .0267239
981.202 .0267207
981.809 .0267175
982.417 .0267144
983.024 .0267114
983.631 .0267084
984.237 .0267054
984.843 .0267026
985.449 .0266998
986.054 .0266971
986.659 .0266945
987.264 .0266930
987.868 .0266905
988.472 .0266882
989.076 .0266861
989.679 .0266841
990.282 .0266824
990.885 .0266809
991.487 .0266797
992.090 .0266788
992.691 .0266781
993.293 .0266776
993.894 .0266773
994.495 .0266772
995.095 .0266772
995.696 .0266774
996.296 .0266777
996.895 .0266782
997.494 .0266789
998.093 .0266798
998.692 .0266808
999.291 .0266819
999.889 .0266832
1000.487 .0266846
1001.084 .0266861
1001.681 .0266877
1002.278 .0266893
1002.875 .0266911
1003.471 .0266929
1004.067 .0266949
1004.663 .0266969
1005.258 .0266991
1005.854 .0267013
1006.449 .0267035
1007.043 .0267058
1007.638 .0267080
1008.232 .0267102
1008.826 .0267122
1009.419 .0267142
1010.012 .0267160
1010.605 .0267177
1011.198 .0267193
1011.791 .0267209
1012.383 .0267225
1012.975 .0267241
1013.566 .0267257
1014.158 .0267273
1014.749 .0267288
1015.340 .0267303
1015.931 .0267318
1016.521 .0267332
1017.111 .0267345
1017.701 .0267357
1018.291 .0267369
1018.880 .0267380
1019.470 .0267390
1020.059 .0267398
1020.647 .0267405
1021.236 .0267408
1021.824 .0267406
1022.412 .0267400
1023.000 .0267387
1023.588 .0267369
1024.175 .0267345
1024.762 .0267315
1025.349 .0267281
1025.936 .0267243
1026.523 .0267201
1027.109 .0267158
1027.695 .0267112
1028.281 .0267065
1028.867 .0267016
1029.452 .0266966
1030.038 .0266914
1030.623 .0266862
1031.208 .0266809
1031.792 .0266755
1032.377 .0266702
1032.961 .0266648
1033.546 .0266595
1034.130 .0266542
1034.714 .0266489
1035.297 .0266435
1035.881 .0266378
1036.464 .0266320
1037.047 .0266259
1037.630 .0266196
1038.213 .0266130
1038.796 .0266064
1039.378 .0265997
1039.961 .0265930
1040.543 .0265864
1041.125 .0265799
1041.707 .0265734
1042.289 .0265669
1042.871 .0265604
1043.452 .0265536
1044.034 .0265465
1044.615 .0265391
1045.196 .0265312
1045.777 .0265228
1046.358 .0265138
1046.939 .0265043
1047.520 .0264942
1048.101 .0264835
1048.681 .0264723
1049.262 .0264605
1049.842 .0264483
1050.422 .0264357
1051.002 .0264229
1051.582 .0264098
1052.162 .0263966
1052.742 .0263835
1053.322 .0263707
1053.902 .0263582
1054.482 .0263464
1055.061 .0263351
1055.641 .0263246
1056.220 .0263148
1056.800 .0263055
1057.379 .0262968
1057.958 .0262884
1058.538 .0262802
1059.117 .0262721
1059.696 .0262639
1060.275 .0262555
1060.854 .0262470
1061.433 .0262384
1062.012 .0262296
1062.592 .0262207
1063.171 .0262117
1063.750 .0262028
1064.329 .0261939
1064.908 .0261851
1065.487 .0261764
1066.066 .0261678
1066.645 .0261594
1067.224 .0261511
1067.803 .0261430
1068.382 .0261350
1068.961 .0261272
1069.540 .0261196
1070.119 .0261121
1070.698 .0261045
1071.278 .0260970
1071.857 .0260893
1072.436 .0260814
1073.016 .0260732
1073.595 .0260649
1074.175 .0260565
1074.754 .0260481
1075.334 .0260399
1075.913 .0260323
1076.493 .0260252
1077.073 .0260190
1077.653 .0260135
1078.233 .0260090
1078.813 .0260053
1079.393 .0260025
1079.974 .0260004
1080.554 .0259990
1081.135 .0259983
1081.716 .0259981
1082.296 .0259984
1082.877 .0259990
1083.458 .0260001
1084.040 .0260015
1084.621 .0260033
1085.202 .0260053
1085.784 .0260077
1086.366 .0260105
1086.948 .0260135
1087.530 .0260167
1088.112 .0260202
1088.695 .0260239
1089.277 .0260276
1089.860 .0260315
1090.443 .0260354
1091.026 .0260393
1091.610 .0260432
1092.193 .0260472
1092.777 .0260513
1093.361 .0260554
1093.946 .0260595
1094.530 .0260635
1095.115 .0260674
1095.700 .0260712
1096.285 .0260747
1096.871 .0260780
1097.456 .0260811
1098.042 .0260843
1098.628 .0260876
1099.215 .0260913
1099.802 .0260956
1100.389 .0261008
1100.976 .0261070
1101.564 .0261144
1102.152 .0261227
1102.740 .0261322
1103.329 .0261425
1103.917 .0261536
1104.507 .0261653
1105.096 .0261776
1105.686 .0261906
1106.276 .0262044
1106.867 .0262189
1107.457 .0262342
1108.049 .0262503
1108.640 .0262669
1109.232 .0262837
1109.825 .0263005
1110.417 .0263170
1111.010 .0263329
1111.604 .0263479
1112.198 .0263621
1112.792 .0263755
1113.387 .0263881
1113.982 .0264000
1114.577 .0264113
1115.173 .0264219
1115.769 .0264315
1116.366 .0264401
1116.963 .0264473
1117.561 .0264531
1118.159 .0264575
1118.758 .0264605
1119.357 .0264624
1119.957 .0264637
1120.557 .0264649
1121.157 .0264664
1121.758 .0264687
1122.360 .0264722
1122.962 .0264767
1123.564 .0264825
1124.167 .0264815
1124.771 .0264878
1125.375 .0264953
1125.980 .0265041
1126.585 .0265144
1127.191 .0265268
1127.797 .0265416
1128.404 .0265593
1129.012 .0265800
1129.620 .0266039
1130.229 .0266309
1130.838 .0266605
1131.448 .0266926
1132.058 .0267268
1132.669 .0267759
1133.281 .0268157
1133.894 .0268557
1134.507 .0269010
1135.120 .0269477
1135.735 .0269969
1136.350 .0270335
1136.965 .0271352
1137.582 .0272042
1138.199 .0272662
1138.816 .0273195
1139.435 .0273674
1140.054 .0274079
1140.674 .0274436
1141.294 .0274667
1141.916 .0274571
1142.538 .0275842
1143.160 .0276111
1143.784 .0276749
1144.408 .0273386
1145.033 .0266696
