Measurement Sequence started on: 14-45-04-498
Integration time: 36
Scans to Average: 2 
>>>>>Begin Spectral Data<<<<<
433.946 .0571235
434.870 .0499085
435.793 .0506854
436.715 .0496328
437.635 .0485890
438.555 .0491875
439.473 .0487134
440.389 .0485251
441.305 .0483495
442.219 .0482258
443.132 .0485339
444.044 .0484358
444.954 .0482954
445.863 .0482082
446.771 .0481726
447.678 .0481018
448.584 .0480516
449.488 .0480065
450.391 .0479650
451.293 .0479238
452.194 .0478802
453.094 .0478335
453.992 .0477828
454.890 .0477264
455.786 .0476631
456.681 .0475925
457.575 .0475138
458.468 .0474272
459.360 .0473335
460.250 .0472334
461.140 .0471284
462.028 .0470206
462.915 .0469111
463.801 .0468016
464.687 .0466927
465.571 .0465850
466.454 .0464788
467.335 .0463750
468.216 .0462738
469.096 .0461759
469.975 .0460818
470.853 .0459918
471.729 .0459065
472.605 .0458263
473.479 .0457513
474.353 .0456819
475.226 .0456174
476.097 .0455575
476.968 .0455014
477.838 .0454486
478.706 .0453983
479.574 .0453504
480.441 .0453047
481.306 .0452613
482.171 .0452205
483.035 .0451826
483.898 .0451476
484.760 .0451155
485.621 .0450860
486.481 .0450588
487.340 .0450333
488.198 .0450091
489.055 .0449856
489.912 .0449627
490.767 .0449400
491.622 .0449053
492.476 .0448808
493.329 .0448556
494.180 .0448295
495.032 .0448021
495.882 .0447733
496.731 .0447424
497.580 .0447088
498.427 .0446720
499.274 .0446313
500.120 .0446025
500.965 .0445551
501.809 .0445033
502.653 .0444473
503.495 .0443874
504.337 .0443242
505.178 .0442580
506.018 .0441896
506.858 .0441193
507.696 .0440472
508.534 .0439738
509.371 .0438998
510.208 .0438254
511.043 .0437509
511.878 .0436768
512.712 .0436034
513.545 .0435307
514.377 .0434592
515.209 .0433893
516.040 .0433215
516.870 .0432560
517.699 .0431932
518.528 .0431332
519.356 .0430763
520.183 .0430225
521.010 .0429715
521.836 .0429228
522.661 .0428761
523.485 .0428306
524.309 .0427862
525.132 .0427430
525.954 .0427014
526.776 .0426613
527.597 .0426232
528.417 .0425874
529.237 .0425536
530.056 .0425216
530.874 .0424910
531.692 .0424608
532.508 .0424306
533.325 .0423997
534.140 .0423677
534.955 .0423341
535.770 .0422991
536.583 .0422624
537.397 .0422238
538.209 .0421835
539.021 .0421414
539.832 .0420979
540.643 .0420537
541.453 .0420087
542.262 .0419631
543.071 .0419170
543.879 .0418706
544.687 .0418235
545.494 .0417756
546.300 .0417267
547.106 .0416771
547.911 .0416271
548.716 .0415774
549.520 .0415285
550.323 .0414813
551.126 .0414365
551.929 .0413945
552.731 .0413555
553.532 .0413194
554.332 .0412861
555.133 .0412554
555.932 .0412267
556.731 .0411995
557.530 .0411732
558.328 .0411475
559.125 .0411221
559.922 .0410967
560.719 .0410708
561.515 .0410444
562.310 .0410174
563.105 .0409899
563.899 .0409613
564.693 .0409315
565.487 .0409001
566.280 .0408669
567.072 .0408310
567.864 .0407923
568.655 .0407508
569.446 .0407066
570.236 .0406600
571.026 .0406114
571.816 .0405614
572.605 .0405107
573.393 .0404598
574.181 .0404090
574.969 .0403585
575.756 .0403081
576.543 .0402576
577.329 .0402071
578.115 .0401564
578.900 .0401053
579.685 .0400540
580.469 .0400028
581.253 .0399521
582.036 .0399023
582.820 .0398539
583.602 .0398075
584.384 .0397632
585.166 .0397210
585.947 .0396806
586.728 .0396419
587.509 .0396044
588.289 .0395678
589.069 .0395317
589.848 .0394959
590.627 .0394600
591.405 .0394242
592.183 .0393883
592.961 .0393527
593.738 .0393172
594.515 .0392821
595.291 .0392474
596.067 .0392133
596.843 .0391795
597.618 .0391461
598.393 .0390961
599.167 .0390636
599.941 .0390313
600.715 .0389991
601.488 .0389671
602.261 .0389355
603.034 .0389044
603.806 .0388740
604.578 .0388445
605.349 .0388159
606.121 .0387883
606.891 .0387773
607.662 .0387510
608.432 .0387256
609.201 .0387007
609.971 .0386764
610.740 .0386522
611.508 .0386283
612.277 .0386043
613.045 .0385803
613.812 .0385561
614.579 .0385317
615.346 .0385071
616.113 .0384821
616.879 .0384568
617.645 .0384309
618.411 .0384046
619.176 .0383775
619.941 .0383497
620.705 .0383210
621.470 .0382914
622.233 .0382610
622.997 .0382297
623.760 .0381978
624.523 .0381653
625.286 .0381325
626.048 .0380995
626.810 .0380664
627.572 .0380334
628.333 .0380006
629.095 .0379681
629.855 .0379357
630.616 .0379037
631.376 .0378720
632.136 .0378407
632.895 .0378098
633.655 .0377793
634.414 .0377493
635.172 .0377198
635.931 .0376907
636.689 .0376622
637.447 .0376342
638.204 .0376067
638.962 .0375798
639.718 .0375534
640.475 .0375276
641.231 .0375024
641.988 .0374777
642.743 .0374535
643.499 .0374297
644.254 .0374064
645.009 .0373835
645.764 .0373611
646.518 .0373391
647.272 .0373174
648.026 .0372962
648.780 .0372754
649.533 .0372548
650.286 .0372344
651.039 .0372141
651.792 .0371939
652.544 .0371736
653.296 .0371533
654.048 .0371328
654.799 .0371123
655.550 .0370918
656.301 .0370713
657.052 .0370506
657.802 .0370299
658.552 .0370090
659.302 .0369880
660.052 .0369666
660.801 .0369449
661.550 .0369227
662.299 .0369002
663.048 .0368772
663.796 .0368538
664.544 .0368301
665.292 .0368062
666.040 .0367820
666.787 .0367577
667.534 .0367332
668.281 .0367086
669.028 .0366838
669.774 .0366589
670.521 .0366340
671.266 .0366091
672.012 .0365844
672.758 .0365598
673.503 .0365355
674.248 .0365116
674.992 .0364881
675.737 .0364650
676.481 .0364424
677.225 .0364202
677.969 .0363985
678.712 .0363773
679.455 .0363567
680.199 .0363367
680.941 .0363173
681.684 .0362985
682.426 .0362802
683.168 .0362624
683.910 .0362450
684.652 .0362280
685.393 .0362113
686.134 .0361949
686.875 .0361788
687.616 .0361631
688.356 .0361478
689.097 .0361329
689.837 .0361183
690.576 .0361040
691.316 .0360898
692.055 .0360757
692.794 .0360616
693.533 .0360476
694.272 .0360335
695.010 .0360195
695.748 .0360054
696.486 .0359913
697.224 .0359773
697.962 .0359632
698.699 .0359490
699.436 .0359347
700.173 .0359203
700.909 .0359058
701.646 .0358912
702.382 .0358765
703.118 .0358618
703.853 .0358469
704.589 .0358320
705.324 .0358168
706.059 .0358014
706.794 .0357856
707.529 .0357695
708.263 .0357530
708.997 .0357362
709.731 .0357191
710.465 .0357017
711.198 .0356841
711.931 .0356663
712.664 .0356482
713.397 .0356299
714.130 .0356113
714.862 .0355924
715.594 .0355733
716.326 .0355539
717.058 .0355343
717.789 .0355146
718.520 .0354947
719.251 .0354748
719.982 .0354549
720.713 .0354349
721.443 .0354150
722.173 .0353951
722.903 .0353753
723.633 .0353557
724.362 .0353361
725.091 .0353168
725.820 .0352977
726.549 .0352787
727.278 .0352600
728.006 .0352415
728.734 .0352233
729.462 .0352053
730.190 .0351876
730.917 .0351701
731.644 .0351530
732.371 .0351363
733.098 .0351200
733.825 .0351042
734.551 .0350887
735.277 .0350736
736.003 .0350587
736.728 .0350442
737.454 .0350297
738.179 .0350155
738.904 .0350013
739.629 .0349871
740.353 .0349731
741.077 .0349591
741.801 .0349452
742.525 .0349314
743.249 .0349176
743.972 .0349039
744.695 .0348903
745.418 .0348768
746.141 .0348633
746.863 .0348499
747.585 .0348366
748.307 .0348234
749.029 .0348104
749.750 .0347975
750.472 .0347848
751.193 .0347722
751.913 .0347598
752.634 .0347476
753.354 .0347356
754.074 .0347239
754.794 .0347125
755.514 .0347014
756.233 .0346907
756.952 .0346803
757.671 .0346702
758.390 .0346604
759.108 .0346508
759.826 .0346413
760.544 .0346320
761.262 .0346228
761.979 .0346138
762.697 .0346048
763.414 .0345960
764.130 .0345872
764.847 .0345784
765.563 .0345696
766.279 .0345607
766.995 .0345516
767.710 .0345425
768.426 .0345333
769.141 .0345239
769.855 .0345145
770.570 .0345050
771.284 .0344954
771.998 .0344856
772.712 .0344757
773.426 .0344656
774.139 .0344553
774.852 .0344448
775.565 .0344342
776.277 .0344235
776.990 .0344128
777.702 .0344020
778.414 .0343911
779.125 .0343802
779.836 .0343691
780.547 .0343579
781.258 .0343465
781.969 .0343350
782.679 .0343232
783.389 .0343048
784.099 .0342924
784.808 .0342798
785.517 .0342669
786.226 .0342537
786.935 .0342401
787.643 .0342261
788.352 .0342119
789.060 .0341972
789.767 .0341823
790.475 .0341672
791.182 .0341517
791.889 .0341430
792.595 .0341272
793.301 .0341112
794.008 .0340950
794.713 .0340786
795.419 .0340621
796.124 .0340455
796.829 .0340288
797.534 .0340120
798.238 .0339953
798.942 .0339786
799.646 .0339619
800.350 .0339453
801.053 .0339288
801.756 .0339125
802.459 .0338963
803.162 .0338804
803.864 .0338648
804.566 .0338495
805.267 .0338346
805.969 .0338201
806.670 .0338060
807.371 .0337924
808.071 .0337792
808.772 .0337665
809.472 .0337542
810.171 .0337423
810.871 .0337308
811.570 .0337196
812.269 .0337087
812.967 .0336981
813.666 .0336877
814.364 .0336774
815.061 .0336672
815.759 .0336572
816.456 .0336472
817.153 .0336373
817.849 .0336274
818.545 .0336174
819.241 .0336074
819.937 .0335973
820.632 .0335871
821.327 .0335768
822.022 .0335664
822.717 .0335557
823.411 .0335448
824.105 .0335337
824.798 .0335222
825.491 .0335105
826.184 .0334984
826.877 .0334860
827.569 .0334734
828.261 .0334605
828.953 .0334474
829.645 .0334343
830.336 .0334209
831.027 .0334076
831.717 .0333942
832.407 .0333809
833.097 .0333678
833.787 .0333550
834.476 .0333425
835.165 .0333305
835.854 .0333190
836.542 .0333079
837.230 .0332973
837.918 .0332872
838.605 .0332775
839.292 .0332682
839.979 .0332592
840.665 .0332505
841.352 .0332421
842.037 .0332339
842.723 .0332259
843.408 .0332180
844.093 .0332101
844.777 .0332020
845.462 .0331937
846.145 .0331850
846.829 .0331760
847.512 .0331665
848.195 .0331566
848.878 .0331461
849.560 .0331352
850.242 .0331236
850.923 .0331114
851.605 .0330984
852.286 .0330846
852.966 .0330700
853.646 .0330546
854.326 .0330383
855.006 .0330213
855.685 .0330037
856.364 .0329856
857.043 .0329670
857.721 .0329482
858.399 .0329291
859.077 .0329100
859.754 .0328907
860.431 .0328715
861.107 .0328523
861.784 .0328333
862.459 .0328144
863.135 .0327959
863.810 .0327776
864.485 .0327597
865.160 .0327421
865.834 .0327248
866.508 .0327079
867.181 .0326912
867.854 .0326748
868.527 .0326586
869.199 .0326425
869.872 .0326265
870.543 .0326107
871.215 .0325949
871.886 .0325792
872.557 .0325635
873.227 .0325477
873.897 .0325319
874.567 .0325159
875.236 .0324997
875.905 .0324833
876.573 .0324667
877.242 .0324499
877.909 .0324331
878.577 .0324162
879.244 .0323992
879.911 .0323823
880.577 .0323653
881.243 .0323484
881.909 .0323314
882.575 .0323143
883.240 .0322972
883.904 .0322801
884.569 .0322630
885.232 .0322461
885.896 .0322295
886.559 .0322132
887.222 .0321973
887.885 .0321818
888.547 .0321668
889.208 .0321522
889.870 .0321379
890.531 .0321241
891.192 .0321106
891.852 .0320974
892.512 .0320846
893.171 .0320722
893.830 .0320603
894.489 .0320487
895.148 .0320375
895.806 .0320267
896.464 .0320162
897.121 .0320060
897.778 .0319961
898.434 .0319865
899.091 .0319734
899.747 .0319646
900.402 .0319563
901.057 .0319484
901.712 .0319409
902.366 .0319338
903.020 .0319270
903.674 .0319206
904.327 .0319145
904.980 .0319086
905.633 .0319030
906.285 .0318977
906.936 .0318926
907.588 .0318908
908.239 .0318858
908.889 .0318809
909.540 .0318761
910.190 .0318712
910.839 .0318663
911.488 .0318613
912.137 .0318561
912.785 .0318508
913.433 .0318452
914.081 .0318393
914.728 .0318332
915.375 .0318268
916.021 .0318200
916.668 .0318129
917.313 .0318053
917.959 .0317973
918.604 .0317888
919.248 .0317797
919.892 .0317699
920.536 .0317595
921.180 .0317483
921.823 .0317364
922.465 .0317235
923.108 .0317098
923.750 .0316951
924.391 .0316795
925.032 .0316630
925.673 .0316456
926.313 .0316273
926.953 .0316081
927.593 .0315881
928.232 .0315672
928.871 .0315455
929.510 .0315230
930.148 .0314996
930.786 .0314755
931.423 .0314507
932.060 .0314250
932.697 .0313986
933.333 .0313714
933.969 .0313435
934.604 .0313147
935.239 .0312852
935.874 .0312549
936.508 .0312238
937.142 .0311920
937.776 .0311596
938.409 .0311265
939.042 .0310928
939.674 .0310588
940.306 .0310243
940.938 .0309895
941.569 .0309545
942.200 .0309193
942.830 .0308840
943.460 .0308485
944.090 .0308130
944.720 .0307774
945.349 .0307419
945.977 .0307065
946.606 .0306712
947.233 .0306361
947.861 .0306012
948.488 .0305666
949.115 .0305322
949.741 .0304982
950.367 .0304646
950.993 .0304313
951.618 .0303985
952.243 .0303662
952.868 .0303343
953.492 .0303030
954.115 .0302722
954.739 .0302419
955.362 .0302122
955.984 .0301830
956.607 .0301544
957.229 .0301264
957.850 .0300991
958.471 .0300723
959.092 .0300463
959.713 .0300210
960.333 .0299964
960.952 .0299725
961.572 .0299494
962.191 .0299269
962.809 .0299050
963.428 .0298838
964.045 .0298632
964.663 .0298431
965.280 .0298237
965.897 .0298049
966.513 .0297866
967.129 .0297687
967.745 .0297514
968.361 .0297344
968.976 .0297177
969.590 .0297013
970.205 .0296851
970.818 .0296692
971.432 .0296536
972.045 .0296381
972.658 .0296229
973.271 .0296078
973.883 .0295930
974.495 .0295785
975.106 .0295643
975.717 .0295504
976.328 .0295369
976.938 .0295238
977.548 .0295112
978.158 .0294991
978.768 .0294832
979.377 .0294728
979.985 .0294630
980.594 .0294538
981.202 .0294453
981.809 .0294375
982.417 .0294305
983.024 .0294243
983.631 .0294189
984.237 .0294144
984.843 .0294107
985.449 .0294080
986.054 .0294061
986.659 .0294052
987.264 .0294076
987.868 .0294077
988.472 .0294085
989.076 .0294102
989.679 .0294125
990.282 .0294155
990.885 .0294191
991.487 .0294233
992.090 .0294278
992.691 .0294328
993.293 .0294380
993.894 .0294434
994.495 .0294489
995.095 .0294545
995.696 .0294601
996.296 .0294658
996.895 .0294714
997.494 .0294770
998.093 .0294826
998.692 .0294882
999.291 .0294937
999.889 .0294992
1000.487 .0295045
1001.084 .0295097
1001.681 .0295149
1002.278 .0295199
1002.875 .0295248
1003.471 .0295296
1004.067 .0295343
1004.663 .0295390
1005.258 .0295436
1005.854 .0295482
1006.449 .0295528
1007.043 .0295574
1007.638 .0295622
1008.232 .0295671
1008.826 .0295722
1009.419 .0295775
1010.012 .0295831
1010.605 .0295889
1011.198 .0295949
1011.791 .0296012
1012.383 .0296078
1012.975 .0296145
1013.566 .0296215
1014.158 .0296286
1014.749 .0296358
1015.340 .0296432
1015.931 .0296507
1016.521 .0296583
1017.111 .0296660
1017.701 .0296736
1018.291 .0296813
1018.880 .0296888
1019.470 .0296962
1020.059 .0297034
1020.647 .0297104
1021.236 .0297172
1021.824 .0297238
1022.412 .0297302
1023.000 .0297366
1023.588 .0297429
1024.175 .0297492
1024.762 .0297554
1025.349 .0297616
1025.936 .0297678
1026.523 .0297738
1027.109 .0297797
1027.695 .0297855
1028.281 .0297911
1028.867 .0297965
1029.452 .0298019
1030.038 .0298072
1030.623 .0298125
1031.208 .0298178
1031.792 .0298232
1032.377 .0298284
1032.961 .0298335
1033.546 .0298384
1034.130 .0298429
1034.714 .0298471
1035.297 .0298509
1035.881 .0298543
1036.464 .0298575
1037.047 .0298604
1037.630 .0298631
1038.213 .0298656
1038.796 .0298679
1039.378 .0298698
1039.961 .0298714
1040.543 .0298724
1041.125 .0298727
1041.707 .0298723
1042.289 .0298711
1042.871 .0298693
1043.452 .0298668
1044.034 .0298638
1044.615 .0298602
1045.196 .0298560
1045.777 .0298513
1046.358 .0298459
1046.939 .0298398
1047.520 .0298329
1048.101 .0298251
1048.681 .0298165
1049.262 .0298071
1049.842 .0297971
1050.422 .0297865
1051.002 .0297755
1051.582 .0297643
1052.162 .0297528
1052.742 .0297411
1053.322 .0297293
1053.902 .0297173
1054.482 .0297052
1055.061 .0296930
1055.641 .0296807
1056.220 .0296685
1056.800 .0296565
1057.379 .0296446
1057.958 .0296330
1058.538 .0296216
1059.117 .0296104
1059.696 .0295993
1060.275 .0295884
1060.854 .0295775
1061.433 .0295667
1062.012 .0295558
1062.592 .0295451
1063.171 .0295345
1063.750 .0295241
1064.329 .0295138
1064.908 .0295037
1065.487 .0294935
1066.066 .0294833
1066.645 .0294729
1067.224 .0294621
1067.803 .0294511
1068.382 .0294399
1068.961 .0294284
1069.540 .0294167
1070.119 .0294051
1070.698 .0293934
1071.278 .0293818
1071.857 .0293703
1072.436 .0293588
1073.016 .0293471
1073.595 .0293354
1074.175 .0293236
1074.754 .0293119
1075.334 .0293003
1075.913 .0292890
1076.493 .0292781
1077.073 .0292677
1077.653 .0292578
1078.233 .0292484
1078.813 .0292394
1079.393 .0292308
1079.974 .0292225
1080.554 .0292144
1081.135 .0292065
1081.716 .0291988
1082.296 .0291914
1082.877 .0291844
1083.458 .0291779
1084.040 .0291718
1084.621 .0291662
1085.202 .0291609
1085.784 .0291558
1086.366 .0291508
1086.948 .0291456
1087.530 .0291402
1088.112 .0291345
1088.695 .0291283
1089.277 .0291218
1089.860 .0291149
1090.443 .0291076
1091.026 .0291001
1091.610 .0290922
1092.193 .0290839
1092.777 .0290751
1093.361 .0290658
1093.946 .0290558
1094.530 .0290452
1095.115 .0290341
1095.700 .0290225
1096.285 .0290108
1096.871 .0289992
1097.456 .0289880
1098.042 .0289774
1098.628 .0289675
1099.215 .0289584
1099.802 .0289499
1100.389 .0289421
1100.976 .0289349
1101.564 .0289281
1102.152 .0289219
1102.740 .0289163
1103.329 .0289116
1103.917 .0289081
1104.507 .0289061
1105.096 .0289058
1105.686 .0289074
1106.276 .0289109
1106.867 .0289162
1107.457 .0289232
1108.049 .0289317
1108.640 .0289417
1109.232 .0289530
1109.825 .0289657
1110.417 .0289798
1111.010 .0289954
1111.604 .0290125
1112.198 .0290309
1112.792 .0290504
1113.387 .0290706
1113.982 .0290911
1114.577 .0291114
1115.173 .0291311
1115.769 .0291501
1116.366 .0291685
1116.963 .0291863
1117.561 .0292038
1118.159 .0292213
1118.758 .0292392
1119.357 .0292578
1119.957 .0292773
1120.557 .0292976
1121.157 .0293188
1121.758 .0293410
1122.360 .0293643
1122.962 .0293885
1123.564 .0294139
1124.167 .0294243
1124.771 .0294507
1125.375 .0294785
1125.980 .0295076
1126.585 .0295380
1127.191 .0295694
1127.797 .0296018
1128.404 .0296350
1129.012 .0296689
1129.620 .0297038
1130.229 .0297398
1130.838 .0297770
1131.448 .0298157
1132.058 .0298561
1132.669 .0299165
1133.281 .0299636
1133.894 .0300142
1134.507 .0300611
1135.120 .0301111
1135.735 .0301716
1136.350 .0302446
1136.965 .0302917
1137.582 .0303452
1138.199 .0303995
1138.816 .0304518
1139.435 .0305042
1140.054 .0305546
1140.674 .0306098
1141.294 .0306812
1141.916 .0307759
1142.538 .0306767
1143.160 .0307722
1143.784 .0310738
1144.408 .0314344
1145.033 .0318430
