Measurement Sequence started on: 14-45-04-498
Integration time: 36
Scans to Average: 2 
>>>>>Begin Spectral Data<<<<<
433.946 .0522435
434.870 .0583132
435.793 .0490152
436.715 .0471804
437.635 .0449415
438.555 .0465045
439.473 .0455945
440.389 .0447290
441.305 .0442499
442.219 .0438463
443.132 .0448578
444.044 .0440243
444.954 .0436761
445.863 .0434198
446.771 .0432758
447.678 .0430441
448.584 .0428552
449.488 .0427078
450.391 .0425821
451.293 .0424747
452.194 .0423818
453.094 .0423029
453.992 .0422358
454.890 .0421747
455.786 .0421163
456.681 .0420576
457.575 .0419969
458.468 .0419323
459.360 .0418651
460.250 .0417966
461.140 .0417285
462.028 .0416628
462.915 .0416007
463.801 .0415426
464.687 .0414887
465.571 .0414380
466.454 .0413891
467.335 .0413408
468.216 .0412923
469.096 .0412426
469.975 .0411909
470.853 .0411372
471.729 .0410817
472.605 .0410251
473.479 .0409681
474.353 .0409109
475.226 .0408538
476.097 .0407966
476.968 .0407392
477.838 .0406814
478.706 .0406227
479.574 .0405635
480.441 .0405037
481.306 .0404440
482.171 .0403848
483.035 .0403268
483.898 .0402705
484.760 .0402166
485.621 .0401656
486.481 .0401182
487.340 .0400746
488.198 .0400347
489.055 .0399984
489.912 .0399655
490.767 .0399351
491.622 .0398945
492.476 .0398657
493.329 .0398362
494.180 .0398054
495.032 .0397730
495.882 .0397383
496.731 .0397013
497.580 .0396619
498.427 .0396201
499.274 .0395763
500.120 .0395469
500.965 .0395005
501.809 .0394523
502.653 .0394025
503.495 .0393514
504.337 .0392989
505.178 .0392454
506.018 .0391916
506.858 .0391383
507.696 .0390863
508.534 .0390360
509.371 .0389880
510.208 .0389427
511.043 .0389006
511.878 .0388617
512.712 .0388257
513.545 .0387923
514.377 .0387614
515.209 .0387323
516.040 .0387047
516.870 .0386775
517.699 .0386504
518.528 .0386224
519.356 .0385931
520.183 .0385615
521.010 .0385273
521.836 .0384900
522.661 .0384498
523.485 .0384065
524.309 .0383600
525.132 .0383106
525.954 .0382592
526.776 .0382057
527.597 .0381499
528.417 .0380917
529.237 .0380314
530.056 .0379687
530.874 .0379037
531.692 .0378361
532.508 .0377667
533.325 .0376959
534.140 .0376247
534.955 .0375546
535.770 .0374868
536.583 .0374222
537.397 .0373612
538.209 .0373041
539.021 .0372508
539.832 .0372005
540.643 .0371528
541.453 .0371070
542.262 .0370625
543.071 .0370184
543.879 .0369754
544.687 .0369341
545.494 .0368957
546.300 .0368607
547.106 .0368300
547.911 .0368039
548.716 .0367824
549.520 .0367645
550.323 .0367494
551.126 .0367359
551.929 .0367226
552.731 .0367083
553.532 .0366924
554.332 .0366751
555.133 .0366571
555.932 .0366390
556.731 .0366217
557.530 .0366054
558.328 .0365903
559.125 .0365760
559.922 .0365620
560.719 .0365474
561.515 .0365312
562.310 .0365124
563.105 .0364906
563.899 .0364655
564.693 .0364376
565.487 .0364074
566.280 .0363758
567.072 .0363435
567.864 .0363110
568.655 .0362786
569.446 .0362465
570.236 .0362144
571.026 .0361818
571.816 .0361482
572.605 .0361129
573.393 .0360758
574.181 .0360369
574.969 .0359965
575.756 .0359551
576.543 .0359136
577.329 .0358725
578.115 .0358323
578.900 .0357936
579.685 .0357566
580.469 .0357211
581.253 .0356869
582.036 .0356536
582.820 .0356211
583.602 .0355890
584.384 .0355576
585.166 .0355272
585.947 .0354980
586.728 .0354705
587.509 .0354449
588.289 .0354214
589.069 .0353999
589.848 .0353798
590.627 .0353609
591.405 .0353428
592.183 .0353248
592.961 .0353067
593.738 .0352880
594.515 .0352689
595.291 .0352490
596.067 .0352283
596.843 .0352070
597.618 .0351852
598.393 .0351502
599.167 .0351275
599.941 .0351045
600.715 .0350812
601.488 .0350575
602.261 .0350336
603.034 .0350094
603.806 .0349848
604.578 .0349601
605.349 .0349353
606.121 .0349106
606.891 .0348998
607.662 .0348759
608.432 .0348527
609.201 .0348302
609.971 .0348087
610.740 .0347880
611.508 .0347681
612.277 .0347491
613.045 .0347308
613.812 .0347131
614.579 .0346959
615.346 .0346794
616.113 .0346633
616.879 .0346479
617.645 .0346328
618.411 .0346182
619.176 .0346039
619.941 .0345898
620.705 .0345758
621.470 .0345617
622.233 .0345476
622.997 .0345333
623.760 .0345188
624.523 .0345042
625.286 .0344891
626.048 .0344737
626.810 .0344579
627.572 .0344415
628.333 .0344246
629.095 .0344071
629.855 .0343890
630.616 .0343702
631.376 .0343509
632.136 .0343309
632.895 .0343102
633.655 .0342890
634.414 .0342671
635.172 .0342446
635.931 .0342215
636.689 .0341979
637.447 .0341740
638.204 .0341497
638.962 .0341252
639.718 .0341004
640.475 .0340753
641.231 .0340498
641.988 .0340241
642.743 .0339981
643.499 .0339721
644.254 .0339461
645.009 .0339201
645.764 .0338945
646.518 .0338691
647.272 .0338442
648.026 .0338197
648.780 .0337957
649.533 .0337723
650.286 .0337493
651.039 .0337268
651.792 .0337049
652.544 .0336837
653.296 .0336632
654.048 .0336436
654.799 .0336247
655.550 .0336068
656.301 .0335899
657.052 .0335739
657.802 .0335588
658.552 .0335448
659.302 .0335316
660.052 .0335191
660.801 .0335072
661.550 .0334958
662.299 .0334848
663.048 .0334740
663.796 .0334634
664.544 .0334529
665.292 .0334423
666.040 .0334316
666.787 .0334208
667.534 .0334098
668.281 .0333987
669.028 .0333872
669.774 .0333755
670.521 .0333635
671.266 .0333511
672.012 .0333384
672.758 .0333253
673.503 .0333118
674.248 .0332978
674.992 .0332834
675.737 .0332687
676.481 .0332535
677.225 .0332382
677.969 .0332226
678.712 .0332069
679.455 .0331910
680.199 .0331749
680.941 .0331587
681.684 .0331423
682.426 .0331258
683.168 .0331092
683.910 .0330924
684.652 .0330755
685.393 .0330586
686.134 .0330416
686.875 .0330245
687.616 .0330073
688.356 .0329900
689.097 .0329725
689.837 .0329548
690.576 .0329370
691.316 .0329191
692.055 .0329011
692.794 .0328829
693.533 .0328647
694.272 .0328463
695.010 .0328277
695.748 .0328089
696.486 .0327900
697.224 .0327709
697.962 .0327517
698.699 .0327325
699.436 .0327133
700.173 .0326942
700.909 .0326754
701.646 .0326567
702.382 .0326382
703.118 .0326199
703.853 .0326016
704.589 .0325835
705.324 .0325656
706.059 .0325478
706.794 .0325302
707.529 .0325128
708.263 .0324958
708.997 .0324790
709.731 .0324627
710.465 .0324468
711.198 .0324312
711.931 .0324161
712.664 .0324013
713.397 .0323870
714.130 .0323729
714.862 .0323592
715.594 .0323457
716.326 .0323325
717.058 .0323194
717.789 .0323066
718.520 .0322939
719.251 .0322814
719.982 .0322691
720.713 .0322568
721.443 .0322444
722.173 .0322320
722.903 .0322195
723.633 .0322067
724.362 .0321935
725.091 .0321799
725.820 .0321658
726.549 .0321511
727.278 .0321357
728.006 .0321198
728.734 .0321032
729.462 .0320860
730.190 .0320682
730.917 .0320498
731.644 .0320307
732.371 .0320109
733.098 .0319904
733.825 .0319693
734.551 .0319475
735.277 .0319250
736.003 .0319021
736.728 .0318787
737.454 .0318549
738.179 .0318310
738.904 .0318069
739.629 .0317828
740.353 .0317587
741.077 .0317347
741.801 .0317108
742.525 .0316871
743.249 .0316635
743.972 .0316402
744.695 .0316171
745.418 .0315943
746.141 .0315717
746.863 .0315495
747.585 .0315276
748.307 .0315060
749.029 .0314847
749.750 .0314637
750.472 .0314428
751.193 .0314220
751.913 .0314013
752.634 .0313808
753.354 .0313603
754.074 .0313398
754.794 .0313195
755.514 .0312993
756.233 .0312793
756.952 .0312595
757.671 .0312399
758.390 .0312205
759.108 .0312016
759.826 .0311831
760.544 .0311650
761.262 .0311475
761.979 .0311306
762.697 .0311143
763.414 .0310987
764.130 .0310838
764.847 .0310697
765.563 .0310563
766.279 .0310436
766.995 .0310318
767.710 .0310206
768.426 .0310102
769.141 .0310005
769.855 .0309913
770.570 .0309826
771.284 .0309743
771.998 .0309663
772.712 .0309585
773.426 .0309507
774.139 .0309429
774.852 .0309349
775.565 .0309268
776.277 .0309183
776.990 .0309096
777.702 .0309003
778.414 .0308907
779.125 .0308805
779.836 .0308698
780.547 .0308587
781.258 .0308471
781.969 .0308351
782.679 .0308227
783.389 .0308021
784.099 .0307885
784.808 .0307743
785.517 .0307597
786.226 .0307447
786.935 .0307292
787.643 .0307134
788.352 .0306973
789.060 .0306810
789.767 .0306645
790.475 .0306478
791.182 .0306308
791.889 .0306218
792.595 .0306044
793.301 .0305866
794.008 .0305685
794.713 .0305499
795.419 .0305309
796.124 .0305114
796.829 .0304913
797.534 .0304705
798.238 .0304491
798.942 .0304270
799.646 .0304044
800.350 .0303811
801.053 .0303572
801.756 .0303328
802.459 .0303080
803.162 .0302826
803.864 .0302567
804.566 .0302303
805.267 .0302035
805.969 .0301762
806.670 .0301487
807.371 .0301209
808.071 .0300930
808.772 .0300651
809.472 .0300373
810.171 .0300097
810.871 .0299822
811.570 .0299550
812.269 .0299280
812.967 .0299013
813.666 .0298750
814.364 .0298490
815.061 .0298234
815.759 .0297982
816.456 .0297736
817.153 .0297494
817.849 .0297258
818.545 .0297027
819.241 .0296801
819.937 .0296579
820.632 .0296363
821.327 .0296150
822.022 .0295943
822.717 .0295740
823.411 .0295543
824.105 .0295350
824.798 .0295161
825.491 .0294977
826.184 .0294798
826.877 .0294622
827.569 .0294451
828.261 .0294284
828.953 .0294122
829.645 .0293963
830.336 .0293809
831.027 .0293659
831.717 .0293513
832.407 .0293373
833.097 .0293238
833.787 .0293108
834.476 .0292983
835.165 .0292862
835.854 .0292745
836.542 .0292631
837.230 .0292520
837.918 .0292410
838.605 .0292302
839.292 .0292194
839.979 .0292087
840.665 .0291980
841.352 .0291872
842.037 .0291764
842.723 .0291654
843.408 .0291543
844.093 .0291429
844.777 .0291313
845.462 .0291195
846.145 .0291076
846.829 .0290956
847.512 .0290836
848.195 .0290715
848.878 .0290594
849.560 .0290473
850.242 .0290352
850.923 .0290230
851.605 .0290106
852.286 .0289981
852.966 .0289856
853.646 .0289731
854.326 .0289606
855.006 .0289482
855.685 .0289361
856.364 .0289241
857.043 .0289123
857.721 .0289005
858.399 .0288888
859.077 .0288769
859.754 .0288649
860.431 .0288527
861.107 .0288403
861.784 .0288277
862.459 .0288149
863.135 .0288019
863.810 .0287887
864.485 .0287752
865.160 .0287612
865.834 .0287467
866.508 .0287317
867.181 .0287160
867.854 .0286996
868.527 .0286826
869.199 .0286650
869.872 .0286468
870.543 .0286282
871.215 .0286090
871.886 .0285894
872.557 .0285692
873.227 .0285487
873.897 .0285276
874.567 .0285062
875.236 .0284845
875.905 .0284625
876.573 .0284404
877.242 .0284182
877.909 .0283959
878.577 .0283736
879.244 .0283511
879.911 .0283285
880.577 .0283058
881.243 .0282829
881.909 .0282598
882.575 .0282365
883.240 .0282133
883.904 .0281900
884.569 .0281669
885.232 .0281439
885.896 .0281211
886.559 .0280984
887.222 .0280760
887.885 .0280537
888.547 .0280316
889.208 .0280098
889.870 .0279882
890.531 .0279669
891.192 .0279461
891.852 .0279257
892.512 .0279057
893.171 .0278861
893.830 .0278668
894.489 .0278479
895.148 .0278293
895.806 .0278109
896.464 .0277928
897.121 .0277751
897.778 .0277577
898.434 .0277408
899.091 .0277173
899.747 .0277015
900.402 .0276860
901.057 .0276707
901.712 .0276557
902.366 .0276407
903.020 .0276258
903.674 .0276109
904.327 .0275960
904.980 .0275813
905.633 .0275665
906.285 .0275519
906.936 .0275373
907.588 .0275297
908.239 .0275152
908.889 .0275007
909.540 .0274860
910.190 .0274712
910.839 .0274563
911.488 .0274415
912.137 .0274267
912.785 .0274120
913.433 .0273977
914.081 .0273836
914.728 .0273699
915.375 .0273566
916.021 .0273435
916.668 .0273308
917.313 .0273185
917.959 .0273065
918.604 .0272949
919.248 .0272837
919.892 .0272730
920.536 .0272627
921.180 .0272527
921.823 .0272432
922.465 .0272340
923.108 .0272250
923.750 .0272163
924.391 .0272078
925.032 .0271995
925.673 .0271914
926.313 .0271836
926.953 .0271760
927.593 .0271687
928.232 .0271617
928.871 .0271549
929.510 .0271481
930.148 .0271414
930.786 .0271345
931.423 .0271273
932.060 .0271198
932.697 .0271120
933.333 .0271038
933.969 .0270951
934.604 .0270861
935.239 .0270766
935.874 .0270667
936.508 .0270562
937.142 .0270452
937.776 .0270335
938.409 .0270212
939.042 .0270081
939.674 .0269944
940.306 .0269800
940.938 .0269649
941.569 .0269492
942.200 .0269328
942.830 .0269159
943.460 .0268984
944.090 .0268803
944.720 .0268617
945.349 .0268425
945.977 .0268229
946.606 .0268028
947.233 .0267824
947.861 .0267616
948.488 .0267407
949.115 .0267196
949.741 .0266983
950.367 .0266769
950.993 .0266553
951.618 .0266337
952.243 .0266119
952.868 .0265901
953.492 .0265682
954.115 .0265463
954.739 .0265244
955.362 .0265026
955.984 .0264808
956.607 .0264591
957.229 .0264375
957.850 .0264159
958.471 .0263944
959.092 .0263729
959.713 .0263515
960.333 .0263300
960.952 .0263086
961.572 .0262872
962.191 .0262658
962.809 .0262444
963.428 .0262230
964.045 .0262016
964.663 .0261801
965.280 .0261586
965.897 .0261371
966.513 .0261155
967.129 .0260939
967.745 .0260722
968.361 .0260505
968.976 .0260289
969.590 .0260073
970.205 .0259859
970.818 .0259647
971.432 .0259438
972.045 .0259233
972.658 .0259031
973.271 .0258835
973.883 .0258642
974.495 .0258453
975.106 .0258268
975.717 .0258087
976.328 .0257910
976.938 .0257737
977.548 .0257568
978.158 .0257404
978.768 .0257177
979.377 .0257024
979.985 .0256875
980.594 .0256731
981.202 .0256591
981.809 .0256457
982.417 .0256328
983.024 .0256206
983.631 .0256090
984.237 .0255982
984.843 .0255880
985.449 .0255785
986.054 .0255696
986.659 .0255614
987.264 .0255589
987.868 .0255514
988.472 .0255443
989.076 .0255377
989.679 .0255314
990.282 .0255255
990.885 .0255199
991.487 .0255145
992.090 .0255093
992.691 .0255043
993.293 .0254994
993.894 .0254946
994.495 .0254899
995.095 .0254853
995.696 .0254810
996.296 .0254768
996.895 .0254729
997.494 .0254693
998.093 .0254659
998.692 .0254627
999.291 .0254597
999.889 .0254567
1000.487 .0254538
1001.084 .0254509
1001.681 .0254481
1002.278 .0254454
1002.875 .0254429
1003.471 .0254406
1004.067 .0254386
1004.663 .0254368
1005.258 .0254352
1005.854 .0254338
1006.449 .0254326
1007.043 .0254316
1007.638 .0254309
1008.232 .0254306
1008.826 .0254308
1009.419 .0254314
1010.012 .0254326
1010.605 .0254343
1011.198 .0254363
1011.791 .0254386
1012.383 .0254411
1012.975 .0254435
1013.566 .0254459
1014.158 .0254483
1014.749 .0254505
1015.340 .0254528
1015.931 .0254552
1016.521 .0254576
1017.111 .0254600
1017.701 .0254624
1018.291 .0254647
1018.880 .0254668
1019.470 .0254686
1020.059 .0254701
1020.647 .0254713
1021.236 .0254723
1021.824 .0254732
1022.412 .0254739
1023.000 .0254746
1023.588 .0254753
1024.175 .0254758
1024.762 .0254762
1025.349 .0254764
1025.936 .0254763
1026.523 .0254759
1027.109 .0254753
1027.695 .0254746
1028.281 .0254739
1028.867 .0254735
1029.452 .0254734
1030.038 .0254737
1030.623 .0254745
1031.208 .0254756
1031.792 .0254772
1032.377 .0254792
1032.961 .0254815
1033.546 .0254842
1034.130 .0254875
1034.714 .0254915
1035.297 .0254961
1035.881 .0255017
1036.464 .0255080
1037.047 .0255151
1037.630 .0255228
1038.213 .0255310
1038.796 .0255398
1039.378 .0255489
1039.961 .0255584
1040.543 .0255685
1041.125 .0255791
1041.707 .0255902
1042.289 .0256019
1042.871 .0256141
1043.452 .0256267
1044.034 .0256395
1044.615 .0256522
1045.196 .0256648
1045.777 .0256769
1046.358 .0256887
1046.939 .0256999
1047.520 .0257107
1048.101 .0257209
1048.681 .0257306
1049.262 .0257397
1049.842 .0257482
1050.422 .0257561
1051.002 .0257631
1051.582 .0257692
1052.162 .0257744
1052.742 .0257786
1053.322 .0257819
1053.902 .0257841
1054.482 .0257853
1055.061 .0257856
1055.641 .0257850
1056.220 .0257834
1056.800 .0257808
1057.379 .0257772
1057.958 .0257726
1058.538 .0257669
1059.117 .0257603
1059.696 .0257526
1060.275 .0257440
1060.854 .0257345
1061.433 .0257242
1062.012 .0257133
1062.592 .0257018
1063.171 .0256899
1063.750 .0256777
1064.329 .0256652
1064.908 .0256525
1065.487 .0256398
1066.066 .0256269
1066.645 .0256138
1067.224 .0256005
1067.803 .0255867
1068.382 .0255726
1068.961 .0255580
1069.540 .0255429
1070.119 .0255273
1070.698 .0255114
1071.278 .0254953
1071.857 .0254790
1072.436 .0254628
1073.016 .0254467
1073.595 .0254307
1074.175 .0254150
1074.754 .0253995
1075.334 .0253843
1075.913 .0253694
1076.493 .0253551
1077.073 .0253413
1077.653 .0253283
1078.233 .0253162
1078.813 .0253050
1079.393 .0252948
1079.974 .0252855
1080.554 .0252770
1081.135 .0252693
1081.716 .0252622
1082.296 .0252554
1082.877 .0252491
1083.458 .0252432
1084.040 .0252379
1084.621 .0252330
1085.202 .0252289
1085.784 .0252256
1086.366 .0252229
1086.948 .0252208
1087.530 .0252191
1088.112 .0252177
1088.695 .0252163
1089.277 .0252146
1089.860 .0252127
1090.443 .0252104
1091.026 .0252079
1091.610 .0252051
1092.193 .0252022
1092.777 .0251991
1093.361 .0251958
1093.946 .0251923
1094.530 .0251885
1095.115 .0251842
1095.700 .0251795
1096.285 .0251744
1096.871 .0251692
1097.456 .0251639
1098.042 .0251589
1098.628 .0251542
1099.215 .0251502
1099.802 .0251466
1100.389 .0251435
1100.976 .0251405
1101.564 .0251377
1102.152 .0251349
1102.740 .0251318
1103.329 .0251285
1103.917 .0251252
1104.507 .0251219
1105.096 .0251187
1105.686 .0251159
1106.276 .0251134
1106.867 .0251113
1107.457 .0251095
1108.049 .0251077
1108.640 .0251059
1109.232 .0251042
1109.825 .0251025
1110.417 .0251009
1111.010 .0250996
1111.604 .0250987
1112.198 .0250982
1112.792 .0250982
1113.387 .0250986
1113.982 .0250993
1114.577 .0251001
1115.173 .0251010
1115.769 .0251021
1116.366 .0251037
1116.963 .0251060
1117.561 .0251094
1118.159 .0251144
1118.758 .0251213
1119.357 .0251301
1119.957 .0251413
1120.557 .0251550
1121.157 .0251711
1121.758 .0251897
1122.360 .0252110
1122.962 .0252350
1123.564 .0252619
1124.167 .0252678
1124.771 .0252994
1125.375 .0253344
1125.980 .0253731
1126.585 .0254154
1127.191 .0254612
1127.797 .0255104
1128.404 .0255630
1129.012 .0256189
1129.620 .0256782
1130.229 .0257409
1130.838 .0258072
1131.448 .0258778
1132.058 .0259529
1132.669 .0260661
1133.281 .0261527
1133.894 .0262441
1134.507 .0263435
1135.120 .0264450
1135.735 .0265544
1136.350 .0266564
1136.965 .0266129
1137.582 .0267131
1138.199 .0268153
1138.816 .0269295
1139.435 .0270580
1140.054 .0271965
1140.674 .0273513
1141.294 .0275064
1141.916 .0276745
1142.538 .0279364
1143.160 .0280429
1143.784 .0283128
1144.408 .0281703
1145.033 .0285705
