Measurement Sequence started on: 14-45-04-498
Integration time: 36
Scans to Average: 2 
>>>>>Begin Spectral Data<<<<<
433.946 .0607606
434.870 .0623383
435.793 .0593878
436.715 .0588165
437.635 .0580280
438.555 .0575148
439.473 .0568974
440.389 .0563326
441.305 .0559398
442.219 .0556311
443.132 .0562540
444.044 .0558266
444.954 .0555497
445.863 .0552971
446.771 .0550794
447.678 .0548810
448.584 .0547067
449.488 .0545531
450.391 .0544115
451.293 .0542779
452.194 .0541491
453.094 .0540230
453.992 .0538970
454.890 .0537712
455.786 .0536454
456.681 .0535195
457.575 .0533925
458.468 .0532641
459.360 .0531341
460.250 .0530026
461.140 .0528700
462.028 .0527372
462.915 .0526055
463.801 .0524761
464.687 .0523503
465.571 .0522289
466.454 .0521124
467.335 .0520009
468.216 .0518940
469.096 .0517912
469.975 .0516923
470.853 .0515974
471.729 .0515067
472.605 .0514204
473.479 .0513385
474.353 .0512610
475.226 .0511878
476.097 .0511186
476.968 .0510533
477.838 .0509914
478.706 .0509326
479.574 .0508765
480.441 .0508228
481.306 .0507712
482.171 .0507212
483.035 .0506730
483.898 .0506262
484.760 .0505806
485.621 .0505360
486.481 .0504924
487.340 .0504496
488.198 .0504077
489.055 .0503663
489.912 .0503254
490.767 .0502847
491.622 .0502226
492.476 .0501804
493.329 .0501373
494.180 .0500933
495.032 .0500484
495.882 .0500026
496.731 .0499560
497.580 .0499087
498.427 .0498605
499.274 .0498116
500.120 .0497846
500.965 .0497340
501.809 .0496825
502.653 .0496304
503.495 .0495781
504.337 .0495258
505.178 .0494740
506.018 .0494235
506.858 .0493744
507.696 .0493271
508.534 .0492818
509.371 .0492390
510.208 .0491992
511.043 .0491630
511.878 .0491310
512.712 .0491043
513.545 .0490838
514.377 .0490699
515.209 .0490627
516.040 .0490629
516.870 .0490695
517.699 .0490819
518.528 .0490995
519.356 .0491216
520.183 .0491472
521.010 .0491765
521.836 .0492088
522.661 .0492437
523.485 .0492804
524.309 .0493184
525.132 .0493560
525.954 .0493922
526.776 .0494251
527.597 .0494526
528.417 .0494729
529.237 .0494852
530.056 .0494874
530.874 .0494793
531.692 .0494607
532.508 .0494315
533.325 .0493917
534.140 .0493425
534.955 .0492843
535.770 .0492180
536.583 .0491443
537.397 .0490639
538.209 .0489765
539.021 .0488829
539.832 .0487830
540.643 .0486776
541.453 .0485676
542.262 .0484549
543.071 .0483407
543.879 .0482268
544.687 .0481149
545.494 .0480062
546.300 .0479006
547.106 .0477986
547.911 .0476993
548.716 .0476020
549.520 .0475060
550.323 .0474114
551.126 .0473179
551.929 .0472258
552.731 .0471355
553.532 .0470469
554.332 .0469598
555.133 .0468744
555.932 .0467901
556.731 .0467068
557.530 .0466242
558.328 .0465418
559.125 .0464593
559.922 .0463768
560.719 .0462938
561.515 .0462103
562.310 .0461261
563.105 .0460416
563.899 .0459568
564.693 .0458719
565.487 .0457873
566.280 .0457035
567.072 .0456209
567.864 .0455392
568.655 .0454582
569.446 .0453777
570.236 .0452976
571.026 .0452175
571.816 .0451374
572.605 .0450576
573.393 .0449782
574.181 .0448997
574.969 .0448223
575.756 .0447462
576.543 .0446718
577.329 .0445993
578.115 .0445286
578.900 .0444598
579.685 .0443929
580.469 .0443279
581.253 .0442648
582.036 .0442038
582.820 .0441448
583.602 .0440880
584.384 .0440335
585.166 .0439816
585.947 .0439324
586.728 .0438860
587.509 .0438424
588.289 .0438013
589.069 .0437625
589.848 .0437253
590.627 .0436893
591.405 .0436542
592.183 .0436198
592.961 .0435860
593.738 .0435530
594.515 .0435208
595.291 .0434898
596.067 .0434601
596.843 .0434316
597.618 .0434042
598.393 .0433658
599.167 .0433399
599.941 .0433143
600.715 .0432887
601.488 .0432630
602.261 .0432372
603.034 .0432112
603.806 .0431851
604.578 .0431589
605.349 .0431327
606.121 .0431065
606.891 .0430925
607.662 .0430660
608.432 .0430395
609.201 .0430129
609.971 .0429862
610.740 .0429594
611.508 .0429324
612.277 .0429053
613.045 .0428780
613.812 .0428507
614.579 .0428236
615.346 .0427966
616.113 .0427698
616.879 .0427434
617.645 .0427174
618.411 .0426916
619.176 .0426660
619.941 .0426405
620.705 .0426150
621.470 .0425894
622.233 .0425638
622.997 .0425384
623.760 .0425131
624.523 .0424881
625.286 .0424635
626.048 .0424392
626.810 .0424152
627.572 .0423915
628.333 .0423679
629.095 .0423444
629.855 .0423207
630.616 .0422970
631.376 .0422731
632.136 .0422492
632.895 .0422252
633.655 .0422012
634.414 .0421772
635.172 .0421530
635.931 .0421287
636.689 .0421042
637.447 .0420795
638.204 .0420544
638.962 .0420289
639.718 .0420032
640.475 .0419771
641.231 .0419506
641.988 .0419238
642.743 .0418966
643.499 .0418691
644.254 .0418410
645.009 .0418124
645.764 .0417833
646.518 .0417537
647.272 .0417237
648.026 .0416933
648.780 .0416626
649.533 .0416314
650.286 .0415998
651.039 .0415678
651.792 .0415354
652.544 .0415025
653.296 .0414693
654.048 .0414357
654.799 .0414019
655.550 .0413682
656.301 .0413346
657.052 .0413012
657.802 .0412682
658.552 .0412355
659.302 .0412031
660.052 .0411710
660.801 .0411392
661.550 .0411077
662.299 .0410765
663.048 .0410459
663.796 .0410157
664.544 .0409862
665.292 .0409573
666.040 .0409290
666.787 .0409015
667.534 .0408746
668.281 .0408483
669.028 .0408226
669.774 .0407976
670.521 .0407733
671.266 .0407497
672.012 .0407268
672.758 .0407045
673.503 .0406827
674.248 .0406614
674.992 .0406403
675.737 .0406195
676.481 .0405987
677.225 .0405781
677.969 .0405575
678.712 .0405370
679.455 .0405164
680.199 .0404959
680.941 .0404752
681.684 .0404543
682.426 .0404332
683.168 .0404117
683.910 .0403899
684.652 .0403677
685.393 .0403452
686.134 .0403224
686.875 .0402994
687.616 .0402761
688.356 .0402527
689.097 .0402292
689.837 .0402055
690.576 .0401817
691.316 .0401579
692.055 .0401340
692.794 .0401102
693.533 .0400864
694.272 .0400627
695.010 .0400391
695.748 .0400156
696.486 .0399922
697.224 .0399687
697.962 .0399452
698.699 .0399215
699.436 .0398978
700.173 .0398740
700.909 .0398501
701.646 .0398262
702.382 .0398023
703.118 .0397783
703.853 .0397543
704.589 .0397303
705.324 .0397062
706.059 .0396821
706.794 .0396579
707.529 .0396336
708.263 .0396093
708.997 .0395849
709.731 .0395606
710.465 .0395363
711.198 .0395122
711.931 .0394884
712.664 .0394648
713.397 .0394415
714.130 .0394185
714.862 .0393958
715.594 .0393734
716.326 .0393512
717.058 .0393293
717.789 .0393075
718.520 .0392860
719.251 .0392648
719.982 .0392437
720.713 .0392230
721.443 .0392024
722.173 .0391821
722.903 .0391619
723.633 .0391420
724.362 .0391223
725.091 .0391027
725.820 .0390833
726.549 .0390641
727.278 .0390451
728.006 .0390263
728.734 .0390077
729.462 .0389894
730.190 .0389714
730.917 .0389536
731.644 .0389361
732.371 .0389190
733.098 .0389023
733.825 .0388862
734.551 .0388707
735.277 .0388558
736.003 .0388416
736.728 .0388281
737.454 .0388152
738.179 .0388030
738.904 .0387914
739.629 .0387803
740.353 .0387698
741.077 .0387598
741.801 .0387501
742.525 .0387407
743.249 .0387315
743.972 .0387224
744.695 .0387133
745.418 .0387040
746.141 .0386945
746.863 .0386848
747.585 .0386748
748.307 .0386644
749.029 .0386536
749.750 .0386422
750.472 .0386302
751.193 .0386175
751.913 .0386040
752.634 .0385899
753.354 .0385750
754.074 .0385596
754.794 .0385437
755.514 .0385274
756.233 .0385109
756.952 .0384942
757.671 .0384775
758.390 .0384607
759.108 .0384439
759.826 .0384270
760.544 .0384100
761.262 .0383930
761.979 .0383759
762.697 .0383588
763.414 .0383418
764.130 .0383248
764.847 .0383078
765.563 .0382910
766.279 .0382743
766.995 .0382577
767.710 .0382414
768.426 .0382252
769.141 .0382092
769.855 .0381932
770.570 .0381773
771.284 .0381614
771.998 .0381455
772.712 .0381295
773.426 .0381135
774.139 .0380975
774.852 .0380814
775.565 .0380656
776.277 .0380499
776.990 .0380344
777.702 .0380192
778.414 .0380042
779.125 .0379894
779.836 .0379748
780.547 .0379604
781.258 .0379461
781.969 .0379319
782.679 .0379178
783.389 .0378975
784.099 .0378838
784.808 .0378704
785.517 .0378572
786.226 .0378443
786.935 .0378316
787.643 .0378193
788.352 .0378072
789.060 .0377954
789.767 .0377839
790.475 .0377728
791.182 .0377619
791.889 .0377572
792.595 .0377470
793.301 .0377370
794.008 .0377273
794.713 .0377177
795.419 .0377084
796.124 .0376992
796.829 .0376902
797.534 .0376813
798.238 .0376726
798.942 .0376640
799.646 .0376556
800.350 .0376473
801.053 .0376391
801.756 .0376310
802.459 .0376229
803.162 .0376148
803.864 .0376068
804.566 .0375987
805.267 .0375906
805.969 .0375824
806.670 .0375741
807.371 .0375657
808.071 .0375572
808.772 .0375485
809.472 .0375397
810.171 .0375307
810.871 .0375214
811.570 .0375119
812.269 .0375020
812.967 .0374919
813.666 .0374813
814.364 .0374703
815.061 .0374588
815.759 .0374468
816.456 .0374343
817.153 .0374213
817.849 .0374078
818.545 .0373937
819.241 .0373790
819.937 .0373639
820.632 .0373482
821.327 .0373320
822.022 .0373152
822.717 .0372979
823.411 .0372800
824.105 .0372615
824.798 .0372425
825.491 .0372230
826.184 .0372029
826.877 .0371825
827.569 .0371617
828.261 .0371407
828.953 .0371195
829.645 .0370981
830.336 .0370768
831.027 .0370554
831.717 .0370343
832.407 .0370133
833.097 .0369926
833.787 .0369723
834.476 .0369524
835.165 .0369330
835.854 .0369140
836.542 .0368954
837.230 .0368772
837.918 .0368593
838.605 .0368418
839.292 .0368245
839.979 .0368074
840.665 .0367907
841.352 .0367742
842.037 .0367580
842.723 .0367419
843.408 .0367260
844.093 .0367101
844.777 .0366941
845.462 .0366779
846.145 .0366616
846.829 .0366450
847.512 .0366283
848.195 .0366114
848.878 .0365943
849.560 .0365771
850.242 .0365597
850.923 .0365422
851.605 .0365244
852.286 .0365064
852.966 .0364882
853.646 .0364697
854.326 .0364510
855.006 .0364321
855.685 .0364132
856.364 .0363943
857.043 .0363754
857.721 .0363565
858.399 .0363377
859.077 .0363191
859.754 .0363005
860.431 .0362821
861.107 .0362639
861.784 .0362459
862.459 .0362283
863.135 .0362111
863.810 .0361942
864.485 .0361777
865.160 .0361615
865.834 .0361457
866.508 .0361303
867.181 .0361152
867.854 .0361005
868.527 .0360862
869.199 .0360724
869.872 .0360591
870.543 .0360463
871.215 .0360339
871.886 .0360220
872.557 .0360105
873.227 .0359992
873.897 .0359882
874.567 .0359773
875.236 .0359667
875.905 .0359562
876.573 .0359458
877.242 .0359355
877.909 .0359252
878.577 .0359150
879.244 .0359047
879.911 .0358943
880.577 .0358838
881.243 .0358731
881.909 .0358622
882.575 .0358511
883.240 .0358398
883.904 .0358284
884.569 .0358168
885.232 .0358050
885.896 .0357932
886.559 .0357812
887.222 .0357691
887.885 .0357571
888.547 .0357451
889.208 .0357332
889.870 .0357216
890.531 .0357103
891.192 .0356992
891.852 .0356885
892.512 .0356780
893.171 .0356679
893.830 .0356579
894.489 .0356481
895.148 .0356385
895.806 .0356290
896.464 .0356196
897.121 .0356103
897.778 .0356010
898.434 .0355918
899.091 .0355776
899.747 .0355680
900.402 .0355582
901.057 .0355481
901.712 .0355378
902.366 .0355271
903.020 .0355161
903.674 .0355047
904.327 .0354929
904.980 .0354807
905.633 .0354679
906.285 .0354546
906.936 .0354406
907.588 .0354317
908.239 .0354167
908.889 .0354009
909.540 .0353844
910.190 .0353671
910.839 .0353490
911.488 .0353302
912.137 .0353105
912.785 .0352902
913.433 .0352690
914.081 .0352470
914.728 .0352243
915.375 .0352009
916.021 .0351767
916.668 .0351519
917.313 .0351266
917.959 .0351008
918.604 .0350746
919.248 .0350479
919.892 .0350208
920.536 .0349932
921.180 .0349651
921.823 .0349365
922.465 .0349073
923.108 .0348777
923.750 .0348475
924.391 .0348171
925.032 .0347863
925.673 .0347553
926.313 .0347241
926.953 .0346928
927.593 .0346614
928.232 .0346298
928.871 .0345982
929.510 .0345666
930.148 .0345351
930.786 .0345038
931.423 .0344726
932.060 .0344418
932.697 .0344112
933.333 .0343810
933.969 .0343511
934.604 .0343216
935.239 .0342924
935.874 .0342635
936.508 .0342349
937.142 .0342065
937.776 .0341784
938.409 .0341507
939.042 .0341233
939.674 .0340964
940.306 .0340699
940.938 .0340440
941.569 .0340185
942.200 .0339936
942.830 .0339691
943.460 .0339452
944.090 .0339218
944.720 .0338989
945.349 .0338766
945.977 .0338548
946.606 .0338336
947.233 .0338129
947.861 .0337927
948.488 .0337731
949.115 .0337541
949.741 .0337354
950.367 .0337173
950.993 .0336994
951.618 .0336819
952.243 .0336647
952.868 .0336478
953.492 .0336310
954.115 .0336146
954.739 .0335985
955.362 .0335828
955.984 .0335673
956.607 .0335522
957.229 .0335374
957.850 .0335229
958.471 .0335086
959.092 .0334947
959.713 .0334811
960.333 .0334678
960.952 .0334550
961.572 .0334426
962.191 .0334308
962.809 .0334196
963.428 .0334091
964.045 .0333991
964.663 .0333898
965.280 .0333810
965.897 .0333727
966.513 .0333649
967.129 .0333576
967.745 .0333508
968.361 .0333445
968.976 .0333388
969.590 .0333337
970.205 .0333292
970.818 .0333254
971.432 .0333222
972.045 .0333195
972.658 .0333172
973.271 .0333153
973.883 .0333135
974.495 .0333119
975.106 .0333104
975.717 .0333090
976.328 .0333075
976.938 .0333060
977.548 .0333044
978.158 .0333026
978.768 .0332987
979.377 .0332964
979.985 .0332938
980.594 .0332909
981.202 .0332878
981.809 .0332845
982.417 .0332813
983.024 .0332782
983.631 .0332753
984.237 .0332727
984.843 .0332703
985.449 .0332683
986.054 .0332666
986.659 .0332651
987.264 .0332655
987.868 .0332644
988.472 .0332635
989.076 .0332626
989.679 .0332619
990.282 .0332613
990.885 .0332608
991.487 .0332605
992.090 .0332602
992.691 .0332599
993.293 .0332594
993.894 .0332587
994.495 .0332577
995.095 .0332563
995.696 .0332546
996.296 .0332525
996.895 .0332500
997.494 .0332471
998.093 .0332439
998.692 .0332402
999.291 .0332360
999.889 .0332313
1000.487 .0332259
1001.084 .0332197
1001.681 .0332128
1002.278 .0332050
1002.875 .0331965
1003.471 .0331872
1004.067 .0331772
1004.663 .0331666
1005.258 .0331552
1005.854 .0331433
1006.449 .0331308
1007.043 .0331179
1007.638 .0331044
1008.232 .0330906
1008.826 .0330766
1009.419 .0330624
1010.012 .0330483
1010.605 .0330343
1011.198 .0330204
1011.791 .0330067
1012.383 .0329933
1012.975 .0329800
1013.566 .0329669
1014.158 .0329540
1014.749 .0329414
1015.340 .0329290
1015.931 .0329169
1016.521 .0329052
1017.111 .0328939
1017.701 .0328830
1018.291 .0328727
1018.880 .0328627
1019.470 .0328532
1020.059 .0328440
1020.647 .0328351
1021.236 .0328265
1021.824 .0328182
1022.412 .0328103
1023.000 .0328027
1023.588 .0327954
1024.175 .0327885
1024.762 .0327819
1025.349 .0327755
1025.936 .0327693
1026.523 .0327633
1027.109 .0327573
1027.695 .0327514
1028.281 .0327455
1028.867 .0327396
1029.452 .0327336
1030.038 .0327276
1030.623 .0327215
1031.208 .0327152
1031.792 .0327087
1032.377 .0327020
1032.961 .0326948
1033.546 .0326872
1034.130 .0326790
1034.714 .0326703
1035.297 .0326610
1035.881 .0326510
1036.464 .0326404
1037.047 .0326292
1037.630 .0326174
1038.213 .0326050
1038.796 .0325921
1039.378 .0325786
1039.961 .0325647
1040.543 .0325502
1041.125 .0325354
1041.707 .0325201
1042.289 .0325046
1042.871 .0324890
1043.452 .0324732
1044.034 .0324574
1044.615 .0324416
1045.196 .0324259
1045.777 .0324103
1046.358 .0323949
1046.939 .0323796
1047.520 .0323644
1048.101 .0323493
1048.681 .0323344
1049.262 .0323197
1049.842 .0323054
1050.422 .0322914
1051.002 .0322779
1051.582 .0322650
1052.162 .0322527
1052.742 .0322412
1053.322 .0322304
1053.902 .0322204
1054.482 .0322113
1055.061 .0322031
1055.641 .0321958
1056.220 .0321894
1056.800 .0321840
1057.379 .0321795
1057.958 .0321759
1058.538 .0321732
1059.117 .0321713
1059.696 .0321701
1060.275 .0321695
1060.854 .0321694
1061.433 .0321697
1062.012 .0321702
1062.592 .0321710
1063.171 .0321720
1063.750 .0321730
1064.329 .0321741
1064.908 .0321751
1065.487 .0321760
1066.066 .0321768
1066.645 .0321774
1067.224 .0321779
1067.803 .0321781
1068.382 .0321780
1068.961 .0321777
1069.540 .0321771
1070.119 .0321763
1070.698 .0321750
1071.278 .0321734
1071.857 .0321715
1072.436 .0321691
1073.016 .0321663
1073.595 .0321631
1074.175 .0321596
1074.754 .0321558
1075.334 .0321516
1075.913 .0321471
1076.493 .0321424
1077.073 .0321373
1077.653 .0321321
1078.233 .0321266
1078.813 .0321212
1079.393 .0321157
1079.974 .0321105
1080.554 .0321056
1081.135 .0321011
1081.716 .0320972
1082.296 .0320938
1082.877 .0320910
1083.458 .0320887
1084.040 .0320867
1084.621 .0320852
1085.202 .0320840
1085.784 .0320832
1086.366 .0320827
1086.948 .0320826
1087.530 .0320829
1088.112 .0320836
1088.695 .0320847
1089.277 .0320862
1089.860 .0320881
1090.443 .0320904
1091.026 .0320930
1091.610 .0320961
1092.193 .0320995
1092.777 .0321034
1093.361 .0321077
1093.946 .0321123
1094.530 .0321174
1095.115 .0321228
1095.700 .0321288
1096.285 .0321352
1096.871 .0321422
1097.456 .0321496
1098.042 .0321577
1098.628 .0321661
1099.215 .0321748
1099.802 .0321838
1100.389 .0321929
1100.976 .0322021
1101.564 .0322114
1102.152 .0322209
1102.740 .0322307
1103.329 .0322408
1103.917 .0322511
1104.507 .0322618
1105.096 .0322728
1105.686 .0322840
1106.276 .0322951
1106.867 .0323062
1107.457 .0323171
1108.049 .0323276
1108.640 .0323379
1109.232 .0323480
1109.825 .0323579
1110.417 .0323677
1111.010 .0323775
1111.604 .0323872
1112.198 .0323969
1112.792 .0324066
1113.387 .0324165
1113.982 .0324265
1114.577 .0324367
1115.173 .0324474
1115.769 .0324587
1116.366 .0324709
1116.963 .0324841
1117.561 .0324986
1118.159 .0325142
1118.758 .0325311
1119.357 .0325491
1119.957 .0325683
1120.557 .0325888
1121.157 .0326105
1121.758 .0326337
1122.360 .0326583
1122.962 .0326845
1123.564 .0327125
1124.167 .0327220
1124.771 .0327526
1125.375 .0327851
1125.980 .0328193
1126.585 .0328550
1127.191 .0328924
1127.797 .0329315
1128.404 .0329723
1129.012 .0330150
1129.620 .0330597
1130.229 .0331063
1130.838 .0331545
1131.448 .0332043
1132.058 .0332555
1132.669 .0333318
1133.281 .0333860
1133.894 .0334404
1134.507 .0334979
1135.120 .0335591
1135.735 .0336165
1136.350 .0336792
1136.965 .0336967
1137.582 .0337659
1138.199 .0338333
1138.816 .0338974
1139.435 .0339647
1140.054 .0340328
1140.674 .0340977
1141.294 .0341664
1141.916 .0342086
1142.538 .0343318
1143.160 .0344702
1143.784 .0344058
1144.408 .0345878
1145.033 .0338408
