Measurement Sequence started on: 14-45-04-498
Integration time: 36
Scans to Average: 2 
>>>>>Begin Spectral Data<<<<<
433.946 .0433496
434.870 .0500384
435.793 .0477565
436.715 .0502166
437.635 .0498795
438.555 .0494472
439.473 .0496082
440.389 .0494810
441.305 .0493549
442.219 .0491179
443.132 .0487448
444.044 .0486114
444.954 .0485936
445.863 .0484418
446.771 .0483034
447.678 .0481838
448.584 .0480520
449.488 .0479231
450.391 .0477968
451.293 .0476788
452.194 .0475686
453.094 .0474661
453.992 .0473692
454.890 .0472762
455.786 .0471859
456.681 .0470974
457.575 .0470091
458.468 .0469205
459.360 .0468311
460.250 .0467405
461.140 .0466484
462.028 .0465549
462.915 .0464601
463.801 .0463642
464.687 .0462672
465.571 .0461695
466.454 .0460715
467.335 .0459734
468.216 .0458758
469.096 .0457790
469.975 .0456833
470.853 .0455890
471.729 .0454965
472.605 .0454065
473.479 .0453196
474.353 .0452360
475.226 .0451563
476.097 .0450810
476.968 .0450106
477.838 .0449451
478.706 .0448846
479.574 .0448290
480.441 .0447782
481.306 .0447318
482.171 .0446895
483.035 .0446512
483.898 .0446167
484.760 .0445859
485.621 .0445585
486.481 .0445344
487.340 .0445129
488.198 .0444937
489.055 .0444760
489.912 .0444594
490.767 .0444432
491.622 .0444170
492.476 .0443992
493.329 .0443801
494.180 .0443592
495.032 .0443363
495.882 .0443109
496.731 .0442824
497.580 .0442507
498.427 .0442155
499.274 .0441767
500.120 .0441491
500.965 .0441060
501.809 .0440599
502.653 .0440113
503.495 .0439606
504.337 .0439084
505.178 .0438548
506.018 .0438004
506.858 .0437451
507.696 .0436900
508.534 .0436351
509.371 .0435811
510.208 .0435278
511.043 .0434760
511.878 .0434257
512.712 .0433770
513.545 .0433297
514.377 .0432841
515.209 .0432399
516.040 .0431971
516.870 .0431549
517.699 .0431132
518.528 .0430715
519.356 .0430296
520.183 .0429870
521.010 .0429428
521.836 .0428964
522.661 .0428479
523.485 .0427968
524.309 .0427431
525.132 .0426864
525.954 .0426270
526.776 .0425649
527.597 .0425004
528.417 .0424336
529.237 .0423652
530.056 .0422959
530.874 .0422265
531.692 .0421572
532.508 .0420887
533.325 .0420217
534.140 .0419572
534.955 .0418955
535.770 .0418371
536.583 .0417822
537.397 .0417310
538.209 .0416838
539.021 .0416410
539.832 .0416022
540.643 .0415674
541.453 .0415364
542.262 .0415089
543.071 .0414842
543.879 .0414618
544.687 .0414411
545.494 .0414218
546.300 .0414029
547.106 .0413841
547.911 .0413648
548.716 .0413452
549.520 .0413251
550.323 .0413045
551.126 .0412832
551.929 .0412616
552.731 .0412396
553.532 .0412174
554.332 .0411951
555.133 .0411731
555.932 .0411515
556.731 .0411307
557.530 .0411108
558.328 .0410917
559.125 .0410736
559.922 .0410566
560.719 .0410403
561.515 .0410247
562.310 .0410096
563.105 .0409945
563.899 .0409792
564.693 .0409633
565.487 .0409465
566.280 .0409283
567.072 .0409086
567.864 .0408870
568.655 .0408630
569.446 .0408366
570.236 .0408072
571.026 .0407750
571.816 .0407399
572.605 .0407018
573.393 .0406609
574.181 .0406175
574.969 .0405716
575.756 .0405235
576.543 .0404737
577.329 .0404225
578.115 .0403701
578.900 .0403171
579.685 .0402641
580.469 .0402115
581.253 .0401596
582.036 .0401089
582.820 .0400595
583.602 .0400114
584.384 .0399646
585.166 .0399191
585.947 .0398750
586.728 .0398322
587.509 .0397907
588.289 .0397506
589.069 .0397120
589.848 .0396746
590.627 .0396385
591.405 .0396035
592.183 .0395697
592.961 .0395367
593.738 .0395047
594.515 .0394733
595.291 .0394427
596.067 .0394127
596.843 .0393833
597.618 .0393544
598.393 .0393118
599.167 .0392834
599.941 .0392552
600.715 .0392271
601.488 .0391990
602.261 .0391708
603.034 .0391425
603.806 .0391142
604.578 .0390856
605.349 .0390569
606.121 .0390279
606.891 .0390126
607.662 .0389834
608.432 .0389539
609.201 .0389242
609.971 .0388942
610.740 .0388639
611.508 .0388336
612.277 .0388033
613.045 .0387731
613.812 .0387432
614.579 .0387137
615.346 .0386845
616.113 .0386557
616.879 .0386271
617.645 .0385987
618.411 .0385705
619.176 .0385423
619.941 .0385141
620.705 .0384859
621.470 .0384579
622.233 .0384300
622.997 .0384022
623.760 .0383747
624.523 .0383474
625.286 .0383203
626.048 .0382935
626.810 .0382670
627.572 .0382407
628.333 .0382146
629.095 .0381888
629.855 .0381630
630.616 .0381374
631.376 .0381119
632.136 .0380864
632.895 .0380610
633.655 .0380356
634.414 .0380103
635.172 .0379852
635.931 .0379603
636.689 .0379355
637.447 .0379109
638.204 .0378864
638.962 .0378620
639.718 .0378376
640.475 .0378131
641.231 .0377886
641.988 .0377640
642.743 .0377393
643.499 .0377146
644.254 .0376898
645.009 .0376650
645.764 .0376403
646.518 .0376157
647.272 .0375912
648.026 .0375668
648.780 .0375425
649.533 .0375184
650.286 .0374943
651.039 .0374704
651.792 .0374466
652.544 .0374229
653.296 .0373993
654.048 .0373758
654.799 .0373525
655.550 .0373294
656.301 .0373066
657.052 .0372842
657.802 .0372622
658.552 .0372405
659.302 .0372191
660.052 .0371979
660.801 .0371770
661.550 .0371562
662.299 .0371356
663.048 .0371150
663.796 .0370945
664.544 .0370741
665.292 .0370538
666.040 .0370337
666.787 .0370137
667.534 .0369939
668.281 .0369741
669.028 .0369546
669.774 .0369352
670.521 .0369161
671.266 .0368972
672.012 .0368787
672.758 .0368605
673.503 .0368427
674.248 .0368252
674.992 .0368080
675.737 .0367911
676.481 .0367744
677.225 .0367578
677.969 .0367412
678.712 .0367247
679.455 .0367082
680.199 .0366919
680.941 .0366756
681.684 .0366594
682.426 .0366433
683.168 .0366272
683.910 .0366112
684.652 .0365952
685.393 .0365791
686.134 .0365630
686.875 .0365469
687.616 .0365307
688.356 .0365147
689.097 .0364986
689.837 .0364827
690.576 .0364668
691.316 .0364511
692.055 .0364354
692.794 .0364199
693.533 .0364046
694.272 .0363894
695.010 .0363744
695.748 .0363595
696.486 .0363447
697.224 .0363300
697.962 .0363152
698.699 .0363004
699.436 .0362855
700.173 .0362703
700.909 .0362551
701.646 .0362397
702.382 .0362243
703.118 .0362088
703.853 .0361931
704.589 .0361773
705.324 .0361613
706.059 .0361449
706.794 .0361281
707.529 .0361108
708.263 .0360930
708.997 .0360747
709.731 .0360560
710.465 .0360369
711.198 .0360176
711.931 .0359981
712.664 .0359785
713.397 .0359587
714.130 .0359387
714.862 .0359186
715.594 .0358983
716.326 .0358779
717.058 .0358572
717.789 .0358364
718.520 .0358154
719.251 .0357943
719.982 .0357732
720.713 .0357520
721.443 .0357308
722.173 .0357097
722.903 .0356886
723.633 .0356677
724.362 .0356469
725.091 .0356264
725.820 .0356060
726.549 .0355859
727.278 .0355659
728.006 .0355461
728.734 .0355265
729.462 .0355071
730.190 .0354880
730.917 .0354692
731.644 .0354509
732.371 .0354331
733.098 .0354158
733.825 .0353990
734.551 .0353827
735.277 .0353669
736.003 .0353515
736.728 .0353364
737.454 .0353216
738.179 .0353071
738.904 .0352929
739.629 .0352790
740.353 .0352653
741.077 .0352519
741.801 .0352388
742.525 .0352258
743.249 .0352130
743.972 .0352002
744.695 .0351874
745.418 .0351746
746.141 .0351616
746.863 .0351484
747.585 .0351351
748.307 .0351214
749.029 .0351075
749.750 .0350933
750.472 .0350789
751.193 .0350643
751.913 .0350494
752.634 .0350344
753.354 .0350193
754.074 .0350041
754.794 .0349890
755.514 .0349739
756.233 .0349589
756.952 .0349441
757.671 .0349293
758.390 .0349148
759.108 .0349005
759.826 .0348864
760.544 .0348724
761.262 .0348587
761.979 .0348452
762.697 .0348318
763.414 .0348186
764.130 .0348056
764.847 .0347927
765.563 .0347799
766.279 .0347672
766.995 .0347546
767.710 .0347420
768.426 .0347295
769.141 .0347169
769.855 .0347042
770.570 .0346914
771.284 .0346785
771.998 .0346654
772.712 .0346522
773.426 .0346388
774.139 .0346253
774.852 .0346118
775.565 .0345982
776.277 .0345845
776.990 .0345709
777.702 .0345572
778.414 .0345434
779.125 .0345296
779.836 .0345156
780.547 .0345014
781.258 .0344871
781.969 .0344728
782.679 .0344583
783.389 .0344366
784.099 .0344219
784.808 .0344073
785.517 .0343926
786.226 .0343779
786.935 .0343632
787.643 .0343484
788.352 .0343334
789.060 .0343184
789.767 .0343032
790.475 .0342879
791.182 .0342723
791.889 .0342641
792.595 .0342484
793.301 .0342325
794.008 .0342165
794.713 .0342003
795.419 .0341841
796.124 .0341679
796.829 .0341517
797.534 .0341355
798.238 .0341193
798.942 .0341031
799.646 .0340869
800.350 .0340707
801.053 .0340545
801.756 .0340385
802.459 .0340225
803.162 .0340068
803.864 .0339913
804.566 .0339760
805.267 .0339609
805.969 .0339460
806.670 .0339312
807.371 .0339165
808.071 .0339019
808.772 .0338874
809.472 .0338729
810.171 .0338585
810.871 .0338442
811.570 .0338299
812.269 .0338156
812.967 .0338014
813.666 .0337872
814.364 .0337731
815.061 .0337590
815.759 .0337450
816.456 .0337311
817.153 .0337174
817.849 .0337039
818.545 .0336905
819.241 .0336771
819.937 .0336639
820.632 .0336507
821.327 .0336376
822.022 .0336245
822.717 .0336114
823.411 .0335984
824.105 .0335854
824.798 .0335724
825.491 .0335594
826.184 .0335464
826.877 .0335334
827.569 .0335205
828.261 .0335076
828.953 .0334947
829.645 .0334820
830.336 .0334694
831.027 .0334570
831.717 .0334447
832.407 .0334325
833.097 .0334204
833.787 .0334084
834.476 .0333965
835.165 .0333846
835.854 .0333727
836.542 .0333610
837.230 .0333493
837.918 .0333375
838.605 .0333258
839.292 .0333140
839.979 .0333022
840.665 .0332902
841.352 .0332780
842.037 .0332657
842.723 .0332532
843.408 .0332405
844.093 .0332276
844.777 .0332144
845.462 .0332010
846.145 .0331873
846.829 .0331733
847.512 .0331590
848.195 .0331444
848.878 .0331295
849.560 .0331143
850.242 .0330989
850.923 .0330832
851.605 .0330672
852.286 .0330508
852.966 .0330341
853.646 .0330170
854.326 .0329995
855.006 .0329817
855.685 .0329636
856.364 .0329453
857.043 .0329269
857.721 .0329084
858.399 .0328899
859.077 .0328715
859.754 .0328530
860.431 .0328344
861.107 .0328159
861.784 .0327974
862.459 .0327790
863.135 .0327608
863.810 .0327426
864.485 .0327246
865.160 .0327067
865.834 .0326890
866.508 .0326713
867.181 .0326537
867.854 .0326361
868.527 .0326186
869.199 .0326011
869.872 .0325838
870.543 .0325666
871.215 .0325495
871.886 .0325326
872.557 .0325158
873.227 .0324991
873.897 .0324824
874.567 .0324657
875.236 .0324490
875.905 .0324322
876.573 .0324153
877.242 .0323984
877.909 .0323816
878.577 .0323647
879.244 .0323478
879.911 .0323309
880.577 .0323141
881.243 .0322972
881.909 .0322803
882.575 .0322635
883.240 .0322467
883.904 .0322300
884.569 .0322135
885.232 .0321972
885.896 .0321813
886.559 .0321656
887.222 .0321504
887.885 .0321355
888.547 .0321210
889.208 .0321069
889.870 .0320933
890.531 .0320801
891.192 .0320674
891.852 .0320552
892.512 .0320434
893.171 .0320320
893.830 .0320211
894.489 .0320104
895.148 .0320001
895.806 .0319900
896.464 .0319801
897.121 .0319705
897.778 .0319611
898.434 .0319520
899.091 .0319390
899.747 .0319303
900.402 .0319218
901.057 .0319134
901.712 .0319051
902.366 .0318969
903.020 .0318887
903.674 .0318805
904.327 .0318723
904.980 .0318641
905.633 .0318558
906.285 .0318474
906.936 .0318389
907.588 .0318346
908.239 .0318259
908.889 .0318169
909.540 .0318078
910.190 .0317985
910.839 .0317890
911.488 .0317793
912.137 .0317694
912.785 .0317592
913.433 .0317488
914.081 .0317381
914.728 .0317272
915.375 .0317160
916.021 .0317045
916.668 .0316927
917.313 .0316807
917.959 .0316684
918.604 .0316558
919.248 .0316429
919.892 .0316298
920.536 .0316162
921.180 .0316024
921.823 .0315882
922.465 .0315736
923.108 .0315587
923.750 .0315434
924.391 .0315278
925.032 .0315119
925.673 .0314957
926.313 .0314791
926.953 .0314622
927.593 .0314450
928.232 .0314275
928.871 .0314098
929.510 .0313918
930.148 .0313737
930.786 .0313554
931.423 .0313369
932.060 .0313183
932.697 .0312995
933.333 .0312806
933.969 .0312614
934.604 .0312421
935.239 .0312226
935.874 .0312029
936.508 .0311831
937.142 .0311631
937.776 .0311429
938.409 .0311225
939.042 .0311020
939.674 .0310812
940.306 .0310601
940.938 .0310388
941.569 .0310172
942.200 .0309954
942.830 .0309734
943.460 .0309513
944.090 .0309292
944.720 .0309070
945.349 .0308849
945.977 .0308628
946.606 .0308408
947.233 .0308189
947.861 .0307971
948.488 .0307754
949.115 .0307538
949.741 .0307324
950.367 .0307111
950.993 .0306901
951.618 .0306691
952.243 .0306483
952.868 .0306277
953.492 .0306072
954.115 .0305868
954.739 .0305666
955.362 .0305467
955.984 .0305270
956.607 .0305076
957.229 .0304884
957.850 .0304696
958.471 .0304511
959.092 .0304329
959.713 .0304150
960.333 .0303975
960.952 .0303803
961.572 .0303634
962.191 .0303469
962.809 .0303307
963.428 .0303148
964.045 .0302991
964.663 .0302836
965.280 .0302684
965.897 .0302532
966.513 .0302382
967.129 .0302232
967.745 .0302083
968.361 .0301933
968.976 .0301784
969.590 .0301636
970.205 .0301487
970.818 .0301339
971.432 .0301192
972.045 .0301045
972.658 .0300899
973.271 .0300753
973.883 .0300609
974.495 .0300466
975.106 .0300324
975.717 .0300184
976.328 .0300045
976.938 .0299909
977.548 .0299775
978.158 .0299644
978.768 .0299460
979.377 .0299338
979.985 .0299220
980.594 .0299106
981.202 .0298995
981.809 .0298889
982.417 .0298786
983.024 .0298688
983.631 .0298595
984.237 .0298506
984.843 .0298421
985.449 .0298342
986.054 .0298267
986.659 .0298195
987.264 .0298172
987.868 .0298104
988.472 .0298040
989.076 .0297978
989.679 .0297920
990.282 .0297864
990.885 .0297810
991.487 .0297758
992.090 .0297708
992.691 .0297660
993.293 .0297613
993.894 .0297567
994.495 .0297521
995.095 .0297477
995.696 .0297432
996.296 .0297389
996.895 .0297346
997.494 .0297305
998.093 .0297264
998.692 .0297224
999.291 .0297185
999.889 .0297146
1000.487 .0297107
1001.084 .0297069
1001.681 .0297030
1002.278 .0296992
1002.875 .0296954
1003.471 .0296917
1004.067 .0296881
1004.663 .0296846
1005.258 .0296813
1005.854 .0296782
1006.449 .0296752
1007.043 .0296725
1007.638 .0296701
1008.232 .0296679
1008.826 .0296661
1009.419 .0296647
1010.012 .0296637
1010.605 .0296631
1011.198 .0296629
1011.791 .0296631
1012.383 .0296636
1012.975 .0296644
1013.566 .0296654
1014.158 .0296666
1014.749 .0296680
1015.340 .0296696
1015.931 .0296714
1016.521 .0296733
1017.111 .0296754
1017.701 .0296776
1018.291 .0296798
1018.880 .0296819
1019.470 .0296840
1020.059 .0296861
1020.647 .0296881
1021.236 .0296900
1021.824 .0296918
1022.412 .0296936
1023.000 .0296953
1023.588 .0296969
1024.175 .0296984
1024.762 .0296995
1025.349 .0297004
1025.936 .0297007
1026.523 .0297006
1027.109 .0297000
1027.695 .0296989
1028.281 .0296974
1028.867 .0296954
1029.452 .0296931
1030.038 .0296904
1030.623 .0296874
1031.208 .0296842
1031.792 .0296807
1032.377 .0296769
1032.961 .0296728
1033.546 .0296686
1034.130 .0296644
1034.714 .0296601
1035.297 .0296559
1035.881 .0296519
1036.464 .0296480
1037.047 .0296444
1037.630 .0296408
1038.213 .0296373
1038.796 .0296338
1039.378 .0296302
1039.961 .0296265
1040.543 .0296227
1041.125 .0296189
1041.707 .0296151
1042.289 .0296113
1042.871 .0296076
1043.452 .0296041
1044.034 .0296006
1044.615 .0295970
1045.196 .0295934
1045.777 .0295895
1046.358 .0295853
1046.939 .0295806
1047.520 .0295755
1048.101 .0295700
1048.681 .0295639
1049.262 .0295572
1049.842 .0295500
1050.422 .0295421
1051.002 .0295336
1051.582 .0295244
1052.162 .0295145
1052.742 .0295038
1053.322 .0294925
1053.902 .0294806
1054.482 .0294683
1055.061 .0294556
1055.641 .0294428
1056.220 .0294299
1056.800 .0294170
1057.379 .0294042
1057.958 .0293915
1058.538 .0293790
1059.117 .0293666
1059.696 .0293543
1060.275 .0293422
1060.854 .0293304
1061.433 .0293188
1062.012 .0293076
1062.592 .0292967
1063.171 .0292862
1063.750 .0292760
1064.329 .0292661
1064.908 .0292564
1065.487 .0292469
1066.066 .0292374
1066.645 .0292280
1067.224 .0292187
1067.803 .0292096
1068.382 .0292007
1068.961 .0291919
1069.540 .0291835
1070.119 .0291752
1070.698 .0291672
1071.278 .0291592
1071.857 .0291512
1072.436 .0291431
1073.016 .0291348
1073.595 .0291263
1074.175 .0291175
1074.754 .0291085
1075.334 .0290993
1075.913 .0290900
1076.493 .0290806
1077.073 .0290710
1077.653 .0290612
1078.233 .0290510
1078.813 .0290405
1079.393 .0290295
1079.974 .0290181
1080.554 .0290061
1081.135 .0289938
1081.716 .0289813
1082.296 .0289688
1082.877 .0289562
1083.458 .0289439
1084.040 .0289317
1084.621 .0289199
1085.202 .0289083
1085.784 .0288969
1086.366 .0288859
1086.948 .0288752
1087.530 .0288649
1088.112 .0288553
1088.695 .0288464
1089.277 .0288384
1089.860 .0288313
1090.443 .0288253
1091.026 .0288203
1091.610 .0288160
1092.193 .0288125
1092.777 .0288095
1093.361 .0288068
1093.946 .0288045
1094.530 .0288025
1095.115 .0288009
1095.700 .0287998
1096.285 .0287995
1096.871 .0288000
1097.456 .0288015
1098.042 .0288037
1098.628 .0288066
1099.215 .0288101
1099.802 .0288140
1100.389 .0288181
1100.976 .0288226
1101.564 .0288272
1102.152 .0288321
1102.740 .0288373
1103.329 .0288430
1103.917 .0288493
1104.507 .0288560
1105.096 .0288632
1105.686 .0288706
1106.276 .0288783
1106.867 .0288862
1107.457 .0288941
1108.049 .0289022
1108.640 .0289106
1109.232 .0289195
1109.825 .0289291
1110.417 .0289396
1111.010 .0289512
1111.604 .0289638
1112.198 .0289775
1112.792 .0289920
1113.387 .0290072
1113.982 .0290229
1114.577 .0290389
1115.173 .0290550
1115.769 .0290713
1116.366 .0290876
1116.963 .0291039
1117.561 .0291202
1118.159 .0291367
1118.758 .0291534
1119.357 .0291702
1119.957 .0291872
1120.557 .0292044
1121.157 .0292217
1121.758 .0292392
1122.360 .0292569
1122.962 .0292750
1123.564 .0292935
1124.167 .0293038
1124.771 .0293228
1125.375 .0293425
1125.980 .0293631
1126.585 .0293846
1127.191 .0294074
1127.797 .0294315
1128.404 .0294572
1129.012 .0294844
1129.620 .0295132
1130.229 .0295437
1130.838 .0295758
1131.448 .0296095
1132.058 .0296451
1132.669 .0296950
1133.281 .0297370
1133.894 .0297820
1134.507 .0298285
1135.120 .0298840
1135.735 .0299398
1136.350 .0300019
1136.965 .0299877
1137.582 .0300637
1138.199 .0301385
1138.816 .0302061
1139.435 .0302727
1140.054 .0303418
1140.674 .0304150
1141.294 .0304967
1141.916 .0305776
1142.538 .0306197
1143.160 .0308625
1143.784 .0308760
1144.408 .0310502
1145.033 .0308904
