Measurement Sequence started on: 14-45-04-498
Integration time: 36
Scans to Average: 2 
>>>>>Begin Spectral Data<<<<<
433.946 .0522319
434.870 .0549599
435.793 .0522506
436.715 .0516961
437.635 .0504860
438.555 .0505155
439.473 .0500426
440.389 .0495551
441.305 .0492128
442.219 .0489270
443.132 .0495417
444.044 .0491865
444.954 .0489705
445.863 .0487795
446.771 .0486477
447.678 .0485096
448.584 .0483919
449.488 .0482956
450.391 .0482131
451.293 .0481416
452.194 .0480776
453.094 .0480184
453.992 .0479603
454.890 .0479017
455.786 .0478399
456.681 .0477736
457.575 .0477017
458.468 .0476248
459.360 .0475437
460.250 .0474604
461.140 .0473760
462.028 .0472921
462.915 .0472097
463.801 .0471288
464.687 .0470495
465.571 .0469713
466.454 .0468938
467.335 .0468170
468.216 .0467404
469.096 .0466645
469.975 .0465896
470.853 .0465164
471.729 .0464452
472.605 .0463768
473.479 .0463113
474.353 .0462488
475.226 .0461888
476.097 .0461312
476.968 .0460754
477.838 .0460212
478.706 .0459685
479.574 .0459173
480.441 .0458679
481.306 .0458203
482.171 .0457747
483.035 .0457310
483.898 .0456892
484.760 .0456491
485.621 .0456101
486.481 .0455722
487.340 .0455348
488.198 .0454978
489.055 .0454607
489.912 .0454231
490.767 .0453849
491.622 .0453214
492.476 .0452789
493.329 .0452344
494.180 .0451875
495.032 .0451380
495.882 .0450859
496.731 .0450312
497.580 .0449743
498.427 .0449156
499.274 .0448559
500.120 .0448241
500.965 .0447648
501.809 .0447052
502.653 .0446457
503.495 .0445861
504.337 .0445264
505.178 .0444668
506.018 .0444074
506.858 .0443485
507.696 .0442907
508.534 .0442349
509.371 .0441817
510.208 .0441319
511.043 .0440865
511.878 .0440454
512.712 .0440087
513.545 .0439764
514.377 .0439477
515.209 .0439220
516.040 .0438986
516.870 .0438762
517.699 .0438538
518.528 .0438316
519.356 .0438093
520.183 .0437871
521.010 .0437659
521.836 .0437459
522.661 .0437269
523.485 .0437089
524.309 .0436912
525.132 .0436725
525.954 .0436518
526.776 .0436278
527.597 .0435995
528.417 .0435665
529.237 .0435291
530.056 .0434876
530.874 .0434428
531.692 .0433962
532.508 .0433482
533.325 .0432991
534.140 .0432500
534.955 .0432007
535.770 .0431512
536.583 .0431015
537.397 .0430512
538.209 .0429996
539.021 .0429468
539.832 .0428934
540.643 .0428395
541.453 .0427860
542.262 .0427343
543.071 .0426851
543.879 .0426398
544.687 .0425991
545.494 .0425624
546.300 .0425291
547.106 .0424980
547.911 .0424675
548.716 .0424359
549.520 .0424025
550.323 .0423670
551.126 .0423291
551.929 .0422899
552.731 .0422500
553.532 .0422100
554.332 .0421710
555.133 .0421333
555.932 .0420965
556.731 .0420606
557.530 .0420248
558.328 .0419889
559.125 .0419521
559.922 .0419141
560.719 .0418741
561.515 .0418319
562.310 .0417880
563.105 .0417425
563.899 .0416960
564.693 .0416494
565.487 .0416034
566.280 .0415587
567.072 .0415152
567.864 .0414731
568.655 .0414315
569.446 .0413902
570.236 .0413485
571.026 .0413056
571.816 .0412613
572.605 .0412158
573.393 .0411693
574.181 .0411222
574.969 .0410750
575.756 .0410278
576.543 .0409810
577.329 .0409347
578.115 .0408887
578.900 .0408428
579.685 .0407971
580.469 .0407517
581.253 .0407063
582.036 .0406609
582.820 .0406157
583.602 .0405707
584.384 .0405261
585.166 .0404822
585.947 .0404389
586.728 .0403965
587.509 .0403553
588.289 .0403152
589.069 .0402764
589.848 .0402387
590.627 .0402020
591.405 .0401662
592.183 .0401309
592.961 .0400961
593.738 .0400617
594.515 .0400279
595.291 .0399948
596.067 .0399625
596.843 .0399314
597.618 .0399016
598.393 .0398626
599.167 .0398364
599.941 .0398116
600.715 .0397882
601.488 .0397660
602.261 .0397450
603.034 .0397249
603.806 .0397055
604.578 .0396867
605.349 .0396683
606.121 .0396502
606.891 .0396414
607.662 .0396232
608.432 .0396051
609.201 .0395869
609.971 .0395688
610.740 .0395506
611.508 .0395324
612.277 .0395139
613.045 .0394951
613.812 .0394759
614.579 .0394562
615.346 .0394357
616.113 .0394145
616.879 .0393926
617.645 .0393699
618.411 .0393464
619.176 .0393223
619.941 .0392976
620.705 .0392723
621.470 .0392465
622.233 .0392201
622.997 .0391933
623.760 .0391660
624.523 .0391381
625.286 .0391098
626.048 .0390810
626.810 .0390518
627.572 .0390222
628.333 .0389921
629.095 .0389618
629.855 .0389312
630.616 .0389005
631.376 .0388697
632.136 .0388390
632.895 .0388085
633.655 .0387783
634.414 .0387482
635.172 .0387185
635.931 .0386888
636.689 .0386592
637.447 .0386297
638.204 .0386002
638.962 .0385709
639.718 .0385417
640.475 .0385129
641.231 .0384844
641.988 .0384563
642.743 .0384287
643.499 .0384015
644.254 .0383748
645.009 .0383486
645.764 .0383227
646.518 .0382972
647.272 .0382722
648.026 .0382476
648.780 .0382234
649.533 .0381998
650.286 .0381767
651.039 .0381540
651.792 .0381318
652.544 .0381102
653.296 .0380890
654.048 .0380684
654.799 .0380483
655.550 .0380287
656.301 .0380095
657.052 .0379905
657.802 .0379718
658.552 .0379532
659.302 .0379345
660.052 .0379158
660.801 .0378971
661.550 .0378782
662.299 .0378593
663.048 .0378403
663.796 .0378212
664.544 .0378020
665.292 .0377828
666.040 .0377633
666.787 .0377436
667.534 .0377237
668.281 .0377035
669.028 .0376830
669.774 .0376623
670.521 .0376413
671.266 .0376200
672.012 .0375985
672.758 .0375768
673.503 .0375550
674.248 .0375329
674.992 .0375108
675.737 .0374886
676.481 .0374664
677.225 .0374443
677.969 .0374223
678.712 .0374004
679.455 .0373787
680.199 .0373571
680.941 .0373358
681.684 .0373146
682.426 .0372937
683.168 .0372730
683.910 .0372526
684.652 .0372324
685.393 .0372126
686.134 .0371930
686.875 .0371737
687.616 .0371547
688.356 .0371359
689.097 .0371175
689.837 .0370993
690.576 .0370814
691.316 .0370636
692.055 .0370460
692.794 .0370284
693.533 .0370108
694.272 .0369931
695.010 .0369755
695.748 .0369578
696.486 .0369400
697.224 .0369221
697.962 .0369041
698.699 .0368860
699.436 .0368676
700.173 .0368489
700.909 .0368298
701.646 .0368105
702.382 .0367909
703.118 .0367709
703.853 .0367507
704.589 .0367304
705.324 .0367098
706.059 .0366891
706.794 .0366683
707.529 .0366472
708.263 .0366261
708.997 .0366049
709.731 .0365838
710.465 .0365627
711.198 .0365418
711.931 .0365211
712.664 .0365006
713.397 .0364803
714.130 .0364602
714.862 .0364402
715.594 .0364202
716.326 .0364003
717.058 .0363805
717.789 .0363607
718.520 .0363411
719.251 .0363214
719.982 .0363019
720.713 .0362823
721.443 .0362627
722.173 .0362431
722.903 .0362235
723.633 .0362039
724.362 .0361843
725.091 .0361647
725.820 .0361452
726.549 .0361256
727.278 .0361061
728.006 .0360864
728.734 .0360667
729.462 .0360469
730.190 .0360270
730.917 .0360070
731.644 .0359871
732.371 .0359673
733.098 .0359476
733.825 .0359283
734.551 .0359092
735.277 .0358905
736.003 .0358721
736.728 .0358540
737.454 .0358362
738.179 .0358187
738.904 .0358015
739.629 .0357847
740.353 .0357683
741.077 .0357522
741.801 .0357363
742.525 .0357208
743.249 .0357055
743.972 .0356904
744.695 .0356754
745.418 .0356605
746.141 .0356458
746.863 .0356311
747.585 .0356164
748.307 .0356018
749.029 .0355871
749.750 .0355723
750.472 .0355574
751.193 .0355424
751.913 .0355271
752.634 .0355117
753.354 .0354962
754.074 .0354807
754.794 .0354651
755.514 .0354497
756.233 .0354343
756.952 .0354191
757.671 .0354040
758.390 .0353891
759.108 .0353743
759.826 .0353597
760.544 .0353451
761.262 .0353306
761.979 .0353162
762.697 .0353018
763.414 .0352876
764.130 .0352735
764.847 .0352595
765.563 .0352456
766.279 .0352318
766.995 .0352182
767.710 .0352048
768.426 .0351914
769.141 .0351781
769.855 .0351648
770.570 .0351513
771.284 .0351378
771.998 .0351240
772.712 .0351100
773.426 .0350958
774.139 .0350813
774.852 .0350666
775.565 .0350519
776.277 .0350370
776.990 .0350221
777.702 .0350072
778.414 .0349923
779.125 .0349774
779.836 .0349625
780.547 .0349477
781.258 .0349329
781.969 .0349181
782.679 .0349033
783.389 .0348814
784.099 .0348668
784.808 .0348522
785.517 .0348376
786.226 .0348232
786.935 .0348088
787.643 .0347945
788.352 .0347802
789.060 .0347660
789.767 .0347517
790.475 .0347373
791.182 .0347229
791.889 .0347155
792.595 .0347008
793.301 .0346861
794.008 .0346712
794.713 .0346563
795.419 .0346413
796.124 .0346262
796.829 .0346110
797.534 .0345957
798.238 .0345803
798.942 .0345647
799.646 .0345491
800.350 .0345334
801.053 .0345176
801.756 .0345017
802.459 .0344858
803.162 .0344698
803.864 .0344538
804.566 .0344377
805.267 .0344215
805.969 .0344053
806.670 .0343891
807.371 .0343728
808.071 .0343565
808.772 .0343403
809.472 .0343241
810.171 .0343079
810.871 .0342918
811.570 .0342758
812.269 .0342598
812.967 .0342438
813.666 .0342278
814.364 .0342119
815.061 .0341958
815.759 .0341798
816.456 .0341637
817.153 .0341475
817.849 .0341313
818.545 .0341150
819.241 .0340987
819.937 .0340825
820.632 .0340663
821.327 .0340501
822.022 .0340340
822.717 .0340179
823.411 .0340018
824.105 .0339857
824.798 .0339696
825.491 .0339536
826.184 .0339375
826.877 .0339215
827.569 .0339056
828.261 .0338898
828.953 .0338742
829.645 .0338586
830.336 .0338433
831.027 .0338280
831.717 .0338130
832.407 .0337982
833.097 .0337837
833.787 .0337694
834.476 .0337554
835.165 .0337415
835.854 .0337279
836.542 .0337144
837.230 .0337010
837.918 .0336876
838.605 .0336743
839.292 .0336611
839.979 .0336481
840.665 .0336351
841.352 .0336223
842.037 .0336098
842.723 .0335974
843.408 .0335851
844.093 .0335729
844.777 .0335608
845.462 .0335486
846.145 .0335363
846.829 .0335240
847.512 .0335117
848.195 .0334993
848.878 .0334868
849.560 .0334743
850.242 .0334618
850.923 .0334491
851.605 .0334363
852.286 .0334234
852.966 .0334101
853.646 .0333965
854.326 .0333826
855.006 .0333684
855.685 .0333538
856.364 .0333388
857.043 .0333236
857.721 .0333080
858.399 .0332921
859.077 .0332759
859.754 .0332595
860.431 .0332428
861.107 .0332258
861.784 .0332086
862.459 .0331911
863.135 .0331733
863.810 .0331553
864.485 .0331371
865.160 .0331187
865.834 .0331001
866.508 .0330812
867.181 .0330620
867.854 .0330427
868.527 .0330232
869.199 .0330036
869.872 .0329840
870.543 .0329644
871.215 .0329449
871.886 .0329256
872.557 .0329065
873.227 .0328875
873.897 .0328688
874.567 .0328501
875.236 .0328316
875.905 .0328131
876.573 .0327948
877.242 .0327765
877.909 .0327584
878.577 .0327405
879.244 .0327228
879.911 .0327052
880.577 .0326877
881.243 .0326704
881.909 .0326532
882.575 .0326361
883.240 .0326191
883.904 .0326021
884.569 .0325853
885.232 .0325685
885.896 .0325519
886.559 .0325355
887.222 .0325192
887.885 .0325032
888.547 .0324873
889.208 .0324717
889.870 .0324563
890.531 .0324411
891.192 .0324262
891.852 .0324115
892.512 .0323970
893.171 .0323825
893.830 .0323681
894.489 .0323538
895.148 .0323395
895.806 .0323252
896.464 .0323109
897.121 .0322968
897.778 .0322827
898.434 .0322689
899.091 .0322487
899.747 .0322354
900.402 .0322223
901.057 .0322094
901.712 .0321967
902.366 .0321843
903.020 .0321720
903.674 .0321600
904.327 .0321482
904.980 .0321365
905.633 .0321250
906.285 .0321136
906.936 .0321024
907.588 .0320975
908.239 .0320865
908.889 .0320756
909.540 .0320647
910.190 .0320539
910.839 .0320430
911.488 .0320321
912.137 .0320210
912.785 .0320100
913.433 .0319988
914.081 .0319876
914.728 .0319764
915.375 .0319651
916.021 .0319538
916.668 .0319422
917.313 .0319305
917.959 .0319185
918.604 .0319061
919.248 .0318934
919.892 .0318802
920.536 .0318667
921.180 .0318527
921.823 .0318383
922.465 .0318234
923.108 .0318082
923.750 .0317925
924.391 .0317764
925.032 .0317598
925.673 .0317428
926.313 .0317255
926.953 .0317079
927.593 .0316901
928.232 .0316722
928.871 .0316541
929.510 .0316360
930.148 .0316178
930.786 .0315995
931.423 .0315810
932.060 .0315625
932.697 .0315438
933.333 .0315250
933.969 .0315062
934.604 .0314874
935.239 .0314687
935.874 .0314499
936.508 .0314311
937.142 .0314123
937.776 .0313934
938.409 .0313744
939.042 .0313552
939.674 .0313359
940.306 .0313165
940.938 .0312969
941.569 .0312773
942.200 .0312576
942.830 .0312379
943.460 .0312181
944.090 .0311983
944.720 .0311784
945.349 .0311585
945.977 .0311384
946.606 .0311183
947.233 .0310980
947.861 .0310777
948.488 .0310574
949.115 .0310370
949.741 .0310167
950.367 .0309964
950.993 .0309761
951.618 .0309557
952.243 .0309353
952.868 .0309148
953.492 .0308941
954.115 .0308734
954.739 .0308527
955.362 .0308320
955.984 .0308113
956.607 .0307908
957.229 .0307704
957.850 .0307501
958.471 .0307299
959.092 .0307099
959.713 .0306899
960.333 .0306701
960.952 .0306505
961.572 .0306310
962.191 .0306120
962.809 .0305933
963.428 .0305751
964.045 .0305573
964.663 .0305401
965.280 .0305234
965.897 .0305071
966.513 .0304911
967.129 .0304755
967.745 .0304602
968.361 .0304451
968.976 .0304305
969.590 .0304162
970.205 .0304025
970.818 .0303892
971.432 .0303765
972.045 .0303642
972.658 .0303523
973.271 .0303408
973.883 .0303295
974.495 .0303184
975.106 .0303074
975.717 .0302965
976.328 .0302857
976.938 .0302749
977.548 .0302642
978.158 .0302536
978.768 .0302369
979.377 .0302262
979.985 .0302153
980.594 .0302043
981.202 .0301930
981.809 .0301816
982.417 .0301700
983.024 .0301583
983.631 .0301465
984.237 .0301347
984.843 .0301230
985.449 .0301114
986.054 .0300999
986.659 .0300884
987.264 .0300832
987.868 .0300720
988.472 .0300610
989.076 .0300502
989.679 .0300395
990.282 .0300291
990.885 .0300190
991.487 .0300091
992.090 .0299996
992.691 .0299903
993.293 .0299813
993.894 .0299725
994.495 .0299639
995.095 .0299555
995.696 .0299472
996.296 .0299391
996.895 .0299312
997.494 .0299235
998.093 .0299159
998.692 .0299086
999.291 .0299014
999.889 .0298943
1000.487 .0298872
1001.084 .0298803
1001.681 .0298734
1002.278 .0298667
1002.875 .0298601
1003.471 .0298536
1004.067 .0298474
1004.663 .0298413
1005.258 .0298355
1005.854 .0298298
1006.449 .0298243
1007.043 .0298189
1007.638 .0298137
1008.232 .0298088
1008.826 .0298042
1009.419 .0298000
1010.012 .0297964
1010.605 .0297932
1011.198 .0297907
1011.791 .0297887
1012.383 .0297872
1012.975 .0297863
1013.566 .0297859
1014.158 .0297858
1014.749 .0297862
1015.340 .0297869
1015.931 .0297880
1016.521 .0297893
1017.111 .0297908
1017.701 .0297925
1018.291 .0297943
1018.880 .0297961
1019.470 .0297978
1020.059 .0297992
1020.647 .0298004
1021.236 .0298012
1021.824 .0298018
1022.412 .0298019
1023.000 .0298018
1023.588 .0298014
1024.175 .0298007
1024.762 .0297999
1025.349 .0297988
1025.936 .0297974
1026.523 .0297958
1027.109 .0297938
1027.695 .0297916
1028.281 .0297891
1028.867 .0297863
1029.452 .0297835
1030.038 .0297806
1030.623 .0297777
1031.208 .0297750
1031.792 .0297724
1032.377 .0297701
1032.961 .0297679
1033.546 .0297659
1034.130 .0297641
1034.714 .0297624
1035.297 .0297610
1035.881 .0297597
1036.464 .0297587
1037.047 .0297579
1037.630 .0297574
1038.213 .0297572
1038.796 .0297571
1039.378 .0297570
1039.961 .0297569
1040.543 .0297566
1041.125 .0297559
1041.707 .0297546
1042.289 .0297528
1042.871 .0297504
1043.452 .0297473
1044.034 .0297438
1044.615 .0297397
1045.196 .0297353
1045.777 .0297305
1046.358 .0297253
1046.939 .0297197
1047.520 .0297136
1048.101 .0297071
1048.681 .0297000
1049.262 .0296925
1049.842 .0296846
1050.422 .0296764
1051.002 .0296682
1051.582 .0296600
1052.162 .0296519
1052.742 .0296439
1053.322 .0296361
1053.902 .0296285
1054.482 .0296210
1055.061 .0296136
1055.641 .0296064
1056.220 .0295993
1056.800 .0295925
1057.379 .0295859
1057.958 .0295796
1058.538 .0295736
1059.117 .0295680
1059.696 .0295627
1060.275 .0295575
1060.854 .0295524
1061.433 .0295473
1062.012 .0295420
1062.592 .0295363
1063.171 .0295304
1063.750 .0295240
1064.329 .0295171
1064.908 .0295098
1065.487 .0295021
1066.066 .0294940
1066.645 .0294856
1067.224 .0294769
1067.803 .0294679
1068.382 .0294586
1068.961 .0294489
1069.540 .0294390
1070.119 .0294287
1070.698 .0294181
1071.278 .0294071
1071.857 .0293959
1072.436 .0293844
1073.016 .0293727
1073.595 .0293610
1074.175 .0293493
1074.754 .0293376
1075.334 .0293261
1075.913 .0293149
1076.493 .0293038
1077.073 .0292930
1077.653 .0292826
1078.233 .0292724
1078.813 .0292627
1079.393 .0292533
1079.974 .0292444
1080.554 .0292359
1081.135 .0292280
1081.716 .0292207
1082.296 .0292138
1082.877 .0292073
1083.458 .0292011
1084.040 .0291950
1084.621 .0291891
1085.202 .0291832
1085.784 .0291773
1086.366 .0291713
1086.948 .0291653
1087.530 .0291594
1088.112 .0291534
1088.695 .0291475
1089.277 .0291417
1089.860 .0291359
1090.443 .0291303
1091.026 .0291249
1091.610 .0291196
1092.193 .0291144
1092.777 .0291096
1093.361 .0291050
1093.946 .0291005
1094.530 .0290962
1095.115 .0290920
1095.700 .0290878
1096.285 .0290837
1096.871 .0290796
1097.456 .0290754
1098.042 .0290712
1098.628 .0290669
1099.215 .0290624
1099.802 .0290578
1100.389 .0290530
1100.976 .0290480
1101.564 .0290431
1102.152 .0290381
1102.740 .0290335
1103.329 .0290293
1103.917 .0290257
1104.507 .0290231
1105.096 .0290215
1105.686 .0290210
1106.276 .0290215
1106.867 .0290231
1107.457 .0290258
1108.049 .0290295
1108.640 .0290340
1109.232 .0290395
1109.825 .0290457
1110.417 .0290530
1111.010 .0290613
1111.604 .0290708
1112.198 .0290816
1112.792 .0290937
1113.387 .0291071
1113.982 .0291218
1114.577 .0291378
1115.173 .0291550
1115.769 .0291735
1116.366 .0291932
1116.963 .0292140
1117.561 .0292360
1118.159 .0292591
1118.758 .0292832
1119.357 .0293085
1119.957 .0293350
1120.557 .0293625
1121.157 .0293910
1121.758 .0294203
1122.360 .0294504
1122.962 .0294810
1123.564 .0295119
1124.167 .0295265
1124.771 .0295576
1125.375 .0295888
1125.980 .0296199
1126.585 .0296511
1127.191 .0296831
1127.797 .0297163
1128.404 .0297509
1129.012 .0297876
1129.620 .0298265
1130.229 .0298677
1130.838 .0299113
1131.448 .0299572
1132.058 .0300053
1132.669 .0300748
1133.281 .0301295
1133.894 .0301871
1134.507 .0302442
1135.120 .0303115
1135.735 .0303866
1136.350 .0304689
1136.965 .0303454
1137.582 .0304425
1138.199 .0305424
1138.816 .0306409
1139.435 .0307370
1140.054 .0308343
1140.674 .0309382
1141.294 .0310514
1141.916 .0311555
1142.538 .0311638
1143.160 .0314633
1143.784 .0317007
1144.408 .0319226
1145.033 .0314657
