Measurement Sequence started on: 14-45-04-498
Integration time: 36
Scans to Average: 2 
>>>>>Begin Spectral Data<<<<<
433.946 .0513332
434.870 .0511111
435.793 .0438203
436.715 .0428497
437.635 .0416344
438.555 .0432488
439.473 .0426531
440.389 .0422830
441.305 .0422221
442.219 .0422126
443.132 .0428793
444.044 .0424022
444.954 .0423049
445.863 .0422548
446.771 .0422648
447.678 .0421855
448.584 .0421329
449.488 .0420947
450.391 .0420543
451.293 .0420090
452.194 .0419567
453.094 .0418981
453.992 .0418324
454.890 .0417605
455.786 .0416834
456.681 .0416017
457.575 .0415166
458.468 .0414293
459.360 .0413407
460.250 .0412513
461.140 .0411608
462.028 .0410696
462.915 .0409781
463.801 .0408865
464.687 .0407953
465.571 .0407052
466.454 .0406171
467.335 .0405314
468.216 .0404484
469.096 .0403681
469.975 .0402906
470.853 .0402157
471.729 .0401432
472.605 .0400732
473.479 .0400061
474.353 .0399420
475.226 .0398813
476.097 .0398244
476.968 .0397713
477.838 .0397219
478.706 .0396761
479.574 .0396334
480.441 .0395935
481.306 .0395564
482.171 .0395215
483.035 .0394889
483.898 .0394585
484.760 .0394305
485.621 .0394049
486.481 .0393817
487.340 .0393609
488.198 .0393423
489.055 .0393253
489.912 .0393095
490.767 .0392945
491.622 .0392736
492.476 .0392584
493.329 .0392429
494.180 .0392269
495.032 .0392100
495.882 .0391924
496.731 .0391738
497.580 .0391542
498.427 .0391333
499.274 .0391108
500.120 .0390943
500.965 .0390685
501.809 .0390406
502.653 .0390104
503.495 .0389779
504.337 .0389432
505.178 .0389062
506.018 .0388675
506.858 .0388272
507.696 .0387856
508.534 .0387430
509.371 .0386997
510.208 .0386560
511.043 .0386119
511.878 .0385677
512.712 .0385237
513.545 .0384800
514.377 .0384366
515.209 .0383933
516.040 .0383500
516.870 .0383066
517.699 .0382627
518.528 .0382182
519.356 .0381732
520.183 .0381278
521.010 .0380822
521.836 .0380360
522.661 .0379896
523.485 .0379426
524.309 .0378948
525.132 .0378457
525.954 .0377950
526.776 .0377424
527.597 .0376878
528.417 .0376309
529.237 .0375726
530.056 .0375130
530.874 .0374528
531.692 .0373919
532.508 .0373308
533.325 .0372696
534.140 .0372081
534.955 .0371465
535.770 .0370850
536.583 .0370234
537.397 .0369622
538.209 .0369014
539.021 .0368421
539.832 .0367848
540.643 .0367303
541.453 .0366789
542.262 .0366309
543.071 .0365861
543.879 .0365444
544.687 .0365052
545.494 .0364683
546.300 .0364329
547.106 .0363986
547.911 .0363652
548.716 .0363329
549.520 .0363018
550.323 .0362728
551.126 .0362461
551.929 .0362223
552.731 .0362011
553.532 .0361822
554.332 .0361647
555.133 .0361482
555.932 .0361315
556.731 .0361138
557.530 .0360943
558.328 .0360730
559.125 .0360501
559.922 .0360261
560.719 .0360015
561.515 .0359767
562.310 .0359523
563.105 .0359284
563.899 .0359045
564.693 .0358804
565.487 .0358556
566.280 .0358298
567.072 .0358026
567.864 .0357738
568.655 .0357435
569.446 .0357120
570.236 .0356799
571.026 .0356474
571.816 .0356147
572.605 .0355822
573.393 .0355498
574.181 .0355176
574.969 .0354853
575.756 .0354526
576.543 .0354194
577.329 .0353859
578.115 .0353520
578.900 .0353177
579.685 .0352832
580.469 .0352488
581.253 .0352146
582.036 .0351806
582.820 .0351469
583.602 .0351134
584.384 .0350799
585.166 .0350464
585.947 .0350125
586.728 .0349784
587.509 .0349440
588.289 .0349094
589.069 .0348749
589.848 .0348403
590.627 .0348057
591.405 .0347713
592.183 .0347370
592.961 .0347026
593.738 .0346683
594.515 .0346340
595.291 .0345997
596.067 .0345654
596.843 .0345312
597.618 .0344974
598.393 .0344490
599.167 .0344168
599.941 .0343853
600.715 .0343545
601.488 .0343243
602.261 .0342950
603.034 .0342665
603.806 .0342388
604.578 .0342118
605.349 .0341856
606.121 .0341602
606.891 .0341497
607.662 .0341256
608.432 .0341023
609.201 .0340798
609.971 .0340582
610.740 .0340374
611.508 .0340173
612.277 .0339979
613.045 .0339791
613.812 .0339608
614.579 .0339428
615.346 .0339252
616.113 .0339078
616.879 .0338905
617.645 .0338735
618.411 .0338565
619.176 .0338396
619.941 .0338226
620.705 .0338055
621.470 .0337881
622.233 .0337704
622.997 .0337524
623.760 .0337341
624.523 .0337156
625.286 .0336967
626.048 .0336775
626.810 .0336580
627.572 .0336382
628.333 .0336181
629.095 .0335976
629.855 .0335767
630.616 .0335554
631.376 .0335337
632.136 .0335116
632.895 .0334891
633.655 .0334664
634.414 .0334433
635.172 .0334200
635.931 .0333964
636.689 .0333725
637.447 .0333485
638.204 .0333243
638.962 .0333000
639.718 .0332755
640.475 .0332510
641.231 .0332263
641.988 .0332014
642.743 .0331765
643.499 .0331515
644.254 .0331265
645.009 .0331015
645.764 .0330766
646.518 .0330518
647.272 .0330273
648.026 .0330029
648.780 .0329787
649.533 .0329548
650.286 .0329310
651.039 .0329075
651.792 .0328842
652.544 .0328614
653.296 .0328390
654.048 .0328172
654.799 .0327960
655.550 .0327755
656.301 .0327558
657.052 .0327368
657.802 .0327185
658.552 .0327009
659.302 .0326839
660.052 .0326675
660.801 .0326518
661.550 .0326366
662.299 .0326221
663.048 .0326082
663.796 .0325948
664.544 .0325820
665.292 .0325697
666.040 .0325578
666.787 .0325462
667.534 .0325349
668.281 .0325239
669.028 .0325129
669.774 .0325020
670.521 .0324911
671.266 .0324800
672.012 .0324689
672.758 .0324575
673.503 .0324458
674.248 .0324339
674.992 .0324217
675.737 .0324091
676.481 .0323962
677.225 .0323831
677.969 .0323697
678.712 .0323560
679.455 .0323421
680.199 .0323280
680.941 .0323137
681.684 .0322993
682.426 .0322848
683.168 .0322702
683.910 .0322555
684.652 .0322407
685.393 .0322258
686.134 .0322108
686.875 .0321957
687.616 .0321806
688.356 .0321654
689.097 .0321502
689.837 .0321348
690.576 .0321193
691.316 .0321037
692.055 .0320879
692.794 .0320720
693.533 .0320557
694.272 .0320392
695.010 .0320224
695.748 .0320052
696.486 .0319877
697.224 .0319699
697.962 .0319518
698.699 .0319333
699.436 .0319146
700.173 .0318958
700.909 .0318770
701.646 .0318581
702.382 .0318393
703.118 .0318207
703.853 .0318022
704.589 .0317838
705.324 .0317657
706.059 .0317477
706.794 .0317299
707.529 .0317124
708.263 .0316951
708.997 .0316781
709.731 .0316615
710.465 .0316453
711.198 .0316294
711.931 .0316140
712.664 .0315989
713.397 .0315841
714.130 .0315696
714.862 .0315554
715.594 .0315413
716.326 .0315275
717.058 .0315139
717.789 .0315004
718.520 .0314871
719.251 .0314738
719.982 .0314607
720.713 .0314476
721.443 .0314348
722.173 .0314221
722.903 .0314097
723.633 .0313975
724.362 .0313857
725.091 .0313742
725.820 .0313631
726.549 .0313523
727.278 .0313419
728.006 .0313318
728.734 .0313220
729.462 .0313125
730.190 .0313033
730.917 .0312945
731.644 .0312860
732.371 .0312778
733.098 .0312699
733.825 .0312623
734.551 .0312549
735.277 .0312477
736.003 .0312407
736.728 .0312339
737.454 .0312274
738.179 .0312211
738.904 .0312150
739.629 .0312091
740.353 .0312033
741.077 .0311975
741.801 .0311916
742.525 .0311856
743.249 .0311794
743.972 .0311730
744.695 .0311665
745.418 .0311598
746.141 .0311530
746.863 .0311461
747.585 .0311390
748.307 .0311316
749.029 .0311240
749.750 .0311159
750.472 .0311073
751.193 .0310981
751.913 .0310883
752.634 .0310779
753.354 .0310670
754.074 .0310554
754.794 .0310433
755.514 .0310307
756.233 .0310174
756.952 .0310037
757.671 .0309895
758.390 .0309749
759.108 .0309599
759.826 .0309445
760.544 .0309289
761.262 .0309130
761.979 .0308970
762.697 .0308809
763.414 .0308647
764.130 .0308484
764.847 .0308322
765.563 .0308161
766.279 .0308003
766.995 .0307847
767.710 .0307695
768.426 .0307547
769.141 .0307404
769.855 .0307264
770.570 .0307129
771.284 .0306998
771.998 .0306870
772.712 .0306746
773.426 .0306624
774.139 .0306506
774.852 .0306389
775.565 .0306275
776.277 .0306163
776.990 .0306052
777.702 .0305944
778.414 .0305837
779.125 .0305732
779.836 .0305628
780.547 .0305527
781.258 .0305427
781.969 .0305329
782.679 .0305231
783.389 .0305088
784.099 .0304992
784.808 .0304898
785.517 .0304804
786.226 .0304712
786.935 .0304621
787.643 .0304533
788.352 .0304446
789.060 .0304361
789.767 .0304279
790.475 .0304199
791.182 .0304122
791.889 .0304091
792.595 .0304019
793.301 .0303950
794.008 .0303885
794.713 .0303823
795.419 .0303766
796.124 .0303712
796.829 .0303662
797.534 .0303615
798.238 .0303572
798.942 .0303532
799.646 .0303496
800.350 .0303465
801.053 .0303438
801.756 .0303415
802.459 .0303397
803.162 .0303382
803.864 .0303370
804.566 .0303360
805.267 .0303352
805.969 .0303345
806.670 .0303338
807.371 .0303332
808.071 .0303326
808.772 .0303319
809.472 .0303311
810.171 .0303301
810.871 .0303288
811.570 .0303272
812.269 .0303251
812.967 .0303224
813.666 .0303192
814.364 .0303153
815.061 .0303107
815.759 .0303055
816.456 .0302996
817.153 .0302931
817.849 .0302859
818.545 .0302780
819.241 .0302694
819.937 .0302601
820.632 .0302502
821.327 .0302395
822.022 .0302283
822.717 .0302165
823.411 .0302041
824.105 .0301913
824.798 .0301781
825.491 .0301645
826.184 .0301505
826.877 .0301364
827.569 .0301220
828.261 .0301075
828.953 .0300929
829.645 .0300783
830.336 .0300637
831.027 .0300491
831.717 .0300347
832.407 .0300203
833.097 .0300060
833.787 .0299918
834.476 .0299777
835.165 .0299635
835.854 .0299494
836.542 .0299352
837.230 .0299208
837.918 .0299064
838.605 .0298916
839.292 .0298766
839.979 .0298613
840.665 .0298455
841.352 .0298294
842.037 .0298129
842.723 .0297959
843.408 .0297786
844.093 .0297608
844.777 .0297426
845.462 .0297240
846.145 .0297049
846.829 .0296854
847.512 .0296656
848.195 .0296453
848.878 .0296248
849.560 .0296040
850.242 .0295830
850.923 .0295619
851.605 .0295408
852.286 .0295196
852.966 .0294984
853.646 .0294773
854.326 .0294563
855.006 .0294355
855.685 .0294149
856.364 .0293947
857.043 .0293748
857.721 .0293554
858.399 .0293365
859.077 .0293181
859.754 .0293002
860.431 .0292829
861.107 .0292661
861.784 .0292499
862.459 .0292341
863.135 .0292189
863.810 .0292042
864.485 .0291899
865.160 .0291761
865.834 .0291627
866.508 .0291497
867.181 .0291371
867.854 .0291247
868.527 .0291126
869.199 .0291009
869.872 .0290895
870.543 .0290785
871.215 .0290679
871.886 .0290578
872.557 .0290481
873.227 .0290389
873.897 .0290303
874.567 .0290221
875.236 .0290143
875.905 .0290071
876.573 .0290002
877.242 .0289936
877.909 .0289874
878.577 .0289816
879.244 .0289760
879.911 .0289708
880.577 .0289658
881.243 .0289612
881.909 .0289569
882.575 .0289529
883.240 .0289493
883.904 .0289459
884.569 .0289427
885.232 .0289398
885.896 .0289372
886.559 .0289348
887.222 .0289326
887.885 .0289307
888.547 .0289291
889.208 .0289278
889.870 .0289268
890.531 .0289261
891.192 .0289256
891.852 .0289255
892.512 .0289255
893.171 .0289259
893.830 .0289264
894.489 .0289271
895.148 .0289280
895.806 .0289290
896.464 .0289301
897.121 .0289314
897.778 .0289326
898.434 .0289339
899.091 .0289357
899.747 .0289367
900.402 .0289377
901.057 .0289384
901.712 .0289389
902.366 .0289390
903.020 .0289387
903.674 .0289378
904.327 .0289362
904.980 .0289340
905.633 .0289310
906.285 .0289272
906.936 .0289226
907.588 .0289180
908.239 .0289123
908.889 .0289058
909.540 .0288985
910.190 .0288905
910.839 .0288818
911.488 .0288724
912.137 .0288624
912.785 .0288517
913.433 .0288403
914.081 .0288284
914.728 .0288159
915.375 .0288028
916.021 .0287891
916.668 .0287748
917.313 .0287600
917.959 .0287445
918.604 .0287285
919.248 .0287120
919.892 .0286950
920.536 .0286776
921.180 .0286598
921.823 .0286417
922.465 .0286233
923.108 .0286046
923.750 .0285856
924.391 .0285663
925.032 .0285468
925.673 .0285269
926.313 .0285068
926.953 .0284865
927.593 .0284660
928.232 .0284454
928.871 .0284246
929.510 .0284036
930.148 .0283825
930.786 .0283612
931.423 .0283395
932.060 .0283174
932.697 .0282948
933.333 .0282718
933.969 .0282482
934.604 .0282243
935.239 .0281999
935.874 .0281753
936.508 .0281505
937.142 .0281255
937.776 .0281004
938.409 .0280751
939.042 .0280496
939.674 .0280240
940.306 .0279983
940.938 .0279723
941.569 .0279462
942.200 .0279201
942.830 .0278939
943.460 .0278677
944.090 .0278415
944.720 .0278152
945.349 .0277890
945.977 .0277627
946.606 .0277364
947.233 .0277102
947.861 .0276840
948.488 .0276581
949.115 .0276324
949.741 .0276072
950.367 .0275824
950.993 .0275582
951.618 .0275345
952.243 .0275113
952.868 .0274886
953.492 .0274665
954.115 .0274448
954.739 .0274237
955.362 .0274031
955.984 .0273830
956.607 .0273635
957.229 .0273447
957.850 .0273265
958.471 .0273089
959.092 .0272918
959.713 .0272753
960.333 .0272593
960.952 .0272438
961.572 .0272286
962.191 .0272137
962.809 .0271993
963.428 .0271851
964.045 .0271713
964.663 .0271579
965.280 .0271450
965.897 .0271326
966.513 .0271206
967.129 .0271091
967.745 .0270981
968.361 .0270874
968.976 .0270772
969.590 .0270673
970.205 .0270577
970.818 .0270486
971.432 .0270398
972.045 .0270315
972.658 .0270236
973.271 .0270162
973.883 .0270092
974.495 .0270026
975.106 .0269964
975.717 .0269905
976.328 .0269850
976.938 .0269797
977.548 .0269749
978.158 .0269704
978.768 .0269655
979.377 .0269618
979.985 .0269584
980.594 .0269552
981.202 .0269523
981.809 .0269494
982.417 .0269467
983.024 .0269441
983.631 .0269417
984.237 .0269395
984.843 .0269375
985.449 .0269358
986.054 .0269343
986.659 .0269329
987.264 .0269322
987.868 .0269309
988.472 .0269297
989.076 .0269284
989.679 .0269272
990.282 .0269261
990.885 .0269252
991.487 .0269244
992.090 .0269239
992.691 .0269237
993.293 .0269238
993.894 .0269241
994.495 .0269248
995.095 .0269257
995.696 .0269269
996.296 .0269283
996.895 .0269302
997.494 .0269325
998.093 .0269353
998.692 .0269387
999.291 .0269426
999.889 .0269469
1000.487 .0269517
1001.084 .0269567
1001.681 .0269619
1002.278 .0269673
1002.875 .0269727
1003.471 .0269782
1004.067 .0269837
1004.663 .0269893
1005.258 .0269949
1005.854 .0270006
1006.449 .0270063
1007.043 .0270121
1007.638 .0270177
1008.232 .0270232
1008.826 .0270286
1009.419 .0270338
1010.012 .0270388
1010.605 .0270435
1011.198 .0270481
1011.791 .0270526
1012.383 .0270570
1012.975 .0270614
1013.566 .0270657
1014.158 .0270700
1014.749 .0270744
1015.340 .0270787
1015.931 .0270830
1016.521 .0270873
1017.111 .0270915
1017.701 .0270957
1018.291 .0270998
1018.880 .0271038
1019.470 .0271077
1020.059 .0271116
1020.647 .0271155
1021.236 .0271194
1021.824 .0271232
1022.412 .0271271
1023.000 .0271309
1023.588 .0271345
1024.175 .0271381
1024.762 .0271414
1025.349 .0271445
1025.936 .0271473
1026.523 .0271498
1027.109 .0271520
1027.695 .0271540
1028.281 .0271557
1028.867 .0271571
1029.452 .0271581
1030.038 .0271588
1030.623 .0271591
1031.208 .0271590
1031.792 .0271585
1032.377 .0271577
1032.961 .0271564
1033.546 .0271548
1034.130 .0271528
1034.714 .0271504
1035.297 .0271477
1035.881 .0271445
1036.464 .0271409
1037.047 .0271368
1037.630 .0271323
1038.213 .0271274
1038.796 .0271221
1039.378 .0271165
1039.961 .0271106
1040.543 .0271044
1041.125 .0270979
1041.707 .0270911
1042.289 .0270839
1042.871 .0270764
1043.452 .0270685
1044.034 .0270603
1044.615 .0270517
1045.196 .0270429
1045.777 .0270338
1046.358 .0270246
1046.939 .0270152
1047.520 .0270057
1048.101 .0269959
1048.681 .0269860
1049.262 .0269758
1049.842 .0269654
1050.422 .0269546
1051.002 .0269435
1051.582 .0269321
1052.162 .0269205
1052.742 .0269086
1053.322 .0268965
1053.902 .0268843
1054.482 .0268720
1055.061 .0268597
1055.641 .0268475
1056.220 .0268352
1056.800 .0268231
1057.379 .0268111
1057.958 .0267992
1058.538 .0267874
1059.117 .0267758
1059.696 .0267642
1060.275 .0267527
1060.854 .0267412
1061.433 .0267297
1062.012 .0267182
1062.592 .0267067
1063.171 .0266950
1063.750 .0266832
1064.329 .0266712
1064.908 .0266590
1065.487 .0266467
1066.066 .0266343
1066.645 .0266218
1067.224 .0266095
1067.803 .0265974
1068.382 .0265856
1068.961 .0265743
1069.540 .0265634
1070.119 .0265531
1070.698 .0265432
1071.278 .0265339
1071.857 .0265250
1072.436 .0265166
1073.016 .0265086
1073.595 .0265010
1074.175 .0264938
1074.754 .0264869
1075.334 .0264803
1075.913 .0264739
1076.493 .0264676
1077.073 .0264612
1077.653 .0264547
1078.233 .0264479
1078.813 .0264406
1079.393 .0264330
1079.974 .0264249
1080.554 .0264163
1081.135 .0264074
1081.716 .0263981
1082.296 .0263884
1082.877 .0263783
1083.458 .0263678
1084.040 .0263566
1084.621 .0263450
1085.202 .0263328
1085.784 .0263201
1086.366 .0263071
1086.948 .0262938
1087.530 .0262804
1088.112 .0262669
1088.695 .0262536
1089.277 .0262401
1089.860 .0262268
1090.443 .0262134
1091.026 .0262001
1091.610 .0261868
1092.193 .0261736
1092.777 .0261609
1093.361 .0261487
1093.946 .0261372
1094.530 .0261266
1095.115 .0261171
1095.700 .0261087
1096.285 .0261014
1096.871 .0260951
1097.456 .0260899
1098.042 .0260856
1098.628 .0260821
1099.215 .0260796
1099.802 .0260780
1100.389 .0260775
1100.976 .0260782
1101.564 .0260801
1102.152 .0260834
1102.740 .0260880
1103.329 .0260939
1103.917 .0261011
1104.507 .0261094
1105.096 .0261186
1105.686 .0261284
1106.276 .0261387
1106.867 .0261494
1107.457 .0261603
1108.049 .0261713
1108.640 .0261824
1109.232 .0261938
1109.825 .0262052
1110.417 .0262167
1111.010 .0262281
1111.604 .0262396
1112.198 .0262509
1112.792 .0262619
1113.387 .0262729
1113.982 .0262838
1114.577 .0262947
1115.173 .0263059
1115.769 .0263176
1116.366 .0263300
1116.963 .0263432
1117.561 .0263572
1118.159 .0263723
1118.758 .0263881
1119.357 .0264047
1119.957 .0264222
1120.557 .0264404
1121.157 .0264595
1121.758 .0264793
1122.360 .0264999
1122.962 .0265216
1123.564 .0265445
1124.167 .0265512
1124.771 .0265758
1125.375 .0266019
1125.980 .0266292
1126.585 .0266578
1127.191 .0266876
1127.797 .0267188
1128.404 .0267514
1129.012 .0267854
1129.620 .0268212
1130.229 .0268586
1130.838 .0268978
1131.448 .0269388
1132.058 .0269813
1132.669 .0270468
1133.281 .0270934
1133.894 .0271414
1134.507 .0271880
1135.120 .0272314
1135.735 .0272895
1136.350 .0273419
1136.965 .0273650
1137.582 .0274156
1138.199 .0274653
1138.816 .0275165
1139.435 .0275693
1140.054 .0276185
1140.674 .0276775
1141.294 .0277340
1141.916 .0277977
1142.538 .0277955
1143.160 .0277446
1143.784 .0281801
1144.408 .0280684
1145.033 .0282858
