Measurement Sequence started on: 14-45-04-498
Integration time: 36
Scans to Average: 2 
>>>>>Begin Spectral Data<<<<<
433.946 .0508601
434.870 .0503406
435.793 .0467367
436.715 .0461820
437.635 .0452664
438.555 .0453354
439.473 .0446839
440.389 .0441560
441.305 .0438050
442.219 .0435195
443.132 .0442058
444.044 .0438131
444.954 .0436085
445.863 .0434308
446.771 .0432978
447.678 .0431565
448.584 .0430438
449.488 .0429522
450.391 .0428719
451.293 .0427990
452.194 .0427295
453.094 .0426604
453.992 .0425889
454.890 .0425130
455.786 .0424306
456.681 .0423407
457.575 .0422422
458.468 .0421355
459.360 .0420211
460.250 .0418998
461.140 .0417728
462.028 .0416416
462.915 .0415078
463.801 .0413735
464.687 .0412401
465.571 .0411089
466.454 .0409809
467.335 .0408566
468.216 .0407364
469.096 .0406207
469.975 .0405101
470.853 .0404046
471.729 .0403045
472.605 .0402102
473.479 .0401218
474.353 .0400395
475.226 .0399629
476.097 .0398915
476.968 .0398246
477.838 .0397614
478.706 .0397008
479.574 .0396421
480.441 .0395849
481.306 .0395289
482.171 .0394742
483.035 .0394207
483.898 .0393685
484.760 .0393175
485.621 .0392677
486.481 .0392186
487.340 .0391702
488.198 .0391219
489.055 .0390736
489.912 .0390252
490.767 .0389767
491.622 .0389045
492.476 .0388558
493.329 .0388069
494.180 .0387577
495.032 .0387081
495.882 .0386579
496.731 .0386067
497.580 .0385541
498.427 .0384999
499.274 .0384439
500.120 .0384120
500.965 .0383537
501.809 .0382941
502.653 .0382337
503.495 .0381728
504.337 .0381118
505.178 .0380511
506.018 .0379907
506.858 .0379309
507.696 .0378717
508.534 .0378131
509.371 .0377551
510.208 .0376977
511.043 .0376414
511.878 .0375865
512.712 .0375334
513.545 .0374824
514.377 .0374333
515.209 .0373863
516.040 .0373412
516.870 .0372973
517.699 .0372540
518.528 .0372107
519.356 .0371669
520.183 .0371226
521.010 .0370780
521.836 .0370331
522.661 .0369882
523.485 .0369441
524.309 .0369008
525.132 .0368584
525.954 .0368171
526.776 .0367770
527.597 .0367379
528.417 .0366998
529.237 .0366623
530.056 .0366253
530.874 .0365890
531.692 .0365532
532.508 .0365177
533.325 .0364827
534.140 .0364486
534.955 .0364156
535.770 .0363840
536.583 .0363537
537.397 .0363246
538.209 .0362959
539.021 .0362674
539.832 .0362383
540.643 .0362081
541.453 .0361763
542.262 .0361429
543.071 .0361078
543.879 .0360713
544.687 .0360331
545.494 .0359934
546.300 .0359525
547.106 .0359103
547.911 .0358662
548.716 .0358204
549.520 .0357733
550.323 .0357253
551.126 .0356768
551.929 .0356286
552.731 .0355814
553.532 .0355358
554.332 .0354922
555.133 .0354509
555.932 .0354123
556.731 .0353761
557.530 .0353422
558.328 .0353103
559.125 .0352804
559.922 .0352523
560.719 .0352256
561.515 .0352006
562.310 .0351771
563.105 .0351548
563.899 .0351334
564.693 .0351128
565.487 .0350929
566.280 .0350735
567.072 .0350539
567.864 .0350338
568.655 .0350127
569.446 .0349900
570.236 .0349655
571.026 .0349387
571.816 .0349095
572.605 .0348781
573.393 .0348445
574.181 .0348091
574.969 .0347723
575.756 .0347342
576.543 .0346951
577.329 .0346554
578.115 .0346151
578.900 .0345743
579.685 .0345333
580.469 .0344923
581.253 .0344517
582.036 .0344116
582.820 .0343725
583.602 .0343346
584.384 .0342981
585.166 .0342633
585.947 .0342302
586.728 .0341987
587.509 .0341689
588.289 .0341407
589.069 .0341139
589.848 .0340882
590.627 .0340633
591.405 .0340392
592.183 .0340154
592.961 .0339918
593.738 .0339683
594.515 .0339447
595.291 .0339213
596.067 .0338980
596.843 .0338749
597.618 .0338522
598.393 .0338188
599.167 .0337970
599.941 .0337754
600.715 .0337539
601.488 .0337325
602.261 .0337110
603.034 .0336895
603.806 .0336677
604.578 .0336459
605.349 .0336241
606.121 .0336024
606.891 .0335923
607.662 .0335710
608.432 .0335499
609.201 .0335290
609.971 .0335085
610.740 .0334883
611.508 .0334682
612.277 .0334482
613.045 .0334281
613.812 .0334078
614.579 .0333873
615.346 .0333665
616.113 .0333455
616.879 .0333241
617.645 .0333025
618.411 .0332806
619.176 .0332585
619.941 .0332359
620.705 .0332130
621.470 .0331896
622.233 .0331657
622.997 .0331411
623.760 .0331159
624.523 .0330901
625.286 .0330638
626.048 .0330371
626.810 .0330102
627.572 .0329830
628.333 .0329559
629.095 .0329288
629.855 .0329020
630.616 .0328755
631.376 .0328495
632.136 .0328239
632.895 .0327988
633.655 .0327744
634.414 .0327506
635.172 .0327274
635.931 .0327050
636.689 .0326833
637.447 .0326623
638.204 .0326422
638.962 .0326229
639.718 .0326043
640.475 .0325866
641.231 .0325695
641.988 .0325531
642.743 .0325372
643.499 .0325217
644.254 .0325066
645.009 .0324917
645.764 .0324769
646.518 .0324622
647.272 .0324474
648.026 .0324325
648.780 .0324174
649.533 .0324021
650.286 .0323864
651.039 .0323703
651.792 .0323539
652.544 .0323371
653.296 .0323198
654.048 .0323023
654.799 .0322845
655.550 .0322664
656.301 .0322482
657.052 .0322299
657.802 .0322115
658.552 .0321932
659.302 .0321748
660.052 .0321566
660.801 .0321385
661.550 .0321206
662.299 .0321030
663.048 .0320856
663.796 .0320686
664.544 .0320521
665.292 .0320360
666.040 .0320203
666.787 .0320051
667.534 .0319903
668.281 .0319758
669.028 .0319617
669.774 .0319479
670.521 .0319343
671.266 .0319210
672.012 .0319080
672.758 .0318952
673.503 .0318827
674.248 .0318703
674.992 .0318581
675.737 .0318460
676.481 .0318339
677.225 .0318218
677.969 .0318096
678.712 .0317973
679.455 .0317849
680.199 .0317725
680.941 .0317599
681.684 .0317473
682.426 .0317347
683.168 .0317221
683.910 .0317096
684.652 .0316972
685.393 .0316849
686.134 .0316728
686.875 .0316608
687.616 .0316491
688.356 .0316375
689.097 .0316261
689.837 .0316149
690.576 .0316039
691.316 .0315930
692.055 .0315824
692.794 .0315719
693.533 .0315617
694.272 .0315517
695.010 .0315420
695.748 .0315324
696.486 .0315230
697.224 .0315137
697.962 .0315044
698.699 .0314950
699.436 .0314854
700.173 .0314755
700.909 .0314652
701.646 .0314546
702.382 .0314437
703.118 .0314324
703.853 .0314209
704.589 .0314091
705.324 .0313971
706.059 .0313848
706.794 .0313722
707.529 .0313592
708.263 .0313460
708.997 .0313324
709.731 .0313185
710.465 .0313044
711.198 .0312900
711.931 .0312754
712.664 .0312607
713.397 .0312458
714.130 .0312308
714.862 .0312155
715.594 .0311999
716.326 .0311841
717.058 .0311681
717.789 .0311517
718.520 .0311351
719.251 .0311182
719.982 .0311010
720.713 .0310835
721.443 .0310658
722.173 .0310478
722.903 .0310296
723.633 .0310113
724.362 .0309931
725.091 .0309749
725.820 .0309569
726.549 .0309393
727.278 .0309220
728.006 .0309051
728.734 .0308887
729.462 .0308727
730.190 .0308572
730.917 .0308422
731.644 .0308276
732.371 .0308137
733.098 .0308002
733.825 .0307875
734.551 .0307753
735.277 .0307638
736.003 .0307529
736.728 .0307426
737.454 .0307328
738.179 .0307234
738.904 .0307144
739.629 .0307058
740.353 .0306974
741.077 .0306892
741.801 .0306811
742.525 .0306730
743.249 .0306649
743.972 .0306567
744.695 .0306482
745.418 .0306394
746.141 .0306303
746.863 .0306208
747.585 .0306108
748.307 .0306005
749.029 .0305896
749.750 .0305784
750.472 .0305667
751.193 .0305545
751.913 .0305420
752.634 .0305291
753.354 .0305159
754.074 .0305024
754.794 .0304887
755.514 .0304748
756.233 .0304607
756.952 .0304466
757.671 .0304326
758.390 .0304186
759.108 .0304047
759.826 .0303911
760.544 .0303776
761.262 .0303643
761.979 .0303512
762.697 .0303383
763.414 .0303257
764.130 .0303131
764.847 .0303007
765.563 .0302885
766.279 .0302765
766.995 .0302645
767.710 .0302528
768.426 .0302411
769.141 .0302296
769.855 .0302181
770.570 .0302066
771.284 .0301951
771.998 .0301835
772.712 .0301719
773.426 .0301601
774.139 .0301480
774.852 .0301358
775.565 .0301232
776.277 .0301104
776.990 .0300973
777.702 .0300839
778.414 .0300703
779.125 .0300565
779.836 .0300426
780.547 .0300287
781.258 .0300149
781.969 .0300013
782.679 .0299878
783.389 .0299683
784.099 .0299553
784.808 .0299424
785.517 .0299296
786.226 .0299169
786.935 .0299044
787.643 .0298922
788.352 .0298802
789.060 .0298684
789.767 .0298569
790.475 .0298457
791.182 .0298346
791.889 .0298294
792.595 .0298184
793.301 .0298074
794.008 .0297963
794.713 .0297852
795.419 .0297739
796.124 .0297627
796.829 .0297513
797.534 .0297399
798.238 .0297283
798.942 .0297167
799.646 .0297051
800.350 .0296935
801.053 .0296819
801.756 .0296704
802.459 .0296591
803.162 .0296479
803.864 .0296368
804.566 .0296259
805.267 .0296152
805.969 .0296047
806.670 .0295943
807.371 .0295841
808.071 .0295741
808.772 .0295644
809.472 .0295550
810.171 .0295459
810.871 .0295371
811.570 .0295287
812.269 .0295205
812.967 .0295124
813.666 .0295045
814.364 .0294967
815.061 .0294889
815.759 .0294811
816.456 .0294733
817.153 .0294654
817.849 .0294575
818.545 .0294494
819.241 .0294412
819.937 .0294329
820.632 .0294242
821.327 .0294152
822.022 .0294058
822.717 .0293959
823.411 .0293855
824.105 .0293746
824.798 .0293632
825.491 .0293513
826.184 .0293390
826.877 .0293262
827.569 .0293131
828.261 .0292996
828.953 .0292859
829.645 .0292719
830.336 .0292576
831.027 .0292432
831.717 .0292286
832.407 .0292141
833.097 .0291995
833.787 .0291850
834.476 .0291705
835.165 .0291562
835.854 .0291421
836.542 .0291281
837.230 .0291141
837.918 .0291004
838.605 .0290867
839.292 .0290732
839.979 .0290599
840.665 .0290466
841.352 .0290336
842.037 .0290206
842.723 .0290076
843.408 .0289946
844.093 .0289815
844.777 .0289683
845.462 .0289549
846.145 .0289413
846.829 .0289275
847.512 .0289136
848.195 .0288995
848.878 .0288853
849.560 .0288708
850.242 .0288560
850.923 .0288409
851.605 .0288253
852.286 .0288091
852.966 .0287924
853.646 .0287752
854.326 .0287576
855.006 .0287396
855.685 .0287214
856.364 .0287030
857.043 .0286846
857.721 .0286661
858.399 .0286477
859.077 .0286295
859.754 .0286114
860.431 .0285935
861.107 .0285760
861.784 .0285589
862.459 .0285423
863.135 .0285263
863.810 .0285109
864.485 .0284961
865.160 .0284819
865.834 .0284682
866.508 .0284552
867.181 .0284426
867.854 .0284307
868.527 .0284194
869.199 .0284087
869.872 .0283986
870.543 .0283891
871.215 .0283802
871.886 .0283718
872.557 .0283637
873.227 .0283560
873.897 .0283485
874.567 .0283414
875.236 .0283345
875.905 .0283279
876.573 .0283215
877.242 .0283154
877.909 .0283093
878.577 .0283034
879.244 .0282974
879.911 .0282913
880.577 .0282850
881.243 .0282787
881.909 .0282722
882.575 .0282656
883.240 .0282591
883.904 .0282525
884.569 .0282460
885.232 .0282396
885.896 .0282332
886.559 .0282269
887.222 .0282208
887.885 .0282148
888.547 .0282090
889.208 .0282035
889.870 .0281984
890.531 .0281936
891.192 .0281891
891.852 .0281849
892.512 .0281810
893.171 .0281772
893.830 .0281737
894.489 .0281702
895.148 .0281670
895.806 .0281638
896.464 .0281608
897.121 .0281578
897.778 .0281547
898.434 .0281516
899.091 .0281459
899.747 .0281419
900.402 .0281376
901.057 .0281329
901.712 .0281279
902.366 .0281224
903.020 .0281166
903.674 .0281102
904.327 .0281032
904.980 .0280957
905.633 .0280873
906.285 .0280783
906.936 .0280684
907.588 .0280611
908.239 .0280501
908.889 .0280384
909.540 .0280258
910.190 .0280126
910.839 .0279986
911.488 .0279839
912.137 .0279686
912.785 .0279526
913.433 .0279361
914.081 .0279190
914.728 .0279016
915.375 .0278838
916.021 .0278657
916.668 .0278473
917.313 .0278286
917.959 .0278096
918.604 .0277903
919.248 .0277707
919.892 .0277508
920.536 .0277307
921.180 .0277103
921.823 .0276898
922.465 .0276691
923.108 .0276483
923.750 .0276272
924.391 .0276061
925.032 .0275847
925.673 .0275630
926.313 .0275412
926.953 .0275193
927.593 .0274972
928.232 .0274750
928.871 .0274528
929.510 .0274307
930.148 .0274086
930.786 .0273866
931.423 .0273646
932.060 .0273426
932.697 .0273207
933.333 .0272987
933.969 .0272767
934.604 .0272548
935.239 .0272329
935.874 .0272110
936.508 .0271893
937.142 .0271677
937.776 .0271462
938.409 .0271249
939.042 .0271037
939.674 .0270828
940.306 .0270620
940.938 .0270415
941.569 .0270213
942.200 .0270014
942.830 .0269819
943.460 .0269628
944.090 .0269441
944.720 .0269259
945.349 .0269082
945.977 .0268909
946.606 .0268741
947.233 .0268578
947.861 .0268419
948.488 .0268265
949.115 .0268117
949.741 .0267973
950.367 .0267836
950.993 .0267705
951.618 .0267580
952.243 .0267462
952.868 .0267350
953.492 .0267245
954.115 .0267146
954.739 .0267053
955.362 .0266966
955.984 .0266884
956.607 .0266808
957.229 .0266739
957.850 .0266675
958.471 .0266617
959.092 .0266565
959.713 .0266519
960.333 .0266479
960.952 .0266443
961.572 .0266410
962.191 .0266382
962.809 .0266356
963.428 .0266333
964.045 .0266312
964.663 .0266294
965.280 .0266279
965.897 .0266265
966.513 .0266253
967.129 .0266242
967.745 .0266231
968.361 .0266220
968.976 .0266208
969.590 .0266196
970.205 .0266184
970.818 .0266172
971.432 .0266160
972.045 .0266148
972.658 .0266136
973.271 .0266124
973.883 .0266111
974.495 .0266097
975.106 .0266083
975.717 .0266068
976.328 .0266052
976.938 .0266036
977.548 .0266021
978.158 .0266005
978.768 .0265983
979.377 .0265968
979.985 .0265953
980.594 .0265939
981.202 .0265924
981.809 .0265910
982.417 .0265897
983.024 .0265887
983.631 .0265878
984.237 .0265872
984.843 .0265868
985.449 .0265867
986.054 .0265867
986.659 .0265868
987.264 .0265874
987.868 .0265877
988.472 .0265880
989.076 .0265884
989.679 .0265888
990.282 .0265892
990.885 .0265895
991.487 .0265898
992.090 .0265900
992.691 .0265899
993.293 .0265895
993.894 .0265888
994.495 .0265878
995.095 .0265864
995.696 .0265847
996.296 .0265827
996.895 .0265803
997.494 .0265778
998.093 .0265749
998.692 .0265718
999.291 .0265683
999.889 .0265645
1000.487 .0265603
1001.084 .0265557
1001.681 .0265506
1002.278 .0265451
1002.875 .0265392
1003.471 .0265328
1004.067 .0265260
1004.663 .0265188
1005.258 .0265112
1005.854 .0265031
1006.449 .0264946
1007.043 .0264857
1007.638 .0264764
1008.232 .0264667
1008.826 .0264567
1009.419 .0264464
1010.012 .0264359
1010.605 .0264252
1011.198 .0264145
1011.791 .0264038
1012.383 .0263932
1012.975 .0263825
1013.566 .0263719
1014.158 .0263612
1014.749 .0263506
1015.340 .0263400
1015.931 .0263293
1016.521 .0263185
1017.111 .0263077
1017.701 .0262969
1018.291 .0262862
1018.880 .0262754
1019.470 .0262647
1020.059 .0262541
1020.647 .0262435
1021.236 .0262330
1021.824 .0262226
1022.412 .0262124
1023.000 .0262022
1023.588 .0261923
1024.175 .0261826
1024.762 .0261733
1025.349 .0261643
1025.936 .0261557
1026.523 .0261475
1027.109 .0261398
1027.695 .0261325
1028.281 .0261255
1028.867 .0261189
1029.452 .0261125
1030.038 .0261063
1030.623 .0261004
1031.208 .0260946
1031.792 .0260890
1032.377 .0260835
1032.961 .0260782
1033.546 .0260730
1034.130 .0260678
1034.714 .0260627
1035.297 .0260576
1035.881 .0260525
1036.464 .0260473
1037.047 .0260421
1037.630 .0260369
1038.213 .0260318
1038.796 .0260267
1039.378 .0260216
1039.961 .0260166
1040.543 .0260115
1041.125 .0260063
1041.707 .0260009
1042.289 .0259954
1042.871 .0259897
1043.452 .0259839
1044.034 .0259779
1044.615 .0259720
1045.196 .0259660
1045.777 .0259602
1046.358 .0259546
1046.939 .0259492
1047.520 .0259439
1048.101 .0259388
1048.681 .0259339
1049.262 .0259292
1049.842 .0259245
1050.422 .0259202
1051.002 .0259161
1051.582 .0259124
1052.162 .0259091
1052.742 .0259063
1053.322 .0259040
1053.902 .0259022
1054.482 .0259008
1055.061 .0258998
1055.641 .0258991
1056.220 .0258988
1056.800 .0258987
1057.379 .0258990
1057.958 .0258998
1058.538 .0259009
1059.117 .0259026
1059.696 .0259048
1060.275 .0259075
1060.854 .0259108
1061.433 .0259146
1062.012 .0259188
1062.592 .0259234
1063.171 .0259281
1063.750 .0259330
1064.329 .0259379
1064.908 .0259429
1065.487 .0259479
1066.066 .0259529
1066.645 .0259580
1067.224 .0259632
1067.803 .0259686
1068.382 .0259741
1068.961 .0259798
1069.540 .0259855
1070.119 .0259912
1070.698 .0259966
1071.278 .0260017
1071.857 .0260064
1072.436 .0260107
1073.016 .0260145
1073.595 .0260181
1074.175 .0260215
1074.754 .0260248
1075.334 .0260282
1075.913 .0260315
1076.493 .0260348
1077.073 .0260379
1077.653 .0260406
1078.233 .0260428
1078.813 .0260444
1079.393 .0260456
1079.974 .0260463
1080.554 .0260469
1081.135 .0260477
1081.716 .0260488
1082.296 .0260505
1082.877 .0260528
1083.458 .0260557
1084.040 .0260590
1084.621 .0260628
1085.202 .0260667
1085.784 .0260707
1086.366 .0260749
1086.948 .0260792
1087.530 .0260839
1088.112 .0260891
1088.695 .0260949
1089.277 .0261013
1089.860 .0261083
1090.443 .0261158
1091.026 .0261235
1091.610 .0261312
1092.193 .0261388
1092.777 .0261462
1093.361 .0261533
1093.946 .0261603
1094.530 .0261671
1095.115 .0261739
1095.700 .0261806
1096.285 .0261873
1096.871 .0261938
1097.456 .0262001
1098.042 .0262059
1098.628 .0262113
1099.215 .0262162
1099.802 .0262205
1100.389 .0262243
1100.976 .0262275
1101.564 .0262304
1102.152 .0262328
1102.740 .0262348
1103.329 .0262365
1103.917 .0262379
1104.507 .0262390
1105.096 .0262400
1105.686 .0262409
1106.276 .0262419
1106.867 .0262431
1107.457 .0262447
1108.049 .0262468
1108.640 .0262493
1109.232 .0262523
1109.825 .0262557
1110.417 .0262594
1111.010 .0262635
1111.604 .0262680
1112.198 .0262730
1112.792 .0262787
1113.387 .0262852
1113.982 .0262925
1114.577 .0263007
1115.173 .0263095
1115.769 .0263190
1116.366 .0263290
1116.963 .0263392
1117.561 .0263497
1118.159 .0263604
1118.758 .0263713
1119.357 .0263828
1119.957 .0263950
1120.557 .0264081
1121.157 .0264224
1121.758 .0264379
1122.360 .0264548
1122.962 .0264729
1123.564 .0264920
1124.167 .0264995
1124.771 .0265197
1125.375 .0265407
1125.980 .0265623
1126.585 .0265846
1127.191 .0266075
1127.797 .0266311
1128.404 .0266552
1129.012 .0266801
1129.620 .0267058
1130.229 .0267322
1130.838 .0267593
1131.448 .0267870
1132.058 .0268153
1132.669 .0268572
1133.281 .0268871
1133.894 .0269185
1134.507 .0269452
1135.120 .0269757
1135.735 .0270119
1136.350 .0270405
1136.965 .0270732
1137.582 .0271039
1138.199 .0271416
1138.816 .0271805
1139.435 .0272162
1140.054 .0272531
1140.674 .0272907
1141.294 .0273193
1141.916 .0273717
1142.538 .0272569
1143.160 .0273682
1143.784 .0275363
1144.408 .0273479
1145.033 .0281734
