Measurement Sequence started on: 14-45-04-498
Integration time: 36
Scans to Average: 2 
>>>>>Begin Spectral Data<<<<<
433.946 .0530174
434.870 .0493970
435.793 .0452633
436.715 .0444241
437.635 .0449953
438.555 .0448737
439.473 .0442755
440.389 .0439032
441.305 .0436936
442.219 .0435135
443.132 .0437590
444.044 .0433677
444.954 .0431853
445.863 .0430375
446.771 .0428489
447.678 .0426543
448.584 .0424783
449.488 .0423092
450.391 .0421387
451.293 .0419666
452.194 .0417941
453.094 .0416212
453.992 .0414496
454.890 .0412786
455.786 .0411089
456.681 .0409405
457.575 .0407729
458.468 .0406049
459.360 .0404367
460.250 .0402680
461.140 .0400997
462.028 .0399332
462.915 .0397701
463.801 .0396120
464.687 .0394611
465.571 .0393189
466.454 .0391857
467.335 .0390614
468.216 .0389452
469.096 .0388356
469.975 .0387315
470.853 .0386313
471.729 .0385346
472.605 .0384418
473.479 .0383539
474.353 .0382714
475.226 .0381958
476.097 .0381275
476.968 .0380672
477.838 .0380145
478.706 .0379688
479.574 .0379290
480.441 .0378940
481.306 .0378625
482.171 .0378332
483.035 .0378048
483.898 .0377767
484.760 .0377482
485.621 .0377190
486.481 .0376889
487.340 .0376577
488.198 .0376254
489.055 .0375919
489.912 .0375570
490.767 .0375207
491.622 .0374579
492.476 .0374180
493.329 .0373761
494.180 .0373321
495.032 .0372867
495.882 .0372403
496.731 .0371938
497.580 .0371485
498.427 .0371049
499.274 .0370637
500.120 .0370506
500.965 .0370130
501.809 .0369771
502.653 .0369428
503.495 .0369099
504.337 .0368782
505.178 .0368474
506.018 .0368176
506.858 .0367882
507.696 .0367596
508.534 .0367318
509.371 .0367048
510.208 .0366782
511.043 .0366521
511.878 .0366257
512.712 .0365991
513.545 .0365719
514.377 .0365439
515.209 .0365147
516.040 .0364849
516.870 .0364538
517.699 .0364219
518.528 .0363896
519.356 .0363583
520.183 .0363282
521.010 .0363005
521.836 .0362750
522.661 .0362520
523.485 .0362311
524.309 .0362123
525.132 .0361948
525.954 .0361779
526.776 .0361613
527.597 .0361448
528.417 .0361285
529.237 .0361129
530.056 .0360977
530.874 .0360828
531.692 .0360675
532.508 .0360510
533.325 .0360317
534.140 .0360092
534.955 .0359831
535.770 .0359525
536.583 .0359171
537.397 .0358764
538.209 .0358300
539.021 .0357780
539.832 .0357207
540.643 .0356581
541.453 .0355903
542.262 .0355178
543.071 .0354411
543.879 .0353611
544.687 .0352785
545.494 .0351942
546.300 .0351086
547.106 .0350225
547.911 .0349364
548.716 .0348511
549.520 .0347677
550.323 .0346873
551.126 .0346105
551.929 .0345379
552.731 .0344700
553.532 .0344066
554.332 .0343481
555.133 .0342943
555.932 .0342452
556.731 .0342004
557.530 .0341594
558.328 .0341218
559.125 .0340873
559.922 .0340554
560.719 .0340257
561.515 .0339977
562.310 .0339711
563.105 .0339455
563.899 .0339206
564.693 .0338964
565.487 .0338727
566.280 .0338494
567.072 .0338264
567.864 .0338035
568.655 .0337804
569.446 .0337569
570.236 .0337332
571.026 .0337093
571.816 .0336852
572.605 .0336612
573.393 .0336370
574.181 .0336133
574.969 .0335901
575.756 .0335674
576.543 .0335454
577.329 .0335241
578.115 .0335031
578.900 .0334823
579.685 .0334616
580.469 .0334409
581.253 .0334201
582.036 .0333991
582.820 .0333780
583.602 .0333567
584.384 .0333351
585.166 .0333135
585.947 .0332919
586.728 .0332702
587.509 .0332485
588.289 .0332264
589.069 .0332041
589.848 .0331816
590.627 .0331589
591.405 .0331361
592.183 .0331135
592.961 .0330913
593.738 .0330698
594.515 .0330491
595.291 .0330291
596.067 .0330101
596.843 .0329918
597.618 .0329743
598.393 .0329518
599.167 .0329369
599.941 .0329230
600.715 .0329102
601.488 .0328988
602.261 .0328886
603.034 .0328797
603.806 .0328721
604.578 .0328656
605.349 .0328601
606.121 .0328553
606.891 .0328546
607.662 .0328504
608.432 .0328466
609.201 .0328431
609.971 .0328398
610.740 .0328366
611.508 .0328335
612.277 .0328302
613.045 .0328266
613.812 .0328227
614.579 .0328182
615.346 .0328130
616.113 .0328071
616.879 .0328004
617.645 .0327929
618.411 .0327848
619.176 .0327760
619.941 .0327665
620.705 .0327564
621.470 .0327456
622.233 .0327340
622.997 .0327219
623.760 .0327090
624.523 .0326955
625.286 .0326816
626.048 .0326673
626.810 .0326527
627.572 .0326382
628.333 .0326237
629.095 .0326093
629.855 .0325950
630.616 .0325808
631.376 .0325665
632.136 .0325522
632.895 .0325377
633.655 .0325231
634.414 .0325082
635.172 .0324932
635.931 .0324780
636.689 .0324629
637.447 .0324477
638.204 .0324327
638.962 .0324179
639.718 .0324033
640.475 .0323889
641.231 .0323747
641.988 .0323607
642.743 .0323468
643.499 .0323330
644.254 .0323192
645.009 .0323054
645.764 .0322917
646.518 .0322780
647.272 .0322644
648.026 .0322512
648.780 .0322383
649.533 .0322259
650.286 .0322141
651.039 .0322027
651.792 .0321919
652.544 .0321814
653.296 .0321714
654.048 .0321617
654.799 .0321523
655.550 .0321431
656.301 .0321342
657.052 .0321255
657.802 .0321171
658.552 .0321089
659.302 .0321010
660.052 .0320933
660.801 .0320856
661.550 .0320780
662.299 .0320703
663.048 .0320623
663.796 .0320540
664.544 .0320453
665.292 .0320360
666.040 .0320262
666.787 .0320159
667.534 .0320051
668.281 .0319938
669.028 .0319820
669.774 .0319698
670.521 .0319571
671.266 .0319441
672.012 .0319306
672.758 .0319167
673.503 .0319024
674.248 .0318878
674.992 .0318728
675.737 .0318576
676.481 .0318421
677.225 .0318265
677.969 .0318107
678.712 .0317947
679.455 .0317787
680.199 .0317626
680.941 .0317465
681.684 .0317304
682.426 .0317144
683.168 .0316984
683.910 .0316824
684.652 .0316664
685.393 .0316504
686.134 .0316344
686.875 .0316184
687.616 .0316026
688.356 .0315870
689.097 .0315717
689.837 .0315567
690.576 .0315420
691.316 .0315276
692.055 .0315136
692.794 .0314999
693.533 .0314865
694.272 .0314735
695.010 .0314607
695.748 .0314484
696.486 .0314365
697.224 .0314251
697.962 .0314141
698.699 .0314037
699.436 .0313939
700.173 .0313846
700.909 .0313758
701.646 .0313676
702.382 .0313599
703.118 .0313526
703.853 .0313457
704.589 .0313389
705.324 .0313323
706.059 .0313257
706.794 .0313191
707.529 .0313125
708.263 .0313059
708.997 .0312992
709.731 .0312924
710.465 .0312855
711.198 .0312784
711.931 .0312710
712.664 .0312633
713.397 .0312551
714.130 .0312465
714.862 .0312374
715.594 .0312277
716.326 .0312174
717.058 .0312065
717.789 .0311951
718.520 .0311831
719.251 .0311704
719.982 .0311572
720.713 .0311434
721.443 .0311291
722.173 .0311141
722.903 .0310987
723.633 .0310827
724.362 .0310663
725.091 .0310494
725.820 .0310323
726.549 .0310149
727.278 .0309974
728.006 .0309799
728.734 .0309624
729.462 .0309450
730.190 .0309278
730.917 .0309107
731.644 .0308939
732.371 .0308774
733.098 .0308612
733.825 .0308453
734.551 .0308298
735.277 .0308146
736.003 .0307997
736.728 .0307852
737.454 .0307709
738.179 .0307570
738.904 .0307432
739.629 .0307298
740.353 .0307166
741.077 .0307036
741.801 .0306909
742.525 .0306784
743.249 .0306661
743.972 .0306541
744.695 .0306422
745.418 .0306305
746.141 .0306188
746.863 .0306072
747.585 .0305957
748.307 .0305843
749.029 .0305731
749.750 .0305620
750.472 .0305511
751.193 .0305403
751.913 .0305297
752.634 .0305192
753.354 .0305088
754.074 .0304985
754.794 .0304883
755.514 .0304783
756.233 .0304684
756.952 .0304588
757.671 .0304495
758.390 .0304405
759.108 .0304317
759.826 .0304232
760.544 .0304149
761.262 .0304068
761.979 .0303987
762.697 .0303908
763.414 .0303830
764.130 .0303753
764.847 .0303676
765.563 .0303600
766.279 .0303526
766.995 .0303452
767.710 .0303379
768.426 .0303308
769.141 .0303238
769.855 .0303168
770.570 .0303100
771.284 .0303032
771.998 .0302966
772.712 .0302899
773.426 .0302833
774.139 .0302765
774.852 .0302696
775.565 .0302625
776.277 .0302552
776.990 .0302477
777.702 .0302400
778.414 .0302323
779.125 .0302245
779.836 .0302166
780.547 .0302086
781.258 .0302006
781.969 .0301924
782.679 .0301840
783.389 .0301707
784.099 .0301617
784.808 .0301525
785.517 .0301430
786.226 .0301334
786.935 .0301236
787.643 .0301137
788.352 .0301037
789.060 .0300934
789.767 .0300830
790.475 .0300723
791.182 .0300614
791.889 .0300554
792.595 .0300442
793.301 .0300327
794.008 .0300211
794.713 .0300092
795.419 .0299972
796.124 .0299849
796.829 .0299722
797.534 .0299593
798.238 .0299459
798.942 .0299322
799.646 .0299181
800.350 .0299037
801.053 .0298892
801.756 .0298744
802.459 .0298594
803.162 .0298443
803.864 .0298290
804.566 .0298136
805.267 .0297982
805.969 .0297827
806.670 .0297672
807.371 .0297519
808.071 .0297367
808.772 .0297219
809.472 .0297073
810.171 .0296931
810.871 .0296792
811.570 .0296656
812.269 .0296524
812.967 .0296393
813.666 .0296266
814.364 .0296141
815.061 .0296018
815.759 .0295899
816.456 .0295782
817.153 .0295668
817.849 .0295557
818.545 .0295448
819.241 .0295341
819.937 .0295236
820.632 .0295132
821.327 .0295029
822.022 .0294928
822.717 .0294827
823.411 .0294727
824.105 .0294627
824.798 .0294528
825.491 .0294429
826.184 .0294329
826.877 .0294228
827.569 .0294126
828.261 .0294024
828.953 .0293921
829.645 .0293820
830.336 .0293721
831.027 .0293624
831.717 .0293530
832.407 .0293440
833.097 .0293354
833.787 .0293272
834.476 .0293194
835.165 .0293120
835.854 .0293049
836.542 .0292983
837.230 .0292920
837.918 .0292862
838.605 .0292809
839.292 .0292760
839.979 .0292715
840.665 .0292674
841.352 .0292636
842.037 .0292599
842.723 .0292564
843.408 .0292529
844.093 .0292494
844.777 .0292459
845.462 .0292424
846.145 .0292387
846.829 .0292349
847.512 .0292308
848.195 .0292263
848.878 .0292214
849.560 .0292159
850.242 .0292099
850.923 .0292032
851.605 .0291958
852.286 .0291876
852.966 .0291787
853.646 .0291691
854.326 .0291585
855.006 .0291471
855.685 .0291349
856.364 .0291219
857.043 .0291082
857.721 .0290938
858.399 .0290789
859.077 .0290634
859.754 .0290475
860.431 .0290313
861.107 .0290147
861.784 .0289978
862.459 .0289807
863.135 .0289634
863.810 .0289461
864.485 .0289289
865.160 .0289118
865.834 .0288950
866.508 .0288785
867.181 .0288623
867.854 .0288465
868.527 .0288310
869.199 .0288160
869.872 .0288013
870.543 .0287871
871.215 .0287733
871.886 .0287600
872.557 .0287471
873.227 .0287346
873.897 .0287223
874.567 .0287102
875.236 .0286980
875.905 .0286857
876.573 .0286731
877.242 .0286602
877.909 .0286470
878.577 .0286332
879.244 .0286191
879.911 .0286044
880.577 .0285891
881.243 .0285733
881.909 .0285569
882.575 .0285399
883.240 .0285225
883.904 .0285046
884.569 .0284863
885.232 .0284679
885.896 .0284493
886.559 .0284307
887.222 .0284121
887.885 .0283937
888.547 .0283754
889.208 .0283574
889.870 .0283396
890.531 .0283223
891.192 .0283054
891.852 .0282892
892.512 .0282736
893.171 .0282588
893.830 .0282448
894.489 .0282315
895.148 .0282190
895.806 .0282072
896.464 .0281960
897.121 .0281853
897.778 .0281752
898.434 .0281655
899.091 .0281526
899.747 .0281440
900.402 .0281358
901.057 .0281280
901.712 .0281206
902.366 .0281133
903.020 .0281061
903.674 .0280990
904.327 .0280919
904.980 .0280848
905.633 .0280776
906.285 .0280705
906.936 .0280633
907.588 .0280598
908.239 .0280527
908.889 .0280457
909.540 .0280385
910.190 .0280313
910.839 .0280241
911.488 .0280169
912.137 .0280096
912.785 .0280026
913.433 .0279957
914.081 .0279890
914.728 .0279825
915.375 .0279763
916.021 .0279702
916.668 .0279641
917.313 .0279581
917.959 .0279520
918.604 .0279458
919.248 .0279396
919.892 .0279332
920.536 .0279267
921.180 .0279201
921.823 .0279134
922.465 .0279064
923.108 .0278992
923.750 .0278916
924.391 .0278838
925.032 .0278756
925.673 .0278671
926.313 .0278583
926.953 .0278492
927.593 .0278400
928.232 .0278306
928.871 .0278211
929.510 .0278115
930.148 .0278018
930.786 .0277919
931.423 .0277819
932.060 .0277716
932.697 .0277611
933.333 .0277504
933.969 .0277396
934.604 .0277285
935.239 .0277174
935.874 .0277062
936.508 .0276950
937.142 .0276837
937.776 .0276725
938.409 .0276611
939.042 .0276497
939.674 .0276382
940.306 .0276266
940.938 .0276149
941.569 .0276029
942.200 .0275909
942.830 .0275787
943.460 .0275665
944.090 .0275541
944.720 .0275416
945.349 .0275290
945.977 .0275160
946.606 .0275028
947.233 .0274892
947.861 .0274752
948.488 .0274609
949.115 .0274461
949.741 .0274311
950.367 .0274159
950.993 .0274005
951.618 .0273849
952.243 .0273691
952.868 .0273532
953.492 .0273371
954.115 .0273209
954.739 .0273046
955.362 .0272882
955.984 .0272719
956.607 .0272555
957.229 .0272392
957.850 .0272230
958.471 .0272069
959.092 .0271908
959.713 .0271749
960.333 .0271591
960.952 .0271434
961.572 .0271279
962.191 .0271126
962.809 .0270976
963.428 .0270829
964.045 .0270685
964.663 .0270544
965.280 .0270405
965.897 .0270269
966.513 .0270134
967.129 .0270001
967.745 .0269869
968.361 .0269737
968.976 .0269606
969.590 .0269475
970.205 .0269343
970.818 .0269211
971.432 .0269078
972.045 .0268944
972.658 .0268808
973.271 .0268671
973.883 .0268533
974.495 .0268395
975.106 .0268256
975.717 .0268118
976.328 .0267980
976.938 .0267842
977.548 .0267703
978.158 .0267565
978.768 .0267355
979.377 .0267216
979.985 .0267076
980.594 .0266935
981.202 .0266795
981.809 .0266656
982.417 .0266517
983.024 .0266380
983.631 .0266244
984.237 .0266111
984.843 .0265980
985.449 .0265852
986.054 .0265729
986.659 .0265610
987.264 .0265565
987.868 .0265456
988.472 .0265352
989.076 .0265256
989.679 .0265166
990.282 .0265083
990.885 .0265005
991.487 .0264933
992.090 .0264866
992.691 .0264803
993.293 .0264744
993.894 .0264688
994.495 .0264635
995.095 .0264584
995.696 .0264535
996.296 .0264488
996.895 .0264444
997.494 .0264401
998.093 .0264361
998.692 .0264323
999.291 .0264286
999.889 .0264252
1000.487 .0264220
1001.084 .0264189
1001.681 .0264160
1002.278 .0264131
1002.875 .0264104
1003.471 .0264076
1004.067 .0264050
1004.663 .0264024
1005.258 .0263999
1005.854 .0263974
1006.449 .0263949
1007.043 .0263923
1007.638 .0263896
1008.232 .0263868
1008.826 .0263839
1009.419 .0263810
1010.012 .0263780
1010.605 .0263753
1011.198 .0263729
1011.791 .0263709
1012.383 .0263694
1012.975 .0263686
1013.566 .0263683
1014.158 .0263687
1014.749 .0263697
1015.340 .0263712
1015.931 .0263732
1016.521 .0263758
1017.111 .0263789
1017.701 .0263827
1018.291 .0263870
1018.880 .0263920
1019.470 .0263976
1020.059 .0264038
1020.647 .0264106
1021.236 .0264178
1021.824 .0264254
1022.412 .0264334
1023.000 .0264415
1023.588 .0264499
1024.175 .0264585
1024.762 .0264673
1025.349 .0264763
1025.936 .0264855
1026.523 .0264950
1027.109 .0265047
1027.695 .0265146
1028.281 .0265247
1028.867 .0265349
1029.452 .0265453
1030.038 .0265557
1030.623 .0265661
1031.208 .0265764
1031.792 .0265868
1032.377 .0265971
1032.961 .0266075
1033.546 .0266178
1034.130 .0266280
1034.714 .0266381
1035.297 .0266481
1035.881 .0266577
1036.464 .0266671
1037.047 .0266760
1037.630 .0266846
1038.213 .0266928
1038.796 .0267005
1039.378 .0267078
1039.961 .0267146
1040.543 .0267209
1041.125 .0267267
1041.707 .0267319
1042.289 .0267366
1042.871 .0267406
1043.452 .0267440
1044.034 .0267467
1044.615 .0267489
1045.196 .0267504
1045.777 .0267511
1046.358 .0267511
1046.939 .0267501
1047.520 .0267481
1048.101 .0267450
1048.681 .0267408
1049.262 .0267357
1049.842 .0267296
1050.422 .0267226
1051.002 .0267149
1051.582 .0267065
1052.162 .0266974
1052.742 .0266879
1053.322 .0266779
1053.902 .0266674
1054.482 .0266565
1055.061 .0266454
1055.641 .0266342
1056.220 .0266232
1056.800 .0266127
1057.379 .0266028
1057.958 .0265936
1058.538 .0265852
1059.117 .0265775
1059.696 .0265706
1060.275 .0265645
1060.854 .0265590
1061.433 .0265541
1062.012 .0265497
1062.592 .0265458
1063.171 .0265425
1063.750 .0265398
1064.329 .0265378
1064.908 .0265363
1065.487 .0265353
1066.066 .0265345
1066.645 .0265337
1067.224 .0265328
1067.803 .0265317
1068.382 .0265302
1068.961 .0265283
1069.540 .0265261
1070.119 .0265236
1070.698 .0265209
1071.278 .0265181
1071.857 .0265150
1072.436 .0265115
1073.016 .0265076
1073.595 .0265032
1074.175 .0264981
1074.754 .0264923
1075.334 .0264859
1075.913 .0264790
1076.493 .0264715
1077.073 .0264636
1077.653 .0264553
1078.233 .0264466
1078.813 .0264375
1079.393 .0264281
1079.974 .0264182
1080.554 .0264078
1081.135 .0263971
1081.716 .0263860
1082.296 .0263747
1082.877 .0263633
1083.458 .0263519
1084.040 .0263407
1084.621 .0263299
1085.202 .0263196
1085.784 .0263099
1086.366 .0263008
1086.948 .0262920
1087.530 .0262836
1088.112 .0262753
1088.695 .0262672
1089.277 .0262593
1089.860 .0262514
1090.443 .0262437
1091.026 .0262363
1091.610 .0262292
1092.193 .0262226
1092.777 .0262166
1093.361 .0262109
1093.946 .0262053
1094.530 .0261998
1095.115 .0261939
1095.700 .0261876
1096.285 .0261810
1096.871 .0261742
1097.456 .0261673
1098.042 .0261605
1098.628 .0261538
1099.215 .0261475
1099.802 .0261416
1100.389 .0261358
1100.976 .0261301
1101.564 .0261244
1102.152 .0261185
1102.740 .0261124
1103.329 .0261065
1103.917 .0261010
1104.507 .0260960
1105.096 .0260917
1105.686 .0260881
1106.276 .0260851
1106.867 .0260825
1107.457 .0260803
1108.049 .0260782
1108.640 .0260763
1109.232 .0260745
1109.825 .0260728
1110.417 .0260717
1111.010 .0260713
1111.604 .0260717
1112.198 .0260730
1112.792 .0260749
1113.387 .0260773
1113.982 .0260799
1114.577 .0260828
1115.173 .0260858
1115.769 .0260893
1116.366 .0260932
1116.963 .0260977
1117.561 .0261030
1118.159 .0261091
1118.758 .0261157
1119.357 .0261225
1119.957 .0261292
1120.557 .0261352
1121.157 .0261407
1121.758 .0261456
1122.360 .0261502
1122.962 .0261550
1123.564 .0261605
1124.167 .0261639
1124.771 .0261706
1125.375 .0261785
1125.980 .0261879
1126.585 .0261985
1127.191 .0262102
1127.797 .0262231
1128.404 .0262368
1129.012 .0262517
1129.620 .0262679
1130.229 .0262858
1130.838 .0263053
1131.448 .0263267
1132.058 .0263494
1132.669 .0263806
1133.281 .0264041
1133.894 .0264253
1134.507 .0264510
1135.120 .0264692
1135.735 .0264918
1136.350 .0264904
1136.965 .0265758
1137.582 .0266285
1138.199 .0266808
1138.816 .0267280
1139.435 .0267720
1140.054 .0268029
1140.674 .0268246
1141.294 .0268125
1141.916 .0267639
1142.538 .0268995
1143.160 .0267084
1143.784 .0268314
1144.408 .0261793
1145.033 .0257957
