Measurement Sequence started on: 14-45-04-498
Integration time: 36
Scans to Average: 2 
>>>>>Begin Spectral Data<<<<<
433.946 .0542599
434.870 .0495955
435.793 .0479629
436.715 .0463916
437.635 .0442525
438.555 .0453127
439.473 .0444897
440.389 .0439315
441.305 .0434980
442.219 .0431633
443.132 .0438848
444.044 .0434971
444.954 .0431895
445.863 .0429578
446.771 .0428314
447.678 .0426421
448.584 .0424891
449.488 .0423586
450.391 .0422438
451.293 .0421390
452.194 .0420386
453.094 .0419401
453.992 .0418393
454.890 .0417325
455.786 .0416173
456.681 .0414925
457.575 .0413582
458.468 .0412153
459.360 .0410661
460.250 .0409122
461.140 .0407558
462.028 .0405984
462.915 .0404413
463.801 .0402852
464.687 .0401298
465.571 .0399754
466.454 .0398217
467.335 .0396697
468.216 .0395203
469.096 .0393744
469.975 .0392337
470.853 .0390995
471.729 .0389729
472.605 .0388549
473.479 .0387461
474.353 .0386463
475.226 .0385552
476.097 .0384724
476.968 .0383969
477.838 .0383284
478.706 .0382663
479.574 .0382103
480.441 .0381603
481.306 .0381163
482.171 .0380779
483.035 .0380445
483.898 .0380156
484.760 .0379901
485.621 .0379670
486.481 .0379449
487.340 .0379227
488.198 .0378991
489.055 .0378731
489.912 .0378441
490.767 .0378115
491.622 .0377473
492.476 .0377056
493.329 .0376608
494.180 .0376131
495.032 .0375626
495.882 .0375095
496.731 .0374538
497.580 .0373958
498.427 .0373355
499.274 .0372736
500.120 .0372423
500.965 .0371800
501.809 .0371174
502.653 .0370552
503.495 .0369943
504.337 .0369352
505.178 .0368786
506.018 .0368251
506.858 .0367748
507.696 .0367277
508.534 .0366834
509.371 .0366415
510.208 .0366016
511.043 .0365631
511.878 .0365253
512.712 .0364879
513.545 .0364507
514.377 .0364136
515.209 .0363767
516.040 .0363400
516.870 .0363031
517.699 .0362657
518.528 .0362272
519.356 .0361871
520.183 .0361442
521.010 .0360981
521.836 .0360484
522.661 .0359950
523.485 .0359382
524.309 .0358788
525.132 .0358177
525.954 .0357561
526.776 .0356948
527.597 .0356345
528.417 .0355757
529.237 .0355189
530.056 .0354643
530.874 .0354118
531.692 .0353611
532.508 .0353122
533.325 .0352647
534.140 .0352186
534.955 .0351736
535.770 .0351295
536.583 .0350866
537.397 .0350449
538.209 .0350045
539.021 .0349655
539.832 .0349283
540.643 .0348931
541.453 .0348596
542.262 .0348278
543.071 .0347970
543.879 .0347670
544.687 .0347374
545.494 .0347079
546.300 .0346780
547.106 .0346479
547.911 .0346171
548.716 .0345860
549.520 .0345547
550.323 .0345237
551.126 .0344934
551.929 .0344646
552.731 .0344378
553.532 .0344134
554.332 .0343916
555.133 .0343726
555.932 .0343559
556.731 .0343409
557.530 .0343266
558.328 .0343123
559.125 .0342973
559.922 .0342810
560.719 .0342630
561.515 .0342438
562.310 .0342235
563.105 .0342024
563.899 .0341806
564.693 .0341584
565.487 .0341359
566.280 .0341130
567.072 .0340893
567.864 .0340645
568.655 .0340383
569.446 .0340104
570.236 .0339805
571.026 .0339486
571.816 .0339149
572.605 .0338797
573.393 .0338432
574.181 .0338060
574.969 .0337684
575.756 .0337305
576.543 .0336928
577.329 .0336554
578.115 .0336181
578.900 .0335809
579.685 .0335436
580.469 .0335061
581.253 .0334685
582.036 .0334308
582.820 .0333931
583.602 .0333555
584.384 .0333185
585.166 .0332821
585.947 .0332467
586.728 .0332127
587.509 .0331802
588.289 .0331493
589.069 .0331199
589.848 .0330920
590.627 .0330652
591.405 .0330395
592.183 .0330146
592.961 .0329903
593.738 .0329666
594.515 .0329435
595.291 .0329209
596.067 .0328991
596.843 .0328779
597.618 .0328575
598.393 .0328279
599.167 .0328084
599.941 .0327890
600.715 .0327697
601.488 .0327504
602.261 .0327309
603.034 .0327113
603.806 .0326917
604.578 .0326720
605.349 .0326523
606.121 .0326328
606.891 .0326232
607.662 .0326039
608.432 .0325846
609.201 .0325654
609.971 .0325465
610.740 .0325278
611.508 .0325093
612.277 .0324912
613.045 .0324735
613.812 .0324561
614.579 .0324391
615.346 .0324225
616.113 .0324061
616.879 .0323901
617.645 .0323743
618.411 .0323587
619.176 .0323432
619.941 .0323277
620.705 .0323121
621.470 .0322963
622.233 .0322802
622.997 .0322638
623.760 .0322470
624.523 .0322297
625.286 .0322121
626.048 .0321941
626.810 .0321757
627.572 .0321568
628.333 .0321375
629.095 .0321177
629.855 .0320974
630.616 .0320766
631.376 .0320552
632.136 .0320336
632.895 .0320116
633.655 .0319896
634.414 .0319675
635.172 .0319455
635.931 .0319237
636.689 .0319020
637.447 .0318805
638.204 .0318593
638.962 .0318384
639.718 .0318181
640.475 .0317983
641.231 .0317792
641.988 .0317609
642.743 .0317433
643.499 .0317265
644.254 .0317105
645.009 .0316951
645.764 .0316803
646.518 .0316661
647.272 .0316524
648.026 .0316392
648.780 .0316265
649.533 .0316142
650.286 .0316021
651.039 .0315903
651.792 .0315785
652.544 .0315668
653.296 .0315551
654.048 .0315433
654.799 .0315315
655.550 .0315195
656.301 .0315075
657.052 .0314954
657.802 .0314831
658.552 .0314707
659.302 .0314581
660.052 .0314453
660.801 .0314324
661.550 .0314193
662.299 .0314062
663.048 .0313930
663.796 .0313799
664.544 .0313669
665.292 .0313539
666.040 .0313409
666.787 .0313279
667.534 .0313150
668.281 .0313020
669.028 .0312891
669.774 .0312763
670.521 .0312636
671.266 .0312511
672.012 .0312387
672.758 .0312265
673.503 .0312145
674.248 .0312027
674.992 .0311910
675.737 .0311793
676.481 .0311677
677.225 .0311560
677.969 .0311443
678.712 .0311325
679.455 .0311206
680.199 .0311088
680.941 .0310971
681.684 .0310855
682.426 .0310740
683.168 .0310626
683.910 .0310514
684.652 .0310402
685.393 .0310291
686.134 .0310179
686.875 .0310068
687.616 .0309956
688.356 .0309846
689.097 .0309737
689.837 .0309630
690.576 .0309525
691.316 .0309421
692.055 .0309318
692.794 .0309216
693.533 .0309115
694.272 .0309014
695.010 .0308914
695.748 .0308813
696.486 .0308713
697.224 .0308613
697.962 .0308512
698.699 .0308411
699.436 .0308309
700.173 .0308205
700.909 .0308101
701.646 .0307995
702.382 .0307888
703.118 .0307780
703.853 .0307671
704.589 .0307560
705.324 .0307447
706.059 .0307331
706.794 .0307211
707.529 .0307087
708.263 .0306960
708.997 .0306829
709.731 .0306695
710.465 .0306558
711.198 .0306419
711.931 .0306278
712.664 .0306134
713.397 .0305986
714.130 .0305835
714.862 .0305680
715.594 .0305520
716.326 .0305357
717.058 .0305190
717.789 .0305021
718.520 .0304851
719.251 .0304681
719.982 .0304510
720.713 .0304341
721.443 .0304172
722.173 .0304003
722.903 .0303836
723.633 .0303669
724.362 .0303504
725.091 .0303341
725.820 .0303181
726.549 .0303025
727.278 .0302873
728.006 .0302726
728.734 .0302584
729.462 .0302447
730.190 .0302316
730.917 .0302189
731.644 .0302067
732.371 .0301949
733.098 .0301835
733.825 .0301725
734.551 .0301618
735.277 .0301514
736.003 .0301412
736.728 .0301312
737.454 .0301213
738.179 .0301116
738.904 .0301021
739.629 .0300926
740.353 .0300831
741.077 .0300735
741.801 .0300638
742.525 .0300538
743.249 .0300434
743.972 .0300327
744.695 .0300215
745.418 .0300100
746.141 .0299982
746.863 .0299862
747.585 .0299740
748.307 .0299616
749.029 .0299492
749.750 .0299367
750.472 .0299241
751.193 .0299115
751.913 .0298989
752.634 .0298862
753.354 .0298736
754.074 .0298611
754.794 .0298489
755.514 .0298369
756.233 .0298252
756.952 .0298139
757.671 .0298030
758.390 .0297924
759.108 .0297822
759.826 .0297723
760.544 .0297627
761.262 .0297533
761.979 .0297439
762.697 .0297346
763.414 .0297252
764.130 .0297157
764.847 .0297058
765.563 .0296957
766.279 .0296851
766.995 .0296741
767.710 .0296627
768.426 .0296509
769.141 .0296386
769.855 .0296258
770.570 .0296126
771.284 .0295988
771.998 .0295846
772.712 .0295698
773.426 .0295546
774.139 .0295391
774.852 .0295232
775.565 .0295072
776.277 .0294910
776.990 .0294747
777.702 .0294585
778.414 .0294425
779.125 .0294265
779.836 .0294109
780.547 .0293955
781.258 .0293805
781.969 .0293661
782.679 .0293521
783.389 .0293332
784.099 .0293203
784.808 .0293079
785.517 .0292958
786.226 .0292840
786.935 .0292724
787.643 .0292610
788.352 .0292498
789.060 .0292388
789.767 .0292280
790.475 .0292173
791.182 .0292066
791.889 .0292012
792.595 .0291905
793.301 .0291797
794.008 .0291688
794.713 .0291577
795.419 .0291464
796.124 .0291350
796.829 .0291235
797.534 .0291118
798.238 .0291000
798.942 .0290882
799.646 .0290762
800.350 .0290642
801.053 .0290521
801.756 .0290401
802.459 .0290280
803.162 .0290161
803.864 .0290043
804.566 .0289928
805.267 .0289815
805.969 .0289704
806.670 .0289597
807.371 .0289493
808.071 .0289391
808.772 .0289293
809.472 .0289198
810.171 .0289106
810.871 .0289017
811.570 .0288931
812.269 .0288847
812.967 .0288766
813.666 .0288685
814.364 .0288606
815.061 .0288526
815.759 .0288445
816.456 .0288362
817.153 .0288278
817.849 .0288190
818.545 .0288100
819.241 .0288007
819.937 .0287910
820.632 .0287809
821.327 .0287705
822.022 .0287596
822.717 .0287482
823.411 .0287364
824.105 .0287242
824.798 .0287115
825.491 .0286985
826.184 .0286851
826.877 .0286713
827.569 .0286573
828.261 .0286428
828.953 .0286281
829.645 .0286131
830.336 .0285978
831.027 .0285824
831.717 .0285667
832.407 .0285510
833.097 .0285352
833.787 .0285195
834.476 .0285039
835.165 .0284884
835.854 .0284732
836.542 .0284581
837.230 .0284432
837.918 .0284284
838.605 .0284139
839.292 .0283995
839.979 .0283852
840.665 .0283709
841.352 .0283567
842.037 .0283425
842.723 .0283283
843.408 .0283141
844.093 .0282998
844.777 .0282855
845.462 .0282712
846.145 .0282567
846.829 .0282421
847.512 .0282274
848.195 .0282125
848.878 .0281975
849.560 .0281824
850.242 .0281671
850.923 .0281517
851.605 .0281361
852.286 .0281204
852.966 .0281045
853.646 .0280884
854.326 .0280721
855.006 .0280555
855.685 .0280388
856.364 .0280219
857.043 .0280049
857.721 .0279880
858.399 .0279711
859.077 .0279544
859.754 .0279379
860.431 .0279217
861.107 .0279056
861.784 .0278899
862.459 .0278745
863.135 .0278595
863.810 .0278450
864.485 .0278311
865.160 .0278177
865.834 .0278051
866.508 .0277931
867.181 .0277818
867.854 .0277710
868.527 .0277609
869.199 .0277512
869.872 .0277421
870.543 .0277334
871.215 .0277251
871.886 .0277174
872.557 .0277102
873.227 .0277034
873.897 .0276971
874.567 .0276912
875.236 .0276855
875.905 .0276801
876.573 .0276748
877.242 .0276696
877.909 .0276646
878.577 .0276598
879.244 .0276551
879.911 .0276505
880.577 .0276461
881.243 .0276418
881.909 .0276376
882.575 .0276333
883.240 .0276289
883.904 .0276245
884.569 .0276199
885.232 .0276152
885.896 .0276104
886.559 .0276056
887.222 .0276007
887.885 .0275957
888.547 .0275907
889.208 .0275856
889.870 .0275804
890.531 .0275751
891.192 .0275695
891.852 .0275638
892.512 .0275578
893.171 .0275516
893.830 .0275451
894.489 .0275382
895.148 .0275310
895.806 .0275234
896.464 .0275155
897.121 .0275071
897.778 .0274984
898.434 .0274893
899.091 .0274742
899.747 .0274643
900.402 .0274540
901.057 .0274433
901.712 .0274323
902.366 .0274209
903.020 .0274092
903.674 .0273972
904.327 .0273849
904.980 .0273723
905.633 .0273596
906.285 .0273465
906.936 .0273331
907.588 .0273259
908.239 .0273120
908.889 .0272978
909.540 .0272832
910.190 .0272683
910.839 .0272532
911.488 .0272377
912.137 .0272220
912.785 .0272060
913.433 .0271898
914.081 .0271733
914.728 .0271566
915.375 .0271396
916.021 .0271222
916.668 .0271046
917.313 .0270867
917.959 .0270686
918.604 .0270502
919.248 .0270316
919.892 .0270128
920.536 .0269936
921.180 .0269741
921.823 .0269544
922.465 .0269343
923.108 .0269139
923.750 .0268933
924.391 .0268724
925.032 .0268514
925.673 .0268302
926.313 .0268089
926.953 .0267875
927.593 .0267660
928.232 .0267444
928.871 .0267227
929.510 .0267011
930.148 .0266794
930.786 .0266579
931.423 .0266365
932.060 .0266152
932.697 .0265942
933.333 .0265733
933.969 .0265527
934.604 .0265323
935.239 .0265120
935.874 .0264920
936.508 .0264722
937.142 .0264527
937.776 .0264335
938.409 .0264147
939.042 .0263964
939.674 .0263785
940.306 .0263609
940.938 .0263438
941.569 .0263270
942.200 .0263105
942.830 .0262944
943.460 .0262785
944.090 .0262630
944.720 .0262478
945.349 .0262329
945.977 .0262184
946.606 .0262043
947.233 .0261904
947.861 .0261769
948.488 .0261635
949.115 .0261505
949.741 .0261377
950.367 .0261252
950.993 .0261130
951.618 .0261012
952.243 .0260898
952.868 .0260789
953.492 .0260684
954.115 .0260583
954.739 .0260486
955.362 .0260393
955.984 .0260303
956.607 .0260217
957.229 .0260134
957.850 .0260055
958.471 .0259980
959.092 .0259910
959.713 .0259845
960.333 .0259785
960.952 .0259731
961.572 .0259681
962.191 .0259635
962.809 .0259594
963.428 .0259557
964.045 .0259523
964.663 .0259494
965.280 .0259468
965.897 .0259446
966.513 .0259427
967.129 .0259412
967.745 .0259398
968.361 .0259387
968.976 .0259377
969.590 .0259369
970.205 .0259361
970.818 .0259355
971.432 .0259350
972.045 .0259346
972.658 .0259343
973.271 .0259341
973.883 .0259339
974.495 .0259339
975.106 .0259338
975.717 .0259337
976.328 .0259335
976.938 .0259334
977.548 .0259332
978.158 .0259330
978.768 .0259322
979.377 .0259316
979.985 .0259309
980.594 .0259301
981.202 .0259290
981.809 .0259277
982.417 .0259261
983.024 .0259243
983.631 .0259223
984.237 .0259200
984.843 .0259175
985.449 .0259147
986.054 .0259116
986.659 .0259082
987.264 .0259056
987.868 .0259018
988.472 .0258977
989.076 .0258933
989.679 .0258886
990.282 .0258836
990.885 .0258782
991.487 .0258725
992.090 .0258665
992.691 .0258601
993.293 .0258534
993.894 .0258463
994.495 .0258389
995.095 .0258311
995.696 .0258231
996.296 .0258149
996.895 .0258064
997.494 .0257978
998.093 .0257891
998.692 .0257802
999.291 .0257711
999.889 .0257619
1000.487 .0257524
1001.084 .0257428
1001.681 .0257330
1002.278 .0257230
1002.875 .0257130
1003.471 .0257030
1004.067 .0256930
1004.663 .0256830
1005.258 .0256729
1005.854 .0256628
1006.449 .0256525
1007.043 .0256421
1007.638 .0256316
1008.232 .0256211
1008.826 .0256105
1009.419 .0256001
1010.012 .0255897
1010.605 .0255795
1011.198 .0255693
1011.791 .0255592
1012.383 .0255490
1012.975 .0255387
1013.566 .0255284
1014.158 .0255179
1014.749 .0255074
1015.340 .0254968
1015.931 .0254863
1016.521 .0254758
1017.111 .0254655
1017.701 .0254554
1018.291 .0254454
1018.880 .0254356
1019.470 .0254259
1020.059 .0254163
1020.647 .0254068
1021.236 .0253974
1021.824 .0253880
1022.412 .0253788
1023.000 .0253696
1023.588 .0253605
1024.175 .0253517
1024.762 .0253430
1025.349 .0253345
1025.936 .0253262
1026.523 .0253181
1027.109 .0253100
1027.695 .0253021
1028.281 .0252944
1028.867 .0252868
1029.452 .0252794
1030.038 .0252724
1030.623 .0252658
1031.208 .0252597
1031.792 .0252540
1032.377 .0252488
1032.961 .0252441
1033.546 .0252397
1034.130 .0252356
1034.714 .0252318
1035.297 .0252282
1035.881 .0252247
1036.464 .0252213
1037.047 .0252180
1037.630 .0252148
1038.213 .0252117
1038.796 .0252087
1039.378 .0252058
1039.961 .0252029
1040.543 .0251999
1041.125 .0251969
1041.707 .0251937
1042.289 .0251904
1042.871 .0251869
1043.452 .0251833
1044.034 .0251796
1044.615 .0251758
1045.196 .0251721
1045.777 .0251683
1046.358 .0251647
1046.939 .0251610
1047.520 .0251574
1048.101 .0251539
1048.681 .0251504
1049.262 .0251470
1049.842 .0251439
1050.422 .0251410
1051.002 .0251385
1051.582 .0251364
1052.162 .0251348
1052.742 .0251337
1053.322 .0251332
1053.902 .0251331
1054.482 .0251335
1055.061 .0251344
1055.641 .0251357
1056.220 .0251375
1056.800 .0251398
1057.379 .0251426
1057.958 .0251457
1058.538 .0251491
1059.117 .0251527
1059.696 .0251566
1060.275 .0251605
1060.854 .0251646
1061.433 .0251689
1062.012 .0251733
1062.592 .0251779
1063.171 .0251829
1063.750 .0251882
1064.329 .0251940
1064.908 .0252001
1065.487 .0252065
1066.066 .0252131
1066.645 .0252200
1067.224 .0252270
1067.803 .0252343
1068.382 .0252417
1068.961 .0252493
1069.540 .0252569
1070.119 .0252646
1070.698 .0252723
1071.278 .0252799
1071.857 .0252874
1072.436 .0252945
1073.016 .0253014
1073.595 .0253079
1074.175 .0253140
1074.754 .0253199
1075.334 .0253255
1075.913 .0253309
1076.493 .0253361
1077.073 .0253410
1077.653 .0253457
1078.233 .0253498
1078.813 .0253534
1079.393 .0253564
1079.974 .0253587
1080.554 .0253602
1081.135 .0253609
1081.716 .0253609
1082.296 .0253603
1082.877 .0253591
1083.458 .0253572
1084.040 .0253547
1084.621 .0253515
1085.202 .0253478
1085.784 .0253437
1086.366 .0253391
1086.948 .0253343
1087.530 .0253295
1088.112 .0253247
1088.695 .0253203
1089.277 .0253161
1089.860 .0253124
1090.443 .0253091
1091.026 .0253062
1091.610 .0253036
1092.193 .0253013
1092.777 .0252991
1093.361 .0252971
1093.946 .0252952
1094.530 .0252936
1095.115 .0252922
1095.700 .0252911
1096.285 .0252903
1096.871 .0252896
1097.456 .0252889
1098.042 .0252881
1098.628 .0252870
1099.215 .0252855
1099.802 .0252836
1100.389 .0252814
1100.976 .0252790
1101.564 .0252767
1102.152 .0252746
1102.740 .0252728
1103.329 .0252714
1103.917 .0252702
1104.507 .0252692
1105.096 .0252685
1105.686 .0252678
1106.276 .0252674
1106.867 .0252671
1107.457 .0252672
1108.049 .0252677
1108.640 .0252689
1109.232 .0252709
1109.825 .0252737
1110.417 .0252773
1111.010 .0252817
1111.604 .0252868
1112.198 .0252927
1112.792 .0252993
1113.387 .0253068
1113.982 .0253150
1114.577 .0253241
1115.173 .0253340
1115.769 .0253449
1116.366 .0253567
1116.963 .0253693
1117.561 .0253827
1118.159 .0253970
1118.758 .0254120
1119.357 .0254278
1119.957 .0254442
1120.557 .0254613
1121.157 .0254790
1121.758 .0254974
1122.360 .0255163
1122.962 .0255358
1123.564 .0255559
1124.167 .0255646
1124.771 .0255854
1125.375 .0256068
1125.980 .0256291
1126.585 .0256522
1127.191 .0256762
1127.797 .0257014
1128.404 .0257276
1129.012 .0257547
1129.620 .0257828
1130.229 .0258117
1130.838 .0258413
1131.448 .0258715
1132.058 .0259022
1132.669 .0259477
1133.281 .0259801
1133.894 .0260127
1134.507 .0260451
1135.120 .0260785
1135.735 .0261086
1136.350 .0261411
1136.965 .0262225
1137.582 .0262612
1138.199 .0262972
1138.816 .0263302
1139.435 .0263596
1140.054 .0263858
1140.674 .0264073
1141.294 .0264289
1141.916 .0264452
1142.538 .0264525
1143.160 .0264964
1143.784 .0264321
1144.408 .0265229
1145.033 .0264697
