Measurement Sequence started on: 14-45-04-498
Integration time: 36
Scans to Average: 2 
>>>>>Begin Spectral Data<<<<<
433.946 .0598360
434.870 .0527635
435.793 .0483506
436.715 .0457521
437.635 .0443194
438.555 .0459073
439.473 .0448926
440.389 .0442777
441.305 .0438657
442.219 .0435486
443.132 .0441833
444.044 .0436199
444.954 .0432841
445.863 .0430808
446.771 .0429495
447.678 .0427324
448.584 .0425678
449.488 .0424348
450.391 .0423228
451.293 .0422265
452.194 .0421425
453.094 .0420695
453.992 .0420040
454.890 .0419420
455.786 .0418804
456.681 .0418171
457.575 .0417511
458.468 .0416822
459.360 .0416109
460.250 .0415379
461.140 .0414636
462.028 .0413883
462.915 .0413112
463.801 .0412317
464.687 .0411485
465.571 .0410607
466.454 .0409683
467.335 .0408715
468.216 .0407711
469.096 .0406686
469.975 .0405653
470.853 .0404629
471.729 .0403628
472.605 .0402663
473.479 .0401745
474.353 .0400878
475.226 .0400065
476.097 .0399302
476.968 .0398588
477.838 .0397920
478.706 .0397294
479.574 .0396710
480.441 .0396169
481.306 .0395667
482.171 .0395204
483.035 .0394778
483.898 .0394385
484.760 .0394018
485.621 .0393673
486.481 .0393342
487.340 .0393019
488.198 .0392696
489.055 .0392367
489.912 .0392026
490.767 .0391673
491.622 .0391088
492.476 .0390695
493.329 .0390288
494.180 .0389864
495.032 .0389424
495.882 .0388968
496.731 .0388495
497.580 .0388006
498.427 .0387499
499.274 .0386973
500.120 .0386673
500.965 .0386124
501.809 .0385563
502.653 .0384994
503.495 .0384425
504.337 .0383858
505.178 .0383301
506.018 .0382758
506.858 .0382231
507.696 .0381724
508.534 .0381242
509.371 .0380787
510.208 .0380361
511.043 .0379967
511.878 .0379607
512.712 .0379283
513.545 .0378997
514.377 .0378743
515.209 .0378517
516.040 .0378315
516.870 .0378128
517.699 .0377946
518.528 .0377768
519.356 .0377586
520.183 .0377395
521.010 .0377192
521.836 .0376974
522.661 .0376743
523.485 .0376497
524.309 .0376235
525.132 .0375957
525.954 .0375659
526.776 .0375336
527.597 .0374983
528.417 .0374600
529.237 .0374186
530.056 .0373741
530.874 .0373264
531.692 .0372761
532.508 .0372236
533.325 .0371694
534.140 .0371140
534.955 .0370577
535.770 .0370005
536.583 .0369425
537.397 .0368837
538.209 .0368243
539.021 .0367649
539.832 .0367059
540.643 .0366480
541.453 .0365920
542.262 .0365385
543.071 .0364880
543.879 .0364406
544.687 .0363965
545.494 .0363547
546.300 .0363148
547.106 .0362762
547.911 .0362388
548.716 .0362027
549.520 .0361683
550.323 .0361360
551.126 .0361067
551.929 .0360806
552.731 .0360582
553.532 .0360393
554.332 .0360237
555.133 .0360104
555.932 .0359987
556.731 .0359874
557.530 .0359754
558.328 .0359621
559.125 .0359470
559.922 .0359298
560.719 .0359103
561.515 .0358888
562.310 .0358653
563.105 .0358402
563.899 .0358135
564.693 .0357851
565.487 .0357550
566.280 .0357230
567.072 .0356890
567.864 .0356532
568.655 .0356158
569.446 .0355772
570.236 .0355380
571.026 .0354988
571.816 .0354598
572.605 .0354214
573.393 .0353840
574.181 .0353476
574.969 .0353121
575.756 .0352776
576.543 .0352441
577.329 .0352118
578.115 .0351809
578.900 .0351518
579.685 .0351247
580.469 .0350999
581.253 .0350773
582.036 .0350567
582.820 .0350378
583.602 .0350204
584.384 .0350039
585.166 .0349878
585.947 .0349720
586.728 .0349561
587.509 .0349401
588.289 .0349240
589.069 .0349079
589.848 .0348914
590.627 .0348746
591.405 .0348573
592.183 .0348392
592.961 .0348202
593.738 .0348001
594.515 .0347790
595.291 .0347569
596.067 .0347341
596.843 .0347108
597.618 .0346871
598.393 .0346521
599.167 .0346288
599.941 .0346058
600.715 .0345829
601.488 .0345603
602.261 .0345378
603.034 .0345154
603.806 .0344932
604.578 .0344712
605.349 .0344493
606.121 .0344277
606.891 .0344175
607.662 .0343964
608.432 .0343755
609.201 .0343550
609.971 .0343349
610.740 .0343153
611.508 .0342960
612.277 .0342770
613.045 .0342584
613.812 .0342400
614.579 .0342219
615.346 .0342039
616.113 .0341861
616.879 .0341684
617.645 .0341507
618.411 .0341331
619.176 .0341155
619.941 .0340978
620.705 .0340801
621.470 .0340622
622.233 .0340441
622.997 .0340256
623.760 .0340069
624.523 .0339878
625.286 .0339684
626.048 .0339488
626.810 .0339290
627.572 .0339089
628.333 .0338887
629.095 .0338685
629.855 .0338482
630.616 .0338278
631.376 .0338074
632.136 .0337871
632.895 .0337670
633.655 .0337470
634.414 .0337272
635.172 .0337077
635.931 .0336885
636.689 .0336696
637.447 .0336509
638.204 .0336326
638.962 .0336146
639.718 .0335970
640.475 .0335797
641.231 .0335629
641.988 .0335465
642.743 .0335304
643.499 .0335146
644.254 .0334992
645.009 .0334839
645.764 .0334688
646.518 .0334539
647.272 .0334390
648.026 .0334242
648.780 .0334095
649.533 .0333947
650.286 .0333798
651.039 .0333649
651.792 .0333499
652.544 .0333348
653.296 .0333196
654.048 .0333043
654.799 .0332890
655.550 .0332736
656.301 .0332582
657.052 .0332429
657.802 .0332275
658.552 .0332122
659.302 .0331968
660.052 .0331814
660.801 .0331660
661.550 .0331507
662.299 .0331353
663.048 .0331200
663.796 .0331048
664.544 .0330897
665.292 .0330747
666.040 .0330598
666.787 .0330451
667.534 .0330307
668.281 .0330164
669.028 .0330023
669.774 .0329884
670.521 .0329747
671.266 .0329612
672.012 .0329479
672.758 .0329349
673.503 .0329222
674.248 .0329097
674.992 .0328975
675.737 .0328856
676.481 .0328739
677.225 .0328624
677.969 .0328509
678.712 .0328394
679.455 .0328279
680.199 .0328164
680.941 .0328048
681.684 .0327931
682.426 .0327814
683.168 .0327695
683.910 .0327575
684.652 .0327453
685.393 .0327328
686.134 .0327202
686.875 .0327074
687.616 .0326944
688.356 .0326812
689.097 .0326680
689.837 .0326546
690.576 .0326411
691.316 .0326274
692.055 .0326136
692.794 .0325997
693.533 .0325858
694.272 .0325717
695.010 .0325577
695.748 .0325437
696.486 .0325298
697.224 .0325159
697.962 .0325020
698.699 .0324880
699.436 .0324740
700.173 .0324598
700.909 .0324454
701.646 .0324309
702.382 .0324163
703.118 .0324015
703.853 .0323867
704.589 .0323717
705.324 .0323567
706.059 .0323415
706.794 .0323262
707.529 .0323106
708.263 .0322949
708.997 .0322790
709.731 .0322629
710.465 .0322468
711.198 .0322305
711.931 .0322142
712.664 .0321979
713.397 .0321816
714.130 .0321653
714.862 .0321491
715.594 .0321329
716.326 .0321167
717.058 .0321007
717.789 .0320848
718.520 .0320690
719.251 .0320533
719.982 .0320379
720.713 .0320226
721.443 .0320075
722.173 .0319926
722.903 .0319780
723.633 .0319637
724.362 .0319496
725.091 .0319357
725.820 .0319220
726.549 .0319085
727.278 .0318950
728.006 .0318816
728.734 .0318681
729.462 .0318546
730.190 .0318410
730.917 .0318273
731.644 .0318135
732.371 .0317997
733.098 .0317858
733.825 .0317719
734.551 .0317580
735.277 .0317440
736.003 .0317300
736.728 .0317159
737.454 .0317017
738.179 .0316875
738.904 .0316732
739.629 .0316589
740.353 .0316447
741.077 .0316305
741.801 .0316163
742.525 .0316023
743.249 .0315882
743.972 .0315743
744.695 .0315603
745.418 .0315463
746.141 .0315323
746.863 .0315182
747.585 .0315041
748.307 .0314897
749.029 .0314752
749.750 .0314604
750.472 .0314454
751.193 .0314300
751.913 .0314143
752.634 .0313983
753.354 .0313820
754.074 .0313654
754.794 .0313485
755.514 .0313315
756.233 .0313142
756.952 .0312967
757.671 .0312791
758.390 .0312614
759.108 .0312436
759.826 .0312259
760.544 .0312082
761.262 .0311906
761.979 .0311733
762.697 .0311562
763.414 .0311394
764.130 .0311229
764.847 .0311068
765.563 .0310911
766.279 .0310758
766.995 .0310610
767.710 .0310467
768.426 .0310328
769.141 .0310194
769.855 .0310064
770.570 .0309936
771.284 .0309811
771.998 .0309686
772.712 .0309563
773.426 .0309441
774.139 .0309318
774.852 .0309196
775.565 .0309074
776.277 .0308952
776.990 .0308830
777.702 .0308708
778.414 .0308584
779.125 .0308460
779.836 .0308334
780.547 .0308207
781.258 .0308079
781.969 .0307949
782.679 .0307819
783.389 .0307620
784.099 .0307487
784.808 .0307354
785.517 .0307219
786.226 .0307084
786.935 .0306947
787.643 .0306811
788.352 .0306673
789.060 .0306534
789.767 .0306394
790.475 .0306254
791.182 .0306112
791.889 .0306038
792.595 .0305895
793.301 .0305751
794.008 .0305606
794.713 .0305460
795.419 .0305314
796.124 .0305166
796.829 .0305017
797.534 .0304867
798.238 .0304717
798.942 .0304566
799.646 .0304415
800.350 .0304264
801.053 .0304113
801.756 .0303962
802.459 .0303811
803.162 .0303660
803.864 .0303508
804.566 .0303355
805.267 .0303201
805.969 .0303046
806.670 .0302891
807.371 .0302734
808.071 .0302578
808.772 .0302422
809.472 .0302266
810.171 .0302111
810.871 .0301955
811.570 .0301799
812.269 .0301642
812.967 .0301484
813.666 .0301325
814.364 .0301164
815.061 .0301001
815.759 .0300836
816.456 .0300669
817.153 .0300499
817.849 .0300327
818.545 .0300152
819.241 .0299974
819.937 .0299793
820.632 .0299609
821.327 .0299423
822.022 .0299235
822.717 .0299045
823.411 .0298854
824.105 .0298661
824.798 .0298469
825.491 .0298276
826.184 .0298084
826.877 .0297893
827.569 .0297704
828.261 .0297517
828.953 .0297333
829.645 .0297153
830.336 .0296976
831.027 .0296804
831.717 .0296636
832.407 .0296474
833.097 .0296316
833.787 .0296164
834.476 .0296017
835.165 .0295876
835.854 .0295739
836.542 .0295607
837.230 .0295478
837.918 .0295354
838.605 .0295232
839.292 .0295113
839.979 .0294997
840.665 .0294883
841.352 .0294770
842.037 .0294658
842.723 .0294546
843.408 .0294433
844.093 .0294319
844.777 .0294201
845.462 .0294081
846.145 .0293957
846.829 .0293829
847.512 .0293698
848.195 .0293563
848.878 .0293426
849.560 .0293285
850.242 .0293141
850.923 .0292995
851.605 .0292844
852.286 .0292691
852.966 .0292535
853.646 .0292376
854.326 .0292217
855.006 .0292056
855.685 .0291895
856.364 .0291736
857.043 .0291577
857.721 .0291419
858.399 .0291263
859.077 .0291108
859.754 .0290954
860.431 .0290802
861.107 .0290652
861.784 .0290505
862.459 .0290361
863.135 .0290220
863.810 .0290082
864.485 .0289947
865.160 .0289815
865.834 .0289684
866.508 .0289556
867.181 .0289429
867.854 .0289303
868.527 .0289179
869.199 .0289057
869.872 .0288937
870.543 .0288819
871.215 .0288702
871.886 .0288585
872.557 .0288470
873.227 .0288354
873.897 .0288238
874.567 .0288120
875.236 .0288002
875.905 .0287882
876.573 .0287760
877.242 .0287636
877.909 .0287510
878.577 .0287381
879.244 .0287250
879.911 .0287116
880.577 .0286980
881.243 .0286840
881.909 .0286698
882.575 .0286554
883.240 .0286408
883.904 .0286260
884.569 .0286111
885.232 .0285962
885.896 .0285814
886.559 .0285666
887.222 .0285520
887.885 .0285375
888.547 .0285232
889.208 .0285090
889.870 .0284950
890.531 .0284812
891.192 .0284676
891.852 .0284542
892.512 .0284410
893.171 .0284280
893.830 .0284152
894.489 .0284026
895.148 .0283900
895.806 .0283776
896.464 .0283651
897.121 .0283526
897.778 .0283401
898.434 .0283276
899.091 .0283084
899.747 .0282959
900.402 .0282834
901.057 .0282709
901.712 .0282583
902.366 .0282455
903.020 .0282326
903.674 .0282195
904.327 .0282061
904.980 .0281925
905.633 .0281787
906.285 .0281647
906.936 .0281505
907.588 .0281431
908.239 .0281286
908.889 .0281139
909.540 .0280988
910.190 .0280835
910.839 .0280680
911.488 .0280522
912.137 .0280362
912.785 .0280202
913.433 .0280040
914.081 .0279878
914.728 .0279716
915.375 .0279554
916.021 .0279390
916.668 .0279227
917.313 .0279062
917.959 .0278897
918.604 .0278732
919.248 .0278567
919.892 .0278402
920.536 .0278237
921.180 .0278073
921.823 .0277910
922.465 .0277749
923.108 .0277589
923.750 .0277431
924.391 .0277276
925.032 .0277123
925.673 .0276974
926.313 .0276828
926.953 .0276686
927.593 .0276548
928.232 .0276414
928.871 .0276285
929.510 .0276161
930.148 .0276042
930.786 .0275927
931.423 .0275818
932.060 .0275714
932.697 .0275613
933.333 .0275516
933.969 .0275421
934.604 .0275327
935.239 .0275234
935.874 .0275142
936.508 .0275050
937.142 .0274957
937.776 .0274865
938.409 .0274772
939.042 .0274678
939.674 .0274583
940.306 .0274485
940.938 .0274383
941.569 .0274278
942.200 .0274168
942.830 .0274054
943.460 .0273936
944.090 .0273814
944.720 .0273690
945.349 .0273564
945.977 .0273434
946.606 .0273302
947.233 .0273167
947.861 .0273028
948.488 .0272885
949.115 .0272739
949.741 .0272590
950.367 .0272440
950.993 .0272288
951.618 .0272136
952.243 .0271984
952.868 .0271832
953.492 .0271680
954.115 .0271527
954.739 .0271373
955.362 .0271218
955.984 .0271062
956.607 .0270906
957.229 .0270750
957.850 .0270596
958.471 .0270444
959.092 .0270293
959.713 .0270145
960.333 .0269998
960.952 .0269853
961.572 .0269709
962.191 .0269565
962.809 .0269423
963.428 .0269282
964.045 .0269144
964.663 .0269008
965.280 .0268875
965.897 .0268744
966.513 .0268617
967.129 .0268492
967.745 .0268370
968.361 .0268249
968.976 .0268130
969.590 .0268013
970.205 .0267899
970.818 .0267787
971.432 .0267677
972.045 .0267570
972.658 .0267466
973.271 .0267365
973.883 .0267266
974.495 .0267169
975.106 .0267075
975.717 .0266984
976.328 .0266894
976.938 .0266807
977.548 .0266722
978.158 .0266638
978.768 .0266513
979.377 .0266429
979.985 .0266345
980.594 .0266261
981.202 .0266175
981.809 .0266088
982.417 .0266000
983.024 .0265910
983.631 .0265819
984.237 .0265726
984.843 .0265631
985.449 .0265533
986.054 .0265432
986.659 .0265328
987.264 .0265268
987.868 .0265160
988.472 .0265049
989.076 .0264937
989.679 .0264824
990.282 .0264709
990.885 .0264594
991.487 .0264477
992.090 .0264360
992.691 .0264242
993.293 .0264122
993.894 .0264002
994.495 .0263882
995.095 .0263762
995.696 .0263643
996.296 .0263524
996.895 .0263408
997.494 .0263293
998.093 .0263181
998.692 .0263070
999.291 .0262962
999.889 .0262855
1000.487 .0262751
1001.084 .0262651
1001.681 .0262554
1002.278 .0262462
1002.875 .0262376
1003.471 .0262297
1004.067 .0262224
1004.663 .0262157
1005.258 .0262097
1005.854 .0262042
1006.449 .0261992
1007.043 .0261947
1007.638 .0261906
1008.232 .0261870
1008.826 .0261838
1009.419 .0261811
1010.012 .0261789
1010.605 .0261771
1011.198 .0261758
1011.791 .0261748
1012.383 .0261742
1012.975 .0261737
1013.566 .0261735
1014.158 .0261735
1014.749 .0261737
1015.340 .0261741
1015.931 .0261748
1016.521 .0261757
1017.111 .0261770
1017.701 .0261785
1018.291 .0261803
1018.880 .0261822
1019.470 .0261842
1020.059 .0261862
1020.647 .0261882
1021.236 .0261902
1021.824 .0261921
1022.412 .0261940
1023.000 .0261958
1023.588 .0261976
1024.175 .0261994
1024.762 .0262012
1025.349 .0262029
1025.936 .0262046
1026.523 .0262063
1027.109 .0262078
1027.695 .0262093
1028.281 .0262108
1028.867 .0262123
1029.452 .0262138
1030.038 .0262154
1030.623 .0262172
1031.208 .0262192
1031.792 .0262214
1032.377 .0262238
1032.961 .0262263
1033.546 .0262289
1034.130 .0262315
1034.714 .0262341
1035.297 .0262367
1035.881 .0262393
1036.464 .0262419
1037.047 .0262446
1037.630 .0262474
1038.213 .0262504
1038.796 .0262536
1039.378 .0262570
1039.961 .0262605
1040.543 .0262642
1041.125 .0262678
1041.707 .0262713
1042.289 .0262747
1042.871 .0262780
1043.452 .0262810
1044.034 .0262839
1044.615 .0262867
1045.196 .0262893
1045.777 .0262919
1046.358 .0262944
1046.939 .0262968
1047.520 .0262990
1048.101 .0263011
1048.681 .0263029
1049.262 .0263044
1049.842 .0263054
1050.422 .0263061
1051.002 .0263063
1051.582 .0263061
1052.162 .0263055
1052.742 .0263046
1053.322 .0263033
1053.902 .0263017
1054.482 .0262996
1055.061 .0262970
1055.641 .0262937
1056.220 .0262898
1056.800 .0262851
1057.379 .0262797
1057.958 .0262734
1058.538 .0262664
1059.117 .0262588
1059.696 .0262505
1060.275 .0262418
1060.854 .0262327
1061.433 .0262233
1062.012 .0262137
1062.592 .0262038
1063.171 .0261937
1063.750 .0261835
1064.329 .0261731
1064.908 .0261625
1065.487 .0261519
1066.066 .0261413
1066.645 .0261308
1067.224 .0261206
1067.803 .0261109
1068.382 .0261017
1068.961 .0260930
1069.540 .0260848
1070.119 .0260768
1070.698 .0260691
1071.278 .0260616
1071.857 .0260541
1072.436 .0260466
1073.016 .0260392
1073.595 .0260321
1074.175 .0260252
1074.754 .0260189
1075.334 .0260130
1075.913 .0260076
1076.493 .0260025
1077.073 .0259975
1077.653 .0259925
1078.233 .0259874
1078.813 .0259821
1079.393 .0259766
1079.974 .0259711
1080.554 .0259655
1081.135 .0259599
1081.716 .0259543
1082.296 .0259488
1082.877 .0259432
1083.458 .0259374
1084.040 .0259312
1084.621 .0259246
1085.202 .0259174
1085.784 .0259100
1086.366 .0259023
1086.948 .0258946
1087.530 .0258870
1088.112 .0258797
1088.695 .0258726
1089.277 .0258657
1089.860 .0258592
1090.443 .0258528
1091.026 .0258466
1091.610 .0258405
1092.193 .0258346
1092.777 .0258290
1093.361 .0258240
1093.946 .0258195
1094.530 .0258157
1095.115 .0258125
1095.700 .0258098
1096.285 .0258073
1096.871 .0258048
1097.456 .0258021
1098.042 .0257991
1098.628 .0257957
1099.215 .0257920
1099.802 .0257880
1100.389 .0257840
1100.976 .0257799
1101.564 .0257759
1102.152 .0257720
1102.740 .0257679
1103.329 .0257638
1103.917 .0257595
1104.507 .0257550
1105.096 .0257505
1105.686 .0257462
1106.276 .0257424
1106.867 .0257394
1107.457 .0257375
1108.049 .0257368
1108.640 .0257375
1109.232 .0257398
1109.825 .0257434
1110.417 .0257483
1111.010 .0257545
1111.604 .0257617
1112.198 .0257700
1112.792 .0257793
1113.387 .0257899
1113.982 .0258020
1114.577 .0258156
1115.173 .0258310
1115.769 .0258481
1116.366 .0258669
1116.963 .0258873
1117.561 .0259092
1118.159 .0259325
1118.758 .0259570
1119.357 .0259827
1119.957 .0260094
1120.557 .0260372
1121.157 .0260660
1121.758 .0260960
1122.360 .0261269
1122.962 .0261588
1123.564 .0261913
1124.167 .0262084
1124.771 .0262415
1125.375 .0262747
1125.980 .0263076
1126.585 .0263400
1127.191 .0263721
1127.797 .0264042
1128.404 .0264364
1129.012 .0264691
1129.620 .0265025
1130.229 .0265369
1130.838 .0265721
1131.448 .0266079
1132.058 .0266443
1132.669 .0266977
1133.281 .0267353
1133.894 .0267726
1134.507 .0268080
1135.120 .0268448
1135.735 .0268918
1136.350 .0269396
1136.965 .0269175
1137.582 .0269706
1138.199 .0270261
1138.816 .0270807
1139.435 .0271319
1140.054 .0271796
1140.674 .0272319
1141.294 .0272867
1141.916 .0273135
1142.538 .0272980
1143.160 .0273682
1143.784 .0276749
1144.408 .0277219
1145.033 .0268791
