Measurement Sequence started on: 14-45-04-498
Integration time: 36
Scans to Average: 2 
>>>>>Begin Spectral Data<<<<<
433.946 .0502485
434.870 .0500853
435.793 .0434682
436.715 .0420668
437.635 .0417938
438.555 .0421563
439.473 .0414258
440.389 .0409112
441.305 .0407019
442.219 .0405680
443.132 .0413147
444.044 .0407739
444.954 .0405772
445.863 .0404495
446.771 .0403306
447.678 .0401866
448.584 .0400741
449.488 .0399814
450.391 .0398923
451.293 .0398031
452.194 .0397127
453.094 .0396199
453.992 .0395244
454.890 .0394273
455.786 .0393291
456.681 .0392301
457.575 .0391302
458.468 .0390291
459.360 .0389270
460.250 .0388239
461.140 .0387196
462.028 .0386146
462.915 .0385102
463.801 .0384070
464.687 .0383060
465.571 .0382081
466.454 .0381139
467.335 .0380235
468.216 .0379367
469.096 .0378529
469.975 .0377718
470.853 .0376931
471.729 .0376167
472.605 .0375428
473.479 .0374722
474.353 .0374054
475.226 .0373427
476.097 .0372847
476.968 .0372314
477.838 .0371827
478.706 .0371385
479.574 .0370985
480.441 .0370625
481.306 .0370302
482.171 .0370016
483.035 .0369766
483.898 .0369552
484.760 .0369373
485.621 .0369226
486.481 .0369107
487.340 .0369009
488.198 .0368924
489.055 .0368846
489.912 .0368766
490.767 .0368681
491.622 .0368509
492.476 .0368395
493.329 .0368265
494.180 .0368116
495.032 .0367944
495.882 .0367746
496.731 .0367515
497.580 .0367249
498.427 .0366945
499.274 .0366601
500.120 .0366341
500.965 .0365935
501.809 .0365490
502.653 .0365006
503.495 .0364489
504.337 .0363943
505.178 .0363371
506.018 .0362783
506.858 .0362184
507.696 .0361582
508.534 .0360986
509.371 .0360401
510.208 .0359836
511.043 .0359299
511.878 .0358796
512.712 .0358333
513.545 .0357916
514.377 .0357547
515.209 .0357231
516.040 .0356968
516.870 .0356757
517.699 .0356593
518.528 .0356469
519.356 .0356378
520.183 .0356309
521.010 .0356254
521.836 .0356201
522.661 .0356143
523.485 .0356071
524.309 .0355978
525.132 .0355861
525.954 .0355717
526.776 .0355539
527.597 .0355323
528.417 .0355063
529.237 .0354757
530.056 .0354395
530.874 .0353976
531.692 .0353495
532.508 .0352949
533.325 .0352339
534.140 .0351668
534.955 .0350943
535.770 .0350176
536.583 .0349376
537.397 .0348555
538.209 .0347721
539.021 .0346885
539.832 .0346050
540.643 .0345221
541.453 .0344399
542.262 .0343583
543.071 .0342774
543.879 .0341981
544.687 .0341210
545.494 .0340469
546.300 .0339766
547.106 .0339110
547.911 .0338505
548.716 .0337956
549.520 .0337464
550.323 .0337028
551.126 .0336647
551.929 .0336315
552.731 .0336028
553.532 .0335781
554.332 .0335574
555.133 .0335402
555.932 .0335266
556.731 .0335161
557.530 .0335082
558.328 .0335021
559.125 .0334972
559.922 .0334924
560.719 .0334869
561.515 .0334796
562.310 .0334697
563.105 .0334565
563.899 .0334396
564.693 .0334187
565.487 .0333940
566.280 .0333653
567.072 .0333330
567.864 .0332971
568.655 .0332578
569.446 .0332156
570.236 .0331706
571.026 .0331233
571.816 .0330741
572.605 .0330233
573.393 .0329711
574.181 .0329183
574.969 .0328653
575.756 .0328126
576.543 .0327608
577.329 .0327101
578.115 .0326607
578.900 .0326128
579.685 .0325666
580.469 .0325223
581.253 .0324801
582.036 .0324400
582.820 .0324022
583.602 .0323668
584.384 .0323337
585.166 .0323029
585.947 .0322743
586.728 .0322478
587.509 .0322231
588.289 .0321999
589.069 .0321782
589.848 .0321576
590.627 .0321383
591.405 .0321200
592.183 .0321027
592.961 .0320862
593.738 .0320704
594.515 .0320551
595.291 .0320401
596.067 .0320252
596.843 .0320102
597.618 .0319949
598.393 .0319699
599.167 .0319531
599.941 .0319358
600.715 .0319180
601.488 .0318996
602.261 .0318806
603.034 .0318609
603.806 .0318406
604.578 .0318197
605.349 .0317981
606.121 .0317760
606.891 .0317638
607.662 .0317409
608.432 .0317175
609.201 .0316936
609.971 .0316692
610.740 .0316444
611.508 .0316190
612.277 .0315932
613.045 .0315670
613.812 .0315403
614.579 .0315131
615.346 .0314856
616.113 .0314578
616.879 .0314298
617.645 .0314016
618.411 .0313733
619.176 .0313449
619.941 .0313163
620.705 .0312876
621.470 .0312589
622.233 .0312302
622.997 .0312016
623.760 .0311732
624.523 .0311450
625.286 .0311172
626.048 .0310898
626.810 .0310630
627.572 .0310367
628.333 .0310112
629.095 .0309865
629.855 .0309627
630.616 .0309398
631.376 .0309178
632.136 .0308969
632.895 .0308769
633.655 .0308579
634.414 .0308399
635.172 .0308226
635.931 .0308062
636.689 .0307905
637.447 .0307755
638.204 .0307611
638.962 .0307474
639.718 .0307342
640.475 .0307215
641.231 .0307091
641.988 .0306971
642.743 .0306852
643.499 .0306734
644.254 .0306615
645.009 .0306495
645.764 .0306373
646.518 .0306248
647.272 .0306119
648.026 .0305987
648.780 .0305851
649.533 .0305710
650.286 .0305565
651.039 .0305416
651.792 .0305263
652.544 .0305107
653.296 .0304947
654.048 .0304784
654.799 .0304617
655.550 .0304446
656.301 .0304270
657.052 .0304090
657.802 .0303904
658.552 .0303715
659.302 .0303521
660.052 .0303323
660.801 .0303122
661.550 .0302919
662.299 .0302712
663.048 .0302502
663.796 .0302288
664.544 .0302071
665.292 .0301851
666.040 .0301628
666.787 .0301403
667.534 .0301177
668.281 .0300950
669.028 .0300723
669.774 .0300498
670.521 .0300274
671.266 .0300052
672.012 .0299833
672.758 .0299617
673.503 .0299406
674.248 .0299200
674.992 .0299000
675.737 .0298807
676.481 .0298620
677.225 .0298441
677.969 .0298269
678.712 .0298103
679.455 .0297945
680.199 .0297794
680.941 .0297650
681.684 .0297513
682.426 .0297384
683.168 .0297261
683.910 .0297146
684.652 .0297037
685.393 .0296934
686.134 .0296836
686.875 .0296743
687.616 .0296655
688.356 .0296571
689.097 .0296491
689.837 .0296415
690.576 .0296343
691.316 .0296274
692.055 .0296209
692.794 .0296147
693.533 .0296087
694.272 .0296027
695.010 .0295969
695.748 .0295911
696.486 .0295852
697.224 .0295793
697.962 .0295734
698.699 .0295676
699.436 .0295617
700.173 .0295559
700.909 .0295501
701.646 .0295444
702.382 .0295386
703.118 .0295327
703.853 .0295267
704.589 .0295206
705.324 .0295141
706.059 .0295074
706.794 .0295004
707.529 .0294929
708.263 .0294851
708.997 .0294769
709.731 .0294683
710.465 .0294593
711.198 .0294501
711.931 .0294405
712.664 .0294306
713.397 .0294203
714.130 .0294097
714.862 .0293986
715.594 .0293872
716.326 .0293753
717.058 .0293629
717.789 .0293500
718.520 .0293366
719.251 .0293228
719.982 .0293086
720.713 .0292941
721.443 .0292792
722.173 .0292641
722.903 .0292489
723.633 .0292335
724.362 .0292180
725.091 .0292025
725.820 .0291870
726.549 .0291716
727.278 .0291563
728.006 .0291411
728.734 .0291261
729.462 .0291114
730.190 .0290970
730.917 .0290830
731.644 .0290693
732.371 .0290562
733.098 .0290435
733.825 .0290312
734.551 .0290194
735.277 .0290080
736.003 .0289968
736.728 .0289860
737.454 .0289753
738.179 .0289647
738.904 .0289542
739.629 .0289437
740.353 .0289332
741.077 .0289227
741.801 .0289122
742.525 .0289016
743.249 .0288910
743.972 .0288804
744.695 .0288696
745.418 .0288589
746.141 .0288481
746.863 .0288374
747.585 .0288266
748.307 .0288159
749.029 .0288051
749.750 .0287945
750.472 .0287839
751.193 .0287733
751.913 .0287629
752.634 .0287526
753.354 .0287426
754.074 .0287329
754.794 .0287236
755.514 .0287147
756.233 .0287064
756.952 .0286985
757.671 .0286911
758.390 .0286841
759.108 .0286775
759.826 .0286714
760.544 .0286656
761.262 .0286602
761.979 .0286551
762.697 .0286504
763.414 .0286461
764.130 .0286421
764.847 .0286385
765.563 .0286351
766.279 .0286320
766.995 .0286292
767.710 .0286266
768.426 .0286241
769.141 .0286219
769.855 .0286197
770.570 .0286177
771.284 .0286157
771.998 .0286137
772.712 .0286118
773.426 .0286099
774.139 .0286079
774.852 .0286059
775.565 .0286039
776.277 .0286018
776.990 .0285996
777.702 .0285973
778.414 .0285949
779.125 .0285924
779.836 .0285898
780.547 .0285871
781.258 .0285843
781.969 .0285813
782.679 .0285782
783.389 .0285729
784.099 .0285694
784.808 .0285657
785.517 .0285618
786.226 .0285577
786.935 .0285534
787.643 .0285490
788.352 .0285443
789.060 .0285393
789.767 .0285339
790.475 .0285283
791.182 .0285222
791.889 .0285183
792.595 .0285116
793.301 .0285046
794.008 .0284972
794.713 .0284894
795.419 .0284812
796.124 .0284727
796.829 .0284638
797.534 .0284544
798.238 .0284445
798.942 .0284343
799.646 .0284237
800.350 .0284127
801.053 .0284015
801.756 .0283900
802.459 .0283782
803.162 .0283661
803.864 .0283538
804.566 .0283412
805.267 .0283284
805.969 .0283153
806.670 .0283020
807.371 .0282885
808.071 .0282749
808.772 .0282612
809.472 .0282476
810.171 .0282338
810.871 .0282201
811.570 .0282063
812.269 .0281924
812.967 .0281784
813.666 .0281643
814.364 .0281500
815.061 .0281356
815.759 .0281211
816.456 .0281064
817.153 .0280917
817.849 .0280768
818.545 .0280618
819.241 .0280466
819.937 .0280313
820.632 .0280158
821.327 .0280001
822.022 .0279843
822.717 .0279685
823.411 .0279526
824.105 .0279367
824.798 .0279209
825.491 .0279053
826.184 .0278897
826.877 .0278742
827.569 .0278589
828.261 .0278438
828.953 .0278289
829.645 .0278143
830.336 .0278001
831.027 .0277863
831.717 .0277731
832.407 .0277605
833.097 .0277484
833.787 .0277369
834.476 .0277260
835.165 .0277156
835.854 .0277057
836.542 .0276963
837.230 .0276875
837.918 .0276792
838.605 .0276715
839.292 .0276643
839.979 .0276576
840.665 .0276513
841.352 .0276453
842.037 .0276397
842.723 .0276342
843.408 .0276289
844.093 .0276237
844.777 .0276186
845.462 .0276135
846.145 .0276085
846.829 .0276035
847.512 .0275984
848.195 .0275934
848.878 .0275883
849.560 .0275831
850.242 .0275779
850.923 .0275727
851.605 .0275675
852.286 .0275623
852.966 .0275572
853.646 .0275520
854.326 .0275468
855.006 .0275416
855.685 .0275363
856.364 .0275309
857.043 .0275255
857.721 .0275200
858.399 .0275146
859.077 .0275093
859.754 .0275041
860.431 .0274990
861.107 .0274941
861.784 .0274893
862.459 .0274847
863.135 .0274800
863.810 .0274754
864.485 .0274707
865.160 .0274660
865.834 .0274611
866.508 .0274561
867.181 .0274509
867.854 .0274454
868.527 .0274396
869.199 .0274336
869.872 .0274271
870.543 .0274203
871.215 .0274130
871.886 .0274054
872.557 .0273973
873.227 .0273889
873.897 .0273801
874.567 .0273710
875.236 .0273615
875.905 .0273517
876.573 .0273416
877.242 .0273311
877.909 .0273204
878.577 .0273095
879.244 .0272984
879.911 .0272872
880.577 .0272758
881.243 .0272643
881.909 .0272526
882.575 .0272407
883.240 .0272286
883.904 .0272163
884.569 .0272038
885.232 .0271911
885.896 .0271782
886.559 .0271651
887.222 .0271520
887.885 .0271388
888.547 .0271256
889.208 .0271124
889.870 .0270992
890.531 .0270862
891.192 .0270732
891.852 .0270604
892.512 .0270477
893.171 .0270351
893.830 .0270226
894.489 .0270102
895.148 .0269977
895.806 .0269853
896.464 .0269728
897.121 .0269603
897.778 .0269479
898.434 .0269355
899.091 .0269174
899.747 .0269051
900.402 .0268927
901.057 .0268803
901.712 .0268679
902.366 .0268553
903.020 .0268426
903.674 .0268298
904.327 .0268169
904.980 .0268039
905.633 .0267907
906.285 .0267774
906.936 .0267640
907.588 .0267563
908.239 .0267425
908.889 .0267284
909.540 .0267140
910.190 .0266994
910.839 .0266844
911.488 .0266691
912.137 .0266536
912.785 .0266379
913.433 .0266220
914.081 .0266060
914.728 .0265899
915.375 .0265738
916.021 .0265575
916.668 .0265412
917.313 .0265249
917.959 .0265086
918.604 .0264923
919.248 .0264760
919.892 .0264597
920.536 .0264435
921.180 .0264273
921.823 .0264111
922.465 .0263948
923.108 .0263784
923.750 .0263619
924.391 .0263454
925.032 .0263287
925.673 .0263119
926.313 .0262951
926.953 .0262781
927.593 .0262610
928.232 .0262439
928.871 .0262267
929.510 .0262095
930.148 .0261923
930.786 .0261752
931.423 .0261583
932.060 .0261414
932.697 .0261245
933.333 .0261078
933.969 .0260912
934.604 .0260746
935.239 .0260582
935.874 .0260418
936.508 .0260257
937.142 .0260097
937.776 .0259940
938.409 .0259786
939.042 .0259634
939.674 .0259484
940.306 .0259337
940.938 .0259191
941.569 .0259048
942.200 .0258906
942.830 .0258766
943.460 .0258629
944.090 .0258495
944.720 .0258364
945.349 .0258236
945.977 .0258110
946.606 .0257988
947.233 .0257868
947.861 .0257750
948.488 .0257635
949.115 .0257522
949.741 .0257413
950.367 .0257306
950.993 .0257203
951.618 .0257104
952.243 .0257009
952.868 .0256919
953.492 .0256832
954.115 .0256749
954.739 .0256669
955.362 .0256594
955.984 .0256523
956.607 .0256456
957.229 .0256393
957.850 .0256333
958.471 .0256278
959.092 .0256226
959.713 .0256177
960.333 .0256130
960.952 .0256086
961.572 .0256043
962.191 .0256003
962.809 .0255964
963.428 .0255926
964.045 .0255890
964.663 .0255856
965.280 .0255822
965.897 .0255789
966.513 .0255757
967.129 .0255725
967.745 .0255692
968.361 .0255659
968.976 .0255626
969.590 .0255592
970.205 .0255558
970.818 .0255524
971.432 .0255489
972.045 .0255455
972.658 .0255420
973.271 .0255386
973.883 .0255352
974.495 .0255317
975.106 .0255283
975.717 .0255249
976.328 .0255214
976.938 .0255180
977.548 .0255146
978.158 .0255111
978.768 .0255055
979.377 .0255017
979.985 .0254979
980.594 .0254939
981.202 .0254898
981.809 .0254855
982.417 .0254811
983.024 .0254765
983.631 .0254717
984.237 .0254668
984.843 .0254618
985.449 .0254566
986.054 .0254513
986.659 .0254460
987.264 .0254430
987.868 .0254377
988.472 .0254324
989.076 .0254272
989.679 .0254220
990.282 .0254168
990.885 .0254116
991.487 .0254065
992.090 .0254014
992.691 .0253964
993.293 .0253915
993.894 .0253866
994.495 .0253816
995.095 .0253767
995.696 .0253718
996.296 .0253669
996.895 .0253619
997.494 .0253568
998.093 .0253516
998.692 .0253462
999.291 .0253406
999.889 .0253349
1000.487 .0253290
1001.084 .0253229
1001.681 .0253167
1002.278 .0253104
1002.875 .0253039
1003.471 .0252974
1004.067 .0252907
1004.663 .0252838
1005.258 .0252767
1005.854 .0252695
1006.449 .0252621
1007.043 .0252545
1007.638 .0252468
1008.232 .0252390
1008.826 .0252312
1009.419 .0252232
1010.012 .0252153
1010.605 .0252073
1011.198 .0251992
1011.791 .0251912
1012.383 .0251832
1012.975 .0251753
1013.566 .0251675
1014.158 .0251601
1014.749 .0251529
1015.340 .0251460
1015.931 .0251395
1016.521 .0251332
1017.111 .0251271
1017.701 .0251210
1018.291 .0251151
1018.880 .0251091
1019.470 .0251032
1020.059 .0250974
1020.647 .0250917
1021.236 .0250861
1021.824 .0250807
1022.412 .0250753
1023.000 .0250699
1023.588 .0250644
1024.175 .0250588
1024.762 .0250529
1025.349 .0250467
1025.936 .0250404
1026.523 .0250340
1027.109 .0250275
1027.695 .0250211
1028.281 .0250147
1028.867 .0250085
1029.452 .0250024
1030.038 .0249962
1030.623 .0249898
1031.208 .0249833
1031.792 .0249765
1032.377 .0249694
1032.961 .0249622
1033.546 .0249548
1034.130 .0249475
1034.714 .0249401
1035.297 .0249329
1035.881 .0249257
1036.464 .0249186
1037.047 .0249114
1037.630 .0249041
1038.213 .0248966
1038.796 .0248890
1039.378 .0248813
1039.961 .0248736
1040.543 .0248660
1041.125 .0248586
1041.707 .0248514
1042.289 .0248443
1042.871 .0248375
1043.452 .0248307
1044.034 .0248239
1044.615 .0248170
1045.196 .0248101
1045.777 .0248033
1046.358 .0247966
1046.939 .0247901
1047.520 .0247839
1048.101 .0247783
1048.681 .0247732
1049.262 .0247685
1049.842 .0247644
1050.422 .0247607
1051.002 .0247574
1051.582 .0247545
1052.162 .0247519
1052.742 .0247497
1053.322 .0247479
1053.902 .0247466
1054.482 .0247457
1055.061 .0247453
1055.641 .0247453
1056.220 .0247455
1056.800 .0247458
1057.379 .0247460
1057.958 .0247461
1058.538 .0247458
1059.117 .0247453
1059.696 .0247444
1060.275 .0247434
1060.854 .0247422
1061.433 .0247410
1062.012 .0247398
1062.592 .0247386
1063.171 .0247373
1063.750 .0247359
1064.329 .0247343
1064.908 .0247324
1065.487 .0247302
1066.066 .0247278
1066.645 .0247253
1067.224 .0247229
1067.803 .0247207
1068.382 .0247188
1068.961 .0247172
1069.540 .0247159
1070.119 .0247148
1070.698 .0247139
1071.278 .0247130
1071.857 .0247120
1072.436 .0247111
1073.016 .0247102
1073.595 .0247095
1074.175 .0247092
1074.754 .0247094
1075.334 .0247101
1075.913 .0247114
1076.493 .0247133
1077.073 .0247155
1077.653 .0247180
1078.233 .0247207
1078.813 .0247235
1079.393 .0247264
1079.974 .0247294
1080.554 .0247327
1081.135 .0247362
1081.716 .0247401
1082.296 .0247442
1082.877 .0247486
1083.458 .0247530
1084.040 .0247573
1084.621 .0247614
1085.202 .0247650
1085.784 .0247680
1086.366 .0247706
1086.948 .0247727
1087.530 .0247746
1088.112 .0247763
1088.695 .0247780
1089.277 .0247800
1089.860 .0247821
1090.443 .0247845
1091.026 .0247869
1091.610 .0247892
1092.193 .0247913
1092.777 .0247931
1093.361 .0247945
1093.946 .0247955
1094.530 .0247962
1095.115 .0247968
1095.700 .0247974
1096.285 .0247980
1096.871 .0247989
1097.456 .0247998
1098.042 .0248007
1098.628 .0248014
1099.215 .0248019
1099.802 .0248023
1100.389 .0248026
1100.976 .0248030
1101.564 .0248039
1102.152 .0248055
1102.740 .0248083
1103.329 .0248123
1103.917 .0248175
1104.507 .0248240
1105.096 .0248316
1105.686 .0248401
1106.276 .0248493
1106.867 .0248592
1107.457 .0248699
1108.049 .0248813
1108.640 .0248937
1109.232 .0249071
1109.825 .0249215
1110.417 .0249368
1111.010 .0249529
1111.604 .0249695
1112.198 .0249864
1112.792 .0250033
1113.387 .0250200
1113.982 .0250367
1114.577 .0250532
1115.173 .0250696
1115.769 .0250862
1116.366 .0251028
1116.963 .0251195
1117.561 .0251359
1118.159 .0251519
1118.758 .0251674
1119.357 .0251821
1119.957 .0251962
1120.557 .0252098
1121.157 .0252230
1121.758 .0252362
1122.360 .0252496
1122.962 .0252634
1123.564 .0252776
1124.167 .0252839
1124.771 .0252979
1125.375 .0253122
1125.980 .0253268
1126.585 .0253419
1127.191 .0253577
1127.797 .0253748
1128.404 .0253936
1129.012 .0254147
1129.620 .0254382
1130.229 .0254643
1130.838 .0254926
1131.448 .0255232
1132.058 .0255559
1132.669 .0256027
1133.281 .0256418
1133.894 .0256842
1134.507 .0257287
1135.120 .0257766
1135.735 .0258394
1136.350 .0258967
1136.965 .0258600
1137.582 .0259309
1138.199 .0259992
1138.816 .0260629
1139.435 .0261274
1140.054 .0261913
1140.674 .0262655
1141.294 .0263409
1141.916 .0264284
1142.538 .0264859
1143.160 .0265715
1143.784 .0269702
1144.408 .0268234
1145.033 .0269858
