Measurement Sequence started on: 14-45-04-498
Integration time: 36
Scans to Average: 2 
>>>>>Begin Spectral Data<<<<<
433.946 .0629870
434.870 .0651377
435.793 .0580405
436.715 .0548684
437.635 .0527992
438.555 .0537146
439.473 .0525924
440.389 .0516934
441.305 .0511901
442.219 .0508496
443.132 .0520832
444.044 .0512452
444.954 .0507739
445.863 .0504625
446.771 .0502518
447.678 .0499847
448.584 .0497682
449.488 .0495910
450.391 .0494331
451.293 .0492866
452.194 .0491473
453.094 .0490139
453.992 .0488856
454.890 .0487623
455.786 .0486427
456.681 .0485254
457.575 .0484088
458.468 .0482931
459.360 .0481785
460.250 .0480661
461.140 .0479562
462.028 .0478500
462.915 .0477474
463.801 .0476495
464.687 .0475557
465.571 .0474659
466.454 .0473788
467.335 .0472933
468.216 .0472083
469.096 .0471232
469.975 .0470373
470.853 .0469506
471.729 .0468629
472.605 .0467741
473.479 .0466837
474.353 .0465915
475.226 .0464971
476.097 .0464001
476.968 .0463007
477.838 .0461994
478.706 .0460967
479.574 .0459937
480.441 .0458914
481.306 .0457914
482.171 .0456948
483.035 .0456027
483.898 .0455159
484.760 .0454349
485.621 .0453597
486.481 .0452901
487.340 .0452258
488.198 .0451669
489.055 .0451130
489.912 .0450644
490.767 .0450209
491.622 .0449717
492.476 .0449376
493.329 .0449068
494.180 .0448788
495.032 .0448526
495.882 .0448272
496.731 .0448016
497.580 .0447746
498.427 .0447455
499.274 .0447139
500.120 .0446911
500.965 .0446563
501.809 .0446194
502.653 .0445808
503.495 .0445411
504.337 .0445006
505.178 .0444594
506.018 .0444177
506.858 .0443755
507.696 .0443330
508.534 .0442906
509.371 .0442486
510.208 .0442071
511.043 .0441670
511.878 .0441284
512.712 .0440915
513.545 .0440560
514.377 .0440216
515.209 .0439878
516.040 .0439544
516.870 .0439205
517.699 .0438853
518.528 .0438482
519.356 .0438089
520.183 .0437667
521.010 .0437220
521.836 .0436746
522.661 .0436249
523.485 .0435730
524.309 .0435191
525.132 .0434629
525.954 .0434048
526.776 .0433448
527.597 .0432831
528.417 .0432194
529.237 .0431544
530.056 .0430888
530.874 .0430238
531.692 .0429603
532.508 .0428991
533.325 .0428406
534.140 .0427853
534.955 .0427323
535.770 .0426809
536.583 .0426303
537.397 .0425802
538.209 .0425298
539.021 .0424789
539.832 .0424276
540.643 .0423772
541.453 .0423282
542.262 .0422813
543.071 .0422364
543.879 .0421932
544.687 .0421506
545.494 .0421075
546.300 .0420626
547.106 .0420149
547.911 .0419638
548.716 .0419093
549.520 .0418517
550.323 .0417920
551.126 .0417306
551.929 .0416691
552.731 .0416084
553.532 .0415489
554.332 .0414905
555.133 .0414332
555.932 .0413770
556.731 .0413213
557.530 .0412652
558.328 .0412090
559.125 .0411527
559.922 .0410969
560.719 .0410418
561.515 .0409883
562.310 .0409371
563.105 .0408884
563.899 .0408418
564.693 .0407969
565.487 .0407530
566.280 .0407096
567.072 .0406656
567.864 .0406209
568.655 .0405755
569.446 .0405296
570.236 .0404836
571.026 .0404380
571.816 .0403932
572.605 .0403493
573.393 .0403063
574.181 .0402640
574.969 .0402217
575.756 .0401788
576.543 .0401350
577.329 .0400900
578.115 .0400442
578.900 .0399976
579.685 .0399511
580.469 .0399053
581.253 .0398605
582.036 .0398169
582.820 .0397745
583.602 .0397334
584.384 .0396932
585.166 .0396540
585.947 .0396154
586.728 .0395774
587.509 .0395402
588.289 .0395034
589.069 .0394671
589.848 .0394310
590.627 .0393949
591.405 .0393588
592.183 .0393224
592.961 .0392856
593.738 .0392483
594.515 .0392105
595.291 .0391721
596.067 .0391331
596.843 .0390933
597.618 .0390531
598.393 .0389919
599.167 .0389519
599.941 .0389121
600.715 .0388730
601.488 .0388346
602.261 .0387970
603.034 .0387602
603.806 .0387243
604.578 .0386894
605.349 .0386554
606.121 .0386225
606.891 .0386094
607.662 .0385782
608.432 .0385481
609.201 .0385194
609.971 .0384919
610.740 .0384658
611.508 .0384407
612.277 .0384166
613.045 .0383933
613.812 .0383706
614.579 .0383482
615.346 .0383262
616.113 .0383044
616.879 .0382827
617.645 .0382610
618.411 .0382392
619.176 .0382172
619.941 .0381950
620.705 .0381725
621.470 .0381499
622.233 .0381270
622.997 .0381040
623.760 .0380808
624.523 .0380576
625.286 .0380342
626.048 .0380105
626.810 .0379867
627.572 .0379625
628.333 .0379380
629.095 .0379132
629.855 .0378883
630.616 .0378632
631.376 .0378381
632.136 .0378130
632.895 .0377879
633.655 .0377626
634.414 .0377371
635.172 .0377115
635.931 .0376855
636.689 .0376594
637.447 .0376331
638.204 .0376066
638.962 .0375803
639.718 .0375540
640.475 .0375279
641.231 .0375021
641.988 .0374765
642.743 .0374509
643.499 .0374253
644.254 .0373996
645.009 .0373740
645.764 .0373483
646.518 .0373228
647.272 .0372974
648.026 .0372721
648.780 .0372471
649.533 .0372223
650.286 .0371977
651.039 .0371733
651.792 .0371492
652.544 .0371252
653.296 .0371014
654.048 .0370779
654.799 .0370546
655.550 .0370317
656.301 .0370092
657.052 .0369870
657.802 .0369651
658.552 .0369434
659.302 .0369221
660.052 .0369010
660.801 .0368803
661.550 .0368599
662.299 .0368398
663.048 .0368201
663.796 .0368006
664.544 .0367814
665.292 .0367623
666.040 .0367434
666.787 .0367246
667.534 .0367059
668.281 .0366872
669.028 .0366687
669.774 .0366502
670.521 .0366318
671.266 .0366134
672.012 .0365950
672.758 .0365765
673.503 .0365577
674.248 .0365386
674.992 .0365190
675.737 .0364990
676.481 .0364785
677.225 .0364575
677.969 .0364361
678.712 .0364142
679.455 .0363920
680.199 .0363694
680.941 .0363466
681.684 .0363235
682.426 .0363002
683.168 .0362768
683.910 .0362532
684.652 .0362294
685.393 .0362054
686.134 .0361813
686.875 .0361570
687.616 .0361326
688.356 .0361082
689.097 .0360838
689.837 .0360595
690.576 .0360353
691.316 .0360114
692.055 .0359878
692.794 .0359645
693.533 .0359416
694.272 .0359192
695.010 .0358972
695.748 .0358755
696.486 .0358542
697.224 .0358331
697.962 .0358122
698.699 .0357915
699.436 .0357708
700.173 .0357502
700.909 .0357297
701.646 .0357093
702.382 .0356890
703.118 .0356688
703.853 .0356487
704.589 .0356287
705.324 .0356087
706.059 .0355885
706.794 .0355682
707.529 .0355477
708.263 .0355270
708.997 .0355062
709.731 .0354854
710.465 .0354645
711.198 .0354438
711.931 .0354234
712.664 .0354033
713.397 .0353836
714.130 .0353643
714.862 .0353455
715.594 .0353273
716.326 .0353095
717.058 .0352923
717.789 .0352756
718.520 .0352593
719.251 .0352435
719.982 .0352281
720.713 .0352130
721.443 .0351983
722.173 .0351838
722.903 .0351696
723.633 .0351554
724.362 .0351413
725.091 .0351272
725.820 .0351129
726.549 .0350984
727.278 .0350836
728.006 .0350683
728.734 .0350524
729.462 .0350358
730.190 .0350187
730.917 .0350008
731.644 .0349822
732.371 .0349630
733.098 .0349433
733.825 .0349231
734.551 .0349026
735.277 .0348816
736.003 .0348605
736.728 .0348393
737.454 .0348179
738.179 .0347964
738.904 .0347748
739.629 .0347533
740.353 .0347318
741.077 .0347104
741.801 .0346891
742.525 .0346679
743.249 .0346468
743.972 .0346259
744.695 .0346051
745.418 .0345845
746.141 .0345639
746.863 .0345434
747.585 .0345231
748.307 .0345027
749.029 .0344825
749.750 .0344624
750.472 .0344424
751.193 .0344225
751.913 .0344027
752.634 .0343830
753.354 .0343635
754.074 .0343441
754.794 .0343249
755.514 .0343061
756.233 .0342875
756.952 .0342694
757.671 .0342517
758.390 .0342344
759.108 .0342176
759.826 .0342014
760.544 .0341855
761.262 .0341701
761.979 .0341550
762.697 .0341402
763.414 .0341258
764.130 .0341116
764.847 .0340977
765.563 .0340841
766.279 .0340706
766.995 .0340573
767.710 .0340442
768.426 .0340312
769.141 .0340183
769.855 .0340056
770.570 .0339930
771.284 .0339805
771.998 .0339681
772.712 .0339557
773.426 .0339434
774.139 .0339311
774.852 .0339187
775.565 .0339063
776.277 .0338939
776.990 .0338815
777.702 .0338692
778.414 .0338570
779.125 .0338449
779.836 .0338330
780.547 .0338213
781.258 .0338096
781.969 .0337980
782.679 .0337865
783.389 .0337689
784.099 .0337571
784.808 .0337453
785.517 .0337333
786.226 .0337213
786.935 .0337091
787.643 .0336968
788.352 .0336842
789.060 .0336714
789.767 .0336584
790.475 .0336452
791.182 .0336317
791.889 .0336242
792.595 .0336105
793.301 .0335965
794.008 .0335822
794.713 .0335676
795.419 .0335526
796.124 .0335372
796.829 .0335213
797.534 .0335050
798.238 .0334884
798.942 .0334714
799.646 .0334541
800.350 .0334366
801.053 .0334190
801.756 .0334012
802.459 .0333832
803.162 .0333651
803.864 .0333468
804.566 .0333285
805.267 .0333102
805.969 .0332920
806.670 .0332739
807.371 .0332561
808.071 .0332386
808.772 .0332214
809.472 .0332044
810.171 .0331876
810.871 .0331708
811.570 .0331542
812.269 .0331376
812.967 .0331211
813.666 .0331046
814.364 .0330882
815.061 .0330719
815.759 .0330556
816.456 .0330391
817.153 .0330225
817.849 .0330057
818.545 .0329886
819.241 .0329712
819.937 .0329534
820.632 .0329352
821.327 .0329165
822.022 .0328975
822.717 .0328780
823.411 .0328580
824.105 .0328377
824.798 .0328170
825.491 .0327960
826.184 .0327747
826.877 .0327534
827.569 .0327320
828.261 .0327107
828.953 .0326896
829.645 .0326687
830.336 .0326481
831.027 .0326280
831.717 .0326084
832.407 .0325896
833.097 .0325716
833.787 .0325545
834.476 .0325383
835.165 .0325232
835.854 .0325091
836.542 .0324959
837.230 .0324836
837.918 .0324721
838.605 .0324613
839.292 .0324512
839.979 .0324416
840.665 .0324325
841.352 .0324238
842.037 .0324154
842.723 .0324072
843.408 .0323989
844.093 .0323907
844.777 .0323823
845.462 .0323738
846.145 .0323651
846.829 .0323563
847.512 .0323472
848.195 .0323380
848.878 .0323285
849.560 .0323186
850.242 .0323084
850.923 .0322976
851.605 .0322862
852.286 .0322744
852.966 .0322620
853.646 .0322493
854.326 .0322363
855.006 .0322231
855.685 .0322097
856.364 .0321963
857.043 .0321827
857.721 .0321689
858.399 .0321549
859.077 .0321407
859.754 .0321264
860.431 .0321119
861.107 .0320972
861.784 .0320825
862.459 .0320677
863.135 .0320529
863.810 .0320380
864.485 .0320230
865.160 .0320078
865.834 .0319926
866.508 .0319773
867.181 .0319619
867.854 .0319465
868.527 .0319311
869.199 .0319157
869.872 .0319004
870.543 .0318851
871.215 .0318697
871.886 .0318543
872.557 .0318387
873.227 .0318231
873.897 .0318075
874.567 .0317918
875.236 .0317762
875.905 .0317605
876.573 .0317449
877.242 .0317292
877.909 .0317135
878.577 .0316976
879.244 .0316816
879.911 .0316654
880.577 .0316490
881.243 .0316325
881.909 .0316159
882.575 .0315992
883.240 .0315826
883.904 .0315659
884.569 .0315492
885.232 .0315326
885.896 .0315159
886.559 .0314991
887.222 .0314824
887.885 .0314657
888.547 .0314489
889.208 .0314322
889.870 .0314155
890.531 .0313988
891.192 .0313821
891.852 .0313653
892.512 .0313485
893.171 .0313315
893.830 .0313143
894.489 .0312970
895.148 .0312795
895.806 .0312619
896.464 .0312442
897.121 .0312264
897.778 .0312085
898.434 .0311906
899.091 .0311629
899.747 .0311451
900.402 .0311273
901.057 .0311096
901.712 .0310921
902.366 .0310746
903.020 .0310573
903.674 .0310402
904.327 .0310231
904.980 .0310063
905.633 .0309896
906.285 .0309731
906.936 .0309568
907.588 .0309500
908.239 .0309342
908.889 .0309185
909.540 .0309031
910.190 .0308878
910.839 .0308727
911.488 .0308577
912.137 .0308430
912.785 .0308285
913.433 .0308143
914.081 .0308005
914.728 .0307870
915.375 .0307739
916.021 .0307610
916.668 .0307485
917.313 .0307361
917.959 .0307237
918.604 .0307114
919.248 .0306990
919.892 .0306866
920.536 .0306740
921.180 .0306614
921.823 .0306487
922.465 .0306359
923.108 .0306230
923.750 .0306100
924.391 .0305969
925.032 .0305837
925.673 .0305704
926.313 .0305571
926.953 .0305438
927.593 .0305305
928.232 .0305173
928.871 .0305042
929.510 .0304912
930.148 .0304784
930.786 .0304656
931.423 .0304529
932.060 .0304402
932.697 .0304273
933.333 .0304143
933.969 .0304010
934.604 .0303875
935.239 .0303737
935.874 .0303596
936.508 .0303452
937.142 .0303306
937.776 .0303157
938.409 .0303006
939.042 .0302853
939.674 .0302700
940.306 .0302545
940.938 .0302389
941.569 .0302231
942.200 .0302073
942.830 .0301914
943.460 .0301755
944.090 .0301596
944.720 .0301437
945.349 .0301281
945.977 .0301126
946.606 .0300973
947.233 .0300822
947.861 .0300672
948.488 .0300523
949.115 .0300375
949.741 .0300228
950.367 .0300082
950.993 .0299937
951.618 .0299794
952.243 .0299653
952.868 .0299514
953.492 .0299377
954.115 .0299241
954.739 .0299107
955.362 .0298972
955.984 .0298838
956.607 .0298702
957.229 .0298566
957.850 .0298428
958.471 .0298289
959.092 .0298150
959.713 .0298009
960.333 .0297867
960.952 .0297725
961.572 .0297582
962.191 .0297438
962.809 .0297294
963.428 .0297150
964.045 .0297007
964.663 .0296865
965.280 .0296724
965.897 .0296585
966.513 .0296447
967.129 .0296311
967.745 .0296176
968.361 .0296044
968.976 .0295914
969.590 .0295786
970.205 .0295660
970.818 .0295538
971.432 .0295418
972.045 .0295300
972.658 .0295184
973.271 .0295070
973.883 .0294957
974.495 .0294846
975.106 .0294736
975.717 .0294627
976.328 .0294520
976.938 .0294415
977.548 .0294310
978.158 .0294207
978.768 .0294044
979.377 .0293941
979.985 .0293836
980.594 .0293729
981.202 .0293621
981.809 .0293511
982.417 .0293399
983.024 .0293286
983.631 .0293172
984.237 .0293056
984.843 .0292940
985.449 .0292823
986.054 .0292706
986.659 .0292588
987.264 .0292533
987.868 .0292415
988.472 .0292296
989.076 .0292176
989.679 .0292055
990.282 .0291935
990.885 .0291815
991.487 .0291696
992.090 .0291578
992.691 .0291463
993.293 .0291347
993.894 .0291232
994.495 .0291116
995.095 .0290998
995.696 .0290877
996.296 .0290755
996.895 .0290631
997.494 .0290506
998.093 .0290381
998.692 .0290256
999.291 .0290133
999.889 .0290011
1000.487 .0289890
1001.084 .0289769
1001.681 .0289649
1002.278 .0289528
1002.875 .0289406
1003.471 .0289283
1004.067 .0289160
1004.663 .0289037
1005.258 .0288916
1005.854 .0288796
1006.449 .0288678
1007.043 .0288562
1007.638 .0288449
1008.232 .0288338
1008.826 .0288229
1009.419 .0288123
1010.012 .0288019
1010.605 .0287918
1011.198 .0287821
1011.791 .0287729
1012.383 .0287643
1012.975 .0287563
1013.566 .0287490
1014.158 .0287424
1014.749 .0287363
1015.340 .0287309
1015.931 .0287260
1016.521 .0287214
1017.111 .0287173
1017.701 .0287135
1018.291 .0287101
1018.880 .0287069
1019.470 .0287041
1020.059 .0287017
1020.647 .0286995
1021.236 .0286976
1021.824 .0286959
1022.412 .0286945
1023.000 .0286934
1023.588 .0286927
1024.175 .0286924
1024.762 .0286925
1025.349 .0286932
1025.936 .0286944
1026.523 .0286960
1027.109 .0286981
1027.695 .0287005
1028.281 .0287031
1028.867 .0287060
1029.452 .0287092
1030.038 .0287126
1030.623 .0287162
1031.208 .0287201
1031.792 .0287242
1032.377 .0287284
1032.961 .0287326
1033.546 .0287368
1034.130 .0287408
1034.714 .0287448
1035.297 .0287487
1035.881 .0287525
1036.464 .0287564
1037.047 .0287603
1037.630 .0287641
1038.213 .0287680
1038.796 .0287718
1039.378 .0287754
1039.961 .0287786
1040.543 .0287814
1041.125 .0287838
1041.707 .0287859
1042.289 .0287876
1042.871 .0287890
1043.452 .0287902
1044.034 .0287913
1044.615 .0287923
1045.196 .0287932
1045.777 .0287940
1046.358 .0287946
1046.939 .0287949
1047.520 .0287950
1048.101 .0287948
1048.681 .0287944
1049.262 .0287940
1049.842 .0287934
1050.422 .0287928
1051.002 .0287921
1051.582 .0287912
1052.162 .0287900
1052.742 .0287884
1053.322 .0287864
1053.902 .0287839
1054.482 .0287809
1055.061 .0287776
1055.641 .0287742
1056.220 .0287706
1056.800 .0287671
1057.379 .0287637
1057.958 .0287602
1058.538 .0287567
1059.117 .0287529
1059.696 .0287489
1060.275 .0287447
1060.854 .0287403
1061.433 .0287359
1062.012 .0287317
1062.592 .0287276
1063.171 .0287237
1063.750 .0287201
1064.329 .0287164
1064.908 .0287126
1065.487 .0287086
1066.066 .0287042
1066.645 .0286994
1067.224 .0286944
1067.803 .0286894
1068.382 .0286844
1068.961 .0286796
1069.540 .0286750
1070.119 .0286707
1070.698 .0286665
1071.278 .0286623
1071.857 .0286579
1072.436 .0286531
1073.016 .0286480
1073.595 .0286423
1074.175 .0286363
1074.754 .0286299
1075.334 .0286232
1075.913 .0286162
1076.493 .0286090
1077.073 .0286015
1077.653 .0285939
1078.233 .0285861
1078.813 .0285783
1079.393 .0285705
1079.974 .0285629
1080.554 .0285555
1081.135 .0285484
1081.716 .0285417
1082.296 .0285352
1082.877 .0285288
1083.458 .0285223
1084.040 .0285158
1084.621 .0285092
1085.202 .0285024
1085.784 .0284956
1086.366 .0284888
1086.948 .0284820
1087.530 .0284752
1088.112 .0284685
1088.695 .0284617
1089.277 .0284549
1089.860 .0284481
1090.443 .0284411
1091.026 .0284341
1091.610 .0284272
1092.193 .0284206
1092.777 .0284146
1093.361 .0284093
1093.946 .0284048
1094.530 .0284010
1095.115 .0283977
1095.700 .0283946
1096.285 .0283916
1096.871 .0283883
1097.456 .0283847
1098.042 .0283806
1098.628 .0283761
1099.215 .0283715
1099.802 .0283670
1100.389 .0283627
1100.976 .0283588
1101.564 .0283552
1102.152 .0283517
1102.740 .0283482
1103.329 .0283444
1103.917 .0283403
1104.507 .0283361
1105.096 .0283319
1105.686 .0283279
1106.276 .0283246
1106.867 .0283225
1107.457 .0283217
1108.049 .0283226
1108.640 .0283251
1109.232 .0283290
1109.825 .0283340
1110.417 .0283398
1111.010 .0283461
1111.604 .0283528
1112.198 .0283598
1112.792 .0283672
1113.387 .0283754
1113.982 .0283844
1114.577 .0283943
1115.173 .0284052
1115.769 .0284174
1116.366 .0284305
1116.963 .0284443
1117.561 .0284588
1118.159 .0284737
1118.758 .0284890
1119.357 .0285047
1119.957 .0285209
1120.557 .0285377
1121.157 .0285552
1121.758 .0285737
1122.360 .0285932
1122.962 .0286140
1123.564 .0286361
1124.167 .0286487
1124.771 .0286723
1125.375 .0286966
1125.980 .0287215
1126.585 .0287469
1127.191 .0287729
1127.797 .0287995
1128.404 .0288268
1129.012 .0288550
1129.620 .0288844
1130.229 .0289156
1130.838 .0289491
1131.448 .0289849
1132.058 .0290235
1132.669 .0290783
1133.281 .0291233
1133.894 .0291722
1134.507 .0292193
1135.120 .0292703
1135.735 .0293310
1136.350 .0293966
1136.965 .0292951
1137.582 .0293569
1138.199 .0294320
1138.816 .0295222
1139.435 .0296192
1140.054 .0297243
1140.674 .0298370
1141.294 .0299494
1141.916 .0300740
1142.538 .0300426
1143.160 .0301661
1143.784 .0304378
1144.408 .0305808
1145.033 .0309955
