Measurement Sequence started on: 14-45-04-498
Integration time: 36
Scans to Average: 2 
>>>>>Begin Spectral Data<<<<<
433.946 .0400921
434.870 .0473733
435.793 .0451906
436.715 .0430225
437.635 .0428808
438.555 .0424686
439.473 .0421638
440.389 .0417081
441.305 .0413936
442.219 .0411739
443.132 .0417271
444.044 .0413636
444.954 .0411158
445.863 .0409820
446.771 .0408548
447.678 .0407474
448.584 .0406533
449.488 .0405807
450.391 .0405219
451.293 .0404715
452.194 .0404287
453.094 .0403912
453.992 .0403588
454.890 .0403292
455.786 .0403002
456.681 .0402697
457.575 .0402359
458.468 .0401966
459.360 .0401505
460.250 .0400976
461.140 .0400383
462.028 .0399733
462.915 .0399039
463.801 .0398312
464.687 .0397566
465.571 .0396810
466.454 .0396047
467.335 .0395278
468.216 .0394508
469.096 .0393736
469.975 .0392962
470.853 .0392189
471.729 .0391422
472.605 .0390666
473.479 .0389932
474.353 .0389225
475.226 .0388552
476.097 .0387920
476.968 .0387328
477.838 .0386775
478.706 .0386258
479.574 .0385772
480.441 .0385312
481.306 .0384877
482.171 .0384464
483.035 .0384073
483.898 .0383707
484.760 .0383368
485.621 .0383057
486.481 .0382778
487.340 .0382531
488.198 .0382312
489.055 .0382121
489.912 .0381954
490.767 .0381806
491.622 .0381649
492.476 .0381539
493.329 .0381443
494.180 .0381358
495.032 .0381281
495.882 .0381212
496.731 .0381146
497.580 .0381079
498.427 .0381004
499.274 .0380913
500.120 .0380818
500.965 .0380677
501.809 .0380506
502.653 .0380298
503.495 .0380051
504.337 .0379763
505.178 .0379436
506.018 .0379072
506.858 .0378670
507.696 .0378233
508.534 .0377765
509.371 .0377270
510.208 .0376750
511.043 .0376208
511.878 .0375648
512.712 .0375072
513.545 .0374484
514.377 .0373889
515.209 .0373292
516.040 .0372699
516.870 .0372116
517.699 .0371552
518.528 .0371011
519.356 .0370496
520.183 .0370009
521.010 .0369548
521.836 .0369112
522.661 .0368695
523.485 .0368291
524.309 .0367898
525.132 .0367515
525.954 .0367138
526.776 .0366765
527.597 .0366397
528.417 .0366030
529.237 .0365666
530.056 .0365305
530.874 .0364944
531.692 .0364579
532.508 .0364209
533.325 .0363832
534.140 .0363443
534.955 .0363041
535.770 .0362623
536.583 .0362193
537.397 .0361754
538.209 .0361308
539.021 .0360859
539.832 .0360416
540.643 .0359982
541.453 .0359561
542.262 .0359149
543.071 .0358748
543.879 .0358353
544.687 .0357961
545.494 .0357566
546.300 .0357163
547.106 .0356751
547.911 .0356331
548.716 .0355906
549.520 .0355482
550.323 .0355062
551.126 .0354651
551.929 .0354251
552.731 .0353859
553.532 .0353471
554.332 .0353079
555.133 .0352681
555.932 .0352274
556.731 .0351853
557.530 .0351419
558.328 .0350973
559.125 .0350521
559.922 .0350067
560.719 .0349612
561.515 .0349161
562.310 .0348714
563.105 .0348274
563.899 .0347838
564.693 .0347407
565.487 .0346981
566.280 .0346559
567.072 .0346140
567.864 .0345725
568.655 .0345314
569.446 .0344910
570.236 .0344516
571.026 .0344135
571.816 .0343768
572.605 .0343413
573.393 .0343072
574.181 .0342742
574.969 .0342422
575.756 .0342108
576.543 .0341798
577.329 .0341491
578.115 .0341186
578.900 .0340883
579.685 .0340585
580.469 .0340294
581.253 .0340012
582.036 .0339738
582.820 .0339470
583.602 .0339206
584.384 .0338946
585.166 .0338687
585.947 .0338430
586.728 .0338175
587.509 .0337922
588.289 .0337673
589.069 .0337429
589.848 .0337189
590.627 .0336954
591.405 .0336721
592.183 .0336490
592.961 .0336258
593.738 .0336025
594.515 .0335791
595.291 .0335557
596.067 .0335325
596.843 .0335095
597.618 .0334868
598.393 .0334524
599.167 .0334299
599.941 .0334073
600.715 .0333846
601.488 .0333616
602.261 .0333382
603.034 .0333145
603.806 .0332904
604.578 .0332661
605.349 .0332417
606.121 .0332175
606.891 .0332058
607.662 .0331820
608.432 .0331583
609.201 .0331350
609.971 .0331119
610.740 .0330891
611.508 .0330666
612.277 .0330443
613.045 .0330222
613.812 .0330003
614.579 .0329785
615.346 .0329570
616.113 .0329356
616.879 .0329146
617.645 .0328938
618.411 .0328734
619.176 .0328532
619.941 .0328333
620.705 .0328136
621.470 .0327941
622.233 .0327747
622.997 .0327553
623.760 .0327360
624.523 .0327166
625.286 .0326972
626.048 .0326778
626.810 .0326583
627.572 .0326388
628.333 .0326193
629.095 .0325997
629.855 .0325801
630.616 .0325605
631.376 .0325409
632.136 .0325211
632.895 .0325012
633.655 .0324810
634.414 .0324605
635.172 .0324397
635.931 .0324185
636.689 .0323968
637.447 .0323747
638.204 .0323524
638.962 .0323299
639.718 .0323072
640.475 .0322844
641.231 .0322615
641.988 .0322385
642.743 .0322156
643.499 .0321926
644.254 .0321697
645.009 .0321468
645.764 .0321241
646.518 .0321015
647.272 .0320791
648.026 .0320569
648.780 .0320349
649.533 .0320131
650.286 .0319914
651.039 .0319700
651.792 .0319489
652.544 .0319281
653.296 .0319079
654.048 .0318882
654.799 .0318690
655.550 .0318504
656.301 .0318322
657.052 .0318145
657.802 .0317971
658.552 .0317800
659.302 .0317631
660.052 .0317466
660.801 .0317304
661.550 .0317144
662.299 .0316988
663.048 .0316835
663.796 .0316684
664.544 .0316536
665.292 .0316390
666.040 .0316246
666.787 .0316104
667.534 .0315964
668.281 .0315826
669.028 .0315691
669.774 .0315557
670.521 .0315427
671.266 .0315299
672.012 .0315174
672.758 .0315051
673.503 .0314930
674.248 .0314812
674.992 .0314696
675.737 .0314583
676.481 .0314471
677.225 .0314361
677.969 .0314253
678.712 .0314145
679.455 .0314038
680.199 .0313932
680.941 .0313826
681.684 .0313720
682.426 .0313614
683.168 .0313509
683.910 .0313403
684.652 .0313297
685.393 .0313190
686.134 .0313081
686.875 .0312970
687.616 .0312857
688.356 .0312741
689.097 .0312622
689.837 .0312501
690.576 .0312377
691.316 .0312249
692.055 .0312119
692.794 .0311985
693.533 .0311847
694.272 .0311705
695.010 .0311559
695.748 .0311408
696.486 .0311253
697.224 .0311094
697.962 .0310931
698.699 .0310766
699.436 .0310599
700.173 .0310429
700.909 .0310259
701.646 .0310087
702.382 .0309915
703.118 .0309742
703.853 .0309569
704.589 .0309396
705.324 .0309222
706.059 .0309049
706.794 .0308875
707.529 .0308702
708.263 .0308529
708.997 .0308358
709.731 .0308189
710.465 .0308022
711.198 .0307859
711.931 .0307700
712.664 .0307546
713.397 .0307396
714.130 .0307251
714.862 .0307108
715.594 .0306968
716.326 .0306831
717.058 .0306695
717.789 .0306561
718.520 .0306428
719.251 .0306298
719.982 .0306169
720.713 .0306042
721.443 .0305917
722.173 .0305794
722.903 .0305673
723.633 .0305553
724.362 .0305434
725.091 .0305316
725.820 .0305199
726.549 .0305083
727.278 .0304969
728.006 .0304857
728.734 .0304747
729.462 .0304638
730.190 .0304531
730.917 .0304427
731.644 .0304325
732.371 .0304227
733.098 .0304132
733.825 .0304041
734.551 .0303954
735.277 .0303870
736.003 .0303791
736.728 .0303715
737.454 .0303642
738.179 .0303573
738.904 .0303507
739.629 .0303445
740.353 .0303386
741.077 .0303331
741.801 .0303280
742.525 .0303231
743.249 .0303184
743.972 .0303138
744.695 .0303092
745.418 .0303045
746.141 .0302995
746.863 .0302944
747.585 .0302889
748.307 .0302832
749.029 .0302770
749.750 .0302704
750.472 .0302633
751.193 .0302557
751.913 .0302474
752.634 .0302385
753.354 .0302290
754.074 .0302190
754.794 .0302084
755.514 .0301974
756.233 .0301859
756.952 .0301740
757.671 .0301618
758.390 .0301493
759.108 .0301366
759.826 .0301238
760.544 .0301108
761.262 .0300979
761.979 .0300849
762.697 .0300720
763.414 .0300591
764.130 .0300463
764.847 .0300335
765.563 .0300208
766.279 .0300081
766.995 .0299957
767.710 .0299834
768.426 .0299714
769.141 .0299598
769.855 .0299483
770.570 .0299371
771.284 .0299261
771.998 .0299151
772.712 .0299042
773.426 .0298932
774.139 .0298822
774.852 .0298711
775.565 .0298598
776.277 .0298485
776.990 .0298370
777.702 .0298254
778.414 .0298135
779.125 .0298015
779.836 .0297893
780.547 .0297770
781.258 .0297647
781.969 .0297522
782.679 .0297398
783.389 .0297207
784.099 .0297081
784.808 .0296954
785.517 .0296827
786.226 .0296699
786.935 .0296572
787.643 .0296446
788.352 .0296322
789.060 .0296202
789.767 .0296084
790.475 .0295971
791.182 .0295861
791.889 .0295815
792.595 .0295711
793.301 .0295611
794.008 .0295514
794.713 .0295421
795.419 .0295332
796.124 .0295247
796.829 .0295166
797.534 .0295090
798.238 .0295019
798.942 .0294952
799.646 .0294889
800.350 .0294831
801.053 .0294777
801.756 .0294727
802.459 .0294682
803.162 .0294640
803.864 .0294602
804.566 .0294567
805.267 .0294534
805.969 .0294503
806.670 .0294472
807.371 .0294442
808.071 .0294413
808.772 .0294383
809.472 .0294353
810.171 .0294322
810.871 .0294291
811.570 .0294258
812.269 .0294223
812.967 .0294186
813.666 .0294146
814.364 .0294103
815.061 .0294056
815.759 .0294005
816.456 .0293951
817.153 .0293893
817.849 .0293831
818.545 .0293767
819.241 .0293699
819.937 .0293628
820.632 .0293554
821.327 .0293478
822.022 .0293398
822.717 .0293316
823.411 .0293232
824.105 .0293145
824.798 .0293056
825.491 .0292966
826.184 .0292875
826.877 .0292784
827.569 .0292692
828.261 .0292599
828.953 .0292507
829.645 .0292414
830.336 .0292322
831.027 .0292230
831.717 .0292138
832.407 .0292047
833.097 .0291957
833.787 .0291868
834.476 .0291779
835.165 .0291690
835.854 .0291601
836.542 .0291512
837.230 .0291420
837.918 .0291327
838.605 .0291230
839.292 .0291131
839.979 .0291027
840.665 .0290920
841.352 .0290808
842.037 .0290690
842.723 .0290566
843.408 .0290436
844.093 .0290298
844.777 .0290152
845.462 .0289999
846.145 .0289839
846.829 .0289672
847.512 .0289499
848.195 .0289321
848.878 .0289138
849.560 .0288950
850.242 .0288757
850.923 .0288561
851.605 .0288360
852.286 .0288156
852.966 .0287950
853.646 .0287740
854.326 .0287530
855.006 .0287319
855.685 .0287108
856.364 .0286898
857.043 .0286690
857.721 .0286484
858.399 .0286281
859.077 .0286080
859.754 .0285884
860.431 .0285691
861.107 .0285502
861.784 .0285318
862.459 .0285138
863.135 .0284963
863.810 .0284792
864.485 .0284625
865.160 .0284462
865.834 .0284301
866.508 .0284144
867.181 .0283990
867.854 .0283839
868.527 .0283692
869.199 .0283548
869.872 .0283407
870.543 .0283270
871.215 .0283135
871.886 .0283003
872.557 .0282873
873.227 .0282746
873.897 .0282620
874.567 .0282497
875.236 .0282376
875.905 .0282258
876.573 .0282143
877.242 .0282031
877.909 .0281922
878.577 .0281816
879.244 .0281712
879.911 .0281611
880.577 .0281513
881.243 .0281418
881.909 .0281326
882.575 .0281237
883.240 .0281153
883.904 .0281074
884.569 .0280999
885.232 .0280929
885.896 .0280864
886.559 .0280805
887.222 .0280752
887.885 .0280705
888.547 .0280663
889.208 .0280628
889.870 .0280599
890.531 .0280576
891.192 .0280558
891.852 .0280546
892.512 .0280539
893.171 .0280535
893.830 .0280536
894.489 .0280539
895.148 .0280546
895.806 .0280555
896.464 .0280567
897.121 .0280581
897.778 .0280597
898.434 .0280615
899.091 .0280640
899.747 .0280658
900.402 .0280677
901.057 .0280694
901.712 .0280710
902.366 .0280724
903.020 .0280735
903.674 .0280743
904.327 .0280748
904.980 .0280750
905.633 .0280748
906.285 .0280742
906.936 .0280732
907.588 .0280716
908.239 .0280698
908.889 .0280673
909.540 .0280642
910.190 .0280605
910.839 .0280561
911.488 .0280511
912.137 .0280456
912.785 .0280395
913.433 .0280331
914.081 .0280261
914.728 .0280187
915.375 .0280107
916.021 .0280022
916.668 .0279931
917.313 .0279833
917.959 .0279729
918.604 .0279619
919.248 .0279504
919.892 .0279383
920.536 .0279257
921.180 .0279126
921.823 .0278989
922.465 .0278847
923.108 .0278699
923.750 .0278545
924.391 .0278386
925.032 .0278222
925.673 .0278054
926.313 .0277882
926.953 .0277708
927.593 .0277531
928.232 .0277352
928.871 .0277171
929.510 .0276988
930.148 .0276803
930.786 .0276615
931.423 .0276425
932.060 .0276232
932.697 .0276038
933.333 .0275841
933.969 .0275643
934.604 .0275442
935.239 .0275240
935.874 .0275035
936.508 .0274827
937.142 .0274617
937.776 .0274402
938.409 .0274184
939.042 .0273963
939.674 .0273738
940.306 .0273509
940.938 .0273278
941.569 .0273044
942.200 .0272808
942.830 .0272570
943.460 .0272331
944.090 .0272090
944.720 .0271849
945.349 .0271607
945.977 .0271365
946.606 .0271122
947.233 .0270879
947.861 .0270635
948.488 .0270392
949.115 .0270149
949.741 .0269907
950.367 .0269667
950.993 .0269430
951.618 .0269196
952.243 .0268967
952.868 .0268741
953.492 .0268520
954.115 .0268303
954.739 .0268091
955.362 .0267882
955.984 .0267677
956.607 .0267477
957.229 .0267281
957.850 .0267089
958.471 .0266901
959.092 .0266718
959.713 .0266539
960.333 .0266364
960.952 .0266193
961.572 .0266025
962.191 .0265860
962.809 .0265699
963.428 .0265541
964.045 .0265386
964.663 .0265236
965.280 .0265090
965.897 .0264949
966.513 .0264812
967.129 .0264678
967.745 .0264546
968.361 .0264418
968.976 .0264291
969.590 .0264167
970.205 .0264044
970.818 .0263925
971.432 .0263809
972.045 .0263697
972.658 .0263588
973.271 .0263482
973.883 .0263380
974.495 .0263282
975.106 .0263186
975.717 .0263093
976.328 .0263004
976.938 .0262919
977.548 .0262838
978.158 .0262762
978.768 .0262662
979.377 .0262596
979.985 .0262533
980.594 .0262473
981.202 .0262415
981.809 .0262359
982.417 .0262304
983.024 .0262251
983.631 .0262198
984.237 .0262147
984.843 .0262098
985.449 .0262049
986.054 .0262001
986.659 .0261953
987.264 .0261932
987.868 .0261885
988.472 .0261840
989.076 .0261795
989.679 .0261754
990.282 .0261715
990.885 .0261680
991.487 .0261650
992.090 .0261624
992.691 .0261603
993.293 .0261585
993.894 .0261570
994.495 .0261557
995.095 .0261546
995.696 .0261537
996.296 .0261531
996.895 .0261527
997.494 .0261527
998.093 .0261531
998.692 .0261539
999.291 .0261551
999.889 .0261568
1000.487 .0261588
1001.084 .0261613
1001.681 .0261642
1002.278 .0261675
1002.875 .0261713
1003.471 .0261756
1004.067 .0261804
1004.663 .0261858
1005.258 .0261917
1005.854 .0261980
1006.449 .0262049
1007.043 .0262121
1007.638 .0262196
1008.232 .0262273
1008.826 .0262352
1009.419 .0262433
1010.012 .0262514
1010.605 .0262596
1011.198 .0262679
1011.791 .0262761
1012.383 .0262842
1012.975 .0262922
1013.566 .0263000
1014.158 .0263076
1014.749 .0263150
1015.340 .0263221
1015.931 .0263290
1016.521 .0263355
1017.111 .0263418
1017.701 .0263479
1018.291 .0263536
1018.880 .0263592
1019.470 .0263645
1020.059 .0263696
1020.647 .0263745
1021.236 .0263792
1021.824 .0263837
1022.412 .0263881
1023.000 .0263923
1023.588 .0263965
1024.175 .0264004
1024.762 .0264043
1025.349 .0264080
1025.936 .0264115
1026.523 .0264149
1027.109 .0264180
1027.695 .0264209
1028.281 .0264236
1028.867 .0264262
1029.452 .0264287
1030.038 .0264310
1030.623 .0264332
1031.208 .0264354
1031.792 .0264376
1032.377 .0264397
1032.961 .0264418
1033.546 .0264438
1034.130 .0264457
1034.714 .0264475
1035.297 .0264492
1035.881 .0264507
1036.464 .0264520
1037.047 .0264531
1037.630 .0264539
1038.213 .0264546
1038.796 .0264551
1039.378 .0264554
1039.961 .0264554
1040.543 .0264552
1041.125 .0264547
1041.707 .0264539
1042.289 .0264527
1042.871 .0264512
1043.452 .0264493
1044.034 .0264471
1044.615 .0264447
1045.196 .0264421
1045.777 .0264394
1046.358 .0264367
1046.939 .0264341
1047.520 .0264314
1048.101 .0264286
1048.681 .0264257
1049.262 .0264225
1049.842 .0264190
1050.422 .0264151
1051.002 .0264108
1051.582 .0264061
1052.162 .0264009
1052.742 .0263952
1053.322 .0263890
1053.902 .0263823
1054.482 .0263751
1055.061 .0263673
1055.641 .0263589
1056.220 .0263499
1056.800 .0263403
1057.379 .0263300
1057.958 .0263190
1058.538 .0263076
1059.117 .0262956
1059.696 .0262833
1060.275 .0262708
1060.854 .0262581
1061.433 .0262453
1062.012 .0262324
1062.592 .0262195
1063.171 .0262065
1063.750 .0261934
1064.329 .0261802
1064.908 .0261668
1065.487 .0261532
1066.066 .0261396
1066.645 .0261259
1067.224 .0261122
1067.803 .0260988
1068.382 .0260856
1068.961 .0260728
1069.540 .0260607
1070.119 .0260492
1070.698 .0260385
1071.278 .0260287
1071.857 .0260196
1072.436 .0260114
1073.016 .0260039
1073.595 .0259970
1074.175 .0259908
1074.754 .0259850
1075.334 .0259797
1075.913 .0259748
1076.493 .0259701
1077.073 .0259656
1077.653 .0259610
1078.233 .0259562
1078.813 .0259509
1079.393 .0259450
1079.974 .0259382
1080.554 .0259305
1081.135 .0259217
1081.716 .0259122
1082.296 .0259018
1082.877 .0258910
1083.458 .0258797
1084.040 .0258682
1084.621 .0258563
1085.202 .0258442
1085.784 .0258318
1086.366 .0258189
1086.948 .0258055
1087.530 .0257917
1088.112 .0257774
1088.695 .0257629
1089.277 .0257483
1089.860 .0257336
1090.443 .0257191
1091.026 .0257047
1091.610 .0256902
1092.193 .0256758
1092.777 .0256613
1093.361 .0256467
1093.946 .0256321
1094.530 .0256175
1095.115 .0256033
1095.700 .0255896
1096.285 .0255769
1096.871 .0255653
1097.456 .0255550
1098.042 .0255462
1098.628 .0255388
1099.215 .0255327
1099.802 .0255279
1100.389 .0255243
1100.976 .0255218
1101.564 .0255202
1102.152 .0255196
1102.740 .0255198
1103.329 .0255209
1103.917 .0255228
1104.507 .0255256
1105.096 .0255290
1105.686 .0255331
1106.276 .0255377
1106.867 .0255428
1107.457 .0255484
1108.049 .0255545
1108.640 .0255609
1109.232 .0255677
1109.825 .0255749
1110.417 .0255825
1111.010 .0255906
1111.604 .0255993
1112.198 .0256087
1112.792 .0256187
1113.387 .0256293
1113.982 .0256405
1114.577 .0256521
1115.173 .0256639
1115.769 .0256759
1116.366 .0256878
1116.963 .0256995
1117.561 .0257110
1118.159 .0257224
1118.758 .0257338
1119.357 .0257452
1119.957 .0257568
1120.557 .0257686
1121.157 .0257806
1121.758 .0257928
1122.360 .0258053
1122.962 .0258178
1123.564 .0258306
1124.167 .0258359
1124.771 .0258488
1125.375 .0258624
1125.980 .0258769
1126.585 .0258929
1127.191 .0259108
1127.797 .0259309
1128.404 .0259534
1129.012 .0259784
1129.620 .0260059
1130.229 .0260360
1130.838 .0260685
1131.448 .0261038
1132.058 .0261421
1132.669 .0261965
1133.281 .0262439
1133.894 .0262962
1134.507 .0263520
1135.120 .0264153
1135.735 .0264900
1136.350 .0265605
1136.965 .0264385
1137.582 .0265209
1138.199 .0266086
1138.816 .0266959
1139.435 .0267915
1140.054 .0268937
1140.674 .0270104
1141.294 .0271341
1141.916 .0272742
1142.538 .0273742
1143.160 .0275834
1143.784 .0279003
1144.408 .0277991
1145.033 .0281478
