Measurement Sequence started on: 14-45-04-498
Integration time: 36
Scans to Average: 2 
>>>>>Begin Spectral Data<<<<<
433.946 .0465863
434.870 .0441711
435.793 .0406887
436.715 .0408139
437.635 .0407120
438.555 .0415261
439.473 .0412752
440.389 .0411530
441.305 .0411298
442.219 .0410720
443.132 .0410378
444.044 .0408328
444.954 .0408059
445.863 .0407672
446.771 .0407288
447.678 .0406430
448.584 .0405659
449.488 .0404909
450.391 .0404124
451.293 .0403324
452.194 .0402511
453.094 .0401696
453.992 .0400869
454.890 .0400023
455.786 .0399162
456.681 .0398288
457.575 .0397405
458.468 .0396523
459.360 .0395646
460.250 .0394780
461.140 .0393922
462.028 .0393072
462.915 .0392226
463.801 .0391382
464.687 .0390532
465.571 .0389675
466.454 .0388810
467.335 .0387942
468.216 .0387072
469.096 .0386202
469.975 .0385338
470.853 .0384481
471.729 .0383635
472.605 .0382804
473.479 .0381994
474.353 .0381211
475.226 .0380457
476.097 .0379736
476.968 .0379052
477.838 .0378408
478.706 .0377808
479.574 .0377258
480.441 .0376765
481.306 .0376332
482.171 .0375961
483.035 .0375652
483.898 .0375401
484.760 .0375206
485.621 .0375060
486.481 .0374954
487.340 .0374881
488.198 .0374831
489.055 .0374797
489.912 .0374772
490.767 .0374752
491.622 .0374702
492.476 .0374673
493.329 .0374637
494.180 .0374589
495.032 .0374524
495.882 .0374437
496.731 .0374323
497.580 .0374177
498.427 .0373995
499.274 .0373777
500.120 .0373599
500.965 .0373328
501.809 .0373019
502.653 .0372678
503.495 .0372309
504.337 .0371919
505.178 .0371512
506.018 .0371096
506.858 .0370676
507.696 .0370259
508.534 .0369848
509.371 .0369446
510.208 .0369056
511.043 .0368683
511.878 .0368329
512.712 .0368000
513.545 .0367697
514.377 .0367425
515.209 .0367184
516.040 .0366973
516.870 .0366783
517.699 .0366606
518.528 .0366433
519.356 .0366257
520.183 .0366066
521.010 .0365859
521.836 .0365629
522.661 .0365379
523.485 .0365110
524.309 .0364815
525.132 .0364492
525.954 .0364135
526.776 .0363736
527.597 .0363286
528.417 .0362778
529.237 .0362208
530.056 .0361573
530.874 .0360873
531.692 .0360109
532.508 .0359282
533.325 .0358399
534.140 .0357472
534.955 .0356507
535.770 .0355514
536.583 .0354505
537.397 .0353489
538.209 .0352474
539.021 .0351469
539.832 .0350478
540.643 .0349506
541.453 .0348561
542.262 .0347650
543.071 .0346779
543.879 .0345962
544.687 .0345206
545.494 .0344515
546.300 .0343893
547.106 .0343338
547.911 .0342843
548.716 .0342407
549.520 .0342025
550.323 .0341692
551.126 .0341406
551.929 .0341168
552.731 .0340978
553.532 .0340835
554.332 .0340738
555.133 .0340682
555.932 .0340659
556.731 .0340659
557.530 .0340671
558.328 .0340683
559.125 .0340686
559.922 .0340674
560.719 .0340640
561.515 .0340578
562.310 .0340487
563.105 .0340365
563.899 .0340209
564.693 .0340021
565.487 .0339799
566.280 .0339544
567.072 .0339258
567.864 .0338943
568.655 .0338600
569.446 .0338230
570.236 .0337836
571.026 .0337419
571.816 .0336979
572.605 .0336520
573.393 .0336043
574.181 .0335553
574.969 .0335055
575.756 .0334553
576.543 .0334048
577.329 .0333547
578.115 .0333052
578.900 .0332566
579.685 .0332093
580.469 .0331635
581.253 .0331197
582.036 .0330779
582.820 .0330384
583.602 .0330011
584.384 .0329659
585.166 .0329329
585.947 .0329019
586.728 .0328727
587.509 .0328451
588.289 .0328192
589.069 .0327947
589.848 .0327714
590.627 .0327491
591.405 .0327275
592.183 .0327064
592.961 .0326854
593.738 .0326645
594.515 .0326434
595.291 .0326221
596.067 .0326006
596.843 .0325788
597.618 .0325570
598.393 .0325241
599.167 .0325022
599.941 .0324802
600.715 .0324583
601.488 .0324362
602.261 .0324140
603.034 .0323916
603.806 .0323690
604.578 .0323460
605.349 .0323226
606.121 .0322989
606.891 .0322861
607.662 .0322618
608.432 .0322371
609.201 .0322122
609.971 .0321871
610.740 .0321619
611.508 .0321365
612.277 .0321108
613.045 .0320849
613.812 .0320587
614.579 .0320320
615.346 .0320050
616.113 .0319775
616.879 .0319495
617.645 .0319212
618.411 .0318924
619.176 .0318632
619.941 .0318337
620.705 .0318039
621.470 .0317739
622.233 .0317439
622.997 .0317137
623.760 .0316835
624.523 .0316534
625.286 .0316234
626.048 .0315934
626.810 .0315637
627.572 .0315342
628.333 .0315049
629.095 .0314762
629.855 .0314480
630.616 .0314205
631.376 .0313938
632.136 .0313680
632.895 .0313433
633.655 .0313195
634.414 .0312966
635.172 .0312746
635.931 .0312535
636.689 .0312331
637.447 .0312134
638.204 .0311945
638.962 .0311765
639.718 .0311594
640.475 .0311432
641.231 .0311280
641.988 .0311138
642.743 .0311004
643.499 .0310878
644.254 .0310756
645.009 .0310638
645.764 .0310522
646.518 .0310406
647.272 .0310289
648.026 .0310170
648.780 .0310049
649.533 .0309926
650.286 .0309800
651.039 .0309672
651.792 .0309539
652.544 .0309403
653.296 .0309263
654.048 .0309119
654.799 .0308969
655.550 .0308813
656.301 .0308651
657.052 .0308482
657.802 .0308306
658.552 .0308123
659.302 .0307932
660.052 .0307735
660.801 .0307533
661.550 .0307326
662.299 .0307116
663.048 .0306903
663.796 .0306688
664.544 .0306470
665.292 .0306250
666.040 .0306027
666.787 .0305802
667.534 .0305575
668.281 .0305346
669.028 .0305117
669.774 .0304888
670.521 .0304662
671.266 .0304439
672.012 .0304220
672.758 .0304005
673.503 .0303794
674.248 .0303586
674.992 .0303380
675.737 .0303177
676.481 .0302976
677.225 .0302776
677.969 .0302578
678.712 .0302383
679.455 .0302190
680.199 .0302000
680.941 .0301815
681.684 .0301633
682.426 .0301457
683.168 .0301284
683.910 .0301117
684.652 .0300953
685.393 .0300795
686.134 .0300642
686.875 .0300494
687.616 .0300351
688.356 .0300215
689.097 .0300085
689.837 .0299963
690.576 .0299849
691.316 .0299742
692.055 .0299644
692.794 .0299553
693.533 .0299470
694.272 .0299395
695.010 .0299327
695.748 .0299265
696.486 .0299209
697.224 .0299158
697.962 .0299113
698.699 .0299071
699.436 .0299034
700.173 .0299001
700.909 .0298971
701.646 .0298945
702.382 .0298922
703.118 .0298901
703.853 .0298883
704.589 .0298865
705.324 .0298849
706.059 .0298833
706.794 .0298816
707.529 .0298799
708.263 .0298780
708.997 .0298761
709.731 .0298740
710.465 .0298717
711.198 .0298691
711.931 .0298663
712.664 .0298631
713.397 .0298593
714.130 .0298550
714.862 .0298499
715.594 .0298441
716.326 .0298375
717.058 .0298299
717.789 .0298214
718.520 .0298119
719.251 .0298014
719.982 .0297898
720.713 .0297771
721.443 .0297634
722.173 .0297488
722.903 .0297332
723.633 .0297168
724.362 .0296996
725.091 .0296819
725.820 .0296636
726.549 .0296449
727.278 .0296259
728.006 .0296066
728.734 .0295870
729.462 .0295673
730.190 .0295476
730.917 .0295279
731.644 .0295084
732.371 .0294891
733.098 .0294700
733.825 .0294514
734.551 .0294332
735.277 .0294155
736.003 .0293984
736.728 .0293817
737.454 .0293656
738.179 .0293500
738.904 .0293349
739.629 .0293204
740.353 .0293063
741.077 .0292927
741.801 .0292794
742.525 .0292665
743.249 .0292540
743.972 .0292417
744.695 .0292298
745.418 .0292182
746.141 .0292070
746.863 .0291961
747.585 .0291856
748.307 .0291754
749.029 .0291655
749.750 .0291557
750.472 .0291462
751.193 .0291367
751.913 .0291274
752.634 .0291182
753.354 .0291093
754.074 .0291006
754.794 .0290923
755.514 .0290844
756.233 .0290768
756.952 .0290696
757.671 .0290628
758.390 .0290563
759.108 .0290500
759.826 .0290440
760.544 .0290383
761.262 .0290329
761.979 .0290277
762.697 .0290230
763.414 .0290185
764.130 .0290145
764.847 .0290110
765.563 .0290079
766.279 .0290053
766.995 .0290032
767.710 .0290017
768.426 .0290006
769.141 .0289999
769.855 .0289996
770.570 .0289997
771.284 .0289999
771.998 .0290003
772.712 .0290008
773.426 .0290014
774.139 .0290021
774.852 .0290028
775.565 .0290036
776.277 .0290046
776.990 .0290057
777.702 .0290069
778.414 .0290081
779.125 .0290093
779.836 .0290105
780.547 .0290115
781.258 .0290123
781.969 .0290130
782.679 .0290135
783.389 .0290135
784.099 .0290133
784.808 .0290129
785.517 .0290121
786.226 .0290110
786.935 .0290095
787.643 .0290075
788.352 .0290051
789.060 .0290021
789.767 .0289987
790.475 .0289948
791.182 .0289904
791.889 .0289866
792.595 .0289814
793.301 .0289758
794.008 .0289696
794.713 .0289630
795.419 .0289558
796.124 .0289480
796.829 .0289396
797.534 .0289307
798.238 .0289212
798.942 .0289112
799.646 .0289007
800.350 .0288897
801.053 .0288784
801.756 .0288666
802.459 .0288545
803.162 .0288421
803.864 .0288295
804.566 .0288166
805.267 .0288036
805.969 .0287903
806.670 .0287769
807.371 .0287634
808.071 .0287496
808.772 .0287357
809.472 .0287216
810.171 .0287073
810.871 .0286928
811.570 .0286780
812.269 .0286631
812.967 .0286480
813.666 .0286327
814.364 .0286171
815.061 .0286013
815.759 .0285853
816.456 .0285690
817.153 .0285524
817.849 .0285356
818.545 .0285185
819.241 .0285013
819.937 .0284839
820.632 .0284665
821.327 .0284492
822.022 .0284319
822.717 .0284147
823.411 .0283976
824.105 .0283805
824.798 .0283636
825.491 .0283467
826.184 .0283299
826.877 .0283131
827.569 .0282965
828.261 .0282801
828.953 .0282640
829.645 .0282482
830.336 .0282328
831.027 .0282180
831.717 .0282037
832.407 .0281901
833.097 .0281772
833.787 .0281649
834.476 .0281533
835.165 .0281424
835.854 .0281321
836.542 .0281224
837.230 .0281134
837.918 .0281049
838.605 .0280971
839.292 .0280899
839.979 .0280834
840.665 .0280774
841.352 .0280720
842.037 .0280672
842.723 .0280630
843.408 .0280592
844.093 .0280557
844.777 .0280526
845.462 .0280496
846.145 .0280468
846.829 .0280441
847.512 .0280413
848.195 .0280386
848.878 .0280359
849.560 .0280331
850.242 .0280303
850.923 .0280275
851.605 .0280246
852.286 .0280218
852.966 .0280188
853.646 .0280159
854.326 .0280129
855.006 .0280098
855.685 .0280067
856.364 .0280036
857.043 .0280005
857.721 .0279976
858.399 .0279948
859.077 .0279921
859.754 .0279896
860.431 .0279874
861.107 .0279855
861.784 .0279838
862.459 .0279823
863.135 .0279811
863.810 .0279799
864.485 .0279789
865.160 .0279779
865.834 .0279769
866.508 .0279758
867.181 .0279746
867.854 .0279734
868.527 .0279720
869.199 .0279705
869.872 .0279688
870.543 .0279668
871.215 .0279644
871.886 .0279615
872.557 .0279580
873.227 .0279538
873.897 .0279489
874.567 .0279432
875.236 .0279368
875.905 .0279296
876.573 .0279218
877.242 .0279134
877.909 .0279044
878.577 .0278948
879.244 .0278848
879.911 .0278744
880.577 .0278635
881.243 .0278523
881.909 .0278409
882.575 .0278292
883.240 .0278173
883.904 .0278053
884.569 .0277932
885.232 .0277811
885.896 .0277688
886.559 .0277566
887.222 .0277443
887.885 .0277320
888.547 .0277198
889.208 .0277076
889.870 .0276954
890.531 .0276833
891.192 .0276713
891.852 .0276594
892.512 .0276475
893.171 .0276356
893.830 .0276238
894.489 .0276121
895.148 .0276003
895.806 .0275886
896.464 .0275768
897.121 .0275650
897.778 .0275532
898.434 .0275414
899.091 .0275232
899.747 .0275112
900.402 .0274991
901.057 .0274868
901.712 .0274743
902.366 .0274616
903.020 .0274486
903.674 .0274353
904.327 .0274218
904.980 .0274079
905.633 .0273938
906.285 .0273794
906.936 .0273646
907.588 .0273562
908.239 .0273409
908.889 .0273253
909.540 .0273092
910.190 .0272927
910.839 .0272758
911.488 .0272584
912.137 .0272405
912.785 .0272221
913.433 .0272033
914.081 .0271841
914.728 .0271646
915.375 .0271447
916.021 .0271245
916.668 .0271041
917.313 .0270834
917.959 .0270625
918.604 .0270413
919.248 .0270198
919.892 .0269982
920.536 .0269763
921.180 .0269543
921.823 .0269322
922.465 .0269101
923.108 .0268879
923.750 .0268658
924.391 .0268437
925.032 .0268217
925.673 .0267996
926.313 .0267776
926.953 .0267557
927.593 .0267338
928.232 .0267120
928.871 .0266903
929.510 .0266690
930.148 .0266479
930.786 .0266272
931.423 .0266069
932.060 .0265871
932.697 .0265676
933.333 .0265485
933.969 .0265297
934.604 .0265112
935.239 .0264931
935.874 .0264752
936.508 .0264577
937.142 .0264406
937.776 .0264240
938.409 .0264077
939.042 .0263919
939.674 .0263765
940.306 .0263615
940.938 .0263469
941.569 .0263325
942.200 .0263184
942.830 .0263046
943.460 .0262911
944.090 .0262779
944.720 .0262652
945.349 .0262530
945.977 .0262412
946.606 .0262300
947.233 .0262192
947.861 .0262088
948.488 .0261987
949.115 .0261889
949.741 .0261795
950.367 .0261703
950.993 .0261616
951.618 .0261532
952.243 .0261453
952.868 .0261379
953.492 .0261310
954.115 .0261245
954.739 .0261185
955.362 .0261129
955.984 .0261076
956.607 .0261027
957.229 .0260981
957.850 .0260938
958.471 .0260900
959.092 .0260865
959.713 .0260835
960.333 .0260809
960.952 .0260787
961.572 .0260770
962.191 .0260756
962.809 .0260745
963.428 .0260737
964.045 .0260732
964.663 .0260728
965.280 .0260726
965.897 .0260726
966.513 .0260728
967.129 .0260732
967.745 .0260736
968.361 .0260742
968.976 .0260750
969.590 .0260758
970.205 .0260767
970.818 .0260778
971.432 .0260789
972.045 .0260802
972.658 .0260815
973.271 .0260830
973.883 .0260846
974.495 .0260862
975.106 .0260878
975.717 .0260895
976.328 .0260911
976.938 .0260927
977.548 .0260942
978.158 .0260955
978.768 .0260964
979.377 .0260969
979.985 .0260972
980.594 .0260972
981.202 .0260970
981.809 .0260965
982.417 .0260958
983.024 .0260950
983.631 .0260940
984.237 .0260930
984.843 .0260919
985.449 .0260907
986.054 .0260894
986.659 .0260881
987.264 .0260872
987.868 .0260860
988.472 .0260846
989.076 .0260831
989.679 .0260816
990.282 .0260800
990.885 .0260784
991.487 .0260767
992.090 .0260750
992.691 .0260733
993.293 .0260715
993.894 .0260697
994.495 .0260677
995.095 .0260657
995.696 .0260635
996.296 .0260612
996.895 .0260589
997.494 .0260564
998.093 .0260539
998.692 .0260514
999.291 .0260487
999.889 .0260459
1000.487 .0260429
1001.084 .0260396
1001.681 .0260359
1002.278 .0260319
1002.875 .0260274
1003.471 .0260224
1004.067 .0260168
1004.663 .0260107
1005.258 .0260041
1005.854 .0259969
1006.449 .0259892
1007.043 .0259811
1007.638 .0259724
1008.232 .0259633
1008.826 .0259539
1009.419 .0259442
1010.012 .0259342
1010.605 .0259241
1011.198 .0259138
1011.791 .0259034
1012.383 .0258929
1012.975 .0258824
1013.566 .0258720
1014.158 .0258617
1014.749 .0258516
1015.340 .0258415
1015.931 .0258317
1016.521 .0258221
1017.111 .0258128
1017.701 .0258037
1018.291 .0257948
1018.880 .0257860
1019.470 .0257774
1020.059 .0257690
1020.647 .0257607
1021.236 .0257526
1021.824 .0257446
1022.412 .0257368
1023.000 .0257291
1023.588 .0257215
1024.175 .0257138
1024.762 .0257062
1025.349 .0256986
1025.936 .0256907
1026.523 .0256827
1027.109 .0256743
1027.695 .0256657
1028.281 .0256569
1028.867 .0256478
1029.452 .0256385
1030.038 .0256291
1030.623 .0256195
1031.208 .0256098
1031.792 .0256001
1032.377 .0255902
1032.961 .0255801
1033.546 .0255700
1034.130 .0255596
1034.714 .0255491
1035.297 .0255386
1035.881 .0255280
1036.464 .0255177
1037.047 .0255075
1037.630 .0254976
1038.213 .0254880
1038.796 .0254788
1039.378 .0254699
1039.961 .0254613
1040.543 .0254529
1041.125 .0254447
1041.707 .0254367
1042.289 .0254288
1042.871 .0254209
1043.452 .0254132
1044.034 .0254055
1044.615 .0253980
1045.196 .0253905
1045.777 .0253832
1046.358 .0253759
1046.939 .0253687
1047.520 .0253615
1048.101 .0253543
1048.681 .0253469
1049.262 .0253393
1049.842 .0253316
1050.422 .0253238
1051.002 .0253160
1051.582 .0253082
1052.162 .0253005
1052.742 .0252929
1053.322 .0252856
1053.902 .0252784
1054.482 .0252713
1055.061 .0252644
1055.641 .0252576
1056.220 .0252509
1056.800 .0252443
1057.379 .0252380
1057.958 .0252319
1058.538 .0252261
1059.117 .0252206
1059.696 .0252155
1060.275 .0252107
1060.854 .0252061
1061.433 .0252017
1062.012 .0251975
1062.592 .0251933
1063.171 .0251892
1063.750 .0251853
1064.329 .0251814
1064.908 .0251776
1065.487 .0251739
1066.066 .0251704
1066.645 .0251670
1067.224 .0251637
1067.803 .0251606
1068.382 .0251575
1068.961 .0251546
1069.540 .0251518
1070.119 .0251491
1070.698 .0251466
1071.278 .0251442
1071.857 .0251422
1072.436 .0251404
1073.016 .0251390
1073.595 .0251379
1074.175 .0251372
1074.754 .0251369
1075.334 .0251370
1075.913 .0251375
1076.493 .0251384
1077.073 .0251396
1077.653 .0251412
1078.233 .0251430
1078.813 .0251451
1079.393 .0251474
1079.974 .0251500
1080.554 .0251527
1081.135 .0251555
1081.716 .0251584
1082.296 .0251611
1082.877 .0251638
1083.458 .0251662
1084.040 .0251685
1084.621 .0251705
1085.202 .0251723
1085.784 .0251737
1086.366 .0251749
1086.948 .0251758
1087.530 .0251765
1088.112 .0251770
1088.695 .0251773
1089.277 .0251775
1089.860 .0251777
1090.443 .0251778
1091.026 .0251782
1091.610 .0251789
1092.193 .0251800
1092.777 .0251816
1093.361 .0251839
1093.946 .0251868
1094.530 .0251905
1095.115 .0251949
1095.700 .0251999
1096.285 .0252053
1096.871 .0252113
1097.456 .0252178
1098.042 .0252248
1098.628 .0252323
1099.215 .0252405
1099.802 .0252494
1100.389 .0252590
1100.976 .0252692
1101.564 .0252800
1102.152 .0252914
1102.740 .0253033
1103.329 .0253157
1103.917 .0253286
1104.507 .0253420
1105.096 .0253561
1105.686 .0253708
1106.276 .0253863
1106.867 .0254025
1107.457 .0254196
1108.049 .0254375
1108.640 .0254560
1109.232 .0254749
1109.825 .0254942
1110.417 .0255136
1111.010 .0255331
1111.604 .0255526
1112.198 .0255721
1112.792 .0255917
1113.387 .0256115
1113.982 .0256316
1114.577 .0256520
1115.173 .0256726
1115.769 .0256933
1116.366 .0257141
1116.963 .0257345
1117.561 .0257544
1118.159 .0257737
1118.758 .0257925
1119.357 .0258111
1119.957 .0258296
1120.557 .0258485
1121.157 .0258680
1121.758 .0258881
1122.360 .0259090
1122.962 .0259301
1123.564 .0259511
1124.167 .0259626
1124.771 .0259822
1125.375 .0260006
1125.980 .0260176
1126.585 .0260331
1127.191 .0260474
1127.797 .0260612
1128.404 .0260748
1129.012 .0260887
1129.620 .0261030
1130.229 .0261177
1130.838 .0261325
1131.448 .0261470
1132.058 .0261611
1132.669 .0261803
1133.281 .0261934
1133.894 .0262065
1134.507 .0262172
1135.120 .0262363
1135.735 .0262524
1136.350 .0262655
1136.965 .0262831
1137.582 .0263154
1138.199 .0263452
1138.816 .0263652
1139.435 .0263766
1140.054 .0263839
1140.674 .0263852
1141.294 .0263820
1141.916 .0263835
1142.538 .0263125
1143.160 .0265298
1143.784 .0264388
1144.408 .0263598
1145.033 .0264728
