Measurement Sequence started on: 14-45-04-498
Integration time: 36
Scans to Average: 2 
>>>>>Begin Spectral Data<<<<<
433.946 .0308961
434.870 .0374622
435.793 .0359931
436.715 .0343654
437.635 .0337453
438.555 .0355949
439.473 .0360350
440.389 .0363385
441.305 .0367123
442.219 .0371063
443.132 .0372033
444.044 .0372774
444.954 .0374263
445.863 .0376570
446.771 .0379150
447.678 .0380693
448.584 .0381942
449.488 .0382968
450.391 .0383735
451.293 .0384240
452.194 .0384508
453.094 .0384583
453.992 .0384496
454.890 .0384266
455.786 .0383900
456.681 .0383407
457.575 .0382797
458.468 .0382092
459.360 .0381312
460.250 .0380480
461.140 .0379624
462.028 .0378764
462.915 .0377919
463.801 .0377103
464.687 .0376329
465.571 .0375597
466.454 .0374908
467.335 .0374262
468.216 .0373651
469.096 .0373073
469.975 .0372527
470.853 .0372007
471.729 .0371518
472.605 .0371058
473.479 .0370628
474.353 .0370226
475.226 .0369854
476.097 .0369508
476.968 .0369187
477.838 .0368887
478.706 .0368603
479.574 .0368332
480.441 .0368072
481.306 .0367821
482.171 .0367575
483.035 .0367332
483.898 .0367091
484.760 .0366847
485.621 .0366596
486.481 .0366336
487.340 .0366062
488.198 .0365776
489.055 .0365482
489.912 .0365184
490.767 .0364886
491.622 .0364465
492.476 .0364206
493.329 .0363963
494.180 .0363736
495.032 .0363522
495.882 .0363319
496.731 .0363118
497.580 .0362916
498.427 .0362706
499.274 .0362488
500.120 .0362381
500.965 .0362134
501.809 .0361876
502.653 .0361610
503.495 .0361337
504.337 .0361057
505.178 .0360766
506.018 .0360462
506.858 .0360136
507.696 .0359781
508.534 .0359388
509.371 .0358953
510.208 .0358475
511.043 .0357956
511.878 .0357405
512.712 .0356835
513.545 .0356257
514.377 .0355689
515.209 .0355142
516.040 .0354623
516.870 .0354130
517.699 .0353661
518.528 .0353205
519.356 .0352752
520.183 .0352291
521.010 .0351817
521.836 .0351332
522.661 .0350844
523.485 .0350356
524.309 .0349878
525.132 .0349421
525.954 .0348986
526.776 .0348567
527.597 .0348157
528.417 .0347747
529.237 .0347326
530.056 .0346883
530.874 .0346410
531.692 .0345900
532.508 .0345358
533.325 .0344787
534.140 .0344196
534.955 .0343594
535.770 .0342990
536.583 .0342389
537.397 .0341798
538.209 .0341218
539.021 .0340648
539.832 .0340085
540.643 .0339531
541.453 .0338983
542.262 .0338440
543.071 .0337903
543.879 .0337378
544.687 .0336865
545.494 .0336364
546.300 .0335867
547.106 .0335368
547.911 .0334865
548.716 .0334357
549.520 .0333834
550.323 .0333300
551.126 .0332758
551.929 .0332215
552.731 .0331678
553.532 .0331156
554.332 .0330653
555.133 .0330172
555.932 .0329717
556.731 .0329282
557.530 .0328863
558.328 .0328462
559.125 .0328078
559.922 .0327712
560.719 .0327371
561.515 .0327058
562.310 .0326780
563.105 .0326548
563.899 .0326365
564.693 .0326228
565.487 .0326133
566.280 .0326074
567.072 .0326042
567.864 .0326027
568.655 .0326019
569.446 .0326010
570.236 .0325998
571.026 .0325977
571.816 .0325943
572.605 .0325896
573.393 .0325836
574.181 .0325759
574.969 .0325661
575.756 .0325538
576.543 .0325390
577.329 .0325216
578.115 .0325014
578.900 .0324787
579.685 .0324533
580.469 .0324257
581.253 .0323962
582.036 .0323649
582.820 .0323321
583.602 .0322980
584.384 .0322627
585.166 .0322263
585.947 .0321891
586.728 .0321512
587.509 .0321129
588.289 .0320746
589.069 .0320363
589.848 .0319983
590.627 .0319607
591.405 .0319236
592.183 .0318870
592.961 .0318508
593.738 .0318149
594.515 .0317794
595.291 .0317442
596.067 .0317094
596.843 .0316752
597.618 .0316417
598.393 .0315961
599.167 .0315658
599.941 .0315369
600.715 .0315096
601.488 .0314838
602.261 .0314596
603.034 .0314366
603.806 .0314149
604.578 .0313940
605.349 .0313740
606.121 .0313546
606.891 .0313465
607.662 .0313276
608.432 .0313094
609.201 .0312918
609.971 .0312748
610.740 .0312583
611.508 .0312423
612.277 .0312268
613.045 .0312114
613.812 .0311960
614.579 .0311803
615.346 .0311643
616.113 .0311479
616.879 .0311309
617.645 .0311133
618.411 .0310953
619.176 .0310768
619.941 .0310580
620.705 .0310388
621.470 .0310193
622.233 .0309995
622.997 .0309794
623.760 .0309590
624.523 .0309382
625.286 .0309171
626.048 .0308956
626.810 .0308740
627.572 .0308521
628.333 .0308300
629.095 .0308076
629.855 .0307851
630.616 .0307623
631.376 .0307394
632.136 .0307162
632.895 .0306927
633.655 .0306689
634.414 .0306447
635.172 .0306201
635.931 .0305951
636.689 .0305697
637.447 .0305439
638.204 .0305179
638.962 .0304918
639.718 .0304655
640.475 .0304393
641.231 .0304131
641.988 .0303870
642.743 .0303609
643.499 .0303346
644.254 .0303084
645.009 .0302820
645.764 .0302556
646.518 .0302293
647.272 .0302033
648.026 .0301777
648.780 .0301525
649.533 .0301278
650.286 .0301037
651.039 .0300802
651.792 .0300572
652.544 .0300347
653.296 .0300128
654.048 .0299914
654.799 .0299705
655.550 .0299503
656.301 .0299308
657.052 .0299121
657.802 .0298941
658.552 .0298770
659.302 .0298606
660.052 .0298451
660.801 .0298304
661.550 .0298166
662.299 .0298035
663.048 .0297912
663.796 .0297796
664.544 .0297685
665.292 .0297580
666.040 .0297480
666.787 .0297384
667.534 .0297292
668.281 .0297204
669.028 .0297120
669.774 .0297039
670.521 .0296962
671.266 .0296887
672.012 .0296814
672.758 .0296743
673.503 .0296671
674.248 .0296598
674.992 .0296524
675.737 .0296448
676.481 .0296369
677.225 .0296288
677.969 .0296203
678.712 .0296117
679.455 .0296028
680.199 .0295936
680.941 .0295842
681.684 .0295746
682.426 .0295647
683.168 .0295547
683.910 .0295444
684.652 .0295339
685.393 .0295233
686.134 .0295126
686.875 .0295017
687.616 .0294907
688.356 .0294795
689.097 .0294681
689.837 .0294565
690.576 .0294447
691.316 .0294327
692.055 .0294205
692.794 .0294082
693.533 .0293956
694.272 .0293829
695.010 .0293700
695.748 .0293569
696.486 .0293436
697.224 .0293300
697.962 .0293161
698.699 .0293020
699.436 .0292877
700.173 .0292733
700.909 .0292588
701.646 .0292444
702.382 .0292301
703.118 .0292158
703.853 .0292016
704.589 .0291874
705.324 .0291732
706.059 .0291591
706.794 .0291450
707.529 .0291312
708.263 .0291176
708.997 .0291043
709.731 .0290913
710.465 .0290786
711.198 .0290660
711.931 .0290537
712.664 .0290416
713.397 .0290295
714.130 .0290175
714.862 .0290057
715.594 .0289939
716.326 .0289823
717.058 .0289709
717.789 .0289596
718.520 .0289484
719.251 .0289372
719.982 .0289261
720.713 .0289150
721.443 .0289039
722.173 .0288929
722.903 .0288819
723.633 .0288711
724.362 .0288604
725.091 .0288500
725.820 .0288398
726.549 .0288300
727.278 .0288205
728.006 .0288114
728.734 .0288027
729.462 .0287943
730.190 .0287865
730.917 .0287790
731.644 .0287721
732.371 .0287657
733.098 .0287599
733.825 .0287546
734.551 .0287499
735.277 .0287459
736.003 .0287424
736.728 .0287396
737.454 .0287374
738.179 .0287357
738.904 .0287344
739.629 .0287335
740.353 .0287330
741.077 .0287326
741.801 .0287323
742.525 .0287321
743.249 .0287318
743.972 .0287315
744.695 .0287310
745.418 .0287304
746.141 .0287294
746.863 .0287282
747.585 .0287264
748.307 .0287241
749.029 .0287211
749.750 .0287172
750.472 .0287126
751.193 .0287070
751.913 .0287005
752.634 .0286932
753.354 .0286851
754.074 .0286763
754.794 .0286668
755.514 .0286568
756.233 .0286461
756.952 .0286349
757.671 .0286232
758.390 .0286110
759.108 .0285985
759.826 .0285858
760.544 .0285728
761.262 .0285598
761.979 .0285468
762.697 .0285340
763.414 .0285214
764.130 .0285091
764.847 .0284973
765.563 .0284859
766.279 .0284751
766.995 .0284648
767.710 .0284550
768.426 .0284456
769.141 .0284367
769.855 .0284280
770.570 .0284197
771.284 .0284115
771.998 .0284035
772.712 .0283958
773.426 .0283882
774.139 .0283808
774.852 .0283735
775.565 .0283663
776.277 .0283590
776.990 .0283517
777.702 .0283443
778.414 .0283368
779.125 .0283292
779.836 .0283216
780.547 .0283140
781.258 .0283064
781.969 .0282988
782.679 .0282913
783.389 .0282806
784.099 .0282733
784.808 .0282659
785.517 .0282584
786.226 .0282509
786.935 .0282433
787.643 .0282357
788.352 .0282281
789.060 .0282205
789.767 .0282128
790.475 .0282051
791.182 .0281973
791.889 .0281932
792.595 .0281853
793.301 .0281775
794.008 .0281697
794.713 .0281620
795.419 .0281545
796.124 .0281470
796.829 .0281397
797.534 .0281325
798.238 .0281255
798.942 .0281186
799.646 .0281118
800.350 .0281052
801.053 .0280988
801.756 .0280928
802.459 .0280871
803.162 .0280817
803.864 .0280768
804.566 .0280723
805.267 .0280682
805.969 .0280645
806.670 .0280613
807.371 .0280584
808.071 .0280560
808.772 .0280540
809.472 .0280525
810.171 .0280513
810.871 .0280506
811.570 .0280502
812.269 .0280500
812.967 .0280500
813.666 .0280500
814.364 .0280500
815.061 .0280497
815.759 .0280493
816.456 .0280485
817.153 .0280474
817.849 .0280459
818.545 .0280440
819.241 .0280416
819.937 .0280387
820.632 .0280354
821.327 .0280316
822.022 .0280273
822.717 .0280225
823.411 .0280173
824.105 .0280118
824.798 .0280059
825.491 .0279998
826.184 .0279934
826.877 .0279870
827.569 .0279804
828.261 .0279738
828.953 .0279671
829.645 .0279604
830.336 .0279536
831.027 .0279470
831.717 .0279405
832.407 .0279341
833.097 .0279280
833.787 .0279221
834.476 .0279165
835.165 .0279111
835.854 .0279059
836.542 .0279009
837.230 .0278959
837.918 .0278909
838.605 .0278859
839.292 .0278809
839.979 .0278760
840.665 .0278710
841.352 .0278659
842.037 .0278608
842.723 .0278556
843.408 .0278502
844.093 .0278443
844.777 .0278381
845.462 .0278313
846.145 .0278239
846.829 .0278159
847.512 .0278074
848.195 .0277983
848.878 .0277887
849.560 .0277786
850.242 .0277680
850.923 .0277570
851.605 .0277454
852.286 .0277332
852.966 .0277207
853.646 .0277076
854.326 .0276942
855.006 .0276805
855.685 .0276666
856.364 .0276525
857.043 .0276383
857.721 .0276241
858.399 .0276098
859.077 .0275953
859.754 .0275807
860.431 .0275659
861.107 .0275510
861.784 .0275360
862.459 .0275209
863.135 .0275058
863.810 .0274908
864.485 .0274758
865.160 .0274608
865.834 .0274458
866.508 .0274308
867.181 .0274157
867.854 .0274004
868.527 .0273851
869.199 .0273696
869.872 .0273540
870.543 .0273383
871.215 .0273227
871.886 .0273070
872.557 .0272912
873.227 .0272755
873.897 .0272597
874.567 .0272437
875.236 .0272277
875.905 .0272117
876.573 .0271956
877.242 .0271797
877.909 .0271639
878.577 .0271482
879.244 .0271329
879.911 .0271178
880.577 .0271029
881.243 .0270882
881.909 .0270738
882.575 .0270596
883.240 .0270458
883.904 .0270324
884.569 .0270194
885.232 .0270069
885.896 .0269950
886.559 .0269835
887.222 .0269726
887.885 .0269621
888.547 .0269520
889.208 .0269424
889.870 .0269331
890.531 .0269243
891.192 .0269160
891.852 .0269083
892.512 .0269012
893.171 .0268946
893.830 .0268885
894.489 .0268828
895.148 .0268776
895.806 .0268727
896.464 .0268681
897.121 .0268639
897.778 .0268601
898.434 .0268568
899.091 .0268531
899.747 .0268508
900.402 .0268488
901.057 .0268470
901.712 .0268454
902.366 .0268440
903.020 .0268426
903.674 .0268412
904.327 .0268399
904.980 .0268387
905.633 .0268375
906.285 .0268364
906.936 .0268353
907.588 .0268343
908.239 .0268330
908.889 .0268315
909.540 .0268297
910.190 .0268277
910.839 .0268254
911.488 .0268228
912.137 .0268199
912.785 .0268167
913.433 .0268134
914.081 .0268098
914.728 .0268060
915.375 .0268020
916.021 .0267977
916.668 .0267930
917.313 .0267879
917.959 .0267824
918.604 .0267764
919.248 .0267700
919.892 .0267631
920.536 .0267559
921.180 .0267483
921.823 .0267404
922.465 .0267323
923.108 .0267238
923.750 .0267152
924.391 .0267062
925.032 .0266971
925.673 .0266878
926.313 .0266783
926.953 .0266686
927.593 .0266588
928.232 .0266488
928.871 .0266388
929.510 .0266287
930.148 .0266185
930.786 .0266081
931.423 .0265976
932.060 .0265868
932.697 .0265757
933.333 .0265645
933.969 .0265529
934.604 .0265411
935.239 .0265290
935.874 .0265168
936.508 .0265043
937.142 .0264917
937.776 .0264790
938.409 .0264662
939.042 .0264533
939.674 .0264402
940.306 .0264271
940.938 .0264138
941.569 .0264003
942.200 .0263866
942.830 .0263726
943.460 .0263583
944.090 .0263439
944.720 .0263292
945.349 .0263145
945.977 .0262996
946.606 .0262847
947.233 .0262697
947.861 .0262547
948.488 .0262396
949.115 .0262244
949.741 .0262092
950.367 .0261939
950.993 .0261786
951.618 .0261635
952.243 .0261485
952.868 .0261337
953.492 .0261191
954.115 .0261048
954.739 .0260908
955.362 .0260769
955.984 .0260633
956.607 .0260497
957.229 .0260362
957.850 .0260227
958.471 .0260092
959.092 .0259959
959.713 .0259826
960.333 .0259694
960.952 .0259563
961.572 .0259433
962.191 .0259304
962.809 .0259176
963.428 .0259049
964.045 .0258923
964.663 .0258798
965.280 .0258674
965.897 .0258551
966.513 .0258430
967.129 .0258309
967.745 .0258188
968.361 .0258067
968.976 .0257946
969.590 .0257825
970.205 .0257703
970.818 .0257582
971.432 .0257461
972.045 .0257341
972.658 .0257222
973.271 .0257105
973.883 .0256988
974.495 .0256872
975.106 .0256757
975.717 .0256642
976.328 .0256529
976.938 .0256417
977.548 .0256306
978.158 .0256195
978.768 .0256029
979.377 .0255917
979.985 .0255804
980.594 .0255689
981.202 .0255571
981.809 .0255451
982.417 .0255329
983.024 .0255203
983.631 .0255075
984.237 .0254944
984.843 .0254810
985.449 .0254673
986.054 .0254533
986.659 .0254391
987.264 .0254307
987.868 .0254161
988.472 .0254014
989.076 .0253867
989.679 .0253720
990.282 .0253574
990.885 .0253431
991.487 .0253290
992.090 .0253152
992.691 .0253017
993.293 .0252885
993.894 .0252757
994.495 .0252632
995.095 .0252511
995.696 .0252396
996.296 .0252286
996.895 .0252183
997.494 .0252086
998.093 .0251997
998.692 .0251915
999.291 .0251840
999.889 .0251771
1000.487 .0251709
1001.084 .0251654
1001.681 .0251606
1002.278 .0251565
1002.875 .0251531
1003.471 .0251504
1004.067 .0251485
1004.663 .0251472
1005.258 .0251463
1005.854 .0251458
1006.449 .0251455
1007.043 .0251452
1007.638 .0251449
1008.232 .0251446
1008.826 .0251444
1009.419 .0251443
1010.012 .0251442
1010.605 .0251443
1011.198 .0251445
1011.791 .0251449
1012.383 .0251452
1012.975 .0251455
1013.566 .0251457
1014.158 .0251458
1014.749 .0251458
1015.340 .0251459
1015.931 .0251459
1016.521 .0251462
1017.111 .0251466
1017.701 .0251473
1018.291 .0251482
1018.880 .0251492
1019.470 .0251504
1020.059 .0251516
1020.647 .0251527
1021.236 .0251538
1021.824 .0251548
1022.412 .0251557
1023.000 .0251568
1023.588 .0251580
1024.175 .0251593
1024.762 .0251610
1025.349 .0251628
1025.936 .0251647
1026.523 .0251668
1027.109 .0251688
1027.695 .0251707
1028.281 .0251726
1028.867 .0251745
1029.452 .0251763
1030.038 .0251781
1030.623 .0251800
1031.208 .0251820
1031.792 .0251840
1032.377 .0251861
1032.961 .0251882
1033.546 .0251902
1034.130 .0251922
1034.714 .0251942
1035.297 .0251962
1035.881 .0251982
1036.464 .0252004
1037.047 .0252028
1037.630 .0252054
1038.213 .0252083
1038.796 .0252116
1039.378 .0252152
1039.961 .0252190
1040.543 .0252230
1041.125 .0252271
1041.707 .0252314
1042.289 .0252357
1042.871 .0252403
1043.452 .0252450
1044.034 .0252498
1044.615 .0252547
1045.196 .0252597
1045.777 .0252646
1046.358 .0252696
1046.939 .0252744
1047.520 .0252790
1048.101 .0252833
1048.681 .0252874
1049.262 .0252913
1049.842 .0252950
1050.422 .0252986
1051.002 .0253021
1051.582 .0253056
1052.162 .0253091
1052.742 .0253125
1053.322 .0253159
1053.902 .0253192
1054.482 .0253223
1055.061 .0253253
1055.641 .0253282
1056.220 .0253311
1056.800 .0253340
1057.379 .0253370
1057.958 .0253402
1058.538 .0253435
1059.117 .0253469
1059.696 .0253505
1060.275 .0253540
1060.854 .0253575
1061.433 .0253609
1062.012 .0253640
1062.592 .0253670
1063.171 .0253698
1063.750 .0253725
1064.329 .0253751
1064.908 .0253779
1065.487 .0253809
1066.066 .0253840
1066.645 .0253873
1067.224 .0253906
1067.803 .0253938
1068.382 .0253968
1068.961 .0253995
1069.540 .0254018
1070.119 .0254037
1070.698 .0254052
1071.278 .0254064
1071.857 .0254074
1072.436 .0254082
1073.016 .0254089
1073.595 .0254093
1074.175 .0254095
1074.754 .0254094
1075.334 .0254088
1075.913 .0254077
1076.493 .0254062
1077.073 .0254041
1077.653 .0254017
1078.233 .0253990
1078.813 .0253960
1079.393 .0253930
1079.974 .0253898
1080.554 .0253867
1081.135 .0253835
1081.716 .0253801
1082.296 .0253766
1082.877 .0253729
1083.458 .0253689
1084.040 .0253647
1084.621 .0253604
1085.202 .0253561
1085.784 .0253518
1086.366 .0253477
1086.948 .0253438
1087.530 .0253402
1088.112 .0253368
1088.695 .0253338
1089.277 .0253308
1089.860 .0253280
1090.443 .0253253
1091.026 .0253227
1091.610 .0253199
1092.193 .0253172
1092.777 .0253145
1093.361 .0253120
1093.946 .0253096
1094.530 .0253074
1095.115 .0253053
1095.700 .0253032
1096.285 .0253009
1096.871 .0252984
1097.456 .0252955
1098.042 .0252923
1098.628 .0252887
1099.215 .0252848
1099.802 .0252807
1100.389 .0252764
1100.976 .0252721
1101.564 .0252676
1102.152 .0252630
1102.740 .0252581
1103.329 .0252528
1103.917 .0252474
1104.507 .0252418
1105.096 .0252363
1105.686 .0252310
1106.276 .0252264
1106.867 .0252229
1107.457 .0252205
1108.049 .0252196
1108.640 .0252202
1109.232 .0252222
1109.825 .0252258
1110.417 .0252308
1111.010 .0252372
1111.604 .0252451
1112.198 .0252546
1112.792 .0252660
1113.387 .0252793
1113.982 .0252946
1114.577 .0253119
1115.173 .0253309
1115.769 .0253513
1116.366 .0253727
1116.963 .0253947
1117.561 .0254173
1118.159 .0254404
1118.758 .0254640
1119.357 .0254882
1119.957 .0255134
1120.557 .0255395
1121.157 .0255668
1121.758 .0255949
1122.360 .0256234
1122.962 .0256519
1123.564 .0256797
1124.167 .0256966
1124.771 .0257228
1125.375 .0257475
1125.980 .0257709
1126.585 .0257931
1127.191 .0258145
1127.797 .0258355
1128.404 .0258563
1129.012 .0258771
1129.620 .0258978
1130.229 .0259181
1130.838 .0259380
1131.448 .0259576
1132.058 .0259771
1132.669 .0260042
1133.281 .0260247
1133.894 .0260471
1134.507 .0260769
1135.120 .0261038
1135.735 .0261273
1136.350 .0261586
1136.965 .0261052
1137.582 .0261433
1138.199 .0261770
1138.816 .0262061
1139.435 .0262434
1140.054 .0262800
1140.674 .0263182
1141.294 .0263677
1141.916 .0264293
1142.538 .0266394
1143.160 .0265704
1143.784 .0264845
1144.408 .0267073
1145.033 .0269639
