Measurement Sequence started on: 14-45-04-498
Integration time: 36
Scans to Average: 2 
>>>>>Begin Spectral Data<<<<<
433.946 .0670382
434.870 .0611986
435.793 .0546181
436.715 .0542804
437.635 .0531653
438.555 .0534717
439.473 .0523564
440.389 .0516137
441.305 .0511503
442.219 .0507380
443.132 .0503989
444.044 .0501081
444.954 .0498622
445.863 .0496415
446.771 .0494590
447.678 .0492882
448.584 .0491380
449.488 .0490053
450.391 .0488816
451.293 .0487719
452.194 .0486750
453.094 .0485743
453.992 .0484660
454.890 .0483493
455.786 .0482154
456.681 .0480663
457.575 .0479141
458.468 .0477544
459.360 .0475988
460.250 .0474562
461.140 .0473166
462.028 .0471928
462.915 .0470839
463.801 .0469829
464.687 .0468837
465.571 .0467927
466.454 .0467048
467.335 .0466188
468.216 .0465414
469.096 .0464697
469.975 .0464049
470.853 .0463495
471.729 .0463004
472.605 .0462527
473.479 .0462081
474.353 .0461656
475.226 .0461195
476.097 .0460721
476.968 .0460228
477.838 .0459734
478.706 .0459272
479.574 .0458835
480.441 .0458454
481.306 .0458085
482.171 .0457761
483.035 .0457430
483.898 .0457094
484.760 .0456715
485.621 .0456324
486.481 .0455903
487.340 .0455467
488.198 .0455043
489.055 .0454643
489.912 .0454264
490.767 .0453939
491.622 .0453610
492.476 .0453270
493.329 .0452897
494.180 .0452486
495.032 .0451997
495.882 .0451512
496.731 .0450985
497.580 .0450468
498.427 .0449985
499.274 .0449562
500.120 .0449166
500.965 .0448833
501.809 .0448564
502.653 .0448283
503.495 .0447996
504.337 .0447681
505.178 .0447281
506.018 .0446857
506.858 .0446346
507.696 .0445775
508.534 .0445167
509.371 .0444544
510.208 .0443880
511.043 .0443226
511.878 .0442616
512.712 .0441973
513.545 .0441283
514.377 .0440590
515.209 .0439795
516.040 .0438915
516.870 .0437993
517.699 .0436986
518.528 .0435952
519.356 .0434918
520.183 .0433854
521.010 .0432798
521.836 .0431746
522.661 .0430660
523.485 .0429492
524.309 .0428272
525.132 .0427013
525.954 .0425615
526.776 .0424274
527.597 .0423013
528.417 .0421822
529.237 .0420822
530.056 .0419983
530.874 .0419355
531.692 .0418951
532.508 .0418710
533.325 .0418644
534.140 .0418691
534.955 .0418888
535.770 .0419124
536.583 .0419461
537.397 .0419931
538.209 .0420455
539.021 .0421003
539.832 .0421555
540.643 .0422001
541.453 .0422413
542.262 .0422756
543.071 .0422992
543.879 .0423152
544.687 .0423217
545.494 .0423151
546.300 .0422971
547.106 .0422661
547.911 .0422225
548.716 .0421658
549.520 .0421035
550.323 .0420342
551.126 .0419648
551.929 .0419064
552.731 .0418545
553.532 .0418146
554.332 .0417872
555.133 .0417695
555.932 .0417589
556.731 .0417560
557.530 .0417583
558.328 .0417640
559.125 .0417718
559.922 .0417795
560.719 .0417842
561.515 .0417903
562.310 .0417924
563.105 .0417900
563.899 .0417820
564.693 .0417676
565.487 .0417439
566.280 .0417134
567.072 .0416770
567.864 .0416346
568.655 .0415867
569.446 .0415367
570.236 .0414852
571.026 .0414334
571.816 .0413818
572.605 .0413323
573.393 .0412851
574.181 .0412397
574.969 .0411964
575.756 .0411569
576.543 .0411213
577.329 .0410885
578.115 .0410557
578.900 .0410214
579.685 .0409858
580.469 .0409497
581.253 .0409129
582.036 .0408758
582.820 .0408405
583.602 .0408055
584.384 .0407722
585.166 .0407403
585.947 .0407088
586.728 .0406758
587.509 .0406429
588.289 .0406085
589.069 .0405723
589.848 .0405357
590.627 .0404982
591.405 .0404606
592.183 .0404233
592.961 .0403868
593.738 .0403499
594.515 .0403129
595.291 .0402761
596.067 .0402375
596.843 .0401982
597.618 .0401583
598.393 .0401183
599.167 .0400805
599.941 .0400445
600.715 .0400110
601.488 .0399799
602.261 .0399516
603.034 .0399252
603.806 .0399009
604.578 .0398779
605.349 .0398559
606.121 .0398351
606.891 .0398156
607.662 .0397968
608.432 .0397796
609.201 .0397638
609.971 .0397485
610.740 .0397327
611.508 .0397161
612.277 .0396978
613.045 .0396785
613.812 .0396582
614.579 .0396362
615.346 .0396137
616.113 .0395912
616.879 .0395683
617.645 .0395456
618.411 .0395231
619.176 .0395002
619.941 .0394768
620.705 .0394529
621.470 .0394274
622.233 .0394003
622.997 .0393727
623.760 .0393443
624.523 .0393149
625.286 .0392845
626.048 .0392529
626.810 .0392196
627.572 .0391852
628.333 .0391491
629.095 .0391104
629.855 .0390708
630.616 .0390304
631.376 .0389899
632.136 .0389499
632.895 .0389114
633.655 .0388751
634.414 .0388409
635.172 .0388090
635.931 .0387786
636.689 .0387499
637.447 .0387231
638.204 .0386975
638.962 .0386731
639.718 .0386502
640.475 .0386289
641.231 .0386084
641.988 .0385896
642.743 .0385718
643.499 .0385545
644.254 .0385372
645.009 .0385200
645.764 .0385023
646.518 .0384837
647.272 .0384646
648.026 .0384451
648.780 .0384257
649.533 .0384062
650.286 .0383870
651.039 .0383682
651.792 .0383497
652.544 .0383319
653.296 .0383143
654.048 .0382975
654.799 .0382810
655.550 .0382643
656.301 .0382479
657.052 .0382318
657.802 .0382159
658.552 .0381999
659.302 .0381838
660.052 .0381672
660.801 .0381497
661.550 .0381315
662.299 .0381130
663.048 .0380940
663.796 .0380748
664.544 .0380559
665.292 .0380370
666.040 .0380181
666.787 .0379989
667.534 .0379794
668.281 .0379593
669.028 .0379384
669.774 .0379161
670.521 .0378929
671.266 .0378689
672.012 .0378442
672.758 .0378193
673.503 .0377949
674.248 .0377706
674.992 .0377464
675.737 .0377228
676.481 .0376998
677.225 .0376771
677.969 .0376551
678.712 .0376338
679.455 .0376136
680.199 .0375939
680.941 .0375747
681.684 .0375560
682.426 .0375377
683.168 .0375197
683.910 .0375017
684.652 .0374843
685.393 .0374670
686.134 .0374499
686.875 .0374331
687.616 .0374163
688.356 .0373993
689.097 .0373819
689.837 .0373636
690.576 .0373443
691.316 .0373240
692.055 .0373034
692.794 .0372834
693.533 .0372649
694.272 .0372479
695.010 .0372330
695.748 .0372195
696.486 .0372075
697.224 .0371958
697.962 .0371844
698.699 .0371722
699.436 .0371589
700.173 .0371448
700.909 .0371299
701.646 .0371148
702.382 .0371002
703.118 .0370862
703.853 .0370731
704.589 .0370600
705.324 .0370470
706.059 .0370338
706.794 .0370206
707.529 .0370068
708.263 .0369925
708.997 .0369778
709.731 .0369628
710.465 .0369479
711.198 .0369336
711.931 .0369198
712.664 .0369066
713.397 .0368940
714.130 .0368815
714.862 .0368691
715.594 .0368569
716.326 .0368449
717.058 .0368333
717.789 .0368220
718.520 .0368102
719.251 .0367977
719.982 .0367848
720.713 .0367708
721.443 .0367553
722.173 .0367381
722.903 .0367189
723.633 .0366982
724.362 .0366762
725.091 .0366531
725.820 .0366295
726.549 .0366056
727.278 .0365810
728.006 .0365554
728.734 .0365285
729.462 .0365004
730.190 .0364710
730.917 .0364407
731.644 .0364101
732.371 .0363799
733.098 .0363509
733.825 .0363240
734.551 .0362996
735.277 .0362777
736.003 .0362582
736.728 .0362402
737.454 .0362234
738.179 .0362074
738.904 .0361919
739.629 .0361768
740.353 .0361623
741.077 .0361485
741.801 .0361353
742.525 .0361226
743.249 .0361106
743.972 .0360986
744.695 .0360865
745.418 .0360735
746.141 .0360598
746.863 .0360453
747.585 .0360304
748.307 .0360151
749.029 .0360000
749.750 .0359848
750.472 .0359696
751.193 .0359542
751.913 .0359389
752.634 .0359234
753.354 .0359080
754.074 .0358924
754.794 .0358770
755.514 .0358620
756.233 .0358478
756.952 .0358342
757.671 .0358218
758.390 .0358101
759.108 .0357990
759.826 .0357881
760.544 .0357774
761.262 .0357669
761.979 .0357567
762.697 .0357467
763.414 .0357370
764.130 .0357276
764.847 .0357186
765.563 .0357095
766.279 .0357007
766.995 .0356917
767.710 .0356823
768.426 .0356720
769.141 .0356611
769.855 .0356496
770.570 .0356376
771.284 .0356251
771.998 .0356125
772.712 .0355999
773.426 .0355871
774.139 .0355739
774.852 .0355604
775.565 .0355467
776.277 .0355329
776.990 .0355190
777.702 .0355053
778.414 .0354919
779.125 .0354787
779.836 .0354656
780.547 .0354523
781.258 .0354388
781.969 .0354244
782.679 .0354091
783.389 .0353928
784.099 .0353755
784.808 .0353576
785.517 .0353399
786.226 .0353226
786.935 .0353064
787.643 .0352912
788.352 .0352774
789.060 .0352645
789.767 .0352523
790.475 .0352397
791.182 .0352266
791.889 .0352131
792.595 .0351986
793.301 .0351828
794.008 .0351665
794.713 .0351499
795.419 .0351333
796.124 .0351172
796.829 .0351012
797.534 .0350847
798.238 .0350678
798.942 .0350498
799.646 .0350302
800.350 .0350091
801.053 .0349865
801.756 .0349625
802.459 .0349376
803.162 .0349124
803.864 .0348871
804.566 .0348629
805.267 .0348401
805.969 .0348181
806.670 .0347971
807.371 .0347769
808.071 .0347570
808.772 .0347374
809.472 .0347184
810.171 .0346997
810.871 .0346817
811.570 .0346646
812.269 .0346481
812.967 .0346323
813.666 .0346170
814.364 .0346016
815.061 .0345862
815.759 .0345708
816.456 .0345548
817.153 .0345382
817.849 .0345217
818.545 .0345054
819.241 .0344892
819.937 .0344737
820.632 .0344585
821.327 .0344430
822.022 .0344275
822.717 .0344118
823.411 .0343958
824.105 .0343796
824.798 .0343630
825.491 .0343463
826.184 .0343295
826.877 .0343131
827.569 .0342965
828.261 .0342803
828.953 .0342648
829.645 .0342494
830.336 .0342335
831.027 .0342179
831.717 .0342028
832.407 .0341879
833.097 .0341736
833.787 .0341598
834.476 .0341465
835.165 .0341340
835.854 .0341225
836.542 .0341118
837.230 .0341014
837.918 .0340923
838.605 .0340834
839.292 .0340753
839.979 .0340680
840.665 .0340614
841.352 .0340555
842.037 .0340506
842.723 .0340459
843.408 .0340409
844.093 .0340354
844.777 .0340292
845.462 .0340216
846.145 .0340123
846.829 .0340017
847.512 .0339901
848.195 .0339784
848.878 .0339672
849.560 .0339561
850.242 .0339457
850.923 .0339354
851.605 .0339247
852.286 .0339127
852.966 .0338991
853.646 .0338842
854.326 .0338680
855.006 .0338512
855.685 .0338342
856.364 .0338173
857.043 .0338013
857.721 .0337856
858.399 .0337700
859.077 .0337537
859.754 .0337363
860.431 .0337176
861.107 .0336976
861.784 .0336763
862.459 .0336544
863.135 .0336324
863.810 .0336106
864.485 .0335891
865.160 .0335682
865.834 .0335477
866.508 .0335279
867.181 .0335087
867.854 .0334900
868.527 .0334715
869.199 .0334537
869.872 .0334358
870.543 .0334182
871.215 .0334005
871.886 .0333823
872.557 .0333637
873.227 .0333439
873.897 .0333230
874.567 .0333011
875.236 .0332782
875.905 .0332549
876.573 .0332309
877.242 .0332067
877.909 .0331817
878.577 .0331568
879.244 .0331320
879.911 .0331070
880.577 .0330823
881.243 .0330579
881.909 .0330335
882.575 .0330096
883.240 .0329865
883.904 .0329640
884.569 .0329427
885.232 .0329224
885.896 .0329025
886.559 .0328833
887.222 .0328646
887.885 .0328462
888.547 .0328277
889.208 .0328098
889.870 .0327918
890.531 .0327740
891.192 .0327571
891.852 .0327405
892.512 .0327250
893.171 .0327107
893.830 .0326973
894.489 .0326848
895.148 .0326734
895.806 .0326629
896.464 .0326530
897.121 .0326443
897.778 .0326363
898.434 .0326287
899.091 .0326215
899.747 .0326142
900.402 .0326064
901.057 .0325981
901.712 .0325889
902.366 .0325789
903.020 .0325681
903.674 .0325567
904.327 .0325449
904.980 .0325329
905.633 .0325208
906.285 .0325087
906.936 .0324963
907.588 .0324838
908.239 .0324710
908.889 .0324576
909.540 .0324438
910.190 .0324292
910.839 .0324140
911.488 .0323984
912.137 .0323825
912.785 .0323664
913.433 .0323501
914.081 .0323342
914.728 .0323189
915.375 .0323039
916.021 .0322894
916.668 .0322752
917.313 .0322616
917.959 .0322480
918.604 .0322347
919.248 .0322215
919.892 .0322086
920.536 .0321963
921.180 .0321846
921.823 .0321734
922.465 .0321632
923.108 .0321533
923.750 .0321439
924.391 .0321345
925.032 .0321255
925.673 .0321161
926.313 .0321067
926.953 .0320970
927.593 .0320869
928.232 .0320759
928.871 .0320644
929.510 .0320520
930.148 .0320387
930.786 .0320247
931.423 .0320098
932.060 .0319943
932.697 .0319790
933.333 .0319631
933.969 .0319471
934.604 .0319310
935.239 .0319147
935.874 .0318974
936.508 .0318798
937.142 .0318616
937.776 .0318430
938.409 .0318247
939.042 .0318062
939.674 .0317879
940.306 .0317703
940.938 .0317531
941.569 .0317361
942.200 .0317195
942.830 .0317032
943.460 .0316863
944.090 .0316693
944.720 .0316520
945.349 .0316343
945.977 .0316166
946.606 .0315989
947.233 .0315811
947.861 .0315630
948.488 .0315444
949.115 .0315250
949.741 .0315051
950.367 .0314843
950.993 .0314627
951.618 .0314404
952.243 .0314179
952.868 .0313957
953.492 .0313737
954.115 .0313521
954.739 .0313316
955.362 .0313116
955.984 .0312919
956.607 .0312726
957.229 .0312536
957.850 .0312345
958.471 .0312155
959.092 .0311963
959.713 .0311762
960.333 .0311562
960.952 .0311360
961.572 .0311155
962.191 .0310955
962.809 .0310760
963.428 .0310567
964.045 .0310380
964.663 .0310198
965.280 .0310010
965.897 .0309818
966.513 .0309619
967.129 .0309410
967.745 .0309191
968.361 .0308967
968.976 .0308742
969.590 .0308518
970.205 .0308304
970.818 .0308094
971.432 .0307892
972.045 .0307697
972.658 .0307506
973.271 .0307310
973.883 .0307111
974.495 .0306900
975.106 .0306683
975.717 .0306464
976.328 .0306243
976.938 .0306025
977.548 .0305816
978.158 .0305615
978.768 .0305420
979.377 .0305236
979.985 .0305063
980.594 .0304894
981.202 .0304737
981.809 .0304582
982.417 .0304430
983.024 .0304290
983.631 .0304161
984.237 .0304036
984.843 .0303919
985.449 .0303806
986.054 .0303689
986.659 .0303578
987.264 .0303471
987.868 .0303370
988.472 .0303280
989.076 .0303204
989.679 .0303130
990.282 .0303058
990.885 .0302985
991.487 .0302901
992.090 .0302810
992.691 .0302709
993.293 .0302598
993.894 .0302485
994.495 .0302379
995.095 .0302283
995.696 .0302192
996.296 .0302110
996.895 .0302028
997.494 .0301945
998.093 .0301854
998.692 .0301755
999.291 .0301649
999.889 .0301539
1000.487 .0301432
1001.084 .0301330
1001.681 .0301236
1002.278 .0301154
1002.875 .0301088
1003.471 .0301032
1004.067 .0300980
1004.663 .0300934
1005.258 .0300887
1005.854 .0300844
1006.449 .0300801
1007.043 .0300757
1007.638 .0300711
1008.232 .0300673
1008.826 .0300642
1009.419 .0300617
1010.012 .0300608
1010.605 .0300612
1011.198 .0300623
1011.791 .0300641
1012.383 .0300664
1012.975 .0300684
1013.566 .0300701
1014.158 .0300718
1014.749 .0300723
1015.340 .0300729
1015.931 .0300737
1016.521 .0300752
1017.111 .0300782
1017.701 .0300828
1018.291 .0300885
1018.880 .0300949
1019.470 .0301014
1020.059 .0301067
1020.647 .0301107
1021.236 .0301141
1021.824 .0301160
1022.412 .0301175
1023.000 .0301181
1023.588 .0301189
1024.175 .0301203
1024.762 .0301228
1025.349 .0301262
1025.936 .0301306
1026.523 .0301361
1027.109 .0301417
1027.695 .0301478
1028.281 .0301540
1028.867 .0301599
1029.452 .0301660
1030.038 .0301724
1030.623 .0301791
1031.208 .0301859
1031.792 .0301943
1032.377 .0302034
1032.961 .0302141
1033.546 .0302255
1034.130 .0302371
1034.714 .0302491
1035.297 .0302609
1035.881 .0302712
1036.464 .0302801
1037.047 .0302878
1037.630 .0302941
1038.213 .0302989
1038.796 .0303030
1039.378 .0303058
1039.961 .0303089
1040.543 .0303110
1041.125 .0303121
1041.707 .0303116
1042.289 .0303096
1042.871 .0303056
1043.452 .0302997
1044.034 .0302924
1044.615 .0302834
1045.196 .0302739
1045.777 .0302642
1046.358 .0302541
1046.939 .0302441
1047.520 .0302335
1048.101 .0302227
1048.681 .0302109
1049.262 .0301985
1049.842 .0301847
1050.422 .0301712
1051.002 .0301584
1051.582 .0301453
1052.162 .0301330
1052.742 .0301210
1053.322 .0301095
1053.902 .0300986
1054.482 .0300882
1055.061 .0300783
1055.641 .0300699
1056.220 .0300635
1056.800 .0300579
1057.379 .0300539
1057.958 .0300513
1058.538 .0300489
1059.117 .0300467
1059.696 .0300432
1060.275 .0300376
1060.854 .0300292
1061.433 .0300200
1062.012 .0300094
1062.592 .0299990
1063.171 .0299902
1063.750 .0299826
1064.329 .0299768
1064.908 .0299712
1065.487 .0299641
1066.066 .0299564
1066.645 .0299469
1067.224 .0299358
1067.803 .0299219
1068.382 .0299076
1068.961 .0298944
1069.540 .0298825
1070.119 .0298735
1070.698 .0298677
1071.278 .0298643
1071.857 .0298625
1072.436 .0298598
1073.016 .0298559
1073.595 .0298500
1074.175 .0298422
1074.754 .0298327
1075.334 .0298210
1075.913 .0298078
1076.493 .0297950
1077.073 .0297833
1077.653 .0297729
1078.233 .0297639
1078.813 .0297554
1079.393 .0297477
1079.974 .0297397
1080.554 .0297302
1081.135 .0297199
1081.716 .0297101
1082.296 .0297006
1082.877 .0296906
1083.458 .0296800
1084.040 .0296706
1084.621 .0296612
1085.202 .0296520
1085.784 .0296418
1086.366 .0296297
1086.948 .0296158
1087.530 .0295997
1088.112 .0295811
1088.695 .0295608
1089.277 .0295387
1089.860 .0295171
1090.443 .0294947
1091.026 .0294729
1091.610 .0294521
1092.193 .0294336
1092.777 .0294192
1093.361 .0294096
1093.946 .0294031
1094.530 .0294003
1095.115 .0294016
1095.700 .0294055
1096.285 .0294095
1096.871 .0294127
1097.456 .0294151
1098.042 .0294163
1098.628 .0294163
1099.215 .0294155
1099.802 .0294131
1100.389 .0294123
1100.976 .0294118
1101.564 .0294099
1102.152 .0294061
1102.740 .0293999
1103.329 .0293916
1103.917 .0293796
1104.507 .0293661
1105.096 .0293514
1105.686 .0293370
1106.276 .0293251
1106.867 .0293154
1107.457 .0293094
1108.049 .0293068
1108.640 .0293070
1109.232 .0293104
1109.825 .0293172
1110.417 .0293264
1111.010 .0293377
1111.604 .0293521
1112.198 .0293709
1112.792 .0293902
1113.387 .0294095
1113.982 .0294281
1114.577 .0294467
1115.173 .0294647
1115.769 .0294798
1116.366 .0294941
1116.963 .0295121
1117.561 .0295310
1118.159 .0295539
1118.758 .0295787
1119.357 .0296074
1119.957 .0296358
1120.557 .0296657
1121.157 .0296929
1121.758 .0297182
1122.360 .0297425
1122.962 .0297651
1123.564 .0297879
1124.167 .0298139
1124.771 .0298380
1125.375 .0298640
1125.980 .0298943
1126.585 .0299286
1127.191 .0299626
1127.797 .0300038
1128.404 .0300481
1129.012 .0300981
1129.620 .0301520
1130.229 .0302072
1130.838 .0302639
1131.448 .0303216
1132.058 .0303786
1132.669 .0304313
1133.281 .0304837
1133.894 .0305342
1134.507 .0305818
1135.120 .0306350
1135.735 .0306911
1136.350 .0307511
1136.965 .0308173
1137.582 .0308868
1138.199 .0309563
1138.816 .0310230
1139.435 .0310877
1140.054 .0311483
1140.674 .0312117
1141.294 .0312869
1141.916 .0313719
1142.538 .0313464
1143.160 .0314487
1143.784 .0316292
1144.408 .0320202
1145.033 .0321171
