Measurement Sequence started on: 14-45-04-498
Integration time: 36
Scans to Average: 2 
>>>>>Begin Spectral Data<<<<<
433.946 .0543948
434.870 .0633258
435.793 .0558064
436.715 .0528633
437.635 .0517717
438.555 .0530792
439.473 .0524904
440.389 .0518237
441.305 .0514994
442.219 .0512958
443.132 .0511441
444.044 .0510187
444.954 .0509408
445.863 .0509145
446.771 .0509321
447.678 .0509510
448.584 .0509821
449.488 .0510013
450.391 .0510029
451.293 .0509871
452.194 .0509686
453.094 .0509435
453.992 .0509118
454.890 .0508754
455.786 .0508387
456.681 .0507872
457.575 .0507279
458.468 .0506510
459.360 .0505580
460.250 .0504499
461.140 .0503302
462.028 .0501964
462.915 .0500583
463.801 .0499105
464.687 .0497602
465.571 .0496004
466.454 .0494435
467.335 .0492847
468.216 .0491296
469.096 .0489822
469.975 .0488492
470.853 .0487254
471.729 .0486121
472.605 .0485088
473.479 .0484135
474.353 .0483208
475.226 .0482321
476.097 .0481443
476.968 .0480594
477.838 .0479772
478.706 .0478988
479.574 .0478205
480.441 .0477516
481.306 .0476883
482.171 .0476277
483.035 .0475713
483.898 .0475204
484.760 .0474688
485.621 .0474210
486.481 .0473759
487.340 .0473292
488.198 .0472843
489.055 .0472390
489.912 .0471896
490.767 .0471368
491.622 .0470840
492.476 .0470322
493.329 .0469809
494.180 .0469392
495.032 .0469030
495.882 .0468740
496.731 .0468536
497.580 .0468368
498.427 .0468217
499.274 .0468050
500.120 .0467825
500.965 .0467526
501.809 .0467200
502.653 .0466847
503.495 .0466518
504.337 .0466254
505.178 .0466089
506.018 .0466019
506.858 .0466048
507.696 .0466205
508.534 .0466389
509.371 .0466599
510.208 .0466812
511.043 .0467022
511.878 .0467262
512.712 .0467455
513.545 .0467676
514.377 .0467932
515.209 .0468239
516.040 .0468561
516.870 .0468920
517.699 .0469384
518.528 .0469926
519.356 .0470573
520.183 .0471254
521.010 .0472024
521.836 .0472841
522.661 .0473685
523.485 .0474448
524.309 .0475113
525.132 .0475577
525.954 .0475793
526.776 .0475810
527.597 .0475649
528.417 .0475299
529.237 .0474936
530.056 .0474531
530.874 .0474108
531.692 .0473600
532.508 .0473022
533.325 .0472244
534.140 .0471297
534.955 .0470022
535.770 .0468437
536.583 .0466565
537.397 .0464587
538.209 .0462479
539.021 .0460352
539.832 .0458260
540.643 .0456226
541.453 .0454255
542.262 .0452447
543.071 .0450732
543.879 .0449184
544.687 .0447756
545.494 .0446508
546.300 .0445383
547.106 .0444411
547.911 .0443522
548.716 .0442741
549.520 .0442022
550.323 .0441367
551.126 .0440712
551.929 .0440128
552.731 .0439617
553.532 .0439151
554.332 .0438710
555.133 .0438348
555.932 .0437988
556.731 .0437658
557.530 .0437305
558.328 .0436954
559.125 .0436623
559.922 .0436306
560.719 .0436002
561.515 .0435682
562.310 .0435371
563.105 .0435056
563.899 .0434682
564.693 .0434350
565.487 .0434005
566.280 .0433663
567.072 .0433327
567.864 .0432998
568.655 .0432621
569.446 .0432191
570.236 .0431661
571.026 .0431008
571.816 .0430215
572.605 .0429297
573.393 .0428318
574.181 .0427344
574.969 .0426418
575.756 .0425535
576.543 .0424693
577.329 .0423923
578.115 .0423161
578.900 .0422414
579.685 .0421662
580.469 .0420941
581.253 .0420252
582.036 .0419609
582.820 .0419041
583.602 .0418549
584.384 .0418125
585.166 .0417761
585.947 .0417418
586.728 .0417067
587.509 .0416683
588.289 .0416282
589.069 .0415883
589.848 .0415515
590.627 .0415179
591.405 .0414901
592.183 .0414686
592.961 .0414547
593.738 .0414439
594.515 .0414363
595.291 .0414293
596.067 .0414199
596.843 .0414076
597.618 .0413922
598.393 .0413741
599.167 .0413557
599.941 .0413373
600.715 .0413204
601.488 .0413046
602.261 .0412903
603.034 .0412757
603.806 .0412620
604.578 .0412475
605.349 .0412313
606.121 .0412127
606.891 .0411927
607.662 .0411698
608.432 .0411456
609.201 .0411210
609.971 .0410964
610.740 .0410728
611.508 .0410504
612.277 .0410287
613.045 .0410085
613.812 .0409891
614.579 .0409696
615.346 .0409503
616.113 .0409317
616.879 .0409126
617.645 .0408943
618.411 .0408772
619.176 .0408610
619.941 .0408458
620.705 .0408313
621.470 .0408174
622.233 .0408032
622.997 .0407890
623.760 .0407742
624.523 .0407590
625.286 .0407432
626.048 .0407260
626.810 .0407080
627.572 .0406904
628.333 .0406719
629.095 .0406525
629.855 .0406323
630.616 .0406119
631.376 .0405911
632.136 .0405707
632.895 .0405505
633.655 .0405316
634.414 .0405136
635.172 .0404961
635.931 .0404785
636.689 .0404617
637.447 .0404453
638.204 .0404280
638.962 .0404107
639.718 .0403932
640.475 .0403746
641.231 .0403556
641.988 .0403353
642.743 .0403141
643.499 .0402911
644.254 .0402658
645.009 .0402382
645.764 .0402091
646.518 .0401796
647.272 .0401494
648.026 .0401199
648.780 .0400916
649.533 .0400637
650.286 .0400360
651.039 .0400082
651.792 .0399795
652.544 .0399496
653.296 .0399180
654.048 .0398857
654.799 .0398534
655.550 .0398219
656.301 .0397912
657.052 .0397623
657.802 .0397348
658.552 .0397079
659.302 .0396804
660.052 .0396521
660.801 .0396223
661.550 .0395909
662.299 .0395585
663.048 .0395256
663.796 .0394934
664.544 .0394625
665.292 .0394325
666.040 .0394036
666.787 .0393759
667.534 .0393488
668.281 .0393210
669.028 .0392929
669.774 .0392643
670.521 .0392352
671.266 .0392066
672.012 .0391792
672.758 .0391530
673.503 .0391287
674.248 .0391067
674.992 .0390861
675.737 .0390678
676.481 .0390513
677.225 .0390360
677.969 .0390224
678.712 .0390103
679.455 .0389986
680.199 .0389877
680.941 .0389777
681.684 .0389679
682.426 .0389576
683.168 .0389467
683.910 .0389348
684.652 .0389217
685.393 .0389077
686.134 .0388925
686.875 .0388765
687.616 .0388604
688.356 .0388437
689.097 .0388267
689.837 .0388092
690.576 .0387914
691.316 .0387727
692.055 .0387528
692.794 .0387317
693.533 .0387093
694.272 .0386858
695.010 .0386623
695.748 .0386394
696.486 .0386170
697.224 .0385959
697.962 .0385764
698.699 .0385578
699.436 .0385400
700.173 .0385222
700.909 .0385036
701.646 .0384846
702.382 .0384648
703.118 .0384438
703.853 .0384223
704.589 .0384012
705.324 .0383804
706.059 .0383603
706.794 .0383406
707.529 .0383213
708.263 .0383020
708.997 .0382829
709.731 .0382627
710.465 .0382418
711.198 .0382206
711.931 .0381984
712.664 .0381753
713.397 .0381515
714.130 .0381268
714.862 .0381018
715.594 .0380765
716.326 .0380514
717.058 .0380265
717.789 .0380028
718.520 .0379802
719.251 .0379589
719.982 .0379388
720.713 .0379195
721.443 .0379003
722.173 .0378815
722.903 .0378623
723.633 .0378431
724.362 .0378241
725.091 .0378056
725.820 .0377885
726.549 .0377729
727.278 .0377588
728.006 .0377461
728.734 .0377340
729.462 .0377220
730.190 .0377094
730.917 .0376962
731.644 .0376819
732.371 .0376669
733.098 .0376519
733.825 .0376374
734.551 .0376238
735.277 .0376117
736.003 .0376009
736.728 .0375914
737.454 .0375830
738.179 .0375753
738.904 .0375678
739.629 .0375611
740.353 .0375552
741.077 .0375497
741.801 .0375451
742.525 .0375413
743.249 .0375381
743.972 .0375356
744.695 .0375340
745.418 .0375323
746.141 .0375304
746.863 .0375288
747.585 .0375266
748.307 .0375235
749.029 .0375198
749.750 .0375147
750.472 .0375082
751.193 .0375002
751.913 .0374900
752.634 .0374777
753.354 .0374640
754.074 .0374489
754.794 .0374321
755.514 .0374141
756.233 .0373951
756.952 .0373750
757.671 .0373541
758.390 .0373326
759.108 .0373101
759.826 .0372872
760.544 .0372640
761.262 .0372401
761.979 .0372164
762.697 .0371927
763.414 .0371694
764.130 .0371465
764.847 .0371242
765.563 .0371031
766.279 .0370831
766.995 .0370648
767.710 .0370475
768.426 .0370312
769.141 .0370155
769.855 .0370002
770.570 .0369852
771.284 .0369696
771.998 .0369544
772.712 .0369395
773.426 .0369248
774.139 .0369106
774.852 .0368967
775.565 .0368834
776.277 .0368705
776.990 .0368579
777.702 .0368447
778.414 .0368315
779.125 .0368183
779.836 .0368052
780.547 .0367925
781.258 .0367810
781.969 .0367699
782.679 .0367595
783.389 .0367499
784.099 .0367402
784.808 .0367297
785.517 .0367193
786.226 .0367082
786.935 .0366967
787.643 .0366848
788.352 .0366734
789.060 .0366621
789.767 .0366516
790.475 .0366409
791.182 .0366296
791.889 .0366181
792.595 .0366062
793.301 .0365927
794.008 .0365786
794.713 .0365641
795.419 .0365496
796.124 .0365355
796.829 .0365226
797.534 .0365107
798.238 .0365001
798.942 .0364908
799.646 .0364828
800.350 .0364752
801.053 .0364680
801.756 .0364607
802.459 .0364532
803.162 .0364452
803.864 .0364364
804.566 .0364271
805.267 .0364177
805.969 .0364078
806.670 .0363978
807.371 .0363875
808.071 .0363773
808.772 .0363669
809.472 .0363558
810.171 .0363443
810.871 .0363325
811.570 .0363201
812.269 .0363069
812.967 .0362937
813.666 .0362804
814.364 .0362675
815.061 .0362557
815.759 .0362454
816.456 .0362359
817.153 .0362276
817.849 .0362199
818.545 .0362127
819.241 .0362053
819.937 .0361972
820.632 .0361877
821.327 .0361767
822.022 .0361637
822.717 .0361485
823.411 .0361313
824.105 .0361130
824.798 .0360933
825.491 .0360728
826.184 .0360512
826.877 .0360290
827.569 .0360065
828.261 .0359835
828.953 .0359596
829.645 .0359351
830.336 .0359097
831.027 .0358839
831.717 .0358581
832.407 .0358333
833.097 .0358096
833.787 .0357877
834.476 .0357671
835.165 .0357478
835.854 .0357294
836.542 .0357117
837.230 .0356936
837.918 .0356754
838.605 .0356566
839.292 .0356367
839.979 .0356169
840.665 .0355974
841.352 .0355784
842.037 .0355601
842.723 .0355424
843.408 .0355248
844.093 .0355066
844.777 .0354884
845.462 .0354690
846.145 .0354492
846.829 .0354292
847.512 .0354093
848.195 .0353900
848.878 .0353717
849.560 .0353545
850.242 .0353384
850.923 .0353232
851.605 .0353080
852.286 .0352920
852.966 .0352753
853.646 .0352577
854.326 .0352388
855.006 .0352190
855.685 .0351985
856.364 .0351774
857.043 .0351558
857.721 .0351341
858.399 .0351119
859.077 .0350892
859.754 .0350659
860.431 .0350420
861.107 .0350175
861.784 .0349927
862.459 .0349674
863.135 .0349428
863.810 .0349190
864.485 .0348967
865.160 .0348755
865.834 .0348570
866.508 .0348410
867.181 .0348274
867.854 .0348158
868.527 .0348063
869.199 .0347981
869.872 .0347913
870.543 .0347852
871.215 .0347798
871.886 .0347748
872.557 .0347703
873.227 .0347653
873.897 .0347601
874.567 .0347542
875.236 .0347472
875.905 .0347388
876.573 .0347292
877.242 .0347176
877.909 .0347047
878.577 .0346910
879.244 .0346767
879.911 .0346624
880.577 .0346485
881.243 .0346348
881.909 .0346219
882.575 .0346091
883.240 .0345964
883.904 .0345838
884.569 .0345720
885.232 .0345601
885.896 .0345487
886.559 .0345389
887.222 .0345303
887.885 .0345232
888.547 .0345177
889.208 .0345130
889.870 .0345092
890.531 .0345060
891.192 .0345024
891.852 .0344980
892.512 .0344935
893.171 .0344883
893.830 .0344830
894.489 .0344780
895.148 .0344726
895.806 .0344670
896.464 .0344621
897.121 .0344572
897.778 .0344511
898.434 .0344448
899.091 .0344375
899.747 .0344294
900.402 .0344206
901.057 .0344108
901.712 .0344004
902.366 .0343902
903.020 .0343794
903.674 .0343681
904.327 .0343564
904.980 .0343440
905.633 .0343304
906.285 .0343165
906.936 .0343017
907.588 .0342864
908.239 .0342707
908.889 .0342551
909.540 .0342392
910.190 .0342231
910.839 .0342063
911.488 .0341883
912.137 .0341689
912.785 .0341479
913.433 .0341248
914.081 .0341008
914.728 .0340762
915.375 .0340516
916.021 .0340274
916.668 .0340040
917.313 .0339814
917.959 .0339594
918.604 .0339372
919.248 .0339143
919.892 .0338899
920.536 .0338641
921.180 .0338371
921.823 .0338093
922.465 .0337814
923.108 .0337536
923.750 .0337264
924.391 .0336998
925.032 .0336731
925.673 .0336461
926.313 .0336187
926.953 .0335905
927.593 .0335613
928.232 .0335310
928.871 .0335002
929.510 .0334694
930.148 .0334385
930.786 .0334076
931.423 .0333765
932.060 .0333456
932.697 .0333145
933.333 .0332830
933.969 .0332513
934.604 .0332195
935.239 .0331879
935.874 .0331566
936.508 .0331257
937.142 .0330949
937.776 .0330644
938.409 .0330346
939.042 .0330049
939.674 .0329758
940.306 .0329468
940.938 .0329189
941.569 .0328923
942.200 .0328674
942.830 .0328438
943.460 .0328219
944.090 .0328015
944.720 .0327820
945.349 .0327638
945.977 .0327458
946.606 .0327277
947.233 .0327097
947.861 .0326909
948.488 .0326714
949.115 .0326508
949.741 .0326300
950.367 .0326091
950.993 .0325887
951.618 .0325686
952.243 .0325494
952.868 .0325315
953.492 .0325145
954.115 .0324978
954.739 .0324818
955.362 .0324661
955.984 .0324499
956.607 .0324337
957.229 .0324185
957.850 .0324038
958.471 .0323902
959.092 .0323776
959.713 .0323666
960.333 .0323566
960.952 .0323470
961.572 .0323381
962.191 .0323299
962.809 .0323225
963.428 .0323148
964.045 .0323064
964.663 .0322986
965.280 .0322909
965.897 .0322834
966.513 .0322768
967.129 .0322719
967.745 .0322683
968.361 .0322664
968.976 .0322656
969.590 .0322660
970.205 .0322666
970.818 .0322679
971.432 .0322692
972.045 .0322704
972.658 .0322719
973.271 .0322740
973.883 .0322768
974.495 .0322805
975.106 .0322843
975.717 .0322885
976.328 .0322916
976.938 .0322942
977.548 .0322954
978.158 .0322957
978.768 .0322953
979.377 .0322945
979.985 .0322928
980.594 .0322912
981.202 .0322892
981.809 .0322861
982.417 .0322818
983.024 .0322765
983.631 .0322698
984.237 .0322622
984.843 .0322540
985.449 .0322466
986.054 .0322398
986.659 .0322346
987.264 .0322309
987.868 .0322280
988.472 .0322267
989.076 .0322258
989.679 .0322258
990.282 .0322266
990.885 .0322279
991.487 .0322302
992.090 .0322338
992.691 .0322387
993.293 .0322444
993.894 .0322502
994.495 .0322559
995.095 .0322606
995.696 .0322638
996.296 .0322651
996.895 .0322650
997.494 .0322637
998.093 .0322621
998.692 .0322601
999.291 .0322586
999.889 .0322577
1000.487 .0322572
1001.084 .0322566
1001.681 .0322544
1002.278 .0322505
1002.875 .0322447
1003.471 .0322368
1004.067 .0322275
1004.663 .0322170
1005.258 .0322056
1005.854 .0321936
1006.449 .0321815
1007.043 .0321695
1007.638 .0321569
1008.232 .0321444
1008.826 .0321316
1009.419 .0321180
1010.012 .0321040
1010.605 .0320902
1011.198 .0320759
1011.791 .0320620
1012.383 .0320484
1012.975 .0320345
1013.566 .0320205
1014.158 .0320066
1014.749 .0319934
1015.340 .0319813
1015.931 .0319708
1016.521 .0319624
1017.111 .0319551
1017.701 .0319496
1018.291 .0319445
1018.880 .0319391
1019.470 .0319333
1020.059 .0319265
1020.647 .0319179
1021.236 .0319085
1021.824 .0318991
1022.412 .0318911
1023.000 .0318842
1023.588 .0318788
1024.175 .0318746
1024.762 .0318704
1025.349 .0318655
1025.936 .0318594
1026.523 .0318507
1027.109 .0318409
1027.695 .0318293
1028.281 .0318173
1028.867 .0318049
1029.452 .0317941
1030.038 .0317846
1030.623 .0317758
1031.208 .0317679
1031.792 .0317600
1032.377 .0317508
1032.961 .0317412
1033.546 .0317316
1034.130 .0317219
1034.714 .0317123
1035.297 .0317035
1035.881 .0316945
1036.464 .0316858
1037.047 .0316765
1037.630 .0316656
1038.213 .0316527
1038.796 .0316391
1039.378 .0316236
1039.961 .0316067
1040.543 .0315904
1041.125 .0315745
1041.707 .0315584
1042.289 .0315419
1042.871 .0315242
1043.452 .0315052
1044.034 .0314859
1044.615 .0314658
1045.196 .0314459
1045.777 .0314277
1046.358 .0314103
1046.939 .0313938
1047.520 .0313782
1048.101 .0313628
1048.681 .0313466
1049.262 .0313297
1049.842 .0313123
1050.422 .0312946
1051.002 .0312785
1051.582 .0312646
1052.162 .0312540
1052.742 .0312467
1053.322 .0312420
1053.902 .0312386
1054.482 .0312370
1055.061 .0312364
1055.641 .0312353
1056.220 .0312346
1056.800 .0312337
1057.379 .0312330
1057.958 .0312325
1058.538 .0312324
1059.117 .0312326
1059.696 .0312325
1060.275 .0312331
1060.854 .0312314
1061.433 .0312289
1062.012 .0312256
1062.592 .0312214
1063.171 .0312161
1063.750 .0312098
1064.329 .0312017
1064.908 .0311912
1065.487 .0311787
1066.066 .0311660
1066.645 .0311528
1067.224 .0311412
1067.803 .0311304
1068.382 .0311205
1068.961 .0311120
1069.540 .0311040
1070.119 .0310936
1070.698 .0310829
1071.278 .0310708
1071.857 .0310569
1072.436 .0310416
1073.016 .0310277
1073.595 .0310156
1074.175 .0310070
1074.754 .0310026
1075.334 .0310022
1075.913 .0310044
1076.493 .0310107
1077.073 .0310184
1077.653 .0310286
1078.233 .0310420
1078.813 .0310564
1079.393 .0310718
1079.974 .0310892
1080.554 .0311066
1081.135 .0311234
1081.716 .0311401
1082.296 .0311569
1082.877 .0311711
1083.458 .0311834
1084.040 .0311938
1084.621 .0312019
1085.202 .0312087
1085.784 .0312136
1086.366 .0312171
1086.948 .0312196
1087.530 .0312213
1088.112 .0312221
1088.695 .0312239
1089.277 .0312268
1089.860 .0312310
1090.443 .0312360
1091.026 .0312420
1091.610 .0312494
1092.193 .0312582
1092.777 .0312678
1093.361 .0312781
1093.946 .0312874
1094.530 .0312954
1095.115 .0313018
1095.700 .0313058
1096.285 .0313062
1096.871 .0313047
1097.456 .0313011
1098.042 .0312947
1098.628 .0312867
1099.215 .0312775
1099.802 .0312677
1100.389 .0312597
1100.976 .0312535
1101.564 .0312480
1102.152 .0312462
1102.740 .0312489
1103.329 .0312560
1103.917 .0312681
1104.507 .0312839
1105.096 .0313027
1105.686 .0313247
1106.276 .0313482
1106.867 .0313721
1107.457 .0313966
1108.049 .0314214
1108.640 .0314442
1109.232 .0314670
1109.825 .0314889
1110.417 .0315112
1111.010 .0315338
1111.604 .0315568
1112.198 .0315791
1112.792 .0316017
1113.387 .0316240
1113.982 .0316466
1114.577 .0316709
1115.173 .0316959
1115.769 .0317201
1116.366 .0317456
1116.963 .0317731
1117.561 .0318025
1118.159 .0318331
1118.758 .0318663
1119.357 .0318998
1119.957 .0319347
1120.557 .0319678
1121.157 .0319976
1121.758 .0320237
1122.360 .0320473
1122.962 .0320668
1123.564 .0320824
1124.167 .0320941
1124.771 .0321020
1125.375 .0321054
1125.980 .0321052
1126.585 .0321016
1127.191 .0320961
1127.797 .0320920
1128.404 .0320925
1129.012 .0320958
1129.620 .0321087
1130.229 .0321265
1130.838 .0321485
1131.448 .0321724
1132.058 .0321956
1132.669 .0322140
1133.281 .0322260
1133.894 .0322338
1134.507 .0322414
1135.120 .0322536
1135.735 .0322777
1136.350 .0323109
1136.965 .0323582
1137.582 .0324149
1138.199 .0324707
1138.816 .0325235
1139.435 .0325748
1140.054 .0326230
1140.674 .0326657
1141.294 .0327072
1141.916 .0327326
1142.538 .0327773
1143.160 .0329220
1143.784 .0329184
1144.408 .0330368
1145.033 .0325539
