Measurement Sequence started on: 14-45-04-498
Integration time: 36
Scans to Average: 2 
>>>>>Begin Spectral Data<<<<<
433.946 .0382639
434.870 .0447592
435.793 .0414600
436.715 .0413361
437.635 .0399234
438.555 .0396582
439.473 .0392889
440.389 .0388099
441.305 .0385185
442.219 .0382920
443.132 .0381373
444.044 .0380253
444.954 .0379283
445.863 .0378402
446.771 .0377558
447.678 .0376645
448.584 .0375739
449.488 .0374892
450.391 .0374015
451.293 .0373126
452.194 .0372238
453.094 .0371329
453.992 .0370313
454.890 .0369195
455.786 .0368099
456.681 .0366989
457.575 .0365961
458.468 .0365062
459.360 .0364218
460.250 .0363568
461.140 .0363000
462.028 .0362543
462.915 .0362124
463.801 .0361640
464.687 .0361055
465.571 .0360356
466.454 .0359581
467.335 .0358762
468.216 .0357983
469.096 .0357306
469.975 .0356729
470.853 .0356227
471.729 .0355763
472.605 .0355325
473.479 .0354843
474.353 .0354315
475.226 .0353657
476.097 .0352937
476.968 .0352171
477.838 .0351401
478.706 .0350724
479.574 .0350154
480.441 .0349767
481.306 .0349538
482.171 .0349433
483.035 .0349428
483.898 .0349460
484.760 .0349508
485.621 .0349524
486.481 .0349490
487.340 .0349390
488.198 .0349247
489.055 .0349069
489.912 .0348880
490.767 .0348717
491.622 .0348555
492.476 .0348417
493.329 .0348281
494.180 .0348124
495.032 .0347918
495.882 .0347663
496.731 .0347345
497.580 .0346937
498.427 .0346465
499.274 .0345948
500.120 .0345427
500.965 .0344930
501.809 .0344485
502.653 .0344082
503.495 .0343731
504.337 .0343409
505.178 .0343074
506.018 .0342761
506.858 .0342437
507.696 .0342108
508.534 .0341799
509.371 .0341488
510.208 .0341206
511.043 .0340944
511.878 .0340717
512.712 .0340491
513.545 .0340255
514.377 .0340013
515.209 .0339759
516.040 .0339533
516.870 .0339350
517.699 .0339215
518.528 .0339138
519.356 .0339103
520.183 .0339068
521.010 .0339051
521.836 .0338990
522.661 .0338816
523.485 .0338510
524.309 .0338032
525.132 .0337363
525.954 .0336556
526.776 .0335631
527.597 .0334626
528.417 .0333538
529.237 .0332442
530.056 .0331309
530.874 .0330213
531.692 .0329194
532.508 .0328285
533.325 .0327491
534.140 .0326811
534.955 .0326157
535.770 .0325610
536.583 .0325155
537.397 .0324800
538.209 .0324506
539.021 .0324303
539.832 .0324189
540.643 .0324125
541.453 .0324092
542.262 .0324120
543.071 .0324141
543.879 .0324088
544.687 .0323907
545.494 .0323611
546.300 .0323219
547.106 .0322782
547.911 .0322318
548.716 .0321873
549.520 .0321438
550.323 .0321006
551.126 .0320595
551.929 .0320256
552.731 .0319983
553.532 .0319711
554.332 .0319487
555.133 .0319322
555.932 .0319178
556.731 .0319111
557.530 .0319119
558.328 .0319218
559.125 .0319369
559.922 .0319552
560.719 .0319719
561.515 .0319876
562.310 .0319986
563.105 .0320030
563.899 .0320010
564.693 .0319943
565.487 .0319786
566.280 .0319546
567.072 .0319266
567.864 .0318927
568.655 .0318517
569.446 .0318068
570.236 .0317581
571.026 .0317084
571.816 .0316579
572.605 .0316090
573.393 .0315624
574.181 .0315180
574.969 .0314751
575.756 .0314309
576.543 .0313874
577.329 .0313457
578.115 .0313046
578.900 .0312667
579.685 .0312331
580.469 .0312031
581.253 .0311775
582.036 .0311549
582.820 .0311336
583.602 .0311125
584.384 .0310904
585.166 .0310648
585.947 .0310362
586.728 .0310052
587.509 .0309722
588.289 .0309384
589.069 .0309071
589.848 .0308783
590.627 .0308529
591.405 .0308316
592.183 .0308133
592.961 .0307975
593.738 .0307841
594.515 .0307711
595.291 .0307589
596.067 .0307472
596.843 .0307348
597.618 .0307215
598.393 .0307084
599.167 .0306956
599.941 .0306824
600.715 .0306699
601.488 .0306583
602.261 .0306474
603.034 .0306377
603.806 .0306288
604.578 .0306199
605.349 .0306117
606.121 .0306035
606.891 .0305946
607.662 .0305853
608.432 .0305755
609.201 .0305655
609.971 .0305554
610.740 .0305450
611.508 .0305338
612.277 .0305216
613.045 .0305084
613.812 .0304943
614.579 .0304786
615.346 .0304612
616.113 .0304429
616.879 .0304236
617.645 .0304036
618.411 .0303826
619.176 .0303610
619.941 .0303389
620.705 .0303161
621.470 .0302927
622.233 .0302678
622.997 .0302429
623.760 .0302182
624.523 .0301943
625.286 .0301711
626.048 .0301499
626.810 .0301290
627.572 .0301088
628.333 .0300891
629.095 .0300687
629.855 .0300477
630.616 .0300269
631.376 .0300060
632.136 .0299858
632.895 .0299665
633.655 .0299496
634.414 .0299340
635.172 .0299209
635.931 .0299090
636.689 .0298976
637.447 .0298871
638.204 .0298774
638.962 .0298673
639.718 .0298579
640.475 .0298486
641.231 .0298388
641.988 .0298281
642.743 .0298170
643.499 .0298040
644.254 .0297891
645.009 .0297722
645.764 .0297539
646.518 .0297342
647.272 .0297142
648.026 .0296939
648.780 .0296740
649.533 .0296554
650.286 .0296376
651.039 .0296203
651.792 .0296041
652.544 .0295890
653.296 .0295747
654.048 .0295613
654.799 .0295492
655.550 .0295378
656.301 .0295274
657.052 .0295181
657.802 .0295093
658.552 .0295009
659.302 .0294926
660.052 .0294846
660.801 .0294760
661.550 .0294671
662.299 .0294573
663.048 .0294468
663.796 .0294360
664.544 .0294243
665.292 .0294116
666.040 .0293988
666.787 .0293863
667.534 .0293741
668.281 .0293619
669.028 .0293502
669.774 .0293387
670.521 .0293275
671.266 .0293160
672.012 .0293041
672.758 .0292916
673.503 .0292787
674.248 .0292651
674.992 .0292514
675.737 .0292376
676.481 .0292242
677.225 .0292115
677.969 .0291997
678.712 .0291886
679.455 .0291782
680.199 .0291688
680.941 .0291600
681.684 .0291516
682.426 .0291436
683.168 .0291356
683.910 .0291277
684.652 .0291197
685.393 .0291115
686.134 .0291034
686.875 .0290948
687.616 .0290857
688.356 .0290761
689.097 .0290657
689.837 .0290542
690.576 .0290419
691.316 .0290288
692.055 .0290148
692.794 .0290001
693.533 .0289850
694.272 .0289698
695.010 .0289546
695.748 .0289396
696.486 .0289249
697.224 .0289106
697.962 .0288965
698.699 .0288824
699.436 .0288687
700.173 .0288553
700.909 .0288423
701.646 .0288296
702.382 .0288181
703.118 .0288074
703.853 .0287975
704.589 .0287881
705.324 .0287797
706.059 .0287719
706.794 .0287640
707.529 .0287559
708.263 .0287475
708.997 .0287388
709.731 .0287293
710.465 .0287196
711.198 .0287100
711.931 .0287003
712.664 .0286906
713.397 .0286808
714.130 .0286707
714.862 .0286600
715.594 .0286486
716.326 .0286365
717.058 .0286238
717.789 .0286107
718.520 .0285968
719.251 .0285831
719.982 .0285693
720.713 .0285555
721.443 .0285417
722.173 .0285283
722.903 .0285149
723.633 .0285010
724.362 .0284871
725.091 .0284733
725.820 .0284599
726.549 .0284468
727.278 .0284341
728.006 .0284218
728.734 .0284094
729.462 .0283964
730.190 .0283828
730.917 .0283683
731.644 .0283536
732.371 .0283385
733.098 .0283237
733.825 .0283099
734.551 .0282969
735.277 .0282855
736.003 .0282756
736.728 .0282667
737.454 .0282585
738.179 .0282500
738.904 .0282413
739.629 .0282316
740.353 .0282210
741.077 .0282103
741.801 .0281997
742.525 .0281894
743.249 .0281797
743.972 .0281708
744.695 .0281632
745.418 .0281561
746.141 .0281491
746.863 .0281420
747.585 .0281345
748.307 .0281264
749.029 .0281179
749.750 .0281091
750.472 .0281013
751.193 .0280942
751.913 .0280886
752.634 .0280843
753.354 .0280815
754.074 .0280798
754.794 .0280785
755.514 .0280772
756.233 .0280750
756.952 .0280719
757.671 .0280682
758.390 .0280631
759.108 .0280574
759.826 .0280510
760.544 .0280441
761.262 .0280373
761.979 .0280308
762.697 .0280242
763.414 .0280176
764.130 .0280111
764.847 .0280044
765.563 .0279975
766.279 .0279909
766.995 .0279845
767.710 .0279783
768.426 .0279723
769.141 .0279662
769.855 .0279601
770.570 .0279543
771.284 .0279486
771.998 .0279426
772.712 .0279364
773.426 .0279298
774.139 .0279223
774.852 .0279133
775.565 .0279034
776.277 .0278921
776.990 .0278796
777.702 .0278660
778.414 .0278513
779.125 .0278362
779.836 .0278212
780.547 .0278064
781.258 .0277919
781.969 .0277778
782.679 .0277645
783.389 .0277509
784.099 .0277379
784.808 .0277250
785.517 .0277120
786.226 .0276996
786.935 .0276877
787.643 .0276758
788.352 .0276649
789.060 .0276547
789.767 .0276450
790.475 .0276358
791.182 .0276269
791.889 .0276182
792.595 .0276100
793.301 .0276020
794.008 .0275938
794.713 .0275855
795.419 .0275779
796.124 .0275705
796.829 .0275636
797.534 .0275575
798.238 .0275519
798.942 .0275467
799.646 .0275420
800.350 .0275375
801.053 .0275331
801.756 .0275283
802.459 .0275235
803.162 .0275181
803.864 .0275120
804.566 .0275055
805.267 .0274987
805.969 .0274919
806.670 .0274851
807.371 .0274785
808.071 .0274721
808.772 .0274664
809.472 .0274613
810.171 .0274567
810.871 .0274528
811.570 .0274497
812.269 .0274468
812.967 .0274437
813.666 .0274407
814.364 .0274373
815.061 .0274336
815.759 .0274302
816.456 .0274271
817.153 .0274238
817.849 .0274204
818.545 .0274170
819.241 .0274130
819.937 .0274081
820.632 .0274022
821.327 .0273944
822.022 .0273848
822.717 .0273733
823.411 .0273600
824.105 .0273453
824.798 .0273303
825.491 .0273147
826.184 .0272989
826.877 .0272833
827.569 .0272682
828.261 .0272532
828.953 .0272389
829.645 .0272251
830.336 .0272113
831.027 .0271981
831.717 .0271855
832.407 .0271734
833.097 .0271625
833.787 .0271525
834.476 .0271436
835.165 .0271356
835.854 .0271283
836.542 .0271214
837.230 .0271149
837.918 .0271088
838.605 .0271024
839.292 .0270952
839.979 .0270874
840.665 .0270785
841.352 .0270687
842.037 .0270583
842.723 .0270470
843.408 .0270347
844.093 .0270218
844.777 .0270082
845.462 .0269940
846.145 .0269789
846.829 .0269633
847.512 .0269472
848.195 .0269306
848.878 .0269140
849.560 .0268973
850.242 .0268810
850.923 .0268649
851.605 .0268487
852.286 .0268321
852.966 .0268154
853.646 .0267982
854.326 .0267808
855.006 .0267634
855.685 .0267462
856.364 .0267295
857.043 .0267135
857.721 .0266988
858.399 .0266850
859.077 .0266718
859.754 .0266591
860.431 .0266466
861.107 .0266342
861.784 .0266219
862.459 .0266097
863.135 .0265983
863.810 .0265877
864.485 .0265781
865.160 .0265697
865.834 .0265622
866.508 .0265556
867.181 .0265492
867.854 .0265428
868.527 .0265365
869.199 .0265297
869.872 .0265230
870.543 .0265168
871.215 .0265111
871.886 .0265061
872.557 .0265014
873.227 .0264973
873.897 .0264936
874.567 .0264899
875.236 .0264861
875.905 .0264824
876.573 .0264788
877.242 .0264749
877.909 .0264706
878.577 .0264661
879.244 .0264609
879.911 .0264547
880.577 .0264476
881.243 .0264393
881.909 .0264304
882.575 .0264212
883.240 .0264121
883.904 .0264038
884.569 .0263961
885.232 .0263891
885.896 .0263827
886.559 .0263769
887.222 .0263714
887.885 .0263659
888.547 .0263607
889.208 .0263559
889.870 .0263520
890.531 .0263491
891.192 .0263474
891.852 .0263473
892.512 .0263488
893.171 .0263507
893.830 .0263530
894.489 .0263548
895.148 .0263558
895.806 .0263559
896.464 .0263552
897.121 .0263534
897.778 .0263510
898.434 .0263483
899.091 .0263451
899.747 .0263416
900.402 .0263379
901.057 .0263336
901.712 .0263288
902.366 .0263231
903.020 .0263165
903.674 .0263090
904.327 .0263013
904.980 .0262932
905.633 .0262847
906.285 .0262758
906.936 .0262666
907.588 .0262570
908.239 .0262467
908.889 .0262359
909.540 .0262245
910.190 .0262128
910.839 .0262011
911.488 .0261891
912.137 .0261774
912.785 .0261656
913.433 .0261537
914.081 .0261412
914.728 .0261280
915.375 .0261134
916.021 .0260973
916.668 .0260803
917.313 .0260626
917.959 .0260443
918.604 .0260258
919.248 .0260078
919.892 .0259899
920.536 .0259719
921.180 .0259541
921.823 .0259357
922.465 .0259173
923.108 .0258985
923.750 .0258795
924.391 .0258608
925.032 .0258430
925.673 .0258257
926.313 .0258088
926.953 .0257928
927.593 .0257770
928.232 .0257604
928.871 .0257433
929.510 .0257253
930.148 .0257061
930.786 .0256862
931.423 .0256661
932.060 .0256455
932.697 .0256255
933.333 .0256054
933.969 .0255849
934.604 .0255643
935.239 .0255434
935.874 .0255215
936.508 .0254992
937.142 .0254770
937.776 .0254548
938.409 .0254328
939.042 .0254117
939.674 .0253911
940.306 .0253709
940.938 .0253513
941.569 .0253315
942.200 .0253112
942.830 .0252908
943.460 .0252698
944.090 .0252484
944.720 .0252272
945.349 .0252063
945.977 .0251857
946.606 .0251661
947.233 .0251477
947.861 .0251301
948.488 .0251138
949.115 .0250989
949.741 .0250852
950.367 .0250726
950.993 .0250608
951.618 .0250497
952.243 .0250396
952.868 .0250301
953.492 .0250209
954.115 .0250120
954.739 .0250037
955.362 .0249959
955.984 .0249880
956.607 .0249800
957.229 .0249720
957.850 .0249638
958.471 .0249554
959.092 .0249466
959.713 .0249377
960.333 .0249288
960.952 .0249208
961.572 .0249140
962.191 .0249083
962.809 .0249045
963.428 .0249025
964.045 .0249018
964.663 .0249025
965.280 .0249040
965.897 .0249062
966.513 .0249090
967.129 .0249121
967.745 .0249147
968.361 .0249170
968.976 .0249189
969.590 .0249205
970.205 .0249216
970.818 .0249224
971.432 .0249229
972.045 .0249234
972.658 .0249242
973.271 .0249246
973.883 .0249247
974.495 .0249246
975.106 .0249240
975.717 .0249227
976.328 .0249207
976.938 .0249186
977.548 .0249172
978.158 .0249166
978.768 .0249170
979.377 .0249185
979.985 .0249205
980.594 .0249227
981.202 .0249247
981.809 .0249257
982.417 .0249262
983.024 .0249263
983.631 .0249257
984.237 .0249251
984.843 .0249243
985.449 .0249233
986.054 .0249219
986.659 .0249202
987.264 .0249177
987.868 .0249145
988.472 .0249112
989.076 .0249079
989.679 .0249047
990.282 .0249026
990.885 .0249007
991.487 .0248994
992.090 .0248984
992.691 .0248967
993.293 .0248939
993.894 .0248901
994.495 .0248855
995.095 .0248806
995.696 .0248760
996.296 .0248717
996.895 .0248677
997.494 .0248652
998.093 .0248628
998.692 .0248610
999.291 .0248595
999.889 .0248582
1000.487 .0248562
1001.084 .0248539
1001.681 .0248513
1002.278 .0248482
1002.875 .0248456
1003.471 .0248428
1004.067 .0248401
1004.663 .0248377
1005.258 .0248352
1005.854 .0248327
1006.449 .0248298
1007.043 .0248269
1007.638 .0248225
1008.232 .0248176
1008.826 .0248114
1009.419 .0248036
1010.012 .0247950
1010.605 .0247853
1011.198 .0247749
1011.791 .0247637
1012.383 .0247518
1012.975 .0247396
1013.566 .0247275
1014.158 .0247160
1014.749 .0247046
1015.340 .0246944
1015.931 .0246850
1016.521 .0246766
1017.111 .0246688
1017.701 .0246618
1018.291 .0246545
1018.880 .0246462
1019.470 .0246369
1020.059 .0246260
1020.647 .0246145
1021.236 .0246030
1021.824 .0245918
1022.412 .0245819
1023.000 .0245732
1023.588 .0245657
1024.175 .0245591
1024.762 .0245528
1025.349 .0245459
1025.936 .0245378
1026.523 .0245284
1027.109 .0245178
1027.695 .0245066
1028.281 .0244954
1028.867 .0244848
1029.452 .0244759
1030.038 .0244689
1030.623 .0244627
1031.208 .0244574
1031.792 .0244529
1032.377 .0244476
1032.961 .0244412
1033.546 .0244334
1034.130 .0244241
1034.714 .0244141
1035.297 .0244035
1035.881 .0243928
1036.464 .0243832
1037.047 .0243760
1037.630 .0243705
1038.213 .0243670
1038.796 .0243663
1039.378 .0243673
1039.961 .0243694
1040.543 .0243727
1041.125 .0243762
1041.707 .0243795
1042.289 .0243832
1042.871 .0243864
1043.452 .0243893
1044.034 .0243931
1044.615 .0243972
1045.196 .0244016
1045.777 .0244070
1046.358 .0244129
1046.939 .0244182
1047.520 .0244233
1048.101 .0244272
1048.681 .0244294
1049.262 .0244300
1049.842 .0244281
1050.422 .0244246
1051.002 .0244197
1051.582 .0244134
1052.162 .0244066
1052.742 .0244007
1053.322 .0243959
1053.902 .0243916
1054.482 .0243879
1055.061 .0243843
1055.641 .0243803
1056.220 .0243757
1056.800 .0243695
1057.379 .0243619
1057.958 .0243550
1058.538 .0243486
1059.117 .0243435
1059.696 .0243411
1060.275 .0243414
1060.854 .0243438
1061.433 .0243487
1062.012 .0243547
1062.592 .0243617
1063.171 .0243691
1063.750 .0243775
1064.329 .0243849
1064.908 .0243920
1065.487 .0243986
1066.066 .0244046
1066.645 .0244102
1067.224 .0244161
1067.803 .0244203
1068.382 .0244239
1068.961 .0244263
1069.540 .0244281
1070.119 .0244280
1070.698 .0244274
1071.278 .0244258
1071.857 .0244232
1072.436 .0244204
1073.016 .0244176
1073.595 .0244146
1074.175 .0244134
1074.754 .0244138
1075.334 .0244149
1075.913 .0244166
1076.493 .0244187
1077.073 .0244196
1077.653 .0244206
1078.233 .0244214
1078.813 .0244220
1079.393 .0244237
1079.974 .0244281
1080.554 .0244360
1081.135 .0244467
1081.716 .0244610
1082.296 .0244771
1082.877 .0244937
1083.458 .0245093
1084.040 .0245210
1084.621 .0245288
1085.202 .0245340
1085.784 .0245361
1086.366 .0245362
1086.948 .0245359
1087.530 .0245365
1088.112 .0245380
1088.695 .0245398
1089.277 .0245414
1089.860 .0245413
1090.443 .0245370
1091.026 .0245283
1091.610 .0245153
1092.193 .0244992
1092.777 .0244819
1093.361 .0244657
1093.946 .0244529
1094.530 .0244441
1095.115 .0244388
1095.700 .0244363
1096.285 .0244359
1096.871 .0244372
1097.456 .0244378
1098.042 .0244380
1098.628 .0244388
1099.215 .0244390
1099.802 .0244397
1100.389 .0244425
1100.976 .0244466
1101.564 .0244509
1102.152 .0244541
1102.740 .0244558
1103.329 .0244561
1103.917 .0244562
1104.507 .0244553
1105.096 .0244546
1105.686 .0244567
1106.276 .0244611
1106.867 .0244660
1107.457 .0244721
1108.049 .0244781
1108.640 .0244823
1109.232 .0244838
1109.825 .0244840
1110.417 .0244830
1111.010 .0244838
1111.604 .0244887
1112.198 .0244998
1112.792 .0245159
1113.387 .0245369
1113.982 .0245604
1114.577 .0245867
1115.173 .0246122
1115.769 .0246342
1116.366 .0246508
1116.963 .0246672
1117.561 .0246833
1118.159 .0246991
1118.758 .0247173
1119.357 .0247417
1119.957 .0247679
1120.557 .0247952
1121.157 .0248217
1121.758 .0248465
1122.360 .0248668
1122.962 .0248803
1123.564 .0248845
1124.167 .0248829
1124.771 .0248776
1125.375 .0248700
1125.980 .0248654
1126.585 .0248689
1127.191 .0248762
1127.797 .0248873
1128.404 .0249007
1129.012 .0249141
1129.620 .0249242
1130.229 .0249303
1130.838 .0249303
1131.448 .0249234
1132.058 .0249118
1132.669 .0248980
1133.281 .0248857
1133.894 .0248801
1134.507 .0248786
1135.120 .0248838
1135.735 .0248960
1136.350 .0249138
1136.965 .0249368
1137.582 .0249662
1138.199 .0250043
1138.816 .0250465
1139.435 .0250957
1140.054 .0251563
1140.674 .0252338
1141.294 .0253367
1141.916 .0254590
1142.538 .0254531
1143.160 .0256501
1143.784 .0259376
1144.408 .0262771
1145.033 .0263401
