Measurement Sequence started on: 14-45-04-498
Integration time: 36
Scans to Average: 2 
>>>>>Begin Spectral Data<<<<<
433.946 .0707639
434.870 .0535614
435.793 .0498732
436.715 .0512633
437.635 .0513892
438.555 .0521783
439.473 .0515030
440.389 .0514853
441.305 .0515550
442.219 .0515468
443.132 .0515180
444.044 .0514601
444.954 .0513956
445.863 .0513100
446.771 .0512182
447.678 .0511269
448.584 .0510450
449.488 .0509651
450.391 .0508873
451.293 .0508070
452.194 .0507233
453.094 .0506101
453.992 .0504775
454.890 .0503286
455.786 .0501710
456.681 .0500113
457.575 .0498660
458.468 .0497384
459.360 .0496296
460.250 .0495427
461.140 .0494711
462.028 .0493969
462.915 .0493251
463.801 .0492425
464.687 .0491477
465.571 .0490424
466.454 .0489334
467.335 .0488277
468.216 .0487317
469.096 .0486489
469.975 .0485781
470.853 .0485220
471.729 .0484781
472.605 .0484323
473.479 .0483816
474.353 .0483244
475.226 .0482552
476.097 .0481777
476.968 .0481003
477.838 .0480260
478.706 .0479602
479.574 .0479098
480.441 .0478742
481.306 .0478508
482.171 .0478317
483.035 .0478149
483.898 .0477944
484.760 .0477686
485.621 .0477321
486.481 .0476878
487.340 .0476434
488.198 .0476004
489.055 .0475570
489.912 .0475138
490.767 .0474720
491.622 .0474261
492.476 .0473739
493.329 .0473172
494.180 .0472566
495.032 .0471982
495.882 .0471414
496.731 .0470905
497.580 .0470467
498.427 .0470097
499.274 .0469761
500.120 .0469440
500.965 .0469110
501.809 .0468771
502.653 .0468417
503.495 .0468107
504.337 .0467854
505.178 .0467657
506.018 .0467544
506.858 .0467456
507.696 .0467382
508.534 .0467221
509.371 .0466923
510.208 .0466540
511.043 .0466033
511.878 .0465460
512.712 .0464846
513.545 .0464270
514.377 .0463780
515.209 .0463364
516.040 .0463031
516.870 .0462798
517.699 .0462658
518.528 .0462666
519.356 .0462803
520.183 .0463079
521.010 .0463559
521.836 .0464161
522.661 .0464889
523.485 .0465622
524.309 .0466271
525.132 .0466844
525.954 .0467200
526.776 .0467390
527.597 .0467322
528.417 .0467062
529.237 .0466750
530.056 .0466345
530.874 .0465902
531.692 .0465455
532.508 .0464964
533.325 .0464457
534.140 .0463857
534.955 .0463157
535.770 .0462356
536.583 .0461480
537.397 .0460635
538.209 .0459786
539.021 .0458977
539.832 .0458282
540.643 .0457620
541.453 .0457088
542.262 .0456586
543.071 .0456046
543.879 .0455473
544.687 .0454870
545.494 .0454235
546.300 .0453492
547.106 .0452700
547.911 .0451914
548.716 .0451150
549.520 .0450357
550.323 .0449588
551.126 .0448853
551.929 .0448179
552.731 .0447536
553.532 .0446866
554.332 .0446207
555.133 .0445543
555.932 .0444874
556.731 .0444184
557.530 .0443473
558.328 .0442794
559.125 .0442085
559.922 .0441398
560.719 .0440696
561.515 .0439965
562.310 .0439132
563.105 .0438277
563.899 .0437386
564.693 .0436455
565.487 .0435519
566.280 .0434587
567.072 .0433683
567.864 .0432822
568.655 .0431960
569.446 .0431152
570.236 .0430381
571.026 .0429658
571.816 .0428912
572.605 .0428208
573.393 .0427533
574.181 .0426901
574.969 .0426312
575.756 .0425771
576.543 .0425275
577.329 .0424838
578.115 .0424426
578.900 .0424031
579.685 .0423660
580.469 .0423310
581.253 .0422962
582.036 .0422620
582.820 .0422266
583.602 .0421922
584.384 .0421581
585.166 .0421225
585.947 .0420865
586.728 .0420497
587.509 .0420111
588.289 .0419720
589.069 .0419326
589.848 .0418930
590.627 .0418542
591.405 .0418168
592.183 .0417814
592.961 .0417483
593.738 .0417174
594.515 .0416887
595.291 .0416632
596.067 .0416408
596.843 .0416196
597.618 .0416001
598.393 .0415829
599.167 .0415655
599.941 .0415474
600.715 .0415287
601.488 .0415102
602.261 .0414917
603.034 .0414732
603.806 .0414558
604.578 .0414394
605.349 .0414243
606.121 .0414097
606.891 .0413963
607.662 .0413827
608.432 .0413690
609.201 .0413548
609.971 .0413401
610.740 .0413248
611.508 .0413087
612.277 .0412923
613.045 .0412762
613.812 .0412602
614.579 .0412438
615.346 .0412272
616.113 .0412112
616.879 .0411952
617.645 .0411791
618.411 .0411630
619.176 .0411474
619.941 .0411313
620.705 .0411144
621.470 .0410969
622.233 .0410789
622.997 .0410603
623.760 .0410407
624.523 .0410210
625.286 .0410006
626.048 .0409801
626.810 .0409594
627.572 .0409378
628.333 .0409155
629.095 .0408924
629.855 .0408675
630.616 .0408422
631.376 .0408171
632.136 .0407925
632.895 .0407693
633.655 .0407483
634.414 .0407286
635.172 .0407107
635.931 .0406937
636.689 .0406766
637.447 .0406586
638.204 .0406400
638.962 .0406199
639.718 .0405990
640.475 .0405778
641.231 .0405563
641.988 .0405344
642.743 .0405132
643.499 .0404909
644.254 .0404676
645.009 .0404431
645.764 .0404166
646.518 .0403889
647.272 .0403601
648.026 .0403303
648.780 .0403003
649.533 .0402707
650.286 .0402411
651.039 .0402115
651.792 .0401820
652.544 .0401524
653.296 .0401223
654.048 .0400921
654.799 .0400613
655.550 .0400304
656.301 .0399998
657.052 .0399693
657.802 .0399386
658.552 .0399088
659.302 .0398788
660.052 .0398491
660.801 .0398190
661.550 .0397893
662.299 .0397601
663.048 .0397320
663.796 .0397049
664.544 .0396787
665.292 .0396534
666.040 .0396291
666.787 .0396056
667.534 .0395834
668.281 .0395618
669.028 .0395416
669.774 .0395223
670.521 .0395039
671.266 .0394857
672.012 .0394682
672.758 .0394512
673.503 .0394347
674.248 .0394175
674.992 .0393999
675.737 .0393820
676.481 .0393640
677.225 .0393460
677.969 .0393280
678.712 .0393102
679.455 .0392927
680.199 .0392753
680.941 .0392576
681.684 .0392398
682.426 .0392216
683.168 .0392028
683.910 .0391832
684.652 .0391627
685.393 .0391414
686.134 .0391195
686.875 .0390981
687.616 .0390776
688.356 .0390582
689.097 .0390402
689.837 .0390233
690.576 .0390075
691.316 .0389925
692.055 .0389778
692.794 .0389631
693.533 .0389482
694.272 .0389325
695.010 .0389160
695.748 .0388985
696.486 .0388804
697.224 .0388620
697.962 .0388432
698.699 .0388239
699.436 .0388037
700.173 .0387827
700.909 .0387604
701.646 .0387369
702.382 .0387129
703.118 .0386879
703.853 .0386625
704.589 .0386370
705.324 .0386118
706.059 .0385875
706.794 .0385640
707.529 .0385413
708.263 .0385199
708.997 .0384996
709.731 .0384792
710.465 .0384590
711.198 .0384387
711.931 .0384180
712.664 .0383965
713.397 .0383744
714.130 .0383513
714.862 .0383276
715.594 .0383039
716.326 .0382799
717.058 .0382564
717.789 .0382339
718.520 .0382114
719.251 .0381893
719.982 .0381679
720.713 .0381469
721.443 .0381260
722.173 .0381061
722.903 .0380871
723.633 .0380692
724.362 .0380527
725.091 .0380374
725.820 .0380234
726.549 .0380109
727.278 .0379992
728.006 .0379874
728.734 .0379756
729.462 .0379631
730.190 .0379496
730.917 .0379357
731.644 .0379211
732.371 .0379061
733.098 .0378912
733.825 .0378766
734.551 .0378626
735.277 .0378491
736.003 .0378361
736.728 .0378237
737.454 .0378120
738.179 .0378009
738.904 .0377906
739.629 .0377809
740.353 .0377724
741.077 .0377651
741.801 .0377587
742.525 .0377532
743.249 .0377492
743.972 .0377466
744.695 .0377450
745.418 .0377439
746.141 .0377430
746.863 .0377419
747.585 .0377407
748.307 .0377379
749.029 .0377335
749.750 .0377275
750.472 .0377200
751.193 .0377109
751.913 .0377009
752.634 .0376900
753.354 .0376784
754.074 .0376662
754.794 .0376526
755.514 .0376370
756.233 .0376198
756.952 .0376006
757.671 .0375799
758.390 .0375577
759.108 .0375348
759.826 .0375120
760.544 .0374902
761.262 .0374700
761.979 .0374510
762.697 .0374331
763.414 .0374163
764.130 .0373995
764.847 .0373823
765.563 .0373644
766.279 .0373459
766.995 .0373271
767.710 .0373074
768.426 .0372875
769.141 .0372682
769.855 .0372495
770.570 .0372319
771.284 .0372149
771.998 .0371986
772.712 .0371827
773.426 .0371666
774.139 .0371502
774.852 .0371334
775.565 .0371160
776.277 .0370983
776.990 .0370807
777.702 .0370634
778.414 .0370466
779.125 .0370312
779.836 .0370170
780.547 .0370038
781.258 .0369916
781.969 .0369800
782.679 .0369687
783.389 .0369578
784.099 .0369466
784.808 .0369355
785.517 .0369248
786.226 .0369143
786.935 .0369035
787.643 .0368930
788.352 .0368825
789.060 .0368719
789.767 .0368614
790.475 .0368507
791.182 .0368391
791.889 .0368272
792.595 .0368150
793.301 .0368023
794.008 .0367892
794.713 .0367753
795.419 .0367609
796.124 .0367466
796.829 .0367323
797.534 .0367185
798.238 .0367061
798.942 .0366952
799.646 .0366858
800.350 .0366776
801.053 .0366702
801.756 .0366630
802.459 .0366558
803.162 .0366481
803.864 .0366400
804.566 .0366313
805.267 .0366219
805.969 .0366120
806.670 .0366024
807.371 .0365921
808.071 .0365814
808.772 .0365704
809.472 .0365583
810.171 .0365457
810.871 .0365326
811.570 .0365192
812.269 .0365062
812.967 .0364936
813.666 .0364817
814.364 .0364707
815.061 .0364611
815.759 .0364530
816.456 .0364458
817.153 .0364396
817.849 .0364334
818.545 .0364270
819.241 .0364202
819.937 .0364126
820.632 .0364039
821.327 .0363933
822.022 .0363806
822.717 .0363666
823.411 .0363508
824.105 .0363342
824.798 .0363168
825.491 .0362992
826.184 .0362812
826.877 .0362628
827.569 .0362434
828.261 .0362232
828.953 .0362017
829.645 .0361788
830.336 .0361545
831.027 .0361298
831.717 .0361051
832.407 .0360809
833.097 .0360577
833.787 .0360362
834.476 .0360151
835.165 .0359951
835.854 .0359751
836.542 .0359554
837.230 .0359350
837.918 .0359143
838.605 .0358932
839.292 .0358722
839.979 .0358515
840.665 .0358316
841.352 .0358125
842.037 .0357948
842.723 .0357777
843.408 .0357616
844.093 .0357455
844.777 .0357295
845.462 .0357124
846.145 .0356946
846.829 .0356752
847.512 .0356545
848.195 .0356329
848.878 .0356107
849.560 .0355887
850.242 .0355667
850.923 .0355448
851.605 .0355233
852.286 .0355014
852.966 .0354795
853.646 .0354569
854.326 .0354342
855.006 .0354108
855.685 .0353875
856.364 .0353640
857.043 .0353409
857.721 .0353181
858.399 .0352959
859.077 .0352739
859.754 .0352517
860.431 .0352293
861.107 .0352063
861.784 .0351825
862.459 .0351587
863.135 .0351348
863.810 .0351116
864.485 .0350889
865.160 .0350677
865.834 .0350475
866.508 .0350291
867.181 .0350126
867.854 .0349976
868.527 .0349845
869.199 .0349730
869.872 .0349630
870.543 .0349547
871.215 .0349478
871.886 .0349422
872.557 .0349372
873.227 .0349326
873.897 .0349279
874.567 .0349225
875.236 .0349168
875.905 .0349109
876.573 .0349045
877.242 .0348975
877.909 .0348897
878.577 .0348813
879.244 .0348724
879.911 .0348625
880.577 .0348522
881.243 .0348407
881.909 .0348285
882.575 .0348154
883.240 .0348014
883.904 .0347876
884.569 .0347742
885.232 .0347612
885.896 .0347496
886.559 .0347389
887.222 .0347294
887.885 .0347211
888.547 .0347139
889.208 .0347070
889.870 .0347000
890.531 .0346929
891.192 .0346853
891.852 .0346776
892.512 .0346707
893.171 .0346636
893.830 .0346576
894.489 .0346526
895.148 .0346479
895.806 .0346439
896.464 .0346410
897.121 .0346383
897.778 .0346356
898.434 .0346327
899.091 .0346292
899.747 .0346249
900.402 .0346200
901.057 .0346141
901.712 .0346075
902.366 .0346001
903.020 .0345921
903.674 .0345834
904.327 .0345753
904.980 .0345673
905.633 .0345594
906.285 .0345516
906.936 .0345432
907.588 .0345328
908.239 .0345204
908.889 .0345058
909.540 .0344890
910.190 .0344699
910.839 .0344491
911.488 .0344276
912.137 .0344059
912.785 .0343840
913.433 .0343626
914.081 .0343408
914.728 .0343188
915.375 .0342950
916.021 .0342696
916.668 .0342426
917.313 .0342148
917.959 .0341860
918.604 .0341573
919.248 .0341289
919.892 .0341011
920.536 .0340737
921.180 .0340468
921.823 .0340205
922.465 .0339938
923.108 .0339669
923.750 .0339400
924.391 .0339126
925.032 .0338857
925.673 .0338590
926.313 .0338333
926.953 .0338079
927.593 .0337820
928.232 .0337546
928.871 .0337257
929.510 .0336952
930.148 .0336625
930.786 .0336282
931.423 .0335933
932.060 .0335581
932.697 .0335229
933.333 .0334880
933.969 .0334535
934.604 .0334191
935.239 .0333849
935.874 .0333498
936.508 .0333143
937.142 .0332787
937.776 .0332435
938.409 .0332091
939.042 .0331762
939.674 .0331454
940.306 .0331169
940.938 .0330910
941.569 .0330675
942.200 .0330456
942.830 .0330250
943.460 .0330053
944.090 .0329861
944.720 .0329663
945.349 .0329462
945.977 .0329253
946.606 .0329041
947.233 .0328822
947.861 .0328598
948.488 .0328371
949.115 .0328144
949.741 .0327923
950.367 .0327706
950.993 .0327498
951.618 .0327303
952.243 .0327115
952.868 .0326933
953.492 .0326753
954.115 .0326570
954.739 .0326384
955.362 .0326200
955.984 .0326020
956.607 .0325850
957.229 .0325694
957.850 .0325552
958.471 .0325428
959.092 .0325315
959.713 .0325209
960.333 .0325100
960.952 .0324989
961.572 .0324869
962.191 .0324743
962.809 .0324617
963.428 .0324495
964.045 .0324381
964.663 .0324281
965.280 .0324199
965.897 .0324133
966.513 .0324079
967.129 .0324038
967.745 .0324005
968.361 .0323977
968.976 .0323951
969.590 .0323931
970.205 .0323924
970.818 .0323932
971.432 .0323954
972.045 .0323989
972.658 .0324036
973.271 .0324089
973.883 .0324141
974.495 .0324188
975.106 .0324221
975.717 .0324237
976.328 .0324236
976.938 .0324226
977.548 .0324211
978.158 .0324190
978.768 .0324172
979.377 .0324155
979.985 .0324134
980.594 .0324108
981.202 .0324072
981.809 .0324029
982.417 .0323980
983.024 .0323928
983.631 .0323877
984.237 .0323834
984.843 .0323804
985.449 .0323782
986.054 .0323775
986.659 .0323783
987.264 .0323792
987.868 .0323802
988.472 .0323814
989.076 .0323821
989.679 .0323832
990.282 .0323845
990.885 .0323865
991.487 .0323895
992.090 .0323933
992.691 .0323976
993.293 .0324019
993.894 .0324065
994.495 .0324105
995.095 .0324141
995.696 .0324177
996.296 .0324204
996.895 .0324228
997.494 .0324251
998.093 .0324275
998.692 .0324303
999.291 .0324335
999.889 .0324363
1000.487 .0324390
1001.084 .0324408
1001.681 .0324412
1002.278 .0324396
1002.875 .0324368
1003.471 .0324321
1004.067 .0324262
1004.663 .0324192
1005.258 .0324115
1005.854 .0324034
1006.449 .0323951
1007.043 .0323860
1007.638 .0323768
1008.232 .0323674
1008.826 .0323578
1009.419 .0323479
1010.012 .0323386
1010.605 .0323297
1011.198 .0323210
1011.791 .0323126
1012.383 .0323037
1012.975 .0322941
1013.566 .0322836
1014.158 .0322710
1014.749 .0322582
1015.340 .0322451
1015.931 .0322327
1016.521 .0322218
1017.111 .0322126
1017.701 .0322047
1018.291 .0321973
1018.880 .0321900
1019.470 .0321815
1020.059 .0321713
1020.647 .0321595
1021.236 .0321458
1021.824 .0321320
1022.412 .0321196
1023.000 .0321085
1023.588 .0321002
1024.175 .0320951
1024.762 .0320918
1025.349 .0320895
1025.936 .0320876
1026.523 .0320844
1027.109 .0320804
1027.695 .0320760
1028.281 .0320712
1028.867 .0320659
1029.452 .0320615
1030.038 .0320573
1030.623 .0320524
1031.208 .0320469
1031.792 .0320395
1032.377 .0320294
1032.961 .0320169
1033.546 .0320027
1034.130 .0319868
1034.714 .0319694
1035.297 .0319518
1035.881 .0319332
1036.464 .0319153
1037.047 .0318975
1037.630 .0318791
1038.213 .0318613
1038.796 .0318443
1039.378 .0318290
1039.961 .0318144
1040.543 .0318017
1041.125 .0317909
1041.707 .0317807
1042.289 .0317714
1042.871 .0317614
1043.452 .0317509
1044.034 .0317402
1044.615 .0317290
1045.196 .0317183
1045.777 .0317081
1046.358 .0316980
1046.939 .0316875
1047.520 .0316760
1048.101 .0316624
1048.681 .0316456
1049.262 .0316251
1049.842 .0316028
1050.422 .0315792
1051.002 .0315556
1051.582 .0315334
1052.162 .0315142
1052.742 .0314992
1053.322 .0314869
1053.902 .0314765
1054.482 .0314668
1055.061 .0314563
1055.641 .0314444
1056.220 .0314294
1056.800 .0314131
1057.379 .0313961
1057.958 .0313799
1058.538 .0313656
1059.117 .0313536
1059.696 .0313447
1060.275 .0313386
1060.854 .0313327
1061.433 .0313279
1062.012 .0313222
1062.592 .0313151
1063.171 .0313056
1063.750 .0312939
1064.329 .0312806
1064.908 .0312665
1065.487 .0312526
1066.066 .0312409
1066.645 .0312311
1067.224 .0312244
1067.803 .0312193
1068.382 .0312167
1068.961 .0312163
1069.540 .0312168
1070.119 .0312168
1070.698 .0312178
1071.278 .0312187
1071.857 .0312198
1072.436 .0312211
1073.016 .0312237
1073.595 .0312275
1074.175 .0312316
1074.754 .0312349
1075.334 .0312365
1075.913 .0312363
1076.493 .0312346
1077.073 .0312298
1077.653 .0312232
1078.233 .0312151
1078.813 .0312056
1079.393 .0311953
1079.974 .0311843
1080.554 .0311733
1081.135 .0311617
1081.716 .0311501
1082.296 .0311391
1082.877 .0311295
1083.458 .0311218
1084.040 .0311166
1084.621 .0311141
1085.202 .0311156
1085.784 .0311199
1086.366 .0311273
1086.948 .0311362
1087.530 .0311477
1088.112 .0311610
1088.695 .0311750
1089.277 .0311898
1089.860 .0312068
1090.443 .0312248
1091.026 .0312437
1091.610 .0312631
1092.193 .0312847
1092.777 .0313061
1093.361 .0313293
1093.946 .0313529
1094.530 .0313776
1095.115 .0314012
1095.700 .0314248
1096.285 .0314475
1096.871 .0314700
1097.456 .0314919
1098.042 .0315116
1098.628 .0315306
1099.215 .0315469
1099.802 .0315600
1100.389 .0315693
1100.976 .0315750
1101.564 .0315786
1102.152 .0315761
1102.740 .0315700
1103.329 .0315596
1103.917 .0315473
1104.507 .0315330
1105.096 .0315171
1105.686 .0315024
1106.276 .0314874
1106.867 .0314759
1107.457 .0314669
1108.049 .0314622
1108.640 .0314606
1109.232 .0314618
1109.825 .0314667
1110.417 .0314743
1111.010 .0314854
1111.604 .0314991
1112.198 .0315177
1112.792 .0315423
1113.387 .0315702
1113.982 .0316007
1114.577 .0316348
1115.173 .0316736
1115.769 .0317092
1116.366 .0317439
1116.963 .0317765
1117.561 .0318074
1118.159 .0318348
1118.758 .0318592
1119.357 .0318826
1119.957 .0319068
1120.557 .0319337
1121.157 .0319614
1121.758 .0319887
1122.360 .0320175
1122.962 .0320433
1123.564 .0320660
1124.167 .0320886
1124.771 .0321115
1125.375 .0321316
1125.980 .0321557
1126.585 .0321813
1127.191 .0322052
1127.797 .0322272
1128.404 .0322493
1129.012 .0322699
1129.620 .0322900
1130.229 .0323106
1130.838 .0323278
1131.448 .0323440
1132.058 .0323622
1132.669 .0323782
1133.281 .0323940
1133.894 .0324101
1134.507 .0324235
1135.120 .0324355
1135.735 .0324480
1136.350 .0324600
1136.965 .0324737
1137.582 .0324953
1138.199 .0325186
1138.816 .0325411
1139.435 .0325665
1140.054 .0326005
1140.674 .0326295
1141.294 .0326664
1141.916 .0327038
1142.538 .0327232
1143.160 .0328828
1143.784 .0326269
1144.408 .0329060
1145.033 .0329663
