Measurement Sequence started on: 14-45-04-498
Integration time: 36
Scans to Average: 2 
>>>>>Begin Spectral Data<<<<<
433.946 .0419361
434.870 .0426850
435.793 .0401318
436.715 .0396957
437.635 .0398619
438.555 .0410516
439.473 .0411566
440.389 .0412695
441.305 .0414382
442.219 .0415649
443.132 .0416436
444.044 .0416637
444.954 .0416697
445.863 .0416560
446.771 .0416469
447.678 .0416255
448.584 .0415913
449.488 .0415370
450.391 .0414581
451.293 .0413546
452.194 .0412405
453.094 .0411112
453.992 .0409766
454.890 .0408313
455.786 .0406882
456.681 .0405427
457.575 .0403963
458.468 .0402504
459.360 .0401102
460.250 .0399723
461.140 .0398315
462.028 .0396882
462.915 .0395466
463.801 .0394040
464.687 .0392650
465.571 .0391252
466.454 .0389936
467.335 .0388709
468.216 .0387573
469.096 .0386492
469.975 .0385547
470.853 .0384664
471.729 .0383794
472.605 .0382911
473.479 .0382043
474.353 .0381135
475.226 .0380200
476.097 .0379249
476.968 .0378329
477.838 .0377420
478.706 .0376545
479.574 .0375666
480.441 .0374830
481.306 .0373984
482.171 .0373102
483.035 .0372162
483.898 .0371227
484.760 .0370279
485.621 .0369335
486.481 .0368424
487.340 .0367572
488.198 .0366770
489.055 .0366021
489.912 .0365322
490.767 .0364684
491.622 .0364060
492.476 .0363458
493.329 .0362851
494.180 .0362248
495.032 .0361644
495.882 .0361029
496.731 .0360432
497.580 .0359863
498.427 .0359332
499.274 .0358820
500.120 .0358335
500.965 .0357888
501.809 .0357490
502.653 .0357124
503.495 .0356759
504.337 .0356379
505.178 .0355997
506.018 .0355606
506.858 .0355189
507.696 .0354785
508.534 .0354407
509.371 .0354049
510.208 .0353757
511.043 .0353501
511.878 .0353288
512.712 .0353107
513.545 .0352879
514.377 .0352576
515.209 .0352200
516.040 .0351756
516.870 .0351237
517.699 .0350769
518.528 .0350335
519.356 .0349931
520.183 .0349599
521.010 .0349342
521.836 .0349119
522.661 .0348893
523.485 .0348601
524.309 .0348204
525.132 .0347732
525.954 .0347225
526.776 .0346685
527.597 .0346252
528.417 .0345919
529.237 .0345655
530.056 .0345420
530.874 .0345145
531.692 .0344823
532.508 .0344437
533.325 .0343967
534.140 .0343361
534.955 .0342676
535.770 .0341915
536.583 .0341150
537.397 .0340416
538.209 .0339695
539.021 .0338956
539.832 .0338231
540.643 .0337424
541.453 .0336573
542.262 .0335742
543.071 .0334982
543.879 .0334263
544.687 .0333671
545.494 .0333097
546.300 .0332562
547.106 .0332030
547.911 .0331490
548.716 .0330897
549.520 .0330252
550.323 .0329554
551.126 .0328856
551.929 .0328190
552.731 .0327565
553.532 .0326935
554.332 .0326402
555.133 .0325911
555.932 .0325457
556.731 .0325005
557.530 .0324566
558.328 .0324145
559.125 .0323748
559.922 .0323388
560.719 .0323072
561.515 .0322812
562.310 .0322602
563.105 .0322414
563.899 .0322242
564.693 .0322094
565.487 .0321939
566.280 .0321742
567.072 .0321513
567.864 .0321167
568.655 .0320706
569.446 .0320174
570.236 .0319585
571.026 .0318940
571.816 .0318264
572.605 .0317577
573.393 .0316888
574.181 .0316240
574.969 .0315611
575.756 .0314991
576.543 .0314417
577.329 .0313859
578.115 .0313318
578.900 .0312799
579.685 .0312332
580.469 .0311928
581.253 .0311609
582.036 .0311366
582.820 .0311181
583.602 .0311047
584.384 .0310945
585.166 .0310832
585.947 .0310693
586.728 .0310513
587.509 .0310292
588.289 .0310055
589.069 .0309810
589.848 .0309579
590.627 .0309378
591.405 .0309200
592.183 .0309053
592.961 .0308912
593.738 .0308755
594.515 .0308578
595.291 .0308369
596.067 .0308132
596.843 .0307868
597.618 .0307593
598.393 .0307313
599.167 .0307040
599.941 .0306784
600.715 .0306546
601.488 .0306321
602.261 .0306111
603.034 .0305900
603.806 .0305696
604.578 .0305496
605.349 .0305298
606.121 .0305115
606.891 .0304959
607.662 .0304824
608.432 .0304733
609.201 .0304682
609.971 .0304667
610.740 .0304682
611.508 .0304718
612.277 .0304755
613.045 .0304788
613.812 .0304807
614.579 .0304815
615.346 .0304810
616.113 .0304802
616.879 .0304783
617.645 .0304770
618.411 .0304765
619.176 .0304753
619.941 .0304738
620.705 .0304713
621.470 .0304661
622.233 .0304577
622.997 .0304466
623.760 .0304330
624.523 .0304182
625.286 .0304033
626.048 .0303887
626.810 .0303756
627.572 .0303639
628.333 .0303532
629.095 .0303436
629.855 .0303349
630.616 .0303260
631.376 .0303162
632.136 .0303069
632.895 .0302970
633.655 .0302878
634.414 .0302791
635.172 .0302712
635.931 .0302642
636.689 .0302577
637.447 .0302515
638.204 .0302459
638.962 .0302411
639.718 .0302370
640.475 .0302330
641.231 .0302299
641.988 .0302264
642.743 .0302230
643.499 .0302191
644.254 .0302141
645.009 .0302079
645.764 .0302006
646.518 .0301929
647.272 .0301848
648.026 .0301775
648.780 .0301715
649.533 .0301670
650.286 .0301646
651.039 .0301636
651.792 .0301634
652.544 .0301640
653.296 .0301645
654.048 .0301646
654.799 .0301647
655.550 .0301644
656.301 .0301640
657.052 .0301639
657.802 .0301643
658.552 .0301655
659.302 .0301670
660.052 .0301688
660.801 .0301699
661.550 .0301706
662.299 .0301701
663.048 .0301681
663.796 .0301652
664.544 .0301617
665.292 .0301573
666.040 .0301527
666.787 .0301477
667.534 .0301424
668.281 .0301364
669.028 .0301297
669.774 .0301221
670.521 .0301137
671.266 .0301044
672.012 .0300944
672.758 .0300839
673.503 .0300735
674.248 .0300630
674.992 .0300526
675.737 .0300424
676.481 .0300328
677.225 .0300233
677.969 .0300137
678.712 .0300041
679.455 .0299944
680.199 .0299845
680.941 .0299747
681.684 .0299652
682.426 .0299559
683.168 .0299471
683.910 .0299388
684.652 .0299306
685.393 .0299232
686.134 .0299162
686.875 .0299089
687.616 .0299015
688.356 .0298938
689.097 .0298850
689.837 .0298752
690.576 .0298645
691.316 .0298530
692.055 .0298415
692.794 .0298299
693.533 .0298185
694.272 .0298075
695.010 .0297978
695.748 .0297889
696.486 .0297806
697.224 .0297733
697.962 .0297663
698.699 .0297592
699.436 .0297521
700.173 .0297446
700.909 .0297370
701.646 .0297293
702.382 .0297219
703.118 .0297147
703.853 .0297082
704.589 .0297021
705.324 .0296962
706.059 .0296910
706.794 .0296860
707.529 .0296805
708.263 .0296748
708.997 .0296687
709.731 .0296616
710.465 .0296536
711.198 .0296450
711.931 .0296358
712.664 .0296266
713.397 .0296172
714.130 .0296074
714.862 .0295977
715.594 .0295877
716.326 .0295775
717.058 .0295669
717.789 .0295566
718.520 .0295456
719.251 .0295342
719.982 .0295229
720.713 .0295112
721.443 .0294995
722.173 .0294876
722.903 .0294758
723.633 .0294639
724.362 .0294518
725.091 .0294390
725.820 .0294258
726.549 .0294128
727.278 .0293995
728.006 .0293860
728.734 .0293722
729.462 .0293587
730.190 .0293449
730.917 .0293314
731.644 .0293187
732.371 .0293062
733.098 .0292945
733.825 .0292831
734.551 .0292722
735.277 .0292615
736.003 .0292515
736.728 .0292422
737.454 .0292335
738.179 .0292260
738.904 .0292190
739.629 .0292125
740.353 .0292069
741.077 .0292016
741.801 .0291962
742.525 .0291904
743.249 .0291845
743.972 .0291778
744.695 .0291710
745.418 .0291637
746.141 .0291560
746.863 .0291485
747.585 .0291410
748.307 .0291326
749.029 .0291240
749.750 .0291147
750.472 .0291047
751.193 .0290942
751.913 .0290834
752.634 .0290723
753.354 .0290612
754.074 .0290507
754.794 .0290402
755.514 .0290299
756.233 .0290199
756.952 .0290092
757.671 .0289985
758.390 .0289874
759.108 .0289764
759.826 .0289659
760.544 .0289562
761.262 .0289479
761.979 .0289406
762.697 .0289345
763.414 .0289294
764.130 .0289249
764.847 .0289206
765.563 .0289162
766.279 .0289112
766.995 .0289059
767.710 .0289002
768.426 .0288944
769.141 .0288886
769.855 .0288828
770.570 .0288769
771.284 .0288703
771.998 .0288625
772.712 .0288544
773.426 .0288448
774.139 .0288343
774.852 .0288227
775.565 .0288104
776.277 .0287976
776.990 .0287847
777.702 .0287720
778.414 .0287595
779.125 .0287476
779.836 .0287364
780.547 .0287251
781.258 .0287144
781.969 .0287042
782.679 .0286944
783.389 .0286852
784.099 .0286764
784.808 .0286677
785.517 .0286595
786.226 .0286516
786.935 .0286439
787.643 .0286365
788.352 .0286294
789.060 .0286225
789.767 .0286159
790.475 .0286096
791.182 .0286032
791.889 .0285968
792.595 .0285903
793.301 .0285829
794.008 .0285747
794.713 .0285657
795.419 .0285559
796.124 .0285458
796.829 .0285353
797.534 .0285248
798.238 .0285146
798.942 .0285048
799.646 .0284953
800.350 .0284857
801.053 .0284763
801.756 .0284667
802.459 .0284563
803.162 .0284458
803.864 .0284350
804.566 .0284244
805.267 .0284141
805.969 .0284043
806.670 .0283952
807.371 .0283871
808.071 .0283799
808.772 .0283732
809.472 .0283666
810.171 .0283601
810.871 .0283531
811.570 .0283456
812.269 .0283376
812.967 .0283286
813.666 .0283187
814.364 .0283084
815.061 .0282974
815.759 .0282860
816.456 .0282745
817.153 .0282628
817.849 .0282509
818.545 .0282389
819.241 .0282264
819.937 .0282137
820.632 .0282009
821.327 .0281877
822.022 .0281742
822.717 .0281604
823.411 .0281466
824.105 .0281328
824.798 .0281191
825.491 .0281052
826.184 .0280909
826.877 .0280762
827.569 .0280607
828.261 .0280447
828.953 .0280287
829.645 .0280122
830.336 .0279956
831.027 .0279793
831.717 .0279632
832.407 .0279472
833.097 .0279314
833.787 .0279160
834.476 .0279010
835.165 .0278870
835.854 .0278739
836.542 .0278623
837.230 .0278523
837.918 .0278443
838.605 .0278377
839.292 .0278326
839.979 .0278283
840.665 .0278245
841.352 .0278213
842.037 .0278182
842.723 .0278149
843.408 .0278117
844.093 .0278084
844.777 .0278047
845.462 .0278000
846.145 .0277947
846.829 .0277882
847.512 .0277810
848.195 .0277727
848.878 .0277637
849.560 .0277541
850.242 .0277440
850.923 .0277332
851.605 .0277216
852.286 .0277090
852.966 .0276951
853.646 .0276801
854.326 .0276641
855.006 .0276475
855.685 .0276305
856.364 .0276140
857.043 .0275981
857.721 .0275825
858.399 .0275671
859.077 .0275512
859.754 .0275347
860.431 .0275168
861.107 .0274978
861.784 .0274784
862.459 .0274584
863.135 .0274387
863.810 .0274194
864.485 .0274008
865.160 .0273831
865.834 .0273661
866.508 .0273498
867.181 .0273339
867.854 .0273190
868.527 .0273046
869.199 .0272911
869.872 .0272788
870.543 .0272675
871.215 .0272570
871.886 .0272473
872.557 .0272383
873.227 .0272296
873.897 .0272216
874.567 .0272141
875.236 .0272071
875.905 .0272008
876.573 .0271949
877.242 .0271887
877.909 .0271815
878.577 .0271738
879.244 .0271648
879.911 .0271549
880.577 .0271443
881.243 .0271332
881.909 .0271218
882.575 .0271105
883.240 .0270996
883.904 .0270890
884.569 .0270785
885.232 .0270675
885.896 .0270561
886.559 .0270451
887.222 .0270339
887.885 .0270230
888.547 .0270137
889.208 .0270061
889.870 .0269995
890.531 .0269942
891.192 .0269897
891.852 .0269856
892.512 .0269811
893.171 .0269753
893.830 .0269685
894.489 .0269609
895.148 .0269527
895.806 .0269442
896.464 .0269363
897.121 .0269291
897.778 .0269218
898.434 .0269145
899.091 .0269067
899.747 .0268977
900.402 .0268870
901.057 .0268746
901.712 .0268607
902.366 .0268452
903.020 .0268288
903.674 .0268118
904.327 .0267953
904.980 .0267791
905.633 .0267632
906.285 .0267473
906.936 .0267310
907.588 .0267141
908.239 .0266961
908.889 .0266773
909.540 .0266574
910.190 .0266368
910.839 .0266162
911.488 .0265959
912.137 .0265759
912.785 .0265558
913.433 .0265362
914.081 .0265165
914.728 .0264967
915.375 .0264767
916.021 .0264564
916.668 .0264361
917.313 .0264162
917.959 .0263972
918.604 .0263791
919.248 .0263623
919.892 .0263469
920.536 .0263328
921.180 .0263204
921.823 .0263085
922.465 .0262971
923.108 .0262862
923.750 .0262757
924.391 .0262647
925.032 .0262538
925.673 .0262435
926.313 .0262337
926.953 .0262253
927.593 .0262176
928.232 .0262102
928.871 .0262033
929.510 .0261962
930.148 .0261883
930.786 .0261794
931.423 .0261697
932.060 .0261588
932.697 .0261474
933.333 .0261357
933.969 .0261239
934.604 .0261128
935.239 .0261032
935.874 .0260946
936.508 .0260866
937.142 .0260797
937.776 .0260731
938.409 .0260670
939.042 .0260614
939.674 .0260554
940.306 .0260498
940.938 .0260446
941.569 .0260402
942.200 .0260363
942.830 .0260330
943.460 .0260303
944.090 .0260268
944.720 .0260226
945.349 .0260171
945.977 .0260098
946.606 .0260013
947.233 .0259912
947.861 .0259794
948.488 .0259662
949.115 .0259515
949.741 .0259358
950.367 .0259191
950.993 .0259015
951.618 .0258823
952.243 .0258620
952.868 .0258406
953.492 .0258179
954.115 .0257942
954.739 .0257704
955.362 .0257466
955.984 .0257232
956.607 .0257005
957.229 .0256784
957.850 .0256578
958.471 .0256378
959.092 .0256179
959.713 .0255978
960.333 .0255772
960.952 .0255563
961.572 .0255350
962.191 .0255142
962.809 .0254939
963.428 .0254745
964.045 .0254563
964.663 .0254392
965.280 .0254230
965.897 .0254070
966.513 .0253913
967.129 .0253753
967.745 .0253585
968.361 .0253414
968.976 .0253244
969.590 .0253078
970.205 .0252920
970.818 .0252771
971.432 .0252630
972.045 .0252497
972.658 .0252367
973.271 .0252239
973.883 .0252111
974.495 .0251981
975.106 .0251849
975.717 .0251719
976.328 .0251592
976.938 .0251473
977.548 .0251364
978.158 .0251268
978.768 .0251183
979.377 .0251109
979.985 .0251043
980.594 .0250989
981.202 .0250948
981.809 .0250919
982.417 .0250905
983.024 .0250911
983.631 .0250937
984.237 .0250983
984.843 .0251045
985.449 .0251121
986.054 .0251207
986.659 .0251303
987.264 .0251401
987.868 .0251499
988.472 .0251602
989.076 .0251708
989.679 .0251815
990.282 .0251924
990.885 .0252034
991.487 .0252140
992.090 .0252239
992.691 .0252323
993.293 .0252386
993.894 .0252430
994.495 .0252457
995.095 .0252469
995.696 .0252472
996.296 .0252467
996.895 .0252459
997.494 .0252457
998.093 .0252461
998.692 .0252474
999.291 .0252499
999.889 .0252533
1000.487 .0252578
1001.084 .0252632
1001.681 .0252690
1002.278 .0252754
1002.875 .0252825
1003.471 .0252902
1004.067 .0252984
1004.663 .0253068
1005.258 .0253148
1005.854 .0253225
1006.449 .0253303
1007.043 .0253369
1007.638 .0253418
1008.232 .0253458
1008.826 .0253479
1009.419 .0253484
1010.012 .0253473
1010.605 .0253444
1011.198 .0253400
1011.791 .0253343
1012.383 .0253272
1012.975 .0253186
1013.566 .0253089
1014.158 .0252980
1014.749 .0252861
1015.340 .0252745
1015.931 .0252625
1016.521 .0252503
1017.111 .0252390
1017.701 .0252285
1018.291 .0252181
1018.880 .0252078
1019.470 .0251978
1020.059 .0251878
1020.647 .0251778
1021.236 .0251675
1021.824 .0251574
1022.412 .0251479
1023.000 .0251394
1023.588 .0251309
1024.175 .0251232
1024.762 .0251149
1025.349 .0251058
1025.936 .0250955
1026.523 .0250838
1027.109 .0250708
1027.695 .0250578
1028.281 .0250446
1028.867 .0250323
1029.452 .0250208
1030.038 .0250107
1030.623 .0250011
1031.208 .0249931
1031.792 .0249853
1032.377 .0249775
1032.961 .0249701
1033.546 .0249632
1034.130 .0249567
1034.714 .0249519
1035.297 .0249491
1035.881 .0249481
1036.464 .0249499
1037.047 .0249536
1037.630 .0249574
1038.213 .0249622
1038.796 .0249666
1039.378 .0249692
1039.961 .0249704
1040.543 .0249701
1041.125 .0249685
1041.707 .0249669
1042.289 .0249657
1042.871 .0249650
1043.452 .0249661
1044.034 .0249687
1044.615 .0249721
1045.196 .0249761
1045.777 .0249805
1046.358 .0249828
1046.939 .0249834
1047.520 .0249825
1048.101 .0249796
1048.681 .0249754
1049.262 .0249710
1049.842 .0249668
1050.422 .0249649
1051.002 .0249640
1051.582 .0249647
1052.162 .0249669
1052.742 .0249697
1053.322 .0249721
1053.902 .0249737
1054.482 .0249746
1055.061 .0249760
1055.641 .0249787
1056.220 .0249841
1056.800 .0249915
1057.379 .0250026
1057.958 .0250163
1058.538 .0250326
1059.117 .0250507
1059.696 .0250693
1060.275 .0250880
1060.854 .0251060
1061.433 .0251221
1062.012 .0251371
1062.592 .0251518
1063.171 .0251658
1063.750 .0251796
1064.329 .0251924
1064.908 .0252032
1065.487 .0252112
1066.066 .0252168
1066.645 .0252200
1067.224 .0252209
1067.803 .0252204
1068.382 .0252181
1068.961 .0252160
1069.540 .0252150
1070.119 .0252136
1070.698 .0252133
1071.278 .0252135
1071.857 .0252133
1072.436 .0252110
1073.016 .0252080
1073.595 .0252048
1074.175 .0252021
1074.754 .0251998
1075.334 .0251984
1075.913 .0251984
1076.493 .0251999
1077.073 .0252016
1077.653 .0252033
1078.233 .0252051
1078.813 .0252052
1079.393 .0252029
1079.974 .0251989
1080.554 .0251929
1081.135 .0251860
1081.716 .0251779
1082.296 .0251702
1082.877 .0251620
1083.458 .0251523
1084.040 .0251415
1084.621 .0251293
1085.202 .0251164
1085.784 .0251019
1086.366 .0250880
1086.948 .0250755
1087.530 .0250637
1088.112 .0250536
1088.695 .0250441
1089.277 .0250356
1089.860 .0250260
1090.443 .0250145
1091.026 .0250009
1091.610 .0249867
1092.193 .0249715
1092.777 .0249562
1093.361 .0249432
1093.946 .0249317
1094.530 .0249210
1095.115 .0249115
1095.700 .0249023
1096.285 .0248927
1096.871 .0248815
1097.456 .0248699
1098.042 .0248573
1098.628 .0248464
1099.215 .0248351
1099.802 .0248252
1100.389 .0248164
1100.976 .0248068
1101.564 .0247936
1102.152 .0247793
1102.740 .0247608
1103.329 .0247394
1103.917 .0247174
1104.507 .0246967
1105.096 .0246775
1105.686 .0246644
1106.276 .0246547
1106.867 .0246490
1107.457 .0246473
1108.049 .0246472
1108.640 .0246443
1109.232 .0246426
1109.825 .0246414
1110.417 .0246401
1111.010 .0246430
1111.604 .0246506
1112.198 .0246607
1112.792 .0246773
1113.387 .0246957
1113.982 .0247126
1114.577 .0247307
1115.173 .0247479
1115.769 .0247602
1116.366 .0247709
1116.963 .0247835
1117.561 .0247942
1118.159 .0248086
1118.758 .0248267
1119.357 .0248440
1119.957 .0248631
1120.557 .0248835
1121.157 .0249009
1121.758 .0249190
1122.360 .0249356
1122.962 .0249499
1123.564 .0249660
1124.167 .0249860
1124.771 .0250055
1125.375 .0250262
1125.980 .0250509
1126.585 .0250747
1127.191 .0250941
1127.797 .0251121
1128.404 .0251244
1129.012 .0251339
1129.620 .0251392
1130.229 .0251395
1130.838 .0251395
1131.448 .0251399
1132.058 .0251423
1132.669 .0251515
1133.281 .0251713
1133.894 .0251992
1134.507 .0252354
1135.120 .0252801
1135.735 .0253312
1136.350 .0253818
1136.965 .0254311
1137.582 .0254771
1138.199 .0255206
1138.816 .0255642
1139.435 .0256089
1140.054 .0256600
1140.674 .0257090
1141.294 .0257585
1141.916 .0257933
1142.538 .0259800
1143.160 .0260502
1143.784 .0257745
1144.408 .0258750
1145.033 .0255961
