Measurement Sequence started on: 14-45-04-498
Integration time: 36
Scans to Average: 2 
>>>>>Begin Spectral Data<<<<<
433.946 .0617374
434.870 .0466594
435.793 .0469804
436.715 .0471270
437.635 .0446008
438.555 .0453292
439.473 .0442467
440.389 .0436997
441.305 .0431928
442.219 .0427427
443.132 .0424067
444.044 .0421007
444.954 .0418583
445.863 .0416351
446.771 .0414451
447.678 .0412636
448.584 .0410948
449.488 .0409030
450.391 .0407335
451.293 .0405597
452.194 .0404017
453.094 .0402573
453.992 .0401208
454.890 .0399991
455.786 .0399069
456.681 .0398307
457.575 .0397683
458.468 .0397165
459.360 .0396744
460.250 .0396336
461.140 .0395903
462.028 .0395372
462.915 .0394797
463.801 .0394241
464.687 .0393784
465.571 .0393204
466.454 .0392608
467.335 .0391980
468.216 .0391273
469.096 .0390494
469.975 .0389606
470.853 .0388656
471.729 .0387697
472.605 .0386819
473.479 .0386050
474.353 .0385439
475.226 .0385067
476.097 .0384904
476.968 .0384902
477.838 .0384968
478.706 .0385034
479.574 .0385043
480.441 .0385064
481.306 .0385043
482.171 .0384995
483.035 .0384944
483.898 .0384949
484.760 .0385041
485.621 .0385159
486.481 .0385269
487.340 .0385303
488.198 .0385192
489.055 .0384917
489.912 .0384377
490.767 .0383672
491.622 .0382813
492.476 .0381916
493.329 .0381018
494.180 .0380130
495.032 .0379329
495.882 .0378608
496.731 .0377987
497.580 .0377422
498.427 .0376865
499.274 .0376270
500.120 .0375596
500.965 .0374865
501.809 .0374068
502.653 .0373237
503.495 .0372402
504.337 .0371573
505.178 .0370748
506.018 .0369951
506.858 .0369113
507.696 .0368269
508.534 .0367495
509.371 .0366695
510.208 .0365963
511.043 .0365232
511.878 .0364565
512.712 .0363915
513.545 .0363254
514.377 .0362576
515.209 .0361797
516.040 .0361001
516.870 .0360068
517.699 .0359035
518.528 .0357980
519.356 .0356843
520.183 .0355641
521.010 .0354462
521.836 .0353228
522.661 .0351855
523.485 .0350359
524.309 .0348770
525.132 .0347073
525.954 .0345382
526.776 .0343711
527.597 .0342175
528.417 .0340824
529.237 .0339809
530.056 .0338936
530.874 .0338394
531.692 .0338122
532.508 .0338117
533.325 .0338243
534.140 .0338605
534.955 .0339085
535.770 .0339656
536.583 .0340270
537.397 .0340860
538.209 .0341257
539.021 .0341563
539.832 .0341603
540.643 .0341478
541.453 .0341209
542.262 .0341002
543.071 .0340721
543.879 .0340576
544.687 .0340569
545.494 .0340649
546.300 .0340780
547.106 .0340997
547.911 .0341180
548.716 .0341392
549.520 .0341568
550.323 .0341761
551.126 .0342008
551.929 .0342324
552.731 .0342637
553.532 .0342957
554.332 .0343249
555.133 .0343476
555.932 .0343554
556.731 .0343499
557.530 .0343320
558.328 .0343058
559.125 .0342769
559.922 .0342531
560.719 .0342398
561.515 .0342330
562.310 .0342345
563.105 .0342444
563.899 .0342574
564.693 .0342682
565.487 .0342759
566.280 .0342751
567.072 .0342661
567.864 .0342523
568.655 .0342320
569.446 .0342121
570.236 .0341918
571.026 .0341720
571.816 .0341506
572.605 .0341257
573.393 .0340966
574.181 .0340608
574.969 .0340218
575.756 .0339744
576.543 .0339192
577.329 .0338640
578.115 .0338085
578.900 .0337570
579.685 .0337094
580.469 .0336693
581.253 .0336337
582.036 .0336015
582.820 .0335708
583.602 .0335415
584.384 .0335126
585.166 .0334835
585.947 .0334543
586.728 .0334249
587.509 .0333938
588.289 .0333597
589.069 .0333248
589.848 .0332906
590.627 .0332548
591.405 .0332198
592.183 .0331861
592.961 .0331548
593.738 .0331263
594.515 .0331007
595.291 .0330784
596.067 .0330581
596.843 .0330399
597.618 .0330217
598.393 .0330037
599.167 .0329852
599.941 .0329650
600.715 .0329445
601.488 .0329249
602.261 .0329050
603.034 .0328849
603.806 .0328642
604.578 .0328435
605.349 .0328226
606.121 .0328022
606.891 .0327805
607.662 .0327581
608.432 .0327346
609.201 .0327099
609.971 .0326840
610.740 .0326576
611.508 .0326311
612.277 .0326056
613.045 .0325807
613.812 .0325568
614.579 .0325339
615.346 .0325127
616.113 .0324926
616.879 .0324743
617.645 .0324570
618.411 .0324404
619.176 .0324245
619.941 .0324098
620.705 .0323960
621.470 .0323837
622.233 .0323717
622.997 .0323595
623.760 .0323457
624.523 .0323292
625.286 .0323094
626.048 .0322863
626.810 .0322608
627.572 .0322332
628.333 .0322042
629.095 .0321754
629.855 .0321471
630.616 .0321200
631.376 .0320943
632.136 .0320704
632.895 .0320472
633.655 .0320240
634.414 .0320013
635.172 .0319799
635.931 .0319604
636.689 .0319437
637.447 .0319304
638.204 .0319198
638.962 .0319122
639.718 .0319059
640.475 .0318995
641.231 .0318927
641.988 .0318840
642.743 .0318728
643.499 .0318594
644.254 .0318446
645.009 .0318290
645.764 .0318141
646.518 .0318012
647.272 .0317898
648.026 .0317803
648.780 .0317716
649.533 .0317644
650.286 .0317578
651.039 .0317511
651.792 .0317437
652.544 .0317355
653.296 .0317274
654.048 .0317193
654.799 .0317106
655.550 .0317022
656.301 .0316930
657.052 .0316836
657.802 .0316722
658.552 .0316599
659.302 .0316462
660.052 .0316312
660.801 .0316148
661.550 .0315972
662.299 .0315782
663.048 .0315588
663.796 .0315394
664.544 .0315205
665.292 .0315018
666.040 .0314838
666.787 .0314661
667.534 .0314501
668.281 .0314351
669.028 .0314213
669.774 .0314071
670.521 .0313929
671.266 .0313779
672.012 .0313621
672.758 .0313458
673.503 .0313289
674.248 .0313117
674.992 .0312950
675.737 .0312784
676.481 .0312620
677.225 .0312461
677.969 .0312317
678.712 .0312184
679.455 .0312059
680.199 .0311942
680.941 .0311838
681.684 .0311751
682.426 .0311687
683.168 .0311637
683.910 .0311598
684.652 .0311565
685.393 .0311526
686.134 .0311478
686.875 .0311422
687.616 .0311349
688.356 .0311259
689.097 .0311158
689.837 .0311048
690.576 .0310924
691.316 .0310791
692.055 .0310650
692.794 .0310502
693.533 .0310344
694.272 .0310172
695.010 .0309987
695.748 .0309804
696.486 .0309620
697.224 .0309440
697.962 .0309268
698.699 .0309109
699.436 .0308960
700.173 .0308826
700.909 .0308701
701.646 .0308587
702.382 .0308476
703.118 .0308366
703.853 .0308251
704.589 .0308132
705.324 .0308010
706.059 .0307881
706.794 .0307751
707.529 .0307615
708.263 .0307477
708.997 .0307345
709.731 .0307211
710.465 .0307085
711.198 .0306959
711.931 .0306834
712.664 .0306709
713.397 .0306587
714.130 .0306459
714.862 .0306329
715.594 .0306202
716.326 .0306074
717.058 .0305944
717.789 .0305819
718.520 .0305701
719.251 .0305589
719.982 .0305482
720.713 .0305371
721.443 .0305255
722.173 .0305136
722.903 .0305005
723.633 .0304867
724.362 .0304720
725.091 .0304564
725.820 .0304401
726.549 .0304240
727.278 .0304081
728.006 .0303924
728.734 .0303778
729.462 .0303645
730.190 .0303519
730.917 .0303404
731.644 .0303286
732.371 .0303174
733.098 .0303068
733.825 .0302961
734.551 .0302846
735.277 .0302734
736.003 .0302624
736.728 .0302521
737.454 .0302427
738.179 .0302348
738.904 .0302281
739.629 .0302236
740.353 .0302200
741.077 .0302167
741.801 .0302136
742.525 .0302101
743.249 .0302051
743.972 .0301990
744.695 .0301920
745.418 .0301836
746.141 .0301741
746.863 .0301650
747.585 .0301557
748.307 .0301466
749.029 .0301377
749.750 .0301285
750.472 .0301191
751.193 .0301093
751.913 .0300983
752.634 .0300870
753.354 .0300752
754.074 .0300634
754.794 .0300513
755.514 .0300397
756.233 .0300285
756.952 .0300176
757.671 .0300073
758.390 .0299970
759.108 .0299866
759.826 .0299765
760.544 .0299659
761.262 .0299558
761.979 .0299453
762.697 .0299348
763.414 .0299246
764.130 .0299147
764.847 .0299049
765.563 .0298954
766.279 .0298862
766.995 .0298773
767.710 .0298684
768.426 .0298601
769.141 .0298525
769.855 .0298459
770.570 .0298401
771.284 .0298353
771.998 .0298311
772.712 .0298278
773.426 .0298246
774.139 .0298216
774.852 .0298186
775.565 .0298153
776.277 .0298115
776.990 .0298079
777.702 .0298046
778.414 .0298017
779.125 .0297990
779.836 .0297970
780.547 .0297945
781.258 .0297914
781.969 .0297872
782.679 .0297818
783.389 .0297748
784.099 .0297673
784.808 .0297584
785.517 .0297489
786.226 .0297391
786.935 .0297294
787.643 .0297192
788.352 .0297094
789.060 .0296991
789.767 .0296882
790.475 .0296767
791.182 .0296643
791.889 .0296506
792.595 .0296370
793.301 .0296230
794.008 .0296088
794.713 .0295945
795.419 .0295812
796.124 .0295676
796.829 .0295547
797.534 .0295427
798.238 .0295312
798.942 .0295204
799.646 .0295103
800.350 .0294998
801.053 .0294892
801.756 .0294790
802.459 .0294683
803.162 .0294578
803.864 .0294478
804.566 .0294388
805.267 .0294306
805.969 .0294235
806.670 .0294181
807.371 .0294134
808.071 .0294097
808.772 .0294065
809.472 .0294021
810.171 .0293973
810.871 .0293919
811.570 .0293861
812.269 .0293805
812.967 .0293756
813.666 .0293708
814.364 .0293662
815.061 .0293621
815.759 .0293588
816.456 .0293551
817.153 .0293523
817.849 .0293498
818.545 .0293472
819.241 .0293449
819.937 .0293425
820.632 .0293400
821.327 .0293377
822.022 .0293350
822.717 .0293317
823.411 .0293277
824.105 .0293236
824.798 .0293191
825.491 .0293141
826.184 .0293094
826.877 .0293039
827.569 .0292971
828.261 .0292888
828.953 .0292780
829.645 .0292639
830.336 .0292475
831.027 .0292287
831.717 .0292082
832.407 .0291866
833.097 .0291650
833.787 .0291435
834.476 .0291230
835.165 .0291033
835.854 .0290838
836.542 .0290645
837.230 .0290454
837.918 .0290258
838.605 .0290062
839.292 .0289875
839.979 .0289698
840.665 .0289537
841.352 .0289405
842.037 .0289288
842.723 .0289193
843.408 .0289117
844.093 .0289046
844.777 .0288977
845.462 .0288910
846.145 .0288833
846.829 .0288744
847.512 .0288650
848.195 .0288545
848.878 .0288429
849.560 .0288309
850.242 .0288181
850.923 .0288049
851.605 .0287916
852.286 .0287773
852.966 .0287621
853.646 .0287474
854.326 .0287326
855.006 .0287174
855.685 .0287033
856.364 .0286901
857.043 .0286776
857.721 .0286660
858.399 .0286555
859.077 .0286462
859.754 .0286379
860.431 .0286303
861.107 .0286227
861.784 .0286156
862.459 .0286086
863.135 .0286013
863.810 .0285945
864.485 .0285878
865.160 .0285812
865.834 .0285746
866.508 .0285686
867.181 .0285633
867.854 .0285587
868.527 .0285544
869.199 .0285502
869.872 .0285463
870.543 .0285415
871.215 .0285359
871.886 .0285301
872.557 .0285239
873.227 .0285174
873.897 .0285109
874.567 .0285051
875.236 .0284999
875.905 .0284961
876.573 .0284932
877.242 .0284904
877.909 .0284877
878.577 .0284846
879.244 .0284803
879.911 .0284749
880.577 .0284686
881.243 .0284613
881.909 .0284537
882.575 .0284462
883.240 .0284386
883.904 .0284314
884.569 .0284247
885.232 .0284180
885.896 .0284107
886.559 .0284025
887.222 .0283933
887.885 .0283826
888.547 .0283715
889.208 .0283596
889.870 .0283469
890.531 .0283337
891.192 .0283206
891.852 .0283073
892.512 .0282939
893.171 .0282802
893.830 .0282667
894.489 .0282533
895.148 .0282405
895.806 .0282276
896.464 .0282150
897.121 .0282023
897.778 .0281893
898.434 .0281749
899.091 .0281596
899.747 .0281426
900.402 .0281243
901.057 .0281049
901.712 .0280850
902.366 .0280642
903.020 .0280437
903.674 .0280233
904.327 .0280032
904.980 .0279830
905.633 .0279626
906.285 .0279418
906.936 .0279209
907.588 .0278994
908.239 .0278784
908.889 .0278578
909.540 .0278387
910.190 .0278206
910.839 .0278043
911.488 .0277893
912.137 .0277756
912.785 .0277625
913.433 .0277499
914.081 .0277376
914.728 .0277259
915.375 .0277144
916.021 .0277043
916.668 .0276951
917.313 .0276876
917.959 .0276812
918.604 .0276763
919.248 .0276719
919.892 .0276684
920.536 .0276648
921.180 .0276611
921.823 .0276572
922.465 .0276524
923.108 .0276465
923.750 .0276408
924.391 .0276348
925.032 .0276288
925.673 .0276226
926.313 .0276173
926.953 .0276116
927.593 .0276058
928.232 .0275996
928.871 .0275929
929.510 .0275859
930.148 .0275779
930.786 .0275686
931.423 .0275592
932.060 .0275497
932.697 .0275397
933.333 .0275297
933.969 .0275205
934.604 .0275112
935.239 .0275015
935.874 .0274915
936.508 .0274812
937.142 .0274706
937.776 .0274598
938.409 .0274483
939.042 .0274361
939.674 .0274239
940.306 .0274110
940.938 .0273984
941.569 .0273864
942.200 .0273742
942.830 .0273620
943.460 .0273498
944.090 .0273371
944.720 .0273239
945.349 .0273104
945.977 .0272963
946.606 .0272812
947.233 .0272652
947.861 .0272472
948.488 .0272276
949.115 .0272074
949.741 .0271865
950.367 .0271651
950.993 .0271443
951.618 .0271237
952.243 .0271037
952.868 .0270847
953.492 .0270654
954.115 .0270459
954.739 .0270265
955.362 .0270066
955.984 .0269853
956.607 .0269638
957.229 .0269432
957.850 .0269231
958.471 .0269038
959.092 .0268852
959.713 .0268670
960.333 .0268488
960.952 .0268296
961.572 .0268093
962.191 .0267884
962.809 .0267668
963.428 .0267441
964.045 .0267215
964.663 .0266999
965.280 .0266798
965.897 .0266610
966.513 .0266436
967.129 .0266279
967.745 .0266128
968.361 .0265980
968.976 .0265838
969.590 .0265697
970.205 .0265558
970.818 .0265422
971.432 .0265293
972.045 .0265165
972.658 .0265041
973.271 .0264913
973.883 .0264779
974.495 .0264637
975.106 .0264483
975.717 .0264317
976.328 .0264146
976.938 .0263974
977.548 .0263800
978.158 .0263637
978.768 .0263490
979.377 .0263351
979.985 .0263226
980.594 .0263104
981.202 .0262987
981.809 .0262869
982.417 .0262753
983.024 .0262639
983.631 .0262534
984.237 .0262443
984.843 .0262367
985.449 .0262316
986.054 .0262287
986.659 .0262279
987.264 .0262294
987.868 .0262319
988.472 .0262345
989.076 .0262370
989.679 .0262393
990.282 .0262411
990.885 .0262433
991.487 .0262455
992.090 .0262489
992.691 .0262539
993.293 .0262598
993.894 .0262661
994.495 .0262728
995.095 .0262795
995.696 .0262845
996.296 .0262881
996.895 .0262897
997.494 .0262901
998.093 .0262910
998.692 .0262923
999.291 .0262951
999.889 .0262998
1000.487 .0263064
1001.084 .0263140
1001.681 .0263220
1002.278 .0263296
1002.875 .0263367
1003.471 .0263431
1004.067 .0263494
1004.663 .0263563
1005.258 .0263638
1005.854 .0263731
1006.449 .0263839
1007.043 .0263954
1007.638 .0264069
1008.232 .0264180
1008.826 .0264285
1009.419 .0264375
1010.012 .0264461
1010.605 .0264545
1011.198 .0264633
1011.791 .0264735
1012.383 .0264842
1012.975 .0264953
1013.566 .0265062
1014.158 .0265161
1014.749 .0265234
1015.340 .0265293
1015.931 .0265330
1016.521 .0265349
1017.111 .0265360
1017.701 .0265362
1018.291 .0265355
1018.880 .0265334
1019.470 .0265298
1020.059 .0265245
1020.647 .0265173
1021.236 .0265078
1021.824 .0264960
1022.412 .0264836
1023.000 .0264704
1023.588 .0264575
1024.175 .0264462
1024.762 .0264368
1025.349 .0264286
1025.936 .0264223
1026.523 .0264175
1027.109 .0264136
1027.695 .0264110
1028.281 .0264087
1028.867 .0264068
1029.452 .0264049
1030.038 .0264027
1030.623 .0263996
1031.208 .0263970
1031.792 .0263949
1032.377 .0263926
1032.961 .0263898
1033.546 .0263865
1034.130 .0263824
1034.714 .0263776
1035.297 .0263715
1035.881 .0263640
1036.464 .0263549
1037.047 .0263455
1037.630 .0263350
1038.213 .0263247
1038.796 .0263146
1039.378 .0263059
1039.961 .0262980
1040.543 .0262909
1041.125 .0262832
1041.707 .0262760
1042.289 .0262689
1042.871 .0262619
1043.452 .0262549
1044.034 .0262481
1044.615 .0262411
1045.196 .0262340
1045.777 .0262259
1046.358 .0262170
1046.939 .0262062
1047.520 .0261945
1048.101 .0261805
1048.681 .0261658
1049.262 .0261512
1049.842 .0261368
1050.422 .0261243
1051.002 .0261148
1051.582 .0261069
1052.162 .0261007
1052.742 .0260967
1053.322 .0260929
1053.902 .0260890
1054.482 .0260848
1055.061 .0260812
1055.641 .0260780
1056.220 .0260758
1056.800 .0260749
1057.379 .0260749
1057.958 .0260773
1058.538 .0260800
1059.117 .0260814
1059.696 .0260832
1060.275 .0260839
1060.854 .0260827
1061.433 .0260813
1062.012 .0260797
1062.592 .0260776
1063.171 .0260764
1063.750 .0260755
1064.329 .0260745
1064.908 .0260731
1065.487 .0260715
1066.066 .0260694
1066.645 .0260681
1067.224 .0260671
1067.803 .0260668
1068.382 .0260687
1068.961 .0260735
1069.540 .0260794
1070.119 .0260856
1070.698 .0260912
1071.278 .0260925
1071.857 .0260908
1072.436 .0260861
1073.016 .0260787
1073.595 .0260713
1074.175 .0260641
1074.754 .0260593
1075.334 .0260572
1075.913 .0260573
1076.493 .0260587
1077.073 .0260600
1077.653 .0260605
1078.233 .0260590
1078.813 .0260556
1079.393 .0260502
1079.974 .0260450
1080.554 .0260406
1081.135 .0260372
1081.716 .0260337
1082.296 .0260305
1082.877 .0260274
1083.458 .0260230
1084.040 .0260195
1084.621 .0260134
1085.202 .0260086
1085.784 .0260046
1086.366 .0260024
1086.948 .0260018
1087.530 .0260041
1088.112 .0260096
1088.695 .0260162
1089.277 .0260249
1089.860 .0260340
1090.443 .0260419
1091.026 .0260526
1091.610 .0260646
1092.193 .0260788
1092.777 .0260949
1093.361 .0261141
1093.946 .0261341
1094.530 .0261556
1095.115 .0261743
1095.700 .0261902
1096.285 .0262021
1096.871 .0262097
1097.456 .0262109
1098.042 .0262059
1098.628 .0261979
1099.215 .0261862
1099.802 .0261737
1100.389 .0261612
1100.976 .0261493
1101.564 .0261420
1102.152 .0261375
1102.740 .0261350
1103.329 .0261338
1103.917 .0261327
1104.507 .0261318
1105.096 .0261309
1105.686 .0261302
1106.276 .0261291
1106.867 .0261307
1107.457 .0261356
1108.049 .0261436
1108.640 .0261544
1109.232 .0261681
1109.825 .0261811
1110.417 .0261942
1111.010 .0262027
1111.604 .0262030
1112.198 .0261989
1112.792 .0261917
1113.387 .0261810
1113.982 .0261710
1114.577 .0261659
1115.173 .0261669
1115.769 .0261744
1116.366 .0261908
1116.963 .0262104
1117.561 .0262317
1118.159 .0262514
1118.758 .0262646
1119.357 .0262700
1119.957 .0262704
1120.557 .0262627
1121.157 .0262534
1121.758 .0262471
1122.360 .0262452
1122.962 .0262476
1123.564 .0262592
1124.167 .0262760
1124.771 .0262942
1125.375 .0263089
1125.980 .0263171
1126.585 .0263147
1127.191 .0263048
1127.797 .0262867
1128.404 .0262671
1129.012 .0262558
1129.620 .0262565
1130.229 .0262732
1130.838 .0263075
1131.448 .0263510
1132.058 .0264007
1132.669 .0264490
1133.281 .0264897
1133.894 .0265201
1134.507 .0265420
1135.120 .0265589
1135.735 .0265757
1136.350 .0266011
1136.965 .0266364
1137.582 .0266843
1138.199 .0267466
1138.816 .0268060
1139.435 .0268672
1140.054 .0269342
1140.674 .0270033
1141.294 .0270702
1141.916 .0271492
1142.538 .0270860
1143.160 .0273922
1143.784 .0275153
1144.408 .0274486
1145.033 .0277499
