Measurement Sequence started on: 14-45-04-498
Integration time: 36
Scans to Average: 2 
>>>>>Begin Spectral Data<<<<<
433.946 .0401358
434.870 .0449162
435.793 .0399407
436.715 .0402299
437.635 .0399248
438.555 .0406991
439.473 .0406638
440.389 .0405343
441.305 .0405536
442.219 .0405280
443.132 .0404923
444.044 .0404528
444.954 .0404264
445.863 .0404252
446.771 .0404598
447.678 .0405069
448.584 .0405622
449.488 .0405891
450.391 .0405818
451.293 .0405273
452.194 .0404430
453.094 .0403308
453.992 .0402068
454.890 .0400856
455.786 .0399898
456.681 .0399155
457.575 .0398636
458.468 .0398332
459.360 .0398166
460.250 .0398004
461.140 .0397792
462.028 .0397492
462.915 .0397084
463.801 .0396590
464.687 .0396113
465.571 .0395648
466.454 .0395273
467.335 .0395039
468.216 .0394923
469.096 .0394878
469.975 .0394904
470.853 .0394887
471.729 .0394812
472.605 .0394644
473.479 .0394352
474.353 .0393926
475.226 .0393453
476.097 .0392953
476.968 .0392443
477.838 .0391971
478.706 .0391575
479.574 .0391231
480.441 .0390968
481.306 .0390770
482.171 .0390603
483.035 .0390455
483.898 .0390321
484.760 .0390182
485.621 .0390082
486.481 .0390012
487.340 .0389988
488.198 .0389980
489.055 .0390018
489.912 .0390036
490.767 .0390018
491.622 .0389981
492.476 .0389897
493.329 .0389746
494.180 .0389517
495.032 .0389228
495.882 .0388886
496.731 .0388492
497.580 .0388071
498.427 .0387621
499.274 .0387142
500.120 .0386639
500.965 .0386096
501.809 .0385540
502.653 .0384998
503.495 .0384452
504.337 .0383881
505.178 .0383292
506.018 .0382681
506.858 .0382034
507.696 .0381361
508.534 .0380699
509.371 .0380047
510.208 .0379431
511.043 .0378865
511.878 .0378320
512.712 .0377800
513.545 .0377264
514.377 .0376677
515.209 .0375989
516.040 .0375246
516.870 .0374474
517.699 .0373719
518.528 .0373045
519.356 .0372539
520.183 .0372161
521.010 .0371923
521.836 .0371801
522.661 .0371729
523.485 .0371598
524.309 .0371385
525.132 .0371054
525.954 .0370644
526.776 .0370219
527.597 .0369871
528.417 .0369559
529.237 .0369411
530.056 .0369304
530.874 .0369137
531.692 .0368866
532.508 .0368494
533.325 .0367933
534.140 .0367198
534.955 .0366396
535.770 .0365588
536.583 .0364830
537.397 .0364294
538.209 .0363907
539.021 .0363649
539.832 .0363461
540.643 .0363267
541.453 .0362971
542.262 .0362632
543.071 .0362203
543.879 .0361732
544.687 .0361334
545.494 .0361030
546.300 .0360764
547.106 .0360603
547.911 .0360565
548.716 .0360545
549.520 .0360469
550.323 .0360354
551.126 .0360122
551.929 .0359824
552.731 .0359441
553.532 .0359000
554.332 .0358565
555.133 .0358170
555.932 .0357782
556.731 .0357430
557.530 .0357111
558.328 .0356809
559.125 .0356508
559.922 .0356233
560.719 .0355966
561.515 .0355687
562.310 .0355415
563.105 .0355184
563.899 .0354986
564.693 .0354820
565.487 .0354660
566.280 .0354502
567.072 .0354326
567.864 .0354056
568.655 .0353694
569.446 .0353234
570.236 .0352693
571.026 .0352081
571.816 .0351415
572.605 .0350755
573.393 .0350127
574.181 .0349548
574.969 .0349025
575.756 .0348546
576.543 .0348100
577.329 .0347658
578.115 .0347215
578.900 .0346773
579.685 .0346338
580.469 .0345935
581.253 .0345564
582.036 .0345233
582.820 .0344944
583.602 .0344694
584.384 .0344475
585.166 .0344279
585.947 .0344087
586.728 .0343893
587.509 .0343681
588.289 .0343460
589.069 .0343220
589.848 .0342985
590.627 .0342750
591.405 .0342520
592.183 .0342303
592.961 .0342101
593.738 .0341926
594.515 .0341780
595.291 .0341651
596.067 .0341539
596.843 .0341424
597.618 .0341298
598.393 .0341148
599.167 .0340994
599.941 .0340826
600.715 .0340647
601.488 .0340465
602.261 .0340287
603.034 .0340100
603.806 .0339910
604.578 .0339710
605.349 .0339487
606.121 .0339240
606.891 .0338960
607.662 .0338645
608.432 .0338319
609.201 .0337988
609.971 .0337667
610.740 .0337361
611.508 .0337086
612.277 .0336821
613.045 .0336568
613.812 .0336328
614.579 .0336091
615.346 .0335858
616.113 .0335628
616.879 .0335404
617.645 .0335192
618.411 .0334998
619.176 .0334826
619.941 .0334670
620.705 .0334529
621.470 .0334392
622.233 .0334251
622.997 .0334103
623.760 .0333946
624.523 .0333776
625.286 .0333594
626.048 .0333402
626.810 .0333194
627.572 .0332977
628.333 .0332752
629.095 .0332524
629.855 .0332293
630.616 .0332064
631.376 .0331838
632.136 .0331614
632.895 .0331399
633.655 .0331191
634.414 .0330986
635.172 .0330786
635.931 .0330588
636.689 .0330395
637.447 .0330210
638.204 .0330034
638.962 .0329867
639.718 .0329715
640.475 .0329568
641.231 .0329422
641.988 .0329271
642.743 .0329113
643.499 .0328946
644.254 .0328766
645.009 .0328574
645.764 .0328379
646.518 .0328188
647.272 .0328008
648.026 .0327841
648.780 .0327689
649.533 .0327546
650.286 .0327409
651.039 .0327272
651.792 .0327129
652.544 .0326977
653.296 .0326821
654.048 .0326660
654.799 .0326501
655.550 .0326345
656.301 .0326197
657.052 .0326061
657.802 .0325931
658.552 .0325805
659.302 .0325676
660.052 .0325539
660.801 .0325392
661.550 .0325230
662.299 .0325055
663.048 .0324870
663.796 .0324681
664.544 .0324484
665.292 .0324279
666.040 .0324071
666.787 .0323859
667.534 .0323647
668.281 .0323436
669.028 .0323222
669.774 .0323008
670.521 .0322796
671.266 .0322585
672.012 .0322377
672.758 .0322177
673.503 .0321983
674.248 .0321796
674.992 .0321614
675.737 .0321435
676.481 .0321261
677.225 .0321095
677.969 .0320936
678.712 .0320784
679.455 .0320638
680.199 .0320495
680.941 .0320358
681.684 .0320228
682.426 .0320097
683.168 .0319967
683.910 .0319841
684.652 .0319710
685.393 .0319576
686.134 .0319440
686.875 .0319304
687.616 .0319168
688.356 .0319033
689.097 .0318896
689.837 .0318760
690.576 .0318622
691.316 .0318483
692.055 .0318340
692.794 .0318196
693.533 .0318048
694.272 .0317897
695.010 .0317744
695.748 .0317590
696.486 .0317433
697.224 .0317277
697.962 .0317121
698.699 .0316965
699.436 .0316807
700.173 .0316653
700.909 .0316503
701.646 .0316355
702.382 .0316210
703.118 .0316072
703.853 .0315937
704.589 .0315806
705.324 .0315674
706.059 .0315538
706.794 .0315397
707.529 .0315250
708.263 .0315097
708.997 .0314942
709.731 .0314784
710.465 .0314630
711.198 .0314479
711.931 .0314334
712.664 .0314192
713.397 .0314053
714.130 .0313916
714.862 .0313781
715.594 .0313651
716.326 .0313522
717.058 .0313400
717.789 .0313290
718.520 .0313189
719.251 .0313098
719.982 .0313015
720.713 .0312941
721.443 .0312870
722.173 .0312795
722.903 .0312714
723.633 .0312622
724.362 .0312519
725.091 .0312404
725.820 .0312273
726.549 .0312132
727.278 .0311980
728.006 .0311820
728.734 .0311654
729.462 .0311483
730.190 .0311311
730.917 .0311135
731.644 .0310961
732.371 .0310791
733.098 .0310623
733.825 .0310457
734.551 .0310295
735.277 .0310134
736.003 .0309978
736.728 .0309825
737.454 .0309676
738.179 .0309539
738.904 .0309413
739.629 .0309297
740.353 .0309189
741.077 .0309095
741.801 .0309011
742.525 .0308930
743.249 .0308853
743.972 .0308774
744.695 .0308694
745.418 .0308608
746.141 .0308517
746.863 .0308425
747.585 .0308330
748.307 .0308236
749.029 .0308144
749.750 .0308055
750.472 .0307968
751.193 .0307879
751.913 .0307787
752.634 .0307683
753.354 .0307566
754.074 .0307431
754.794 .0307278
755.514 .0307113
756.233 .0306938
756.952 .0306751
757.671 .0306562
758.390 .0306372
759.108 .0306181
759.826 .0305989
760.544 .0305794
761.262 .0305597
761.979 .0305394
762.697 .0305188
763.414 .0304981
764.130 .0304780
764.847 .0304590
765.563 .0304411
766.279 .0304248
766.995 .0304102
767.710 .0303967
768.426 .0303840
769.141 .0303722
769.855 .0303606
770.570 .0303490
771.284 .0303379
771.998 .0303273
772.712 .0303177
773.426 .0303089
774.139 .0303011
774.852 .0302940
775.565 .0302873
776.277 .0302806
776.990 .0302737
777.702 .0302665
778.414 .0302592
779.125 .0302514
779.836 .0302435
780.547 .0302360
781.258 .0302288
781.969 .0302222
782.679 .0302163
783.389 .0302108
784.099 .0302054
784.808 .0301997
785.517 .0301939
786.226 .0301878
786.935 .0301818
787.643 .0301761
788.352 .0301708
789.060 .0301661
789.767 .0301619
790.475 .0301579
791.182 .0301536
791.889 .0301485
792.595 .0301424
793.301 .0301349
794.008 .0301262
794.713 .0301162
795.419 .0301057
796.124 .0300952
796.829 .0300848
797.534 .0300749
798.238 .0300655
798.942 .0300566
799.646 .0300485
800.350 .0300403
801.053 .0300320
801.756 .0300233
802.459 .0300140
803.162 .0300040
803.864 .0299937
804.566 .0299833
805.267 .0299731
805.969 .0299636
806.670 .0299549
807.371 .0299469
808.071 .0299396
808.772 .0299325
809.472 .0299246
810.171 .0299153
810.871 .0299040
811.570 .0298905
812.269 .0298751
812.967 .0298580
813.666 .0298400
814.364 .0298218
815.061 .0298045
815.759 .0297882
816.456 .0297732
817.153 .0297592
817.849 .0297455
818.545 .0297316
819.241 .0297167
819.937 .0297012
820.632 .0296848
821.327 .0296685
822.022 .0296526
822.717 .0296375
823.411 .0296236
824.105 .0296107
824.798 .0295987
825.491 .0295869
826.184 .0295748
826.877 .0295620
827.569 .0295483
828.261 .0295335
828.953 .0295178
829.645 .0295022
830.336 .0294868
831.027 .0294722
831.717 .0294583
832.407 .0294453
833.097 .0294328
833.787 .0294205
834.476 .0294079
835.165 .0293951
835.854 .0293820
836.542 .0293685
837.230 .0293547
837.918 .0293409
838.605 .0293273
839.292 .0293146
839.979 .0293019
840.665 .0292898
841.352 .0292774
842.037 .0292651
842.723 .0292519
843.408 .0292380
844.093 .0292233
844.777 .0292081
845.462 .0291922
846.145 .0291763
846.829 .0291599
847.512 .0291443
848.195 .0291290
848.878 .0291144
849.560 .0291002
850.242 .0290865
850.923 .0290728
851.605 .0290596
852.286 .0290465
852.966 .0290337
853.646 .0290210
854.326 .0290091
855.006 .0289973
855.685 .0289854
856.364 .0289737
857.043 .0289620
857.721 .0289500
858.399 .0289380
859.077 .0289255
859.754 .0289130
860.431 .0289005
861.107 .0288884
861.784 .0288762
862.459 .0288646
863.135 .0288532
863.810 .0288419
864.485 .0288302
865.160 .0288182
865.834 .0288060
866.508 .0287934
867.181 .0287804
867.854 .0287670
868.527 .0287536
869.199 .0287402
869.872 .0287264
870.543 .0287124
871.215 .0286981
871.886 .0286839
872.557 .0286691
873.227 .0286540
873.897 .0286388
874.567 .0286238
875.236 .0286090
875.905 .0285946
876.573 .0285808
877.242 .0285675
877.909 .0285549
878.577 .0285433
879.244 .0285323
879.911 .0285219
880.577 .0285121
881.243 .0285028
881.909 .0284939
882.575 .0284849
883.240 .0284756
883.904 .0284664
884.569 .0284571
885.232 .0284474
885.896 .0284373
886.559 .0284267
887.222 .0284165
887.885 .0284059
888.547 .0283953
889.208 .0283851
889.870 .0283754
890.531 .0283664
891.192 .0283579
891.852 .0283501
892.512 .0283432
893.171 .0283372
893.830 .0283321
894.489 .0283277
895.148 .0283239
895.806 .0283206
896.464 .0283176
897.121 .0283147
897.778 .0283117
898.434 .0283081
899.091 .0283041
899.747 .0282997
900.402 .0282945
901.057 .0282887
901.712 .0282818
902.366 .0282739
903.020 .0282651
903.674 .0282549
904.327 .0282436
904.980 .0282312
905.633 .0282180
906.285 .0282038
906.936 .0281891
907.588 .0281740
908.239 .0281590
908.889 .0281443
909.540 .0281297
910.190 .0281154
910.839 .0281011
911.488 .0280867
912.137 .0280721
912.785 .0280573
913.433 .0280426
914.081 .0280275
914.728 .0280132
915.375 .0279993
916.021 .0279863
916.668 .0279743
917.313 .0279633
917.959 .0279535
918.604 .0279437
919.248 .0279338
919.892 .0279234
920.536 .0279122
921.180 .0279000
921.823 .0278870
922.465 .0278728
923.108 .0278575
923.750 .0278416
924.391 .0278246
925.032 .0278074
925.673 .0277901
926.313 .0277729
926.953 .0277556
927.593 .0277382
928.232 .0277199
928.871 .0277007
929.510 .0276810
930.148 .0276601
930.786 .0276382
931.423 .0276160
932.060 .0275939
932.697 .0275726
933.333 .0275524
933.969 .0275336
934.604 .0275159
935.239 .0274993
935.874 .0274826
936.508 .0274650
937.142 .0274468
937.776 .0274276
938.409 .0274076
939.042 .0273876
939.674 .0273671
940.306 .0273470
940.938 .0273280
941.569 .0273096
942.200 .0272918
942.830 .0272747
943.460 .0272574
944.090 .0272398
944.720 .0272221
945.349 .0272045
945.977 .0271867
946.606 .0271695
947.233 .0271527
947.861 .0271354
948.488 .0271178
949.115 .0270993
949.741 .0270801
950.367 .0270608
950.993 .0270411
951.618 .0270213
952.243 .0270020
952.868 .0269833
953.492 .0269651
954.115 .0269473
954.739 .0269300
955.362 .0269129
955.984 .0268954
956.607 .0268780
957.229 .0268610
957.850 .0268448
958.471 .0268298
959.092 .0268162
959.713 .0268040
960.333 .0267926
960.952 .0267812
961.572 .0267697
962.191 .0267577
962.809 .0267449
963.428 .0267313
964.045 .0267170
964.663 .0267024
965.280 .0266884
965.897 .0266749
966.513 .0266626
967.129 .0266515
967.745 .0266411
968.361 .0266308
968.976 .0266204
969.590 .0266099
970.205 .0265994
970.818 .0265893
971.432 .0265805
972.045 .0265731
972.658 .0265678
973.271 .0265639
973.883 .0265611
974.495 .0265587
975.106 .0265562
975.717 .0265525
976.328 .0265475
976.938 .0265410
977.548 .0265339
978.158 .0265263
978.768 .0265194
979.377 .0265131
979.985 .0265070
980.594 .0265010
981.202 .0264948
981.809 .0264871
982.417 .0264787
983.024 .0264691
983.631 .0264593
984.237 .0264496
984.843 .0264405
985.449 .0264320
986.054 .0264246
986.659 .0264183
987.264 .0264125
987.868 .0264068
988.472 .0264014
989.076 .0263959
989.679 .0263909
990.282 .0263865
990.885 .0263831
991.487 .0263808
992.090 .0263797
992.691 .0263792
993.293 .0263794
993.894 .0263799
994.495 .0263807
995.095 .0263814
995.696 .0263817
996.296 .0263812
996.895 .0263802
997.494 .0263783
998.093 .0263755
998.692 .0263722
999.291 .0263682
999.889 .0263633
1000.487 .0263576
1001.084 .0263511
1001.681 .0263436
1002.278 .0263356
1002.875 .0263273
1003.471 .0263186
1004.067 .0263098
1004.663 .0263019
1005.258 .0262942
1005.854 .0262873
1006.449 .0262813
1007.043 .0262755
1007.638 .0262698
1008.232 .0262645
1008.826 .0262590
1009.419 .0262536
1010.012 .0262487
1010.605 .0262442
1011.198 .0262404
1011.791 .0262373
1012.383 .0262351
1012.975 .0262328
1013.566 .0262309
1014.158 .0262286
1014.749 .0262258
1015.340 .0262231
1015.931 .0262202
1016.521 .0262178
1017.111 .0262163
1017.701 .0262156
1018.291 .0262156
1018.880 .0262154
1019.470 .0262157
1020.059 .0262162
1020.647 .0262169
1021.236 .0262172
1021.824 .0262179
1022.412 .0262198
1023.000 .0262226
1023.588 .0262259
1024.175 .0262298
1024.762 .0262331
1025.349 .0262357
1025.936 .0262361
1026.523 .0262342
1027.109 .0262306
1027.695 .0262258
1028.281 .0262200
1028.867 .0262149
1029.452 .0262104
1030.038 .0262068
1030.623 .0262043
1031.208 .0262034
1031.792 .0262029
1032.377 .0262025
1032.961 .0262014
1033.546 .0261998
1034.130 .0261982
1034.714 .0261960
1035.297 .0261938
1035.881 .0261925
1036.464 .0261924
1037.047 .0261933
1037.630 .0261945
1038.213 .0261971
1038.796 .0262003
1039.378 .0262038
1039.961 .0262066
1040.543 .0262081
1041.125 .0262081
1041.707 .0262063
1042.289 .0262025
1042.871 .0261976
1043.452 .0261924
1044.034 .0261874
1044.615 .0261832
1045.196 .0261801
1045.777 .0261789
1046.358 .0261795
1046.939 .0261816
1047.520 .0261852
1048.101 .0261885
1048.681 .0261912
1049.262 .0261935
1049.842 .0261953
1050.422 .0261966
1051.002 .0261968
1051.582 .0261962
1052.162 .0261945
1052.742 .0261921
1053.322 .0261885
1053.902 .0261837
1054.482 .0261788
1055.061 .0261738
1055.641 .0261687
1056.220 .0261634
1056.800 .0261584
1057.379 .0261534
1057.958 .0261479
1058.538 .0261407
1059.117 .0261308
1059.696 .0261186
1060.275 .0261042
1060.854 .0260881
1061.433 .0260714
1062.012 .0260553
1062.592 .0260408
1063.171 .0260279
1063.750 .0260168
1064.329 .0260068
1064.908 .0259981
1065.487 .0259888
1066.066 .0259792
1066.645 .0259692
1067.224 .0259596
1067.803 .0259506
1068.382 .0259428
1068.961 .0259375
1069.540 .0259347
1070.119 .0259342
1070.698 .0259363
1071.278 .0259399
1071.857 .0259455
1072.436 .0259508
1073.016 .0259559
1073.595 .0259593
1074.175 .0259612
1074.754 .0259604
1075.334 .0259580
1075.913 .0259544
1076.493 .0259493
1077.073 .0259426
1077.653 .0259354
1078.233 .0259294
1078.813 .0259242
1079.393 .0259173
1079.974 .0259110
1080.554 .0259046
1081.135 .0258977
1081.716 .0258891
1082.296 .0258805
1082.877 .0258725
1083.458 .0258654
1084.040 .0258588
1084.621 .0258526
1085.202 .0258474
1085.784 .0258456
1086.366 .0258461
1086.948 .0258492
1087.530 .0258558
1088.112 .0258651
1088.695 .0258752
1089.277 .0258886
1089.860 .0259027
1090.443 .0259166
1091.026 .0259305
1091.610 .0259438
1092.193 .0259559
1092.777 .0259660
1093.361 .0259761
1093.946 .0259837
1094.530 .0259893
1095.115 .0259929
1095.700 .0259915
1096.285 .0259857
1096.871 .0259770
1097.456 .0259649
1098.042 .0259505
1098.628 .0259339
1099.215 .0259166
1099.802 .0258987
1100.389 .0258826
1100.976 .0258667
1101.564 .0258528
1102.152 .0258398
1102.740 .0258302
1103.329 .0258212
1103.917 .0258176
1104.507 .0258183
1105.096 .0258236
1105.686 .0258320
1106.276 .0258429
1106.867 .0258545
1107.457 .0258657
1108.049 .0258748
1108.640 .0258849
1109.232 .0258944
1109.825 .0259042
1110.417 .0259126
1111.010 .0259232
1111.604 .0259331
1112.198 .0259424
1112.792 .0259496
1113.387 .0259546
1113.982 .0259562
1114.577 .0259583
1115.173 .0259600
1115.769 .0259648
1116.366 .0259741
1116.963 .0259872
1117.561 .0260043
1118.159 .0260230
1118.758 .0260412
1119.357 .0260568
1119.957 .0260701
1120.557 .0260800
1121.157 .0260846
1121.758 .0260893
1122.360 .0260954
1122.962 .0261025
1123.564 .0261146
1124.167 .0261335
1124.771 .0261588
1125.375 .0261880
1125.980 .0262186
1126.585 .0262494
1127.191 .0262789
1127.797 .0263049
1128.404 .0263287
1129.012 .0263516
1129.620 .0263795
1130.229 .0264113
1130.838 .0264502
1131.448 .0264981
1132.058 .0265544
1132.669 .0266176
1133.281 .0266864
1133.894 .0267581
1134.507 .0268271
1135.120 .0268904
1135.735 .0269484
1136.350 .0269983
1136.965 .0270419
1137.582 .0270797
1138.199 .0271169
1138.816 .0271520
1139.435 .0271860
1140.054 .0272210
1140.674 .0272526
1141.294 .0272804
1141.916 .0272984
1142.538 .0273252
1143.160 .0274162
1143.784 .0272890
1144.408 .0272614
1145.033 .0271992
