Measurement Sequence started on: 14-45-04-498
Integration time: 36
Scans to Average: 2 
>>>>>Begin Spectral Data<<<<<
433.946 .0488378
434.870 .0509843
435.793 .0504742
436.715 .0507497
437.635 .0498124
438.555 .0499070
439.473 .0497931
440.389 .0496031
441.305 .0494181
442.219 .0492181
443.132 .0490355
444.044 .0488555
444.954 .0486745
445.863 .0485068
446.771 .0483720
447.678 .0482484
448.584 .0481403
449.488 .0480465
450.391 .0479499
451.293 .0478617
452.194 .0477783
453.094 .0477009
453.992 .0476266
454.890 .0475610
455.786 .0474970
456.681 .0474296
457.575 .0473569
458.468 .0472723
459.360 .0471859
460.250 .0470952
461.140 .0469957
462.028 .0468956
462.915 .0467939
463.801 .0466915
464.687 .0465807
465.571 .0464696
466.454 .0463516
467.335 .0462349
468.216 .0461207
469.096 .0460120
469.975 .0459163
470.853 .0458370
471.729 .0457728
472.605 .0457232
473.479 .0456806
474.353 .0456394
475.226 .0455965
476.097 .0455523
476.968 .0455031
477.838 .0454499
478.706 .0453971
479.574 .0453482
480.441 .0453056
481.306 .0452697
482.171 .0452375
483.035 .0452061
483.898 .0451729
484.760 .0451306
485.621 .0450791
486.481 .0450210
487.340 .0449605
488.198 .0449030
489.055 .0448489
489.912 .0447982
490.767 .0447547
491.622 .0447159
492.476 .0446824
493.329 .0446501
494.180 .0446181
495.032 .0445854
495.882 .0445534
496.731 .0445210
497.580 .0444926
498.427 .0444672
499.274 .0444440
500.120 .0444188
500.965 .0443891
501.809 .0443531
502.653 .0443060
503.495 .0442504
504.337 .0441866
505.178 .0441137
506.018 .0440371
506.858 .0439516
507.696 .0438642
508.534 .0437774
509.371 .0436890
510.208 .0436012
511.043 .0435173
511.878 .0434380
512.712 .0433625
513.545 .0432958
514.377 .0432417
515.209 .0431942
516.040 .0431575
516.870 .0431270
517.699 .0431059
518.528 .0430977
519.356 .0430984
520.183 .0431042
521.010 .0431227
521.836 .0431455
522.661 .0431671
523.485 .0431838
524.309 .0431962
525.132 .0431967
525.954 .0431869
526.776 .0431677
527.597 .0431410
528.417 .0431098
529.237 .0430782
530.056 .0430341
530.874 .0429900
531.692 .0429380
532.508 .0428781
533.325 .0428140
534.140 .0427439
534.955 .0426664
535.770 .0425850
536.583 .0425056
537.397 .0424301
538.209 .0423537
539.021 .0422772
539.832 .0421911
540.643 .0421019
541.453 .0420096
542.262 .0419120
543.071 .0418177
543.879 .0417272
544.687 .0416409
545.494 .0415625
546.300 .0414904
547.106 .0414235
547.911 .0413651
548.716 .0413141
549.520 .0412664
550.323 .0412229
551.126 .0411876
551.929 .0411629
552.731 .0411459
553.532 .0411345
554.332 .0411267
555.133 .0411191
555.932 .0411122
556.731 .0411045
557.530 .0411003
558.328 .0411045
559.125 .0411156
559.922 .0411329
560.719 .0411516
561.515 .0411726
562.310 .0411880
563.105 .0411959
563.899 .0411950
564.693 .0411806
565.487 .0411519
566.280 .0411111
567.072 .0410623
567.864 .0410095
568.655 .0409565
569.446 .0409043
570.236 .0408532
571.026 .0408065
571.816 .0407613
572.605 .0407185
573.393 .0406795
574.181 .0406445
574.969 .0406104
575.756 .0405786
576.543 .0405466
577.329 .0405121
578.115 .0404785
578.900 .0404440
579.685 .0404064
580.469 .0403673
581.253 .0403284
582.036 .0402875
582.820 .0402470
583.602 .0402078
584.384 .0401681
585.166 .0401284
585.947 .0400881
586.728 .0400464
587.509 .0400047
588.289 .0399648
589.069 .0399270
589.848 .0398913
590.627 .0398592
591.405 .0398286
592.183 .0397995
592.961 .0397720
593.738 .0397445
594.515 .0397153
595.291 .0396845
596.067 .0396517
596.843 .0396156
597.618 .0395782
598.393 .0395399
599.167 .0395018
599.941 .0394649
600.715 .0394294
601.488 .0393953
602.261 .0393635
603.034 .0393339
603.806 .0393053
604.578 .0392773
605.349 .0392504
606.121 .0392237
606.891 .0391983
607.662 .0391736
608.432 .0391508
609.201 .0391292
609.971 .0391095
610.740 .0390906
611.508 .0390721
612.277 .0390530
613.045 .0390328
613.812 .0390109
614.579 .0389867
615.346 .0389603
616.113 .0389329
616.879 .0389041
617.645 .0388758
618.411 .0388475
619.176 .0388200
619.941 .0387928
620.705 .0387664
621.470 .0387399
622.233 .0387129
622.997 .0386858
623.760 .0386582
624.523 .0386300
625.286 .0386020
626.048 .0385732
626.810 .0385440
627.572 .0385141
628.333 .0384837
629.095 .0384518
629.855 .0384197
630.616 .0383871
631.376 .0383545
632.136 .0383224
632.895 .0382911
633.655 .0382610
634.414 .0382324
635.172 .0382047
635.931 .0381784
636.689 .0381536
637.447 .0381308
638.204 .0381098
638.962 .0380906
639.718 .0380730
640.475 .0380570
641.231 .0380413
641.988 .0380251
642.743 .0380086
643.499 .0379912
644.254 .0379721
645.009 .0379521
645.764 .0379311
646.518 .0379098
647.272 .0378891
648.026 .0378691
648.780 .0378493
649.533 .0378291
650.286 .0378077
651.039 .0377847
651.792 .0377601
652.544 .0377346
653.296 .0377078
654.048 .0376813
654.799 .0376558
655.550 .0376314
656.301 .0376087
657.052 .0375881
657.802 .0375693
658.552 .0375518
659.302 .0375340
660.052 .0375159
660.801 .0374971
661.550 .0374777
662.299 .0374581
663.048 .0374381
663.796 .0374185
664.544 .0373993
665.292 .0373798
666.040 .0373603
666.787 .0373406
667.534 .0373211
668.281 .0373010
669.028 .0372804
669.774 .0372592
670.521 .0372373
671.266 .0372150
672.012 .0371932
672.758 .0371713
673.503 .0371500
674.248 .0371292
674.992 .0371092
675.737 .0370897
676.481 .0370712
677.225 .0370532
677.969 .0370366
678.712 .0370210
679.455 .0370065
680.199 .0369922
680.941 .0369785
681.684 .0369647
682.426 .0369504
683.168 .0369352
683.910 .0369192
684.652 .0369022
685.393 .0368845
686.134 .0368664
686.875 .0368480
687.616 .0368300
688.356 .0368128
689.097 .0367963
689.837 .0367801
690.576 .0367642
691.316 .0367485
692.055 .0367330
692.794 .0367177
693.533 .0367031
694.272 .0366892
695.010 .0366766
695.748 .0366647
696.486 .0366531
697.224 .0366420
697.962 .0366310
698.699 .0366195
699.436 .0366073
700.173 .0365937
700.909 .0365791
701.646 .0365633
702.382 .0365471
703.118 .0365307
703.853 .0365138
704.589 .0364967
705.324 .0364793
706.059 .0364613
706.794 .0364422
707.529 .0364228
708.263 .0364032
708.997 .0363836
709.731 .0363639
710.465 .0363446
711.198 .0363257
711.931 .0363076
712.664 .0362898
713.397 .0362718
714.130 .0362539
714.862 .0362358
715.594 .0362174
716.326 .0361990
717.058 .0361806
717.789 .0361623
718.520 .0361435
719.251 .0361240
719.982 .0361032
720.713 .0360811
721.443 .0360580
722.173 .0360341
722.903 .0360094
723.633 .0359846
724.362 .0359600
725.091 .0359357
725.820 .0359121
726.549 .0358887
727.278 .0358654
728.006 .0358419
728.734 .0358181
729.462 .0357941
730.190 .0357706
730.917 .0357483
731.644 .0357278
732.371 .0357095
733.098 .0356939
733.825 .0356802
734.551 .0356685
735.277 .0356577
736.003 .0356470
736.728 .0356359
737.454 .0356245
738.179 .0356123
738.904 .0355997
739.629 .0355869
740.353 .0355743
741.077 .0355619
741.801 .0355503
742.525 .0355386
743.249 .0355270
743.972 .0355154
744.695 .0355038
745.418 .0354913
746.141 .0354782
746.863 .0354644
747.585 .0354499
748.307 .0354348
749.029 .0354189
749.750 .0354022
750.472 .0353854
751.193 .0353686
751.913 .0353516
752.634 .0353346
753.354 .0353174
754.074 .0352998
754.794 .0352824
755.514 .0352645
756.233 .0352463
756.952 .0352285
757.671 .0352116
758.390 .0351959
759.108 .0351812
759.826 .0351681
760.544 .0351558
761.262 .0351447
761.979 .0351342
762.697 .0351236
763.414 .0351134
764.130 .0351037
764.847 .0350943
765.563 .0350860
766.279 .0350784
766.995 .0350714
767.710 .0350648
768.426 .0350581
769.141 .0350503
769.855 .0350407
770.570 .0350296
771.284 .0350169
771.998 .0350029
772.712 .0349884
773.426 .0349740
774.139 .0349598
774.852 .0349461
775.565 .0349325
776.277 .0349187
776.990 .0349044
777.702 .0348887
778.414 .0348720
779.125 .0348543
779.836 .0348355
780.547 .0348161
781.258 .0347966
781.969 .0347781
782.679 .0347602
783.389 .0347431
784.099 .0347265
784.808 .0347108
785.517 .0346954
786.226 .0346800
786.935 .0346647
787.643 .0346492
788.352 .0346338
789.060 .0346183
789.767 .0346031
790.475 .0345880
791.182 .0345732
791.889 .0345590
792.595 .0345449
793.301 .0345308
794.008 .0345162
794.713 .0345008
795.419 .0344851
796.124 .0344681
796.829 .0344502
797.534 .0344317
798.238 .0344131
798.942 .0343944
799.646 .0343758
800.350 .0343574
801.053 .0343397
801.756 .0343223
802.459 .0343051
803.162 .0342877
803.864 .0342700
804.566 .0342524
805.267 .0342343
805.969 .0342160
806.670 .0341982
807.371 .0341807
808.071 .0341641
808.772 .0341482
809.472 .0341330
810.171 .0341187
810.871 .0341052
811.570 .0340924
812.269 .0340798
812.967 .0340672
813.666 .0340544
814.364 .0340412
815.061 .0340283
815.759 .0340159
816.456 .0340038
817.153 .0339924
817.849 .0339813
818.545 .0339706
819.241 .0339597
819.937 .0339491
820.632 .0339383
821.327 .0339269
822.022 .0339146
822.717 .0339015
823.411 .0338876
824.105 .0338737
824.798 .0338595
825.491 .0338456
826.184 .0338318
826.877 .0338181
827.569 .0338040
828.261 .0337897
828.953 .0337748
829.645 .0337592
830.336 .0337421
831.027 .0337244
831.717 .0337060
832.407 .0336879
833.097 .0336702
833.787 .0336536
834.476 .0336386
835.165 .0336252
835.854 .0336134
836.542 .0336029
837.230 .0335930
837.918 .0335840
838.605 .0335752
839.292 .0335671
839.979 .0335592
840.665 .0335524
841.352 .0335468
842.037 .0335425
842.723 .0335392
843.408 .0335363
844.093 .0335331
844.777 .0335296
845.462 .0335246
846.145 .0335178
846.829 .0335090
847.512 .0334989
848.195 .0334875
848.878 .0334755
849.560 .0334625
850.242 .0334489
850.923 .0334343
851.605 .0334183
852.286 .0334005
852.966 .0333808
853.646 .0333599
854.326 .0333379
855.006 .0333159
855.685 .0332939
856.364 .0332719
857.043 .0332509
857.721 .0332302
858.399 .0332097
859.077 .0331885
859.754 .0331662
860.431 .0331431
861.107 .0331192
861.784 .0330950
862.459 .0330711
863.135 .0330485
863.810 .0330273
864.485 .0330070
865.160 .0329880
865.834 .0329699
866.508 .0329524
867.181 .0329353
867.854 .0329186
868.527 .0329021
869.199 .0328862
869.872 .0328707
870.543 .0328560
871.215 .0328419
871.886 .0328280
872.557 .0328134
873.227 .0327982
873.897 .0327820
874.567 .0327647
875.236 .0327466
875.905 .0327281
876.573 .0327094
877.242 .0326901
877.909 .0326703
878.577 .0326500
879.244 .0326289
879.911 .0326074
880.577 .0325857
881.243 .0325640
881.909 .0325423
882.575 .0325216
883.240 .0325017
883.904 .0324833
884.569 .0324662
885.232 .0324502
885.896 .0324350
886.559 .0324207
887.222 .0324065
887.885 .0323928
888.547 .0323799
889.208 .0323675
889.870 .0323551
890.531 .0323434
891.192 .0323316
891.852 .0323198
892.512 .0323079
893.171 .0322966
893.830 .0322856
894.489 .0322749
895.148 .0322644
895.806 .0322542
896.464 .0322444
897.121 .0322350
897.778 .0322254
898.434 .0322162
899.091 .0322069
899.747 .0321977
900.402 .0321883
901.057 .0321793
901.712 .0321702
902.366 .0321607
903.020 .0321507
903.674 .0321402
904.327 .0321287
904.980 .0321167
905.633 .0321050
906.285 .0320941
906.936 .0320837
907.588 .0320743
908.239 .0320656
908.889 .0320579
909.540 .0320510
910.190 .0320439
910.839 .0320364
911.488 .0320291
912.137 .0320214
912.785 .0320132
913.433 .0320048
914.081 .0319966
914.728 .0319883
915.375 .0319796
916.021 .0319703
916.668 .0319601
917.313 .0319493
917.959 .0319376
918.604 .0319249
919.248 .0319116
919.892 .0318979
920.536 .0318840
921.180 .0318704
921.823 .0318574
922.465 .0318446
923.108 .0318323
923.750 .0318204
924.391 .0318084
925.032 .0317954
925.673 .0317817
926.313 .0317669
926.953 .0317511
927.593 .0317337
928.232 .0317151
928.871 .0316954
929.510 .0316751
930.148 .0316535
930.786 .0316310
931.423 .0316081
932.060 .0315845
932.697 .0315599
933.333 .0315348
933.969 .0315088
934.604 .0314826
935.239 .0314561
935.874 .0314301
936.508 .0314049
937.142 .0313811
937.776 .0313586
938.409 .0313378
939.042 .0313185
939.674 .0313003
940.306 .0312826
940.938 .0312659
941.569 .0312492
942.200 .0312320
942.830 .0312144
943.460 .0311964
944.090 .0311784
944.720 .0311601
945.349 .0311420
945.977 .0311244
946.606 .0311073
947.233 .0310904
947.861 .0310727
948.488 .0310542
949.115 .0310348
949.741 .0310138
950.367 .0309914
950.993 .0309678
951.618 .0309437
952.243 .0309194
952.868 .0308955
953.492 .0308723
954.115 .0308496
954.739 .0308277
955.362 .0308062
955.984 .0307847
956.607 .0307636
957.229 .0307428
957.850 .0307229
958.471 .0307039
959.092 .0306859
959.713 .0306683
960.333 .0306510
960.952 .0306345
961.572 .0306181
962.191 .0306013
962.809 .0305843
963.428 .0305672
964.045 .0305498
964.663 .0305323
965.280 .0305146
965.897 .0304973
966.513 .0304808
967.129 .0304647
967.745 .0304490
968.361 .0304338
968.976 .0304197
969.590 .0304060
970.205 .0303926
970.818 .0303799
971.432 .0303670
972.045 .0303542
972.658 .0303414
973.271 .0303281
973.883 .0303142
974.495 .0302995
975.106 .0302841
975.717 .0302680
976.328 .0302519
976.938 .0302357
977.548 .0302197
978.158 .0302042
978.768 .0301888
979.377 .0301733
979.985 .0301577
980.594 .0301426
981.202 .0301278
981.809 .0301136
982.417 .0301007
983.024 .0300899
983.631 .0300813
984.237 .0300751
984.843 .0300709
985.449 .0300676
986.054 .0300645
986.659 .0300606
987.264 .0300555
987.868 .0300493
988.472 .0300421
989.076 .0300344
989.679 .0300264
990.282 .0300189
990.885 .0300116
991.487 .0300047
992.090 .0299980
992.691 .0299910
993.293 .0299830
993.894 .0299738
994.495 .0299636
995.095 .0299530
995.696 .0299427
996.296 .0299330
996.895 .0299248
997.494 .0299182
998.093 .0299129
998.692 .0299088
999.291 .0299062
999.889 .0299044
1000.487 .0299032
1001.084 .0299023
1001.681 .0299011
1002.278 .0298994
1002.875 .0298980
1003.471 .0298965
1004.067 .0298951
1004.663 .0298940
1005.258 .0298935
1005.854 .0298932
1006.449 .0298935
1007.043 .0298931
1007.638 .0298919
1008.232 .0298902
1008.826 .0298876
1009.419 .0298833
1010.012 .0298784
1010.605 .0298738
1011.198 .0298698
1011.791 .0298666
1012.383 .0298653
1012.975 .0298653
1013.566 .0298662
1014.158 .0298679
1014.749 .0298694
1015.340 .0298704
1015.931 .0298709
1016.521 .0298709
1017.111 .0298709
1017.701 .0298718
1018.291 .0298735
1018.880 .0298762
1019.470 .0298803
1020.059 .0298852
1020.647 .0298891
1021.236 .0298921
1021.824 .0298941
1022.412 .0298945
1023.000 .0298936
1023.588 .0298923
1024.175 .0298918
1024.762 .0298930
1025.349 .0298952
1025.936 .0298989
1026.523 .0299033
1027.109 .0299084
1027.695 .0299128
1028.281 .0299159
1028.867 .0299181
1029.452 .0299191
1030.038 .0299190
1030.623 .0299186
1031.208 .0299184
1031.792 .0299190
1032.377 .0299201
1032.961 .0299214
1033.546 .0299228
1034.130 .0299233
1034.714 .0299229
1035.297 .0299212
1035.881 .0299179
1036.464 .0299130
1037.047 .0299070
1037.630 .0298997
1038.213 .0298925
1038.796 .0298847
1039.378 .0298774
1039.961 .0298710
1040.543 .0298655
1041.125 .0298599
1041.707 .0298540
1042.289 .0298472
1042.871 .0298392
1043.452 .0298292
1044.034 .0298176
1044.615 .0298041
1045.196 .0297907
1045.777 .0297778
1046.358 .0297665
1046.939 .0297575
1047.520 .0297503
1048.101 .0297440
1048.681 .0297383
1049.262 .0297314
1049.842 .0297226
1050.422 .0297113
1051.002 .0296986
1051.582 .0296840
1052.162 .0296689
1052.742 .0296547
1053.322 .0296418
1053.902 .0296308
1054.482 .0296213
1055.061 .0296129
1055.641 .0296051
1056.220 .0295972
1056.800 .0295891
1057.379 .0295811
1057.958 .0295732
1058.538 .0295653
1059.117 .0295576
1059.696 .0295496
1060.275 .0295415
1060.854 .0295325
1061.433 .0295226
1062.012 .0295130
1062.592 .0295036
1063.171 .0294950
1063.750 .0294868
1064.329 .0294796
1064.908 .0294728
1065.487 .0294642
1066.066 .0294544
1066.645 .0294414
1067.224 .0294249
1067.803 .0294062
1068.382 .0293857
1068.961 .0293651
1069.540 .0293458
1070.119 .0293290
1070.698 .0293143
1071.278 .0293005
1071.857 .0292878
1072.436 .0292739
1073.016 .0292586
1073.595 .0292416
1074.175 .0292235
1074.754 .0292049
1075.334 .0291876
1075.913 .0291718
1076.493 .0291590
1077.073 .0291494
1077.653 .0291420
1078.233 .0291366
1078.813 .0291323
1079.393 .0291299
1079.974 .0291285
1080.554 .0291281
1081.135 .0291306
1081.716 .0291343
1082.296 .0291406
1082.877 .0291485
1083.458 .0291570
1084.040 .0291647
1084.621 .0291704
1085.202 .0291743
1085.784 .0291745
1086.366 .0291728
1086.948 .0291688
1087.530 .0291632
1088.112 .0291563
1088.695 .0291473
1089.277 .0291363
1089.860 .0291240
1090.443 .0291107
1091.026 .0290955
1091.610 .0290787
1092.193 .0290615
1092.777 .0290444
1093.361 .0290288
1093.946 .0290144
1094.530 .0290016
1095.115 .0289911
1095.700 .0289827
1096.285 .0289745
1096.871 .0289671
1097.456 .0289613
1098.042 .0289572
1098.628 .0289543
1099.215 .0289515
1099.802 .0289490
1100.389 .0289458
1100.976 .0289435
1101.564 .0289407
1102.152 .0289382
1102.740 .0289370
1103.329 .0289369
1103.917 .0289384
1104.507 .0289420
1105.096 .0289474
1105.686 .0289559
1106.276 .0289643
1106.867 .0289739
1107.457 .0289833
1108.049 .0289922
1108.640 .0290021
1109.232 .0290134
1109.825 .0290251
1110.417 .0290388
1111.010 .0290528
1111.604 .0290677
1112.198 .0290804
1112.792 .0290925
1113.387 .0291032
1113.982 .0291120
1114.577 .0291223
1115.173 .0291338
1115.769 .0291474
1116.366 .0291660
1116.963 .0291880
1117.561 .0292098
1118.159 .0292292
1118.758 .0292464
1119.357 .0292595
1119.957 .0292674
1120.557 .0292748
1121.157 .0292820
1121.758 .0292932
1122.360 .0293118
1122.962 .0293358
1123.564 .0293660
1124.167 .0294037
1124.771 .0294434
1125.375 .0294839
1125.980 .0295254
1126.585 .0295677
1127.191 .0296095
1127.797 .0296570
1128.404 .0297110
1129.012 .0297704
1129.620 .0298385
1130.229 .0299160
1130.838 .0299979
1131.448 .0300855
1132.058 .0301743
1132.669 .0302630
1133.281 .0303480
1133.894 .0304291
1134.507 .0305033
1135.120 .0305734
1135.735 .0306397
1136.350 .0307003
1136.965 .0307570
1137.582 .0308135
1138.199 .0308672
1138.816 .0309193
1139.435 .0309718
1140.054 .0310262
1140.674 .0310842
1141.294 .0311413
1141.916 .0311934
1142.538 .0312579
1143.160 .0313150
1143.784 .0314576
1144.408 .0314104
1145.033 .0313209
