Measurement Sequence started on: 14-45-04-498
Integration time: 36
Scans to Average: 2 
>>>>>Begin Spectral Data<<<<<
433.946 .0530174
434.870 .0493970
435.793 .0452633
436.715 .0444241
437.635 .0449953
438.555 .0448737
439.473 .0442755
440.389 .0439032
441.305 .0436936
442.219 .0435135
443.132 .0433298
444.044 .0431752
444.954 .0430249
445.863 .0429027
446.771 .0427708
447.678 .0426354
448.584 .0425052
449.488 .0423799
450.391 .0422473
451.293 .0421111
452.194 .0419615
453.094 .0417983
453.992 .0416152
454.890 .0414116
455.786 .0411773
456.681 .0409309
457.575 .0406907
458.468 .0404548
459.360 .0402420
460.250 .0400529
461.140 .0398902
462.028 .0397641
462.915 .0396540
463.801 .0395472
464.687 .0394347
465.571 .0393205
466.454 .0391894
467.335 .0390505
468.216 .0389060
469.096 .0387646
469.975 .0386335
470.853 .0385161
471.729 .0384081
472.605 .0383111
473.479 .0382294
474.353 .0381588
475.226 .0380938
476.097 .0380335
476.968 .0379704
477.838 .0379126
478.706 .0378600
479.574 .0378175
480.441 .0377838
481.306 .0377637
482.171 .0377547
483.035 .0377523
483.898 .0377534
484.760 .0377593
485.621 .0377642
486.481 .0377649
487.340 .0377600
488.198 .0377431
489.055 .0377130
489.912 .0376720
490.767 .0376199
491.622 .0375595
492.476 .0374910
493.329 .0374170
494.180 .0373397
495.032 .0372672
495.882 .0372038
496.731 .0371466
497.580 .0371020
498.427 .0370636
499.274 .0370267
500.120 .0369911
500.965 .0369564
501.809 .0369201
502.653 .0368850
503.495 .0368558
504.337 .0368320
505.178 .0368144
506.018 .0368062
506.858 .0367991
507.696 .0367965
508.534 .0367883
509.371 .0367707
510.208 .0367364
511.043 .0366962
511.878 .0366495
512.712 .0366020
513.545 .0365570
514.377 .0365207
515.209 .0364852
516.040 .0364617
516.870 .0364435
517.699 .0364240
518.528 .0363982
519.356 .0363708
520.183 .0363323
521.010 .0362966
521.836 .0362599
522.661 .0362266
523.485 .0361941
524.309 .0361722
525.132 .0361445
525.954 .0361169
526.776 .0360940
527.597 .0360776
528.417 .0360649
529.237 .0360670
530.056 .0360672
530.874 .0360735
531.692 .0360819
532.508 .0360906
533.325 .0360945
534.140 .0360892
534.955 .0360755
535.770 .0360518
536.583 .0360279
537.397 .0360039
538.209 .0359771
539.021 .0359484
539.832 .0359056
540.643 .0358466
541.453 .0357677
542.262 .0356722
543.071 .0355680
543.879 .0354517
544.687 .0353331
545.494 .0352117
546.300 .0350921
547.106 .0349756
547.911 .0348691
548.716 .0347674
549.520 .0346680
550.323 .0345715
551.126 .0344788
551.929 .0343941
552.731 .0343190
553.532 .0342574
554.332 .0342059
555.133 .0341692
555.932 .0341398
556.731 .0341143
557.530 .0340957
558.328 .0340788
559.125 .0340601
559.922 .0340433
560.719 .0340248
561.515 .0340029
562.310 .0339817
563.105 .0339621
563.899 .0339446
564.693 .0339281
565.487 .0339067
566.280 .0338791
567.072 .0338460
567.864 .0338099
568.655 .0337694
569.446 .0337314
570.236 .0336985
571.026 .0336688
571.816 .0336462
572.605 .0336312
573.393 .0336181
574.181 .0336062
574.969 .0335953
575.756 .0335790
576.543 .0335575
577.329 .0335324
578.115 .0335049
578.900 .0334795
579.685 .0334573
580.469 .0334388
581.253 .0334214
582.036 .0334076
582.820 .0333919
583.602 .0333708
584.384 .0333479
585.166 .0333207
585.947 .0332905
586.728 .0332617
587.509 .0332351
588.289 .0332117
589.069 .0331930
589.848 .0331780
590.627 .0331633
591.405 .0331468
592.183 .0331268
592.961 .0331038
593.738 .0330780
594.515 .0330506
595.291 .0330218
596.067 .0329947
596.843 .0329706
597.618 .0329489
598.393 .0329299
599.167 .0329129
599.941 .0328969
600.715 .0328826
601.488 .0328682
602.261 .0328550
603.034 .0328435
603.806 .0328344
604.578 .0328282
605.349 .0328256
606.121 .0328264
606.891 .0328301
607.662 .0328354
608.432 .0328416
609.201 .0328463
609.971 .0328512
610.740 .0328541
611.508 .0328550
612.277 .0328544
613.045 .0328526
613.812 .0328489
614.579 .0328443
615.346 .0328388
616.113 .0328325
616.879 .0328252
617.645 .0328170
618.411 .0328070
619.176 .0327953
619.941 .0327820
620.705 .0327675
621.470 .0327524
622.233 .0327378
622.997 .0327220
623.760 .0327072
624.523 .0326939
625.286 .0326817
626.048 .0326703
626.810 .0326593
627.572 .0326484
628.333 .0326360
629.095 .0326221
629.855 .0326058
630.616 .0325877
631.376 .0325685
632.136 .0325485
632.895 .0325290
633.655 .0325117
634.414 .0324960
635.172 .0324827
635.931 .0324717
636.689 .0324619
637.447 .0324512
638.204 .0324396
638.962 .0324255
639.718 .0324099
640.475 .0323924
641.231 .0323744
641.988 .0323562
642.743 .0323395
643.499 .0323248
644.254 .0323114
645.009 .0322995
645.764 .0322882
646.518 .0322768
647.272 .0322650
648.026 .0322517
648.780 .0322375
649.533 .0322222
650.286 .0322070
651.039 .0321922
651.792 .0321783
652.544 .0321656
653.296 .0321544
654.048 .0321447
654.799 .0321362
655.550 .0321283
656.301 .0321209
657.052 .0321140
657.802 .0321076
658.552 .0321014
659.302 .0320951
660.052 .0320899
660.801 .0320854
661.550 .0320807
662.299 .0320763
663.048 .0320713
663.796 .0320657
664.544 .0320593
665.292 .0320522
666.040 .0320439
666.787 .0320346
667.534 .0320248
668.281 .0320142
669.028 .0320029
669.774 .0319906
670.521 .0319768
671.266 .0319617
672.012 .0319453
672.758 .0319269
673.503 .0319076
674.248 .0318889
674.992 .0318702
675.737 .0318521
676.481 .0318352
677.225 .0318195
677.969 .0318044
678.712 .0317897
679.455 .0317757
680.199 .0317612
680.941 .0317462
681.684 .0317311
682.426 .0317154
683.168 .0317000
683.910 .0316844
684.652 .0316689
685.393 .0316541
686.134 .0316392
686.875 .0316237
687.616 .0316079
688.356 .0315920
689.097 .0315752
689.837 .0315573
690.576 .0315390
691.316 .0315205
692.055 .0315020
692.794 .0314840
693.533 .0314669
694.272 .0314514
695.010 .0314380
695.748 .0314264
696.486 .0314167
697.224 .0314084
697.962 .0314006
698.699 .0313929
699.436 .0313853
700.173 .0313775
700.909 .0313693
701.646 .0313615
702.382 .0313539
703.118 .0313468
703.853 .0313402
704.589 .0313341
705.324 .0313286
706.059 .0313233
706.794 .0313180
707.529 .0313124
708.263 .0313067
708.997 .0313013
709.731 .0312954
710.465 .0312896
711.198 .0312838
711.931 .0312777
712.664 .0312710
713.397 .0312644
714.130 .0312571
714.862 .0312495
715.594 .0312410
716.326 .0312326
717.058 .0312232
717.789 .0312131
718.520 .0312022
719.251 .0311901
719.982 .0311772
720.713 .0311630
721.443 .0311472
722.173 .0311306
722.903 .0311129
723.633 .0310947
724.362 .0310759
725.091 .0310571
725.820 .0310378
726.549 .0310186
727.278 .0309995
728.006 .0309801
728.734 .0309603
729.462 .0309405
730.190 .0309208
730.917 .0309014
731.644 .0308820
732.371 .0308633
733.098 .0308455
733.825 .0308292
734.551 .0308137
735.277 .0307997
736.003 .0307868
736.728 .0307745
737.454 .0307626
738.179 .0307508
738.904 .0307390
739.629 .0307269
740.353 .0307148
741.077 .0307031
741.801 .0306916
742.525 .0306803
743.249 .0306688
743.972 .0306573
744.695 .0306456
745.418 .0306329
746.141 .0306193
746.863 .0306055
747.585 .0305917
748.307 .0305779
749.029 .0305649
749.750 .0305530
750.472 .0305421
751.193 .0305322
751.913 .0305229
752.634 .0305134
753.354 .0305039
754.074 .0304943
754.794 .0304845
755.514 .0304746
756.233 .0304653
756.952 .0304563
757.671 .0304483
758.390 .0304406
759.108 .0304326
759.826 .0304243
760.544 .0304156
761.262 .0304061
761.979 .0303957
762.697 .0303850
763.414 .0303746
764.130 .0303652
764.847 .0303572
765.563 .0303506
766.279 .0303454
766.995 .0303410
767.710 .0303368
768.426 .0303318
769.141 .0303260
769.855 .0303194
770.570 .0303119
771.284 .0303045
771.998 .0302967
772.712 .0302893
773.426 .0302825
774.139 .0302765
774.852 .0302710
775.565 .0302656
776.277 .0302599
776.990 .0302536
777.702 .0302465
778.414 .0302386
779.125 .0302299
779.836 .0302211
780.547 .0302126
781.258 .0302039
781.969 .0301951
782.679 .0301864
783.389 .0301775
784.099 .0301684
784.808 .0301594
785.517 .0301503
786.226 .0301412
786.935 .0301321
787.643 .0301228
788.352 .0301135
789.060 .0301043
789.767 .0300946
790.475 .0300842
791.182 .0300732
791.889 .0300617
792.595 .0300499
793.301 .0300381
794.008 .0300266
794.713 .0300153
795.419 .0300042
796.124 .0299925
796.829 .0299802
797.534 .0299672
798.238 .0299535
798.942 .0299392
799.646 .0299248
800.350 .0299107
801.053 .0298965
801.756 .0298823
802.459 .0298683
803.162 .0298543
803.864 .0298395
804.566 .0298239
805.267 .0298072
805.969 .0297893
806.670 .0297703
807.371 .0297513
808.071 .0297323
808.772 .0297144
809.472 .0296971
810.171 .0296802
810.871 .0296640
811.570 .0296489
812.269 .0296338
812.967 .0296192
813.666 .0296056
814.364 .0295928
815.061 .0295804
815.759 .0295701
816.456 .0295611
817.153 .0295535
817.849 .0295471
818.545 .0295409
819.241 .0295348
819.937 .0295292
820.632 .0295222
821.327 .0295139
822.022 .0295048
822.717 .0294947
823.411 .0294831
824.105 .0294716
824.798 .0294599
825.491 .0294478
826.184 .0294359
826.877 .0294244
827.569 .0294124
828.261 .0294009
828.953 .0293892
829.645 .0293773
830.336 .0293656
831.027 .0293540
831.717 .0293424
832.407 .0293319
833.097 .0293221
833.787 .0293126
834.476 .0293032
835.165 .0292946
835.854 .0292864
836.542 .0292792
837.230 .0292736
837.918 .0292687
838.605 .0292650
839.292 .0292625
839.979 .0292605
840.665 .0292588
841.352 .0292569
842.037 .0292550
842.723 .0292528
843.408 .0292502
844.093 .0292475
844.777 .0292454
845.462 .0292445
846.145 .0292443
846.829 .0292440
847.512 .0292434
848.195 .0292424
848.878 .0292399
849.560 .0292358
850.242 .0292305
850.923 .0292240
851.605 .0292162
852.286 .0292080
852.966 .0291995
853.646 .0291908
854.326 .0291819
855.006 .0291725
855.685 .0291622
856.364 .0291508
857.043 .0291372
857.721 .0291221
858.399 .0291057
859.077 .0290876
859.754 .0290678
860.431 .0290467
861.107 .0290251
861.784 .0290034
862.459 .0289813
863.135 .0289596
863.810 .0289386
864.485 .0289186
865.160 .0288992
865.834 .0288804
866.508 .0288622
867.181 .0288444
867.854 .0288268
868.527 .0288097
869.199 .0287929
869.872 .0287774
870.543 .0287631
871.215 .0287506
871.886 .0287403
872.557 .0287315
873.227 .0287236
873.897 .0287166
874.567 .0287092
875.236 .0287010
875.905 .0286916
876.573 .0286813
877.242 .0286705
877.909 .0286592
878.577 .0286482
879.244 .0286372
879.911 .0286267
880.577 .0286165
881.243 .0286051
881.909 .0285921
882.575 .0285766
883.240 .0285581
883.904 .0285367
884.569 .0285128
885.232 .0284873
885.896 .0284609
886.559 .0284345
887.222 .0284083
887.885 .0283831
888.547 .0283590
889.208 .0283361
889.870 .0283139
890.531 .0282928
891.192 .0282726
891.852 .0282532
892.512 .0282354
893.171 .0282196
893.830 .0282058
894.489 .0281941
895.148 .0281843
895.806 .0281764
896.464 .0281702
897.121 .0281655
897.778 .0281615
898.434 .0281584
899.091 .0281552
899.747 .0281518
900.402 .0281476
901.057 .0281427
901.712 .0281368
902.366 .0281297
903.020 .0281217
903.674 .0281124
904.327 .0281026
904.980 .0280925
905.633 .0280825
906.285 .0280733
906.936 .0280646
907.588 .0280564
908.239 .0280485
908.889 .0280412
909.540 .0280336
910.190 .0280253
910.839 .0280167
911.488 .0280080
912.137 .0279994
912.785 .0279915
913.433 .0279847
914.081 .0279793
914.728 .0279753
915.375 .0279721
916.021 .0279686
916.668 .0279649
917.313 .0279607
917.959 .0279553
918.604 .0279487
919.248 .0279415
919.892 .0279338
920.536 .0279269
921.180 .0279212
921.823 .0279162
922.465 .0279122
923.108 .0279088
923.750 .0279047
924.391 .0278996
925.032 .0278933
925.673 .0278855
926.313 .0278763
926.953 .0278669
927.593 .0278565
928.232 .0278450
928.871 .0278332
929.510 .0278210
930.148 .0278087
930.786 .0277966
931.423 .0277840
932.060 .0277718
932.697 .0277597
933.333 .0277475
933.969 .0277351
934.604 .0277228
935.239 .0277110
935.874 .0276996
936.508 .0276882
937.142 .0276775
937.776 .0276675
938.409 .0276585
939.042 .0276498
939.674 .0276411
940.306 .0276317
940.938 .0276216
941.569 .0276110
942.200 .0275998
942.830 .0275880
943.460 .0275767
944.090 .0275648
944.720 .0275530
945.349 .0275409
945.977 .0275283
946.606 .0275150
947.233 .0275010
947.861 .0274862
948.488 .0274706
949.115 .0274543
949.741 .0274380
950.367 .0274221
950.993 .0274071
951.618 .0273924
952.243 .0273773
952.868 .0273620
953.492 .0273458
954.115 .0273285
954.739 .0273103
955.362 .0272913
955.984 .0272722
956.607 .0272532
957.229 .0272344
957.850 .0272167
958.471 .0271997
959.092 .0271833
959.713 .0271672
960.333 .0271509
960.952 .0271348
961.572 .0271186
962.191 .0271030
962.809 .0270880
963.428 .0270733
964.045 .0270590
964.663 .0270445
965.280 .0270304
965.897 .0270165
966.513 .0270028
967.129 .0269896
967.745 .0269771
968.361 .0269652
968.976 .0269539
969.590 .0269433
970.205 .0269330
970.818 .0269231
971.432 .0269130
972.045 .0269024
972.658 .0268910
973.271 .0268790
973.883 .0268666
974.495 .0268537
975.106 .0268402
975.717 .0268260
976.328 .0268117
976.938 .0267964
977.548 .0267803
978.158 .0267636
978.768 .0267463
979.377 .0267287
979.985 .0267103
980.594 .0266919
981.202 .0266749
981.809 .0266587
982.417 .0266434
983.024 .0266292
983.631 .0266163
984.237 .0266040
984.843 .0265921
985.449 .0265803
986.054 .0265685
986.659 .0265569
987.264 .0265454
987.868 .0265330
988.472 .0265211
989.076 .0265095
989.679 .0264984
990.282 .0264883
990.885 .0264786
991.487 .0264690
992.090 .0264603
992.691 .0264524
993.293 .0264453
993.894 .0264391
994.495 .0264349
995.095 .0264318
995.696 .0264299
996.296 .0264293
996.895 .0264294
997.494 .0264304
998.093 .0264318
998.692 .0264329
999.291 .0264341
999.889 .0264344
1000.487 .0264342
1001.084 .0264337
1001.681 .0264324
1002.278 .0264300
1002.875 .0264261
1003.471 .0264211
1004.067 .0264154
1004.663 .0264093
1005.258 .0264031
1005.854 .0263973
1006.449 .0263927
1007.043 .0263882
1007.638 .0263836
1008.232 .0263799
1008.826 .0263758
1009.419 .0263710
1010.012 .0263668
1010.605 .0263623
1011.198 .0263584
1011.791 .0263560
1012.383 .0263547
1012.975 .0263548
1013.566 .0263563
1014.158 .0263575
1014.749 .0263575
1015.340 .0263568
1015.931 .0263553
1016.521 .0263527
1017.111 .0263501
1017.701 .0263488
1018.291 .0263495
1018.880 .0263530
1019.470 .0263596
1020.059 .0263680
1020.647 .0263788
1021.236 .0263909
1021.824 .0264025
1022.412 .0264140
1023.000 .0264250
1023.588 .0264362
1024.175 .0264471
1024.762 .0264588
1025.349 .0264708
1025.936 .0264838
1026.523 .0264973
1027.109 .0265111
1027.695 .0265248
1028.281 .0265388
1028.867 .0265518
1029.452 .0265643
1030.038 .0265761
1030.623 .0265865
1031.208 .0265945
1031.792 .0266014
1032.377 .0266059
1032.961 .0266103
1033.546 .0266132
1034.130 .0266172
1034.714 .0266225
1035.297 .0266312
1035.881 .0266407
1036.464 .0266523
1037.047 .0266655
1037.630 .0266791
1038.213 .0266917
1038.796 .0267038
1039.378 .0267147
1039.961 .0267258
1040.543 .0267359
1041.125 .0267466
1041.707 .0267572
1042.289 .0267684
1042.871 .0267774
1043.452 .0267849
1044.034 .0267911
1044.615 .0267958
1045.196 .0267984
1045.777 .0268003
1046.358 .0268014
1046.939 .0268011
1047.520 .0267981
1048.101 .0267921
1048.681 .0267844
1049.262 .0267740
1049.842 .0267613
1050.422 .0267475
1051.002 .0267341
1051.582 .0267211
1052.162 .0267109
1052.742 .0267024
1053.322 .0266955
1053.902 .0266879
1054.482 .0266774
1055.061 .0266626
1055.641 .0266454
1056.220 .0266255
1056.800 .0266050
1057.379 .0265861
1057.958 .0265706
1058.538 .0265557
1059.117 .0265436
1059.696 .0265329
1060.275 .0265234
1060.854 .0265142
1061.433 .0265049
1062.012 .0264938
1062.592 .0264850
1063.171 .0264793
1063.750 .0264774
1064.329 .0264797
1064.908 .0264874
1065.487 .0264970
1066.066 .0265072
1066.645 .0265164
1067.224 .0265260
1067.803 .0265344
1068.382 .0265432
1068.961 .0265516
1069.540 .0265598
1070.119 .0265677
1070.698 .0265751
1071.278 .0265811
1071.857 .0265852
1072.436 .0265861
1073.016 .0265832
1073.595 .0265750
1074.175 .0265636
1074.754 .0265480
1075.334 .0265297
1075.913 .0265100
1076.493 .0264904
1077.073 .0264694
1077.653 .0264493
1078.233 .0264321
1078.813 .0264165
1079.393 .0264022
1079.974 .0263892
1080.554 .0263778
1081.135 .0263672
1081.716 .0263577
1082.296 .0263487
1082.877 .0263399
1083.458 .0263317
1084.040 .0263239
1084.621 .0263179
1085.202 .0263135
1085.784 .0263105
1086.366 .0263082
1086.948 .0263051
1087.530 .0263010
1088.112 .0262941
1088.695 .0262855
1089.277 .0262745
1089.860 .0262627
1090.443 .0262474
1091.026 .0262312
1091.610 .0262175
1092.193 .0262058
1092.777 .0261970
1093.361 .0261915
1093.946 .0261879
1094.530 .0261838
1095.115 .0261783
1095.700 .0261718
1096.285 .0261629
1096.871 .0261552
1097.456 .0261468
1098.042 .0261391
1098.628 .0261342
1099.215 .0261325
1099.802 .0261347
1100.389 .0261408
1100.976 .0261488
1101.564 .0261528
1102.152 .0261535
1102.740 .0261482
1103.329 .0261374
1103.917 .0261236
1104.507 .0261101
1105.096 .0260971
1105.686 .0260848
1106.276 .0260763
1106.867 .0260694
1107.457 .0260644
1108.049 .0260594
1108.640 .0260503
1109.232 .0260409
1109.825 .0260302
1110.417 .0260202
1111.010 .0260124
1111.604 .0260124
1112.198 .0260186
1112.792 .0260271
1113.387 .0260395
1113.982 .0260503
1114.577 .0260583
1115.173 .0260646
1115.769 .0260694
1116.366 .0260727
1116.963 .0260789
1117.561 .0260878
1118.159 .0261014
1118.758 .0261208
1119.357 .0261417
1119.957 .0261594
1120.557 .0261736
1121.157 .0261804
1121.758 .0261801
1122.360 .0261732
1122.962 .0261677
1123.564 .0261642
1124.167 .0261685
1124.771 .0261779
1125.375 .0261904
1125.980 .0262049
1126.585 .0262177
1127.191 .0262209
1127.797 .0262182
1128.404 .0262051
1129.012 .0261889
1129.620 .0261766
1130.229 .0261698
1130.838 .0261715
1131.448 .0261893
1132.058 .0262183
1132.669 .0262556
1133.281 .0262960
1133.894 .0263407
1134.507 .0263847
1135.120 .0264307
1135.735 .0264794
1136.350 .0265261
1136.965 .0265758
1137.582 .0266285
1138.199 .0266808
1138.816 .0267280
1139.435 .0267720
1140.054 .0268029
1140.674 .0268246
1141.294 .0268125
1141.916 .0267639
1142.538 .0268995
1143.160 .0267084
1143.784 .0268314
1144.408 .0261793
1145.033 .0257957
