Measurement Sequence started on: 14-45-04-498
Integration time: 36
Scans to Average: 2 
>>>>>Begin Spectral Data<<<<<
433.946 .0486719
434.870 .0511717
435.793 .0477629
436.715 .0469483
437.635 .0474418
438.555 .0468553
439.473 .0464620
440.389 .0460782
441.305 .0458681
442.219 .0457294
443.132 .0456315
444.044 .0455946
444.954 .0455875
445.863 .0456021
446.771 .0456057
447.678 .0455855
448.584 .0455512
449.488 .0455057
450.391 .0454527
451.293 .0453960
452.194 .0453391
453.094 .0452793
453.992 .0452073
454.890 .0451219
455.786 .0450173
456.681 .0448922
457.575 .0447618
458.468 .0446229
459.360 .0444916
460.250 .0443719
461.140 .0442569
462.028 .0441540
462.915 .0440510
463.801 .0439428
464.687 .0438300
465.571 .0437098
466.454 .0435897
467.335 .0434726
468.216 .0433706
469.096 .0432824
469.975 .0432120
470.853 .0431567
471.729 .0431079
472.605 .0430590
473.479 .0430087
474.353 .0429444
475.226 .0428701
476.097 .0427907
476.968 .0427045
477.838 .0426194
478.706 .0425413
479.574 .0424654
480.441 .0423998
481.306 .0423405
482.171 .0422849
483.035 .0422242
483.898 .0421587
484.760 .0420798
485.621 .0419874
486.481 .0418844
487.340 .0417755
488.198 .0416661
489.055 .0415657
489.912 .0414761
490.767 .0413972
491.622 .0413306
492.476 .0412753
493.329 .0412253
494.180 .0411807
495.032 .0411330
495.882 .0410822
496.731 .0410260
497.580 .0409677
498.427 .0409109
499.274 .0408597
500.120 .0408170
500.965 .0407829
501.809 .0407544
502.653 .0407248
503.495 .0406889
504.337 .0406431
505.178 .0405847
506.018 .0405124
506.858 .0404261
507.696 .0403303
508.534 .0402269
509.371 .0401256
510.208 .0400289
511.043 .0399411
511.878 .0398666
512.712 .0397960
513.545 .0397263
514.377 .0396557
515.209 .0395811
516.040 .0395018
516.870 .0394188
517.699 .0393416
518.528 .0392688
519.356 .0392139
520.183 .0391776
521.010 .0391593
521.836 .0391587
522.661 .0391659
523.485 .0391638
524.309 .0391454
525.132 .0391063
525.954 .0390442
526.776 .0389667
527.597 .0388896
528.417 .0388102
529.237 .0387454
530.056 .0386901
530.874 .0386507
531.692 .0386201
532.508 .0385942
533.325 .0385658
534.140 .0385300
534.955 .0384899
535.770 .0384423
536.583 .0383941
537.397 .0383554
538.209 .0383231
539.021 .0383010
539.832 .0382772
540.643 .0382509
541.453 .0382243
542.262 .0381882
543.071 .0381393
543.879 .0380833
544.687 .0380172
545.494 .0379499
546.300 .0378837
547.106 .0378192
547.911 .0377666
548.716 .0377271
549.520 .0376958
550.323 .0376694
551.126 .0376521
551.929 .0376451
552.731 .0376350
553.532 .0376292
554.332 .0376209
555.133 .0376110
555.932 .0376057
556.731 .0375979
557.530 .0375909
558.328 .0375932
559.125 .0375977
559.922 .0376018
560.719 .0376017
561.515 .0375980
562.310 .0375820
563.105 .0375573
563.899 .0375268
564.693 .0374897
565.487 .0374477
566.280 .0374072
567.072 .0373667
567.864 .0373329
568.655 .0373013
569.446 .0372705
570.236 .0372380
571.026 .0372029
571.816 .0371613
572.605 .0371122
573.393 .0370549
574.181 .0369954
574.969 .0369330
575.756 .0368695
576.543 .0368071
577.329 .0367517
578.115 .0366991
578.900 .0366520
579.685 .0366076
580.469 .0365622
581.253 .0365165
582.036 .0364693
582.820 .0364187
583.602 .0363662
584.384 .0363134
585.166 .0362585
585.947 .0362046
586.728 .0361561
587.509 .0361101
588.289 .0360674
589.069 .0360290
589.848 .0359935
590.627 .0359591
591.405 .0359267
592.183 .0358939
592.961 .0358626
593.738 .0358345
594.515 .0358077
595.291 .0357843
596.067 .0357659
596.843 .0357515
597.618 .0357390
598.393 .0357290
599.167 .0357189
599.941 .0357050
600.715 .0356878
601.488 .0356659
602.261 .0356394
603.034 .0356088
603.806 .0355752
604.578 .0355398
605.349 .0355052
606.121 .0354721
606.891 .0354400
607.662 .0354090
608.432 .0353794
609.201 .0353494
609.971 .0353187
610.740 .0352874
611.508 .0352555
612.277 .0352233
613.045 .0351929
613.812 .0351647
614.579 .0351390
615.346 .0351165
616.113 .0350976
616.879 .0350809
617.645 .0350668
618.411 .0350537
619.176 .0350400
619.941 .0350261
620.705 .0350114
621.470 .0349942
622.233 .0349750
622.997 .0349546
623.760 .0349331
624.523 .0349116
625.286 .0348899
626.048 .0348690
626.810 .0348486
627.572 .0348288
628.333 .0348090
629.095 .0347884
629.855 .0347666
630.616 .0347429
631.376 .0347176
632.136 .0346917
632.895 .0346653
633.655 .0346403
634.414 .0346172
635.172 .0345969
635.931 .0345789
636.689 .0345620
637.447 .0345456
638.204 .0345287
638.962 .0345093
639.718 .0344876
640.475 .0344638
641.231 .0344381
641.988 .0344123
642.743 .0343865
643.499 .0343616
644.254 .0343377
645.009 .0343146
645.764 .0342917
646.518 .0342687
647.272 .0342451
648.026 .0342197
648.780 .0341926
649.533 .0341654
650.286 .0341379
651.039 .0341115
651.792 .0340868
652.544 .0340642
653.296 .0340442
654.048 .0340272
654.799 .0340116
655.550 .0339978
656.301 .0339849
657.052 .0339726
657.802 .0339595
658.552 .0339451
659.302 .0339297
660.052 .0339136
660.801 .0338969
661.550 .0338800
662.299 .0338628
663.048 .0338458
663.796 .0338291
664.544 .0338132
665.292 .0337982
666.040 .0337836
666.787 .0337698
667.534 .0337564
668.281 .0337429
669.028 .0337293
669.774 .0337157
670.521 .0337020
671.266 .0336893
672.012 .0336775
672.758 .0336658
673.503 .0336550
674.248 .0336450
674.992 .0336351
675.737 .0336245
676.481 .0336131
677.225 .0335999
677.969 .0335845
678.712 .0335674
679.455 .0335476
680.199 .0335261
680.941 .0335040
681.684 .0334813
682.426 .0334586
683.168 .0334369
683.910 .0334161
684.652 .0333952
685.393 .0333755
686.134 .0333562
686.875 .0333367
687.616 .0333178
688.356 .0332994
689.097 .0332826
689.837 .0332669
690.576 .0332526
691.316 .0332392
692.055 .0332274
692.794 .0332169
693.533 .0332068
694.272 .0331971
695.010 .0331878
695.748 .0331781
696.486 .0331678
697.224 .0331566
697.962 .0331439
698.699 .0331302
699.436 .0331157
700.173 .0330993
700.909 .0330822
701.646 .0330640
702.382 .0330456
703.118 .0330275
703.853 .0330097
704.589 .0329919
705.324 .0329747
706.059 .0329581
706.794 .0329410
707.529 .0329230
708.263 .0329049
708.997 .0328862
709.731 .0328674
710.465 .0328488
711.198 .0328309
711.931 .0328143
712.664 .0327998
713.397 .0327867
714.130 .0327745
714.862 .0327624
715.594 .0327493
716.326 .0327353
717.058 .0327201
717.789 .0327036
718.520 .0326860
719.251 .0326690
719.982 .0326529
720.713 .0326372
721.443 .0326220
722.173 .0326071
722.903 .0325923
723.633 .0325766
724.362 .0325590
725.091 .0325401
725.820 .0325200
726.549 .0324993
727.278 .0324779
728.006 .0324567
728.734 .0324352
729.462 .0324131
730.190 .0323903
730.917 .0323662
731.644 .0323405
732.371 .0323135
733.098 .0322855
733.825 .0322572
734.551 .0322293
735.277 .0322017
736.003 .0321751
736.728 .0321495
737.454 .0321249
738.179 .0321008
738.904 .0320773
739.629 .0320551
740.353 .0320342
741.077 .0320153
741.801 .0319984
742.525 .0319835
743.249 .0319704
743.972 .0319583
744.695 .0319463
745.418 .0319340
746.141 .0319208
746.863 .0319065
747.585 .0318911
748.307 .0318745
749.029 .0318573
749.750 .0318399
750.472 .0318222
751.193 .0318042
751.913 .0317854
752.634 .0317655
753.354 .0317440
754.074 .0317221
754.794 .0316996
755.514 .0316770
756.233 .0316551
756.952 .0316345
757.671 .0316157
758.390 .0315984
759.108 .0315827
759.826 .0315688
760.544 .0315564
761.262 .0315452
761.979 .0315342
762.697 .0315241
763.414 .0315146
764.130 .0315060
764.847 .0314980
765.563 .0314907
766.279 .0314832
766.995 .0314752
767.710 .0314663
768.426 .0314566
769.141 .0314460
769.855 .0314344
770.570 .0314223
771.284 .0314103
771.998 .0313979
772.712 .0313857
773.426 .0313737
774.139 .0313624
774.852 .0313507
775.565 .0313387
776.277 .0313262
776.990 .0313140
777.702 .0313023
778.414 .0312912
779.125 .0312812
779.836 .0312723
780.547 .0312637
781.258 .0312555
781.969 .0312469
782.679 .0312375
783.389 .0312267
784.099 .0312141
784.808 .0311997
785.517 .0311841
786.226 .0311673
786.935 .0311500
787.643 .0311325
788.352 .0311155
789.060 .0310984
789.767 .0310811
790.475 .0310633
791.182 .0310453
791.889 .0310272
792.595 .0310089
793.301 .0309904
794.008 .0309721
794.713 .0309540
795.419 .0309363
796.124 .0309192
796.829 .0309023
797.534 .0308853
798.238 .0308683
798.942 .0308508
799.646 .0308324
800.350 .0308127
801.053 .0307920
801.756 .0307702
802.459 .0307474
803.162 .0307235
803.864 .0306985
804.566 .0306737
805.267 .0306492
805.969 .0306246
806.670 .0306005
807.371 .0305778
808.071 .0305567
808.772 .0305372
809.472 .0305195
810.171 .0305032
810.871 .0304885
811.570 .0304752
812.269 .0304624
812.967 .0304490
813.666 .0304356
814.364 .0304216
815.061 .0304069
815.759 .0303919
816.456 .0303765
817.153 .0303605
817.849 .0303445
818.545 .0303281
819.241 .0303101
819.937 .0302908
820.632 .0302707
821.327 .0302491
822.022 .0302267
822.717 .0302037
823.411 .0301808
824.105 .0301589
824.798 .0301390
825.491 .0301202
826.184 .0301032
826.877 .0300879
827.569 .0300737
828.261 .0300605
828.953 .0300477
829.645 .0300351
830.336 .0300225
831.027 .0300106
831.717 .0299985
832.407 .0299863
833.097 .0299743
833.787 .0299624
834.476 .0299511
835.165 .0299400
835.854 .0299288
836.542 .0299187
837.230 .0299095
837.918 .0299007
838.605 .0298924
839.292 .0298848
839.979 .0298773
840.665 .0298705
841.352 .0298638
842.037 .0298579
842.723 .0298526
843.408 .0298481
844.093 .0298441
844.777 .0298408
845.462 .0298376
846.145 .0298336
846.829 .0298292
847.512 .0298243
848.195 .0298179
848.878 .0298106
849.560 .0298026
850.242 .0297940
850.923 .0297844
851.605 .0297740
852.286 .0297626
852.966 .0297509
853.646 .0297381
854.326 .0297240
855.006 .0297084
855.685 .0296918
856.364 .0296736
857.043 .0296540
857.721 .0296333
858.399 .0296114
859.077 .0295880
859.754 .0295636
860.431 .0295382
861.107 .0295123
861.784 .0294860
862.459 .0294594
863.135 .0294325
863.810 .0294056
864.485 .0293783
865.160 .0293511
865.834 .0293245
866.508 .0292990
867.181 .0292741
867.854 .0292505
868.527 .0292284
869.199 .0292074
869.872 .0291878
870.543 .0291690
871.215 .0291511
871.886 .0291335
872.557 .0291156
873.227 .0290975
873.897 .0290792
874.567 .0290615
875.236 .0290437
875.905 .0290262
876.573 .0290094
877.242 .0289927
877.909 .0289761
878.577 .0289594
879.244 .0289428
879.911 .0289266
880.577 .0289102
881.243 .0288938
881.909 .0288778
882.575 .0288623
883.240 .0288473
883.904 .0288329
884.569 .0288192
885.232 .0288057
885.896 .0287920
886.559 .0287784
887.222 .0287644
887.885 .0287504
888.547 .0287365
889.208 .0287228
889.870 .0287100
890.531 .0286980
891.192 .0286867
891.852 .0286766
892.512 .0286673
893.171 .0286583
893.830 .0286486
894.489 .0286387
895.148 .0286283
895.806 .0286173
896.464 .0286067
897.121 .0285963
897.778 .0285871
898.434 .0285796
899.091 .0285733
899.747 .0285685
900.402 .0285648
901.057 .0285614
901.712 .0285577
902.366 .0285532
903.020 .0285478
903.674 .0285410
904.327 .0285339
904.980 .0285261
905.633 .0285179
906.285 .0285100
906.936 .0285026
907.588 .0284952
908.239 .0284882
908.889 .0284809
909.540 .0284733
910.190 .0284651
910.839 .0284567
911.488 .0284479
912.137 .0284388
912.785 .0284290
913.433 .0284193
914.081 .0284094
914.728 .0283998
915.375 .0283904
916.021 .0283814
916.668 .0283729
917.313 .0283644
917.959 .0283555
918.604 .0283462
919.248 .0283365
919.892 .0283262
920.536 .0283148
921.180 .0283029
921.823 .0282904
922.465 .0282777
923.108 .0282651
923.750 .0282526
924.391 .0282395
925.032 .0282255
925.673 .0282107
926.313 .0281949
926.953 .0281784
927.593 .0281610
928.232 .0281433
928.871 .0281258
929.510 .0281083
930.148 .0280907
930.786 .0280726
931.423 .0280548
932.060 .0280373
932.697 .0280190
933.333 .0280008
933.969 .0279829
934.604 .0279661
935.239 .0279500
935.874 .0279342
936.508 .0279188
937.142 .0279033
937.776 .0278875
938.409 .0278706
939.042 .0278529
939.674 .0278350
940.306 .0278166
940.938 .0277984
941.569 .0277811
942.200 .0277644
942.830 .0277477
943.460 .0277308
944.090 .0277130
944.720 .0276940
945.349 .0276736
945.977 .0276523
946.606 .0276309
947.233 .0276093
947.861 .0275878
948.488 .0275666
949.115 .0275463
949.741 .0275266
950.367 .0275065
950.993 .0274864
951.618 .0274660
952.243 .0274453
952.868 .0274242
953.492 .0274031
954.115 .0273827
954.739 .0273626
955.362 .0273428
955.984 .0273228
956.607 .0273026
957.229 .0272826
957.850 .0272628
958.471 .0272437
959.092 .0272250
959.713 .0272068
960.333 .0271889
960.952 .0271711
961.572 .0271529
962.191 .0271342
962.809 .0271144
963.428 .0270935
964.045 .0270718
964.663 .0270496
965.280 .0270275
965.897 .0270062
966.513 .0269857
967.129 .0269662
967.745 .0269477
968.361 .0269299
968.976 .0269130
969.590 .0268970
970.205 .0268816
970.818 .0268672
971.432 .0268545
972.045 .0268436
972.658 .0268350
973.271 .0268288
973.883 .0268246
974.495 .0268217
975.106 .0268198
975.717 .0268178
976.328 .0268146
976.938 .0268103
977.548 .0268049
978.158 .0267982
978.768 .0267906
979.377 .0267822
979.985 .0267735
980.594 .0267646
981.202 .0267557
981.809 .0267458
982.417 .0267361
983.024 .0267274
983.631 .0267193
984.237 .0267118
984.843 .0267057
985.449 .0267009
986.054 .0266966
986.659 .0266934
987.264 .0266907
987.868 .0266884
988.472 .0266875
989.076 .0266876
989.679 .0266890
990.282 .0266922
990.885 .0266967
991.487 .0267018
992.090 .0267074
992.691 .0267119
993.293 .0267143
993.894 .0267144
994.495 .0267128
995.095 .0267091
995.696 .0267033
996.296 .0266964
996.895 .0266895
997.494 .0266834
998.093 .0266784
998.692 .0266747
999.291 .0266723
999.889 .0266701
1000.487 .0266681
1001.084 .0266658
1001.681 .0266631
1002.278 .0266600
1002.875 .0266573
1003.471 .0266542
1004.067 .0266510
1004.663 .0266485
1005.258 .0266459
1005.854 .0266444
1006.449 .0266448
1007.043 .0266462
1007.638 .0266485
1008.232 .0266523
1008.826 .0266566
1009.419 .0266609
1010.012 .0266654
1010.605 .0266689
1011.198 .0266708
1011.791 .0266720
1012.383 .0266724
1012.975 .0266714
1013.566 .0266710
1014.158 .0266708
1014.749 .0266707
1015.340 .0266708
1015.931 .0266702
1016.521 .0266681
1017.111 .0266649
1017.701 .0266604
1018.291 .0266539
1018.880 .0266457
1019.470 .0266368
1020.059 .0266270
1020.647 .0266179
1021.236 .0266100
1021.824 .0266041
1022.412 .0266000
1023.000 .0265983
1023.588 .0265978
1024.175 .0265991
1024.762 .0266017
1025.349 .0266058
1025.936 .0266107
1026.523 .0266161
1027.109 .0266215
1027.695 .0266269
1028.281 .0266319
1028.867 .0266369
1029.452 .0266407
1030.038 .0266432
1030.623 .0266438
1031.208 .0266423
1031.792 .0266385
1032.377 .0266333
1032.961 .0266263
1033.546 .0266190
1034.130 .0266115
1034.714 .0266041
1035.297 .0265969
1035.881 .0265910
1036.464 .0265863
1037.047 .0265816
1037.630 .0265773
1038.213 .0265723
1038.796 .0265668
1039.378 .0265616
1039.961 .0265560
1040.543 .0265502
1041.125 .0265464
1041.707 .0265430
1042.289 .0265400
1042.871 .0265377
1043.452 .0265353
1044.034 .0265318
1044.615 .0265277
1045.196 .0265220
1045.777 .0265137
1046.358 .0265036
1046.939 .0264924
1047.520 .0264782
1048.101 .0264633
1048.681 .0264474
1049.262 .0264305
1049.842 .0264146
1050.422 .0263995
1051.002 .0263838
1051.582 .0263679
1052.162 .0263519
1052.742 .0263341
1053.322 .0263143
1053.902 .0262939
1054.482 .0262736
1055.061 .0262541
1055.641 .0262378
1056.220 .0262249
1056.800 .0262159
1057.379 .0262111
1057.958 .0262085
1058.538 .0262070
1059.117 .0262047
1059.696 .0261997
1060.275 .0261931
1060.854 .0261848
1061.433 .0261764
1062.012 .0261683
1062.592 .0261612
1063.171 .0261560
1063.750 .0261518
1064.329 .0261465
1064.908 .0261396
1065.487 .0261296
1066.066 .0261161
1066.645 .0260989
1067.224 .0260802
1067.803 .0260623
1068.382 .0260467
1068.961 .0260353
1069.540 .0260289
1070.119 .0260267
1070.698 .0260283
1071.278 .0260317
1071.857 .0260354
1072.436 .0260395
1073.016 .0260422
1073.595 .0260427
1074.175 .0260414
1074.754 .0260387
1075.334 .0260345
1075.913 .0260288
1076.493 .0260218
1077.073 .0260143
1077.653 .0260049
1078.233 .0259954
1078.813 .0259855
1079.393 .0259751
1079.974 .0259652
1080.554 .0259544
1081.135 .0259422
1081.716 .0259290
1082.296 .0259152
1082.877 .0259016
1083.458 .0258877
1084.040 .0258761
1084.621 .0258648
1085.202 .0258557
1085.784 .0258499
1086.366 .0258478
1086.948 .0258483
1087.530 .0258523
1088.112 .0258589
1088.695 .0258679
1089.277 .0258795
1089.860 .0258938
1090.443 .0259100
1091.026 .0259301
1091.610 .0259509
1092.193 .0259722
1092.777 .0259922
1093.361 .0260132
1093.946 .0260315
1094.530 .0260482
1095.115 .0260623
1095.700 .0260735
1096.285 .0260813
1096.871 .0260854
1097.456 .0260859
1098.042 .0260839
1098.628 .0260792
1099.215 .0260700
1099.802 .0260569
1100.389 .0260423
1100.976 .0260240
1101.564 .0260054
1102.152 .0259879
1102.740 .0259730
1103.329 .0259611
1103.917 .0259549
1104.507 .0259543
1105.096 .0259595
1105.686 .0259728
1106.276 .0259882
1106.867 .0260071
1107.457 .0260290
1108.049 .0260490
1108.640 .0260657
1109.232 .0260812
1109.825 .0260955
1110.417 .0261082
1111.010 .0261225
1111.604 .0261393
1112.198 .0261604
1112.792 .0261886
1113.387 .0262197
1113.982 .0262496
1114.577 .0262786
1115.173 .0263017
1115.769 .0263149
1116.366 .0263237
1116.963 .0263261
1117.561 .0263272
1118.159 .0263322
1118.758 .0263452
1119.357 .0263674
1119.957 .0263983
1120.557 .0264358
1121.157 .0264748
1121.758 .0265128
1122.360 .0265461
1122.962 .0265690
1123.564 .0265877
1124.167 .0266054
1124.771 .0266245
1125.375 .0266476
1125.980 .0266812
1126.585 .0267251
1127.191 .0267779
1127.797 .0268349
1128.404 .0268910
1129.012 .0269441
1129.620 .0269941
1130.229 .0270367
1130.838 .0270713
1131.448 .0271019
1132.058 .0271339
1132.669 .0271658
1133.281 .0272056
1133.894 .0272524
1134.507 .0273076
1135.120 .0273739
1135.735 .0274498
1136.350 .0275305
1136.965 .0276173
1137.582 .0277087
1138.199 .0278057
1138.816 .0279069
1139.435 .0280205
1140.054 .0281435
1140.674 .0282791
1141.294 .0284296
1141.916 .0285753
1142.538 .0288116
1143.160 .0289736
1143.784 .0290805
1144.408 .0293086
1145.033 .0290347
