Measurement Sequence started on: 14-45-04-498
Integration time: 36
Scans to Average: 2 
>>>>>Begin Spectral Data<<<<<
433.946 .0596069
434.870 .0643636
435.793 .0601756
436.715 .0591245
437.635 .0567072
438.555 .0568373
439.473 .0559916
440.389 .0551285
441.305 .0545067
442.219 .0539901
443.132 .0535834
444.044 .0532381
444.954 .0529610
445.863 .0527189
446.771 .0525238
447.678 .0523555
448.584 .0522164
449.488 .0520910
450.391 .0519605
451.293 .0518150
452.194 .0516621
453.094 .0514986
453.992 .0513103
454.890 .0511154
455.786 .0509169
456.681 .0507065
457.575 .0505000
458.468 .0503007
459.360 .0501033
460.250 .0499142
461.140 .0497263
462.028 .0495438
462.915 .0493679
463.801 .0491980
464.687 .0490302
465.571 .0488719
466.454 .0487288
467.335 .0485967
468.216 .0484823
469.096 .0483877
469.975 .0483054
470.853 .0482372
471.729 .0481798
472.605 .0481258
473.479 .0480712
474.353 .0480175
475.226 .0479576
476.097 .0478942
476.968 .0478249
477.838 .0477489
478.706 .0476735
479.574 .0475993
480.441 .0475241
481.306 .0474484
482.171 .0473734
483.035 .0472933
483.898 .0472120
484.760 .0471283
485.621 .0470419
486.481 .0469533
487.340 .0468636
488.198 .0467737
489.055 .0466848
489.912 .0466003
490.767 .0465204
491.622 .0464451
492.476 .0463790
493.329 .0463151
494.180 .0462544
495.032 .0461965
495.882 .0461398
496.731 .0460831
497.580 .0460253
498.427 .0459636
499.274 .0458982
500.120 .0458291
500.965 .0457594
501.809 .0456908
502.653 .0456242
503.495 .0455592
504.337 .0454922
505.178 .0454197
506.018 .0453426
506.858 .0452559
507.696 .0451623
508.534 .0450624
509.371 .0449572
510.208 .0448516
511.043 .0447498
511.878 .0446574
512.712 .0445754
513.545 .0445063
514.377 .0444462
515.209 .0443917
516.040 .0443447
516.870 .0443014
517.699 .0442650
518.528 .0442361
519.356 .0442197
520.183 .0442136
521.010 .0442203
521.836 .0442367
522.661 .0442551
523.485 .0442774
524.309 .0442909
525.132 .0442902
525.954 .0442736
526.776 .0442381
527.597 .0441907
528.417 .0441295
529.237 .0440608
530.056 .0439818
530.874 .0438965
531.692 .0438072
532.508 .0437065
533.325 .0436035
534.140 .0434974
534.955 .0433931
535.770 .0432897
536.583 .0431947
537.397 .0431073
538.209 .0430316
539.021 .0429652
539.832 .0429055
540.643 .0428514
541.453 .0428040
542.262 .0427613
543.071 .0427213
543.879 .0426836
544.687 .0426479
545.494 .0426061
546.300 .0425694
547.106 .0425267
547.911 .0424811
548.716 .0424314
549.520 .0423786
550.323 .0423246
551.126 .0422642
551.929 .0422029
552.731 .0421389
553.532 .0420704
554.332 .0420003
555.133 .0419249
555.932 .0418499
556.731 .0417754
557.530 .0416978
558.328 .0416191
559.125 .0415391
559.922 .0414603
560.719 .0413826
561.515 .0413090
562.310 .0412423
563.105 .0411826
563.899 .0411311
564.693 .0410933
565.487 .0410605
566.280 .0410336
567.072 .0410065
567.864 .0409797
568.655 .0409450
569.446 .0409017
570.236 .0408470
571.026 .0407873
571.816 .0407214
572.605 .0406542
573.393 .0405841
574.181 .0405192
574.969 .0404576
575.756 .0403990
576.543 .0403403
577.329 .0402846
578.115 .0402243
578.900 .0401632
579.685 .0400988
580.469 .0400374
581.253 .0399777
582.036 .0399244
582.820 .0398768
583.602 .0398365
584.384 .0398017
585.166 .0397716
585.947 .0397418
586.728 .0397132
587.509 .0396823
588.289 .0396487
589.069 .0396116
589.848 .0395746
590.627 .0395359
591.405 .0394982
592.183 .0394622
592.961 .0394283
593.738 .0393948
594.515 .0393621
595.291 .0393291
596.067 .0392962
596.843 .0392635
597.618 .0392302
598.393 .0391963
599.167 .0391631
599.941 .0391292
600.715 .0390948
601.488 .0390608
602.261 .0390284
603.034 .0389969
603.806 .0389667
604.578 .0389385
605.349 .0389122
606.121 .0388878
606.891 .0388654
607.662 .0388435
608.432 .0388220
609.201 .0388000
609.971 .0387771
610.740 .0387529
611.508 .0387282
612.277 .0387038
613.045 .0386802
613.812 .0386574
614.579 .0386353
615.346 .0386131
616.113 .0385907
616.879 .0385684
617.645 .0385452
618.411 .0385213
619.176 .0384970
619.941 .0384726
620.705 .0384479
621.470 .0384232
622.233 .0383990
622.997 .0383753
623.760 .0383512
624.523 .0383269
625.286 .0383013
626.048 .0382750
626.810 .0382478
627.572 .0382196
628.333 .0381909
629.095 .0381613
629.855 .0381307
630.616 .0380999
631.376 .0380689
632.136 .0380390
632.895 .0380098
633.655 .0379818
634.414 .0379552
635.172 .0379295
635.931 .0379043
636.689 .0378803
637.447 .0378574
638.204 .0378350
638.962 .0378129
639.718 .0377920
640.475 .0377720
641.231 .0377524
641.988 .0377338
642.743 .0377154
643.499 .0376965
644.254 .0376767
645.009 .0376548
645.764 .0376308
646.518 .0376053
647.272 .0375781
648.026 .0375498
648.780 .0375213
649.533 .0374939
650.286 .0374671
651.039 .0374412
651.792 .0374166
652.544 .0373925
653.296 .0373684
654.048 .0373448
654.799 .0373215
655.550 .0372983
656.301 .0372753
657.052 .0372533
657.802 .0372314
658.552 .0372102
659.302 .0371898
660.052 .0371696
660.801 .0371502
661.550 .0371315
662.299 .0371128
663.048 .0370938
663.796 .0370752
664.544 .0370554
665.292 .0370341
666.040 .0370123
666.787 .0369886
667.534 .0369633
668.281 .0369370
669.028 .0369099
669.774 .0368821
670.521 .0368546
671.266 .0368273
672.012 .0368003
672.758 .0367743
673.503 .0367487
674.248 .0367234
674.992 .0366985
675.737 .0366741
676.481 .0366503
677.225 .0366274
677.969 .0366059
678.712 .0365858
679.455 .0365682
680.199 .0365531
680.941 .0365403
681.684 .0365296
682.426 .0365196
683.168 .0365102
683.910 .0365005
684.652 .0364896
685.393 .0364776
686.134 .0364647
686.875 .0364507
687.616 .0364358
688.356 .0364202
689.097 .0364040
689.837 .0363872
690.576 .0363701
691.316 .0363519
692.055 .0363326
692.794 .0363121
693.533 .0362900
694.272 .0362671
695.010 .0362439
695.748 .0362203
696.486 .0361971
697.224 .0361748
697.962 .0361534
698.699 .0361324
699.436 .0361124
700.173 .0360930
700.909 .0360743
701.646 .0360562
702.382 .0360386
703.118 .0360210
703.853 .0360040
704.589 .0359870
705.324 .0359702
706.059 .0359538
706.794 .0359372
707.529 .0359207
708.263 .0359041
708.997 .0358869
709.731 .0358694
710.465 .0358513
711.198 .0358319
711.931 .0358110
712.664 .0357891
713.397 .0357660
714.130 .0357418
714.862 .0357176
715.594 .0356931
716.326 .0356692
717.058 .0356457
717.789 .0356225
718.520 .0355992
719.251 .0355762
719.982 .0355530
720.713 .0355299
721.443 .0355072
722.173 .0354847
722.903 .0354626
723.633 .0354415
724.362 .0354208
725.091 .0354009
725.820 .0353814
726.549 .0353620
727.278 .0353422
728.006 .0353219
728.734 .0353010
729.462 .0352798
730.190 .0352589
730.917 .0352387
731.644 .0352198
732.371 .0352025
733.098 .0351872
733.825 .0351739
734.551 .0351626
735.277 .0351532
736.003 .0351449
736.728 .0351378
737.454 .0351318
738.179 .0351265
738.904 .0351223
739.629 .0351189
740.353 .0351167
741.077 .0351151
741.801 .0351140
742.525 .0351123
743.249 .0351099
743.972 .0351061
744.695 .0351005
745.418 .0350928
746.141 .0350831
746.863 .0350715
747.585 .0350586
748.307 .0350448
749.029 .0350302
749.750 .0350149
750.472 .0349993
751.193 .0349828
751.913 .0349658
752.634 .0349475
753.354 .0349284
754.074 .0349087
754.794 .0348889
755.514 .0348685
756.233 .0348483
756.952 .0348281
757.671 .0348085
758.390 .0347892
759.108 .0347700
759.826 .0347510
760.544 .0347326
761.262 .0347145
761.979 .0346964
762.697 .0346783
763.414 .0346602
764.130 .0346419
764.847 .0346235
765.563 .0346046
766.279 .0345850
766.995 .0345656
767.710 .0345461
768.426 .0345266
769.141 .0345077
769.855 .0344890
770.570 .0344704
771.284 .0344524
771.998 .0344342
772.712 .0344162
773.426 .0343981
774.139 .0343802
774.852 .0343621
775.565 .0343442
776.277 .0343266
776.990 .0343096
777.702 .0342932
778.414 .0342777
779.125 .0342620
779.836 .0342470
780.547 .0342318
781.258 .0342171
781.969 .0342023
782.679 .0341876
783.389 .0341728
784.099 .0341584
784.808 .0341443
785.517 .0341310
786.226 .0341185
786.935 .0341073
787.643 .0340969
788.352 .0340878
789.060 .0340790
789.767 .0340707
790.475 .0340627
791.182 .0340547
791.889 .0340466
792.595 .0340387
793.301 .0340303
794.008 .0340221
794.713 .0340140
795.419 .0340062
796.124 .0339981
796.829 .0339898
797.534 .0339810
798.238 .0339714
798.942 .0339608
799.646 .0339495
800.350 .0339371
801.053 .0339235
801.756 .0339089
802.459 .0338931
803.162 .0338766
803.864 .0338598
804.566 .0338430
805.267 .0338265
805.969 .0338107
806.670 .0337959
807.371 .0337822
808.071 .0337702
808.772 .0337596
809.472 .0337494
810.171 .0337403
810.871 .0337320
811.570 .0337242
812.269 .0337172
812.967 .0337109
813.666 .0337053
814.364 .0337006
815.061 .0336966
815.759 .0336926
816.456 .0336884
817.153 .0336838
817.849 .0336777
818.545 .0336702
819.241 .0336612
819.937 .0336507
820.632 .0336389
821.327 .0336259
822.022 .0336114
822.717 .0335957
823.411 .0335789
824.105 .0335612
824.798 .0335424
825.491 .0335232
826.184 .0335031
826.877 .0334835
827.569 .0334639
828.261 .0334447
828.953 .0334249
829.645 .0334046
830.336 .0333829
831.027 .0333601
831.717 .0333356
832.407 .0333099
833.097 .0332838
833.787 .0332575
834.476 .0332313
835.165 .0332059
835.854 .0331814
836.542 .0331587
837.230 .0331365
837.918 .0331151
838.605 .0330935
839.292 .0330724
839.979 .0330512
840.665 .0330298
841.352 .0330094
842.037 .0329901
842.723 .0329719
843.408 .0329552
844.093 .0329398
844.777 .0329263
845.462 .0329136
846.145 .0329012
846.829 .0328885
847.512 .0328758
848.195 .0328626
848.878 .0328488
849.560 .0328347
850.242 .0328208
850.923 .0328066
851.605 .0327929
852.286 .0327794
852.966 .0327654
853.646 .0327510
854.326 .0327357
855.006 .0327192
855.685 .0327014
856.364 .0326819
857.043 .0326611
857.721 .0326395
858.399 .0326177
859.077 .0325953
859.754 .0325730
860.431 .0325519
861.107 .0325316
861.784 .0325122
862.459 .0324938
863.135 .0324760
863.810 .0324594
864.485 .0324438
865.160 .0324296
865.834 .0324174
866.508 .0324075
867.181 .0324002
867.854 .0323953
868.527 .0323924
869.199 .0323910
869.872 .0323907
870.543 .0323912
871.215 .0323912
871.886 .0323912
872.557 .0323909
873.227 .0323905
873.897 .0323904
874.567 .0323906
875.236 .0323909
875.905 .0323913
876.573 .0323910
877.242 .0323894
877.909 .0323858
878.577 .0323806
879.244 .0323730
879.911 .0323640
880.577 .0323539
881.243 .0323433
881.909 .0323324
882.575 .0323217
883.240 .0323104
883.904 .0322987
884.569 .0322860
885.232 .0322720
885.896 .0322565
886.559 .0322400
887.222 .0322223
887.885 .0322045
888.547 .0321870
889.208 .0321703
889.870 .0321539
890.531 .0321386
891.192 .0321238
891.852 .0321094
892.512 .0320954
893.171 .0320815
893.830 .0320684
894.489 .0320562
895.148 .0320450
895.806 .0320346
896.464 .0320260
897.121 .0320188
897.778 .0320126
898.434 .0320070
899.091 .0320015
899.747 .0319957
900.402 .0319890
901.057 .0319810
901.712 .0319713
902.366 .0319602
903.020 .0319473
903.674 .0319323
904.327 .0319158
904.980 .0318976
905.633 .0318782
906.285 .0318580
906.936 .0318374
907.588 .0318163
908.239 .0317953
908.889 .0317745
909.540 .0317541
910.190 .0317339
910.839 .0317138
911.488 .0316937
912.137 .0316743
912.785 .0316553
913.433 .0316371
914.081 .0316199
914.728 .0316042
915.375 .0315895
916.021 .0315762
916.668 .0315633
917.313 .0315510
917.959 .0315383
918.604 .0315247
919.248 .0315097
919.892 .0314935
920.536 .0314763
921.180 .0314585
921.823 .0314406
922.465 .0314229
923.108 .0314054
923.750 .0313887
924.391 .0313720
925.032 .0313555
925.673 .0313388
926.313 .0313216
926.953 .0313033
927.593 .0312840
928.232 .0312629
928.871 .0312408
929.510 .0312175
930.148 .0311935
930.786 .0311686
931.423 .0311432
932.060 .0311175
932.697 .0310915
933.333 .0310649
933.969 .0310376
934.604 .0310093
935.239 .0309807
935.874 .0309516
936.508 .0309229
937.142 .0308951
937.776 .0308689
938.409 .0308443
939.042 .0308215
939.674 .0308001
940.306 .0307802
940.938 .0307612
941.569 .0307432
942.200 .0307262
942.830 .0307102
943.460 .0306947
944.090 .0306807
944.720 .0306679
945.349 .0306564
945.977 .0306455
946.606 .0306350
947.233 .0306246
947.861 .0306140
948.488 .0306025
949.115 .0305905
949.741 .0305779
950.367 .0305657
950.993 .0305534
951.618 .0305415
952.243 .0305302
952.868 .0305198
953.492 .0305097
954.115 .0305003
954.739 .0304913
955.362 .0304832
955.984 .0304757
956.607 .0304697
957.229 .0304649
957.850 .0304610
958.471 .0304580
959.092 .0304549
959.713 .0304516
960.333 .0304485
960.952 .0304449
961.572 .0304409
962.191 .0304374
962.809 .0304342
963.428 .0304312
964.045 .0304287
964.663 .0304267
965.280 .0304244
965.897 .0304218
966.513 .0304187
967.129 .0304147
967.745 .0304101
968.361 .0304050
968.976 .0303992
969.590 .0303938
970.205 .0303882
970.818 .0303829
971.432 .0303776
972.045 .0303725
972.658 .0303675
973.271 .0303621
973.883 .0303560
974.495 .0303492
975.106 .0303418
975.717 .0303342
976.328 .0303262
976.938 .0303177
977.548 .0303090
978.158 .0302999
978.768 .0302900
979.377 .0302790
979.985 .0302667
980.594 .0302535
981.202 .0302388
981.809 .0302229
982.417 .0302062
983.024 .0301892
983.631 .0301729
984.237 .0301572
984.843 .0301423
985.449 .0301277
986.054 .0301130
986.659 .0300991
987.264 .0300857
987.868 .0300732
988.472 .0300620
989.076 .0300529
989.679 .0300462
990.282 .0300420
990.885 .0300397
991.487 .0300392
992.090 .0300399
992.691 .0300411
993.293 .0300416
993.894 .0300409
994.495 .0300392
995.095 .0300364
995.696 .0300323
996.296 .0300268
996.895 .0300195
997.494 .0300102
998.093 .0299993
998.692 .0299866
999.291 .0299725
999.889 .0299578
1000.487 .0299428
1001.084 .0299281
1001.681 .0299136
1002.278 .0298994
1002.875 .0298855
1003.471 .0298720
1004.067 .0298585
1004.663 .0298445
1005.258 .0298295
1005.854 .0298140
1006.449 .0297983
1007.043 .0297822
1007.638 .0297661
1008.232 .0297507
1008.826 .0297359
1009.419 .0297212
1010.012 .0297062
1010.605 .0296913
1011.198 .0296759
1011.791 .0296602
1012.383 .0296432
1012.975 .0296255
1013.566 .0296077
1014.158 .0295903
1014.749 .0295738
1015.340 .0295591
1015.931 .0295463
1016.521 .0295356
1017.111 .0295272
1017.701 .0295214
1018.291 .0295162
1018.880 .0295124
1019.470 .0295094
1020.059 .0295073
1020.647 .0295056
1021.236 .0295050
1021.824 .0295055
1022.412 .0295081
1023.000 .0295119
1023.588 .0295165
1024.175 .0295216
1024.762 .0295273
1025.349 .0295323
1025.936 .0295366
1026.523 .0295402
1027.109 .0295435
1027.695 .0295462
1028.281 .0295492
1028.867 .0295517
1029.452 .0295538
1030.038 .0295549
1030.623 .0295546
1031.208 .0295525
1031.792 .0295492
1032.377 .0295446
1032.961 .0295401
1033.546 .0295368
1034.130 .0295347
1034.714 .0295333
1035.297 .0295335
1035.881 .0295342
1036.464 .0295352
1037.047 .0295358
1037.630 .0295353
1038.213 .0295346
1038.796 .0295339
1039.378 .0295339
1039.961 .0295344
1040.543 .0295362
1041.125 .0295384
1041.707 .0295400
1042.289 .0295409
1042.871 .0295405
1043.452 .0295391
1044.034 .0295367
1044.615 .0295339
1045.196 .0295313
1045.777 .0295297
1046.358 .0295291
1046.939 .0295299
1047.520 .0295319
1048.101 .0295340
1048.681 .0295363
1049.262 .0295382
1049.842 .0295400
1050.422 .0295420
1051.002 .0295447
1051.582 .0295487
1052.162 .0295533
1052.742 .0295587
1053.322 .0295631
1053.902 .0295667
1054.482 .0295687
1055.061 .0295682
1055.641 .0295656
1056.220 .0295614
1056.800 .0295557
1057.379 .0295496
1057.958 .0295440
1058.538 .0295393
1059.117 .0295352
1059.696 .0295313
1060.275 .0295263
1060.854 .0295214
1061.433 .0295157
1062.012 .0295114
1062.592 .0295083
1063.171 .0295084
1063.750 .0295121
1064.329 .0295197
1064.908 .0295299
1065.487 .0295413
1066.066 .0295520
1066.645 .0295616
1067.224 .0295667
1067.803 .0295685
1068.382 .0295663
1068.961 .0295625
1069.540 .0295587
1070.119 .0295559
1070.698 .0295537
1071.278 .0295524
1071.857 .0295500
1072.436 .0295451
1073.016 .0295367
1073.595 .0295248
1074.175 .0295102
1074.754 .0294943
1075.334 .0294795
1075.913 .0294677
1076.493 .0294592
1077.073 .0294569
1077.653 .0294585
1078.233 .0294646
1078.813 .0294734
1079.393 .0294826
1079.974 .0294934
1080.554 .0295045
1081.135 .0295166
1081.716 .0295279
1082.296 .0295397
1082.877 .0295512
1083.458 .0295599
1084.040 .0295659
1084.621 .0295682
1085.202 .0295660
1085.784 .0295602
1086.366 .0295507
1086.948 .0295381
1087.530 .0295241
1088.112 .0295093
1088.695 .0294920
1089.277 .0294751
1089.860 .0294571
1090.443 .0294382
1091.026 .0294181
1091.610 .0294009
1092.193 .0293854
1092.777 .0293733
1093.361 .0293657
1093.946 .0293624
1094.530 .0293646
1095.115 .0293714
1095.700 .0293804
1096.285 .0293911
1096.871 .0294027
1097.456 .0294144
1098.042 .0294252
1098.628 .0294374
1099.215 .0294487
1099.802 .0294613
1100.389 .0294738
1100.976 .0294857
1101.564 .0294947
1102.152 .0295013
1102.740 .0295036
1103.329 .0295037
1103.917 .0294989
1104.507 .0294892
1105.096 .0294761
1105.686 .0294625
1106.276 .0294475
1106.867 .0294338
1107.457 .0294204
1108.049 .0294078
1108.640 .0293959
1109.232 .0293861
1109.825 .0293761
1110.417 .0293686
1111.010 .0293639
1111.604 .0293622
1112.198 .0293618
1112.792 .0293640
1113.387 .0293649
1113.982 .0293681
1114.577 .0293747
1115.173 .0293818
1115.769 .0293888
1116.366 .0293972
1116.963 .0294094
1117.561 .0294241
1118.159 .0294434
1118.758 .0294663
1119.357 .0294906
1119.957 .0295173
1120.557 .0295420
1121.157 .0295613
1121.758 .0295779
1122.360 .0295915
1122.962 .0296011
1123.564 .0296097
1124.167 .0296230
1124.771 .0296398
1125.375 .0296664
1125.980 .0297003
1126.585 .0297406
1127.191 .0297786
1127.797 .0298154
1128.404 .0298445
1129.012 .0298665
1129.620 .0298855
1130.229 .0299020
1130.838 .0299192
1131.448 .0299472
1132.058 .0299836
1132.669 .0300308
1133.281 .0300878
1133.894 .0301525
1134.507 .0302154
1135.120 .0302760
1135.735 .0303270
1136.350 .0303711
1136.965 .0304086
1137.582 .0304452
1138.199 .0304770
1138.816 .0305090
1139.435 .0305407
1140.054 .0305687
1140.674 .0305941
1141.294 .0306101
1141.916 .0306373
1142.538 .0306371
1143.160 .0305986
1143.784 .0306302
1144.408 .0305010
1145.033 .0311088
