Measurement Sequence started on: 14-45-04-498
Integration time: 36
Scans to Average: 2 
>>>>>Begin Spectral Data<<<<<
433.946 .0432304
434.870 .0413527
435.793 .0401316
436.715 .0407602
437.635 .0414170
438.555 .0409291
439.473 .0407867
440.389 .0407099
441.305 .0406586
442.219 .0405838
443.132 .0405082
444.044 .0404525
444.954 .0403833
445.863 .0403250
446.771 .0402608
447.678 .0401724
448.584 .0400759
449.488 .0399775
450.391 .0398754
451.293 .0397881
452.194 .0397111
453.094 .0396322
453.992 .0395518
454.890 .0394650
455.786 .0393650
456.681 .0392514
457.575 .0391399
458.468 .0390184
459.360 .0389013
460.250 .0387960
461.140 .0386963
462.028 .0386162
462.915 .0385541
463.801 .0385020
464.687 .0384540
465.571 .0384097
466.454 .0383620
467.335 .0383088
468.216 .0382529
469.096 .0381919
469.975 .0381299
470.853 .0380695
471.729 .0380102
472.605 .0379534
473.479 .0379009
474.353 .0378514
475.226 .0378030
476.097 .0377558
476.968 .0377037
477.838 .0376490
478.706 .0375944
479.574 .0375378
480.441 .0374819
481.306 .0374268
482.171 .0373718
483.035 .0373211
483.898 .0372762
484.760 .0372382
485.621 .0372074
486.481 .0371840
487.340 .0371642
488.198 .0371473
489.055 .0371286
489.912 .0371035
490.767 .0370714
491.622 .0370313
492.476 .0369797
493.329 .0369175
494.180 .0368522
495.032 .0367867
495.882 .0367273
496.731 .0366781
497.580 .0366395
498.427 .0366086
499.274 .0365803
500.120 .0365507
500.965 .0365164
501.809 .0364739
502.653 .0364220
503.495 .0363628
504.337 .0363024
505.178 .0362435
506.018 .0361910
506.858 .0361485
507.696 .0361175
508.534 .0360941
509.371 .0360748
510.208 .0360522
511.043 .0360263
511.878 .0359920
512.712 .0359527
513.545 .0359084
514.377 .0358625
515.209 .0358173
516.040 .0357775
516.870 .0357479
517.699 .0357276
518.528 .0357138
519.356 .0357079
520.183 .0357001
521.010 .0356883
521.836 .0356687
522.661 .0356373
523.485 .0355954
524.309 .0355450
525.132 .0354802
525.954 .0354058
526.776 .0353187
527.597 .0352233
528.417 .0351150
529.237 .0349960
530.056 .0348665
530.874 .0347282
531.692 .0345913
532.508 .0344553
533.325 .0343285
534.140 .0342186
534.955 .0341214
535.770 .0340363
536.583 .0339619
537.397 .0338979
538.209 .0338449
539.021 .0338001
539.832 .0337599
540.643 .0337267
541.453 .0336990
542.262 .0336743
543.071 .0336556
543.879 .0336396
544.687 .0336310
545.494 .0336256
546.300 .0336241
547.106 .0336264
547.911 .0336374
548.716 .0336608
549.520 .0336884
550.323 .0337202
551.126 .0337505
551.929 .0337727
552.731 .0337883
553.532 .0337934
554.332 .0337864
555.133 .0337721
555.932 .0337526
556.731 .0337274
557.530 .0337023
558.328 .0336794
559.125 .0336556
559.922 .0336332
560.719 .0336053
561.515 .0335690
562.310 .0335225
563.105 .0334731
563.899 .0334219
564.693 .0333685
565.487 .0333207
566.280 .0332742
567.072 .0332333
567.864 .0331937
568.655 .0331501
569.446 .0331053
570.236 .0330570
571.026 .0330041
571.816 .0329447
572.605 .0328830
573.393 .0328237
574.181 .0327674
574.969 .0327166
575.756 .0326701
576.543 .0326296
577.329 .0325939
578.115 .0325637
578.900 .0325362
579.685 .0325130
580.469 .0324941
581.253 .0324796
582.036 .0324688
582.820 .0324608
583.602 .0324560
584.384 .0324536
585.166 .0324543
585.947 .0324566
586.728 .0324590
587.509 .0324619
588.289 .0324628
589.069 .0324607
589.848 .0324542
590.627 .0324422
591.405 .0324248
592.183 .0324024
592.961 .0323759
593.738 .0323443
594.515 .0323098
595.291 .0322739
596.067 .0322383
596.843 .0322029
597.618 .0321667
598.393 .0321306
599.167 .0320951
599.941 .0320593
600.715 .0320236
601.488 .0319882
602.261 .0319537
603.034 .0319195
603.806 .0318863
604.578 .0318529
605.349 .0318198
606.121 .0317873
606.891 .0317550
607.662 .0317225
608.432 .0316901
609.201 .0316567
609.971 .0316231
610.740 .0315893
611.508 .0315551
612.277 .0315193
613.045 .0314832
613.812 .0314469
614.579 .0314104
615.346 .0313749
616.113 .0313413
616.879 .0313098
617.645 .0312814
618.411 .0312556
619.176 .0312315
619.941 .0312089
620.705 .0311876
621.470 .0311664
622.233 .0311457
622.997 .0311251
623.760 .0311049
624.523 .0310855
625.286 .0310679
626.048 .0310516
626.810 .0310364
627.572 .0310223
628.333 .0310080
629.095 .0309935
629.855 .0309773
630.616 .0309599
631.376 .0309424
632.136 .0309257
632.895 .0309105
633.655 .0308970
634.414 .0308858
635.172 .0308766
635.931 .0308687
636.689 .0308611
637.447 .0308529
638.204 .0308436
638.962 .0308321
639.718 .0308182
640.475 .0308023
641.231 .0307848
641.988 .0307660
642.743 .0307469
643.499 .0307274
644.254 .0307067
645.009 .0306850
645.764 .0306622
646.518 .0306389
647.272 .0306154
648.026 .0305914
648.780 .0305673
649.533 .0305434
650.286 .0305194
651.039 .0304945
651.792 .0304692
652.544 .0304440
653.296 .0304183
654.048 .0303921
654.799 .0303658
655.550 .0303394
656.301 .0303133
657.052 .0302875
657.802 .0302616
658.552 .0302354
659.302 .0302081
660.052 .0301798
660.801 .0301502
661.550 .0301202
662.299 .0300903
663.048 .0300606
663.796 .0300324
664.544 .0300057
665.292 .0299805
666.040 .0299566
666.787 .0299338
667.534 .0299121
668.281 .0298911
669.028 .0298705
669.774 .0298504
670.521 .0298312
671.266 .0298130
672.012 .0297963
672.758 .0297808
673.503 .0297668
674.248 .0297540
674.992 .0297417
675.737 .0297301
676.481 .0297185
677.225 .0297074
677.969 .0296962
678.712 .0296860
679.455 .0296767
680.199 .0296682
680.941 .0296611
681.684 .0296554
682.426 .0296508
683.168 .0296471
683.910 .0296437
684.652 .0296402
685.393 .0296369
686.134 .0296338
686.875 .0296307
687.616 .0296283
688.356 .0296272
689.097 .0296272
689.837 .0296277
690.576 .0296287
691.316 .0296298
692.055 .0296303
692.794 .0296302
693.533 .0296286
694.272 .0296260
695.010 .0296227
695.748 .0296189
696.486 .0296145
697.224 .0296101
697.962 .0296050
698.699 .0295991
699.436 .0295922
700.173 .0295843
700.909 .0295746
701.646 .0295639
702.382 .0295525
703.118 .0295407
703.853 .0295286
704.589 .0295167
705.324 .0295051
706.059 .0294938
706.794 .0294820
707.529 .0294696
708.263 .0294565
708.997 .0294435
709.731 .0294298
710.465 .0294159
711.198 .0294016
711.931 .0293870
712.664 .0293719
713.397 .0293562
714.130 .0293397
714.862 .0293222
715.594 .0293037
716.326 .0292848
717.058 .0292657
717.789 .0292465
718.520 .0292271
719.251 .0292079
719.982 .0291886
720.713 .0291683
721.443 .0291470
722.173 .0291249
722.903 .0291025
723.633 .0290798
724.362 .0290571
725.091 .0290345
725.820 .0290128
726.549 .0289918
727.278 .0289717
728.006 .0289520
728.734 .0289326
729.462 .0289132
730.190 .0288944
730.917 .0288759
731.644 .0288585
732.371 .0288420
733.098 .0288274
733.825 .0288145
734.551 .0288031
735.277 .0287927
736.003 .0287833
736.728 .0287749
737.454 .0287677
738.179 .0287613
738.904 .0287561
739.629 .0287518
740.353 .0287493
741.077 .0287475
741.801 .0287463
742.525 .0287450
743.249 .0287436
743.972 .0287412
744.695 .0287381
745.418 .0287338
746.141 .0287285
746.863 .0287232
747.585 .0287184
748.307 .0287140
749.029 .0287102
749.750 .0287064
750.472 .0287031
751.193 .0286993
751.913 .0286952
752.634 .0286900
753.354 .0286847
754.074 .0286792
754.794 .0286739
755.514 .0286687
756.233 .0286644
756.952 .0286609
757.671 .0286586
758.390 .0286562
759.108 .0286535
759.826 .0286501
760.544 .0286463
761.262 .0286417
761.979 .0286372
762.697 .0286323
763.414 .0286281
764.130 .0286245
764.847 .0286219
765.563 .0286199
766.279 .0286189
766.995 .0286182
767.710 .0286179
768.426 .0286175
769.141 .0286169
769.855 .0286158
770.570 .0286153
771.284 .0286150
771.998 .0286151
772.712 .0286158
773.426 .0286170
774.139 .0286181
774.852 .0286192
775.565 .0286196
776.277 .0286190
776.990 .0286171
777.702 .0286137
778.414 .0286085
779.125 .0286025
779.836 .0285958
780.547 .0285884
781.258 .0285810
781.969 .0285737
782.679 .0285662
783.389 .0285585
784.099 .0285503
784.808 .0285415
785.517 .0285324
786.226 .0285228
786.935 .0285122
787.643 .0285014
788.352 .0284906
789.060 .0284793
789.767 .0284675
790.475 .0284555
791.182 .0284427
791.889 .0284292
792.595 .0284153
793.301 .0284006
794.008 .0283855
794.713 .0283704
795.419 .0283551
796.124 .0283398
796.829 .0283243
797.534 .0283083
798.238 .0282916
798.942 .0282750
799.646 .0282581
800.350 .0282407
801.053 .0282239
801.756 .0282072
802.459 .0281906
803.162 .0281742
803.864 .0281579
804.566 .0281419
805.267 .0281259
805.969 .0281097
806.670 .0280938
807.371 .0280784
808.071 .0280642
808.772 .0280511
809.472 .0280389
810.171 .0280280
810.871 .0280176
811.570 .0280077
812.269 .0279978
812.967 .0279880
813.666 .0279783
814.364 .0279689
815.061 .0279600
815.759 .0279518
816.456 .0279442
817.153 .0279374
817.849 .0279306
818.545 .0279236
819.241 .0279161
819.937 .0279076
820.632 .0278982
821.327 .0278882
822.022 .0278773
822.717 .0278663
823.411 .0278554
824.105 .0278452
824.798 .0278354
825.491 .0278262
826.184 .0278173
826.877 .0278087
827.569 .0278002
828.261 .0277920
828.953 .0277838
829.645 .0277761
830.336 .0277686
831.027 .0277618
831.717 .0277557
832.407 .0277503
833.097 .0277457
833.787 .0277420
834.476 .0277388
835.165 .0277360
835.854 .0277337
836.542 .0277319
837.230 .0277304
837.918 .0277295
838.605 .0277290
839.292 .0277288
839.979 .0277291
840.665 .0277298
841.352 .0277307
842.037 .0277322
842.723 .0277334
843.408 .0277339
844.093 .0277340
844.777 .0277334
845.462 .0277317
846.145 .0277291
846.829 .0277257
847.512 .0277216
848.195 .0277169
848.878 .0277120
849.560 .0277068
850.242 .0277019
850.923 .0276972
851.605 .0276922
852.286 .0276868
852.966 .0276812
853.646 .0276753
854.326 .0276696
855.006 .0276639
855.685 .0276581
856.364 .0276525
857.043 .0276474
857.721 .0276428
858.399 .0276384
859.077 .0276343
859.754 .0276303
860.431 .0276261
861.107 .0276217
861.784 .0276168
862.459 .0276120
863.135 .0276071
863.810 .0276021
864.485 .0275969
865.160 .0275917
865.834 .0275866
866.508 .0275815
867.181 .0275762
867.854 .0275708
868.527 .0275648
869.199 .0275580
869.872 .0275504
870.543 .0275420
871.215 .0275327
871.886 .0275228
872.557 .0275120
873.227 .0275005
873.897 .0274882
874.567 .0274751
875.236 .0274615
875.905 .0274472
876.573 .0274322
877.242 .0274161
877.909 .0273995
878.577 .0273825
879.244 .0273647
879.911 .0273468
880.577 .0273287
881.243 .0273101
881.909 .0272910
882.575 .0272713
883.240 .0272512
883.904 .0272311
884.569 .0272109
885.232 .0271906
885.896 .0271702
886.559 .0271505
887.222 .0271310
887.885 .0271118
888.547 .0270935
889.208 .0270755
889.870 .0270580
890.531 .0270407
891.192 .0270236
891.852 .0270070
892.512 .0269908
893.171 .0269750
893.830 .0269595
894.489 .0269439
895.148 .0269285
895.806 .0269132
896.464 .0268981
897.121 .0268836
897.778 .0268689
898.434 .0268543
899.091 .0268395
899.747 .0268247
900.402 .0268095
901.057 .0267940
901.712 .0267788
902.366 .0267632
903.020 .0267479
903.674 .0267330
904.327 .0267185
904.980 .0267048
905.633 .0266920
906.285 .0266799
906.936 .0266682
907.588 .0266563
908.239 .0266442
908.889 .0266318
909.540 .0266193
910.190 .0266061
910.839 .0265924
911.488 .0265786
912.137 .0265646
912.785 .0265502
913.433 .0265358
914.081 .0265214
914.728 .0265073
915.375 .0264935
916.021 .0264802
916.668 .0264676
917.313 .0264558
917.959 .0264450
918.604 .0264350
919.248 .0264255
919.892 .0264165
920.536 .0264073
921.180 .0263983
921.823 .0263891
922.465 .0263792
923.108 .0263690
923.750 .0263581
924.391 .0263468
925.032 .0263347
925.673 .0263216
926.313 .0263078
926.953 .0262936
927.593 .0262783
928.232 .0262621
928.871 .0262454
929.510 .0262279
930.148 .0262096
930.786 .0261914
931.423 .0261738
932.060 .0261570
932.697 .0261418
933.333 .0261283
933.969 .0261165
934.604 .0261067
935.239 .0260982
935.874 .0260910
936.508 .0260857
937.142 .0260814
937.776 .0260771
938.409 .0260734
939.042 .0260696
939.674 .0260653
940.306 .0260606
940.938 .0260555
941.569 .0260501
942.200 .0260442
942.830 .0260375
943.460 .0260303
944.090 .0260230
944.720 .0260155
945.349 .0260069
945.977 .0259981
946.606 .0259885
947.233 .0259776
947.861 .0259664
948.488 .0259550
949.115 .0259439
949.741 .0259340
950.367 .0259249
950.993 .0259174
951.618 .0259117
952.243 .0259075
952.868 .0259040
953.492 .0259013
954.115 .0258988
954.739 .0258957
955.362 .0258919
955.984 .0258886
956.607 .0258853
957.229 .0258828
957.850 .0258811
958.471 .0258799
959.092 .0258787
959.713 .0258770
960.333 .0258742
960.952 .0258706
961.572 .0258660
962.191 .0258606
962.809 .0258541
963.428 .0258479
964.045 .0258418
964.663 .0258357
965.280 .0258299
965.897 .0258249
966.513 .0258202
967.129 .0258158
967.745 .0258116
968.361 .0258076
968.976 .0258037
969.590 .0258004
970.205 .0257971
970.818 .0257938
971.432 .0257908
972.045 .0257879
972.658 .0257850
973.271 .0257821
973.883 .0257789
974.495 .0257755
975.106 .0257718
975.717 .0257678
976.328 .0257627
976.938 .0257570
977.548 .0257512
978.158 .0257452
978.768 .0257386
979.377 .0257315
979.985 .0257239
980.594 .0257163
981.202 .0257083
981.809 .0256998
982.417 .0256913
983.024 .0256829
983.631 .0256749
984.237 .0256672
984.843 .0256595
985.449 .0256516
986.054 .0256431
986.659 .0256339
987.264 .0256234
987.868 .0256113
988.472 .0255986
989.076 .0255857
989.679 .0255735
990.282 .0255617
990.885 .0255506
991.487 .0255404
992.090 .0255307
992.691 .0255208
993.293 .0255102
993.894 .0254984
994.495 .0254859
995.095 .0254724
995.696 .0254586
996.296 .0254449
996.895 .0254319
997.494 .0254202
998.093 .0254096
998.692 .0254006
999.291 .0253924
999.889 .0253843
1000.487 .0253766
1001.084 .0253683
1001.681 .0253585
1002.278 .0253476
1002.875 .0253355
1003.471 .0253226
1004.067 .0253100
1004.663 .0252979
1005.258 .0252868
1005.854 .0252775
1006.449 .0252699
1007.043 .0252633
1007.638 .0252570
1008.232 .0252510
1008.826 .0252434
1009.419 .0252347
1010.012 .0252246
1010.605 .0252130
1011.198 .0251998
1011.791 .0251868
1012.383 .0251736
1012.975 .0251609
1013.566 .0251492
1014.158 .0251380
1014.749 .0251268
1015.340 .0251158
1015.931 .0251042
1016.521 .0250918
1017.111 .0250790
1017.701 .0250666
1018.291 .0250538
1018.880 .0250417
1019.470 .0250303
1020.059 .0250200
1020.647 .0250104
1021.236 .0250025
1021.824 .0249957
1022.412 .0249904
1023.000 .0249859
1023.588 .0249819
1024.175 .0249785
1024.762 .0249756
1025.349 .0249721
1025.936 .0249680
1026.523 .0249625
1027.109 .0249562
1027.695 .0249485
1028.281 .0249405
1028.867 .0249324
1029.452 .0249251
1030.038 .0249189
1030.623 .0249136
1031.208 .0249098
1031.792 .0249072
1032.377 .0249050
1032.961 .0249034
1033.546 .0249021
1034.130 .0249001
1034.714 .0248973
1035.297 .0248947
1035.881 .0248925
1036.464 .0248912
1037.047 .0248911
1037.630 .0248908
1038.213 .0248910
1038.796 .0248912
1039.378 .0248906
1039.961 .0248889
1040.543 .0248868
1041.125 .0248838
1041.707 .0248792
1042.289 .0248731
1042.871 .0248661
1043.452 .0248585
1044.034 .0248512
1044.615 .0248437
1045.196 .0248364
1045.777 .0248292
1046.358 .0248225
1046.939 .0248163
1047.520 .0248107
1048.101 .0248050
1048.681 .0247994
1049.262 .0247934
1049.842 .0247877
1050.422 .0247822
1051.002 .0247768
1051.582 .0247721
1052.162 .0247695
1052.742 .0247679
1053.322 .0247672
1053.902 .0247678
1054.482 .0247704
1055.061 .0247735
1055.641 .0247773
1056.220 .0247808
1056.800 .0247848
1057.379 .0247896
1057.958 .0247957
1058.538 .0248024
1059.117 .0248110
1059.696 .0248210
1060.275 .0248315
1060.854 .0248416
1061.433 .0248518
1062.012 .0248598
1062.592 .0248668
1063.171 .0248718
1063.750 .0248759
1064.329 .0248793
1064.908 .0248832
1065.487 .0248872
1066.066 .0248916
1066.645 .0248948
1067.224 .0248973
1067.803 .0248979
1068.382 .0248983
1068.961 .0248979
1069.540 .0248978
1070.119 .0248983
1070.698 .0249006
1071.278 .0249052
1071.857 .0249122
1072.436 .0249204
1073.016 .0249312
1073.595 .0249413
1074.175 .0249510
1074.754 .0249600
1075.334 .0249693
1075.913 .0249783
1076.493 .0249880
1077.073 .0249977
1077.653 .0250081
1078.233 .0250169
1078.813 .0250244
1079.393 .0250283
1079.974 .0250299
1080.554 .0250289
1081.135 .0250243
1081.716 .0250183
1082.296 .0250131
1082.877 .0250079
1083.458 .0250039
1084.040 .0250004
1084.621 .0249989
1085.202 .0249961
1085.784 .0249935
1086.366 .0249916
1086.948 .0249903
1087.530 .0249916
1088.112 .0249956
1088.695 .0250028
1089.277 .0250155
1089.860 .0250317
1090.443 .0250493
1091.026 .0250676
1091.610 .0250869
1092.193 .0251044
1092.777 .0251197
1093.361 .0251337
1093.946 .0251470
1094.530 .0251587
1095.115 .0251714
1095.700 .0251841
1096.285 .0251969
1096.871 .0252097
1097.456 .0252207
1098.042 .0252297
1098.628 .0252364
1099.215 .0252389
1099.802 .0252387
1100.389 .0252362
1100.976 .0252332
1101.564 .0252276
1102.152 .0252220
1102.740 .0252172
1103.329 .0252131
1103.917 .0252087
1104.507 .0252032
1105.096 .0251982
1105.686 .0251940
1106.276 .0251899
1106.867 .0251891
1107.457 .0251901
1108.049 .0251942
1108.640 .0252003
1109.232 .0252083
1109.825 .0252166
1110.417 .0252258
1111.010 .0252355
1111.604 .0252449
1112.198 .0252551
1112.792 .0252647
1113.387 .0252727
1113.982 .0252818
1114.577 .0252921
1115.173 .0253019
1115.769 .0253121
1116.366 .0253246
1116.963 .0253357
1117.561 .0253469
1118.159 .0253587
1118.758 .0253693
1119.357 .0253787
1119.957 .0253877
1120.557 .0253954
1121.157 .0254011
1121.758 .0254102
1122.360 .0254216
1122.962 .0254347
1123.564 .0254540
1124.167 .0254734
1124.771 .0254922
1125.375 .0255097
1125.980 .0255280
1126.585 .0255418
1127.191 .0255544
1127.797 .0255692
1128.404 .0255829
1129.012 .0255995
1129.620 .0256196
1130.229 .0256380
1130.838 .0256562
1131.448 .0256722
1132.058 .0256843
1132.669 .0256877
1133.281 .0256918
1133.894 .0256957
1134.507 .0257034
1135.120 .0257190
1135.735 .0257400
1136.350 .0257625
1136.965 .0257879
1137.582 .0258116
1138.199 .0258296
1138.816 .0258431
1139.435 .0258650
1140.054 .0258852
1140.674 .0259133
1141.294 .0259354
1141.916 .0259617
1142.538 .0262067
1143.160 .0260903
1143.784 .0261643
1144.408 .0258169
1145.033 .0259922
