Measurement Sequence started on: 14-45-04-498
Integration time: 36
Scans to Average: 2 
>>>>>Begin Spectral Data<<<<<
433.946 .0509837
434.870 .0461720
435.793 .0402241
436.715 .0389032
437.635 .0389152
438.555 .0402402
439.473 .0396088
440.389 .0392820
441.305 .0391579
442.219 .0390544
443.132 .0389473
444.044 .0388300
444.954 .0387560
445.863 .0387071
446.771 .0386735
447.678 .0386521
448.584 .0386385
449.488 .0386160
450.391 .0385832
451.293 .0385525
452.194 .0385289
453.094 .0385062
453.992 .0384922
454.890 .0384749
455.786 .0384559
456.681 .0384324
457.575 .0383971
458.468 .0383438
459.360 .0382838
460.250 .0382149
461.140 .0381386
462.028 .0380569
462.915 .0379749
463.801 .0378873
464.687 .0377992
465.571 .0377099
466.454 .0376205
467.335 .0375316
468.216 .0374509
469.096 .0373745
469.975 .0373087
470.853 .0372505
471.729 .0371995
472.605 .0371559
473.479 .0371182
474.353 .0370847
475.226 .0370549
476.097 .0370286
476.968 .0370060
477.838 .0369835
478.706 .0369652
479.574 .0369468
480.441 .0369280
481.306 .0369058
482.171 .0368760
483.035 .0368385
483.898 .0367947
484.760 .0367453
485.621 .0366943
486.481 .0366425
487.340 .0365929
488.198 .0365461
489.055 .0365017
489.912 .0364568
490.767 .0364093
491.622 .0363607
492.476 .0363083
493.329 .0362509
494.180 .0361912
495.032 .0361321
495.882 .0360786
496.731 .0360320
497.580 .0359934
498.427 .0359628
499.274 .0359391
500.120 .0359186
500.965 .0359003
501.809 .0358810
502.653 .0358592
503.495 .0358345
504.337 .0358066
505.178 .0357775
506.018 .0357459
506.858 .0357152
507.696 .0356851
508.534 .0356591
509.371 .0356333
510.208 .0356085
511.043 .0355899
511.878 .0355735
512.712 .0355585
513.545 .0355439
514.377 .0355327
515.209 .0355225
516.040 .0355115
516.870 .0355031
517.699 .0354952
518.528 .0354903
519.356 .0354838
520.183 .0354742
521.010 .0354630
521.836 .0354476
522.661 .0354230
523.485 .0353883
524.309 .0353402
525.132 .0352740
525.954 .0351907
526.776 .0350919
527.597 .0349833
528.417 .0348651
529.237 .0347442
530.056 .0346226
530.874 .0345017
531.692 .0343819
532.508 .0342669
533.325 .0341597
534.140 .0340572
534.955 .0339588
535.770 .0338642
536.583 .0337764
537.397 .0337001
538.209 .0336313
539.021 .0335724
539.832 .0335212
540.643 .0334808
541.453 .0334462
542.262 .0334206
543.071 .0334004
543.879 .0333861
544.687 .0333830
545.494 .0333851
546.300 .0333863
547.106 .0333890
547.911 .0333943
548.716 .0334002
549.520 .0334030
550.323 .0333986
551.126 .0333880
551.929 .0333725
552.731 .0333482
553.532 .0333171
554.332 .0332859
555.133 .0332552
555.932 .0332248
556.731 .0331933
557.530 .0331621
558.328 .0331289
559.125 .0330957
559.922 .0330593
560.719 .0330194
561.515 .0329762
562.310 .0329301
563.105 .0328864
563.899 .0328518
564.693 .0328211
565.487 .0327943
566.280 .0327725
567.072 .0327523
567.864 .0327287
568.655 .0327003
569.446 .0326648
570.236 .0326237
571.026 .0325787
571.816 .0325293
572.605 .0324787
573.393 .0324327
574.181 .0323920
574.969 .0323547
575.756 .0323203
576.543 .0322876
577.329 .0322551
578.115 .0322231
578.900 .0321927
579.685 .0321629
580.469 .0321358
581.253 .0321114
582.036 .0320904
582.820 .0320728
583.602 .0320583
584.384 .0320454
585.166 .0320328
585.947 .0320192
586.728 .0320032
587.509 .0319849
588.289 .0319661
589.069 .0319469
589.848 .0319272
590.627 .0319055
591.405 .0318823
592.183 .0318568
592.961 .0318294
593.738 .0317995
594.515 .0317663
595.291 .0317305
596.067 .0316919
596.843 .0316515
597.618 .0316095
598.393 .0315678
599.167 .0315273
599.941 .0314872
600.715 .0314481
601.488 .0314096
602.261 .0313720
603.034 .0313353
603.806 .0313004
604.578 .0312675
605.349 .0312363
606.121 .0312072
606.891 .0311799
607.662 .0311542
608.432 .0311307
609.201 .0311089
609.971 .0310882
610.740 .0310676
611.508 .0310470
612.277 .0310263
613.045 .0310058
613.812 .0309858
614.579 .0309667
615.346 .0309482
616.113 .0309311
616.879 .0309150
617.645 .0308996
618.411 .0308852
619.176 .0308716
619.941 .0308582
620.705 .0308443
621.470 .0308302
622.233 .0308153
622.997 .0307997
623.760 .0307847
624.523 .0307700
625.286 .0307552
626.048 .0307412
626.810 .0307270
627.572 .0307124
628.333 .0306974
629.095 .0306813
629.855 .0306636
630.616 .0306447
631.376 .0306255
632.136 .0306053
632.895 .0305852
633.655 .0305665
634.414 .0305483
635.172 .0305310
635.931 .0305147
636.689 .0304981
637.447 .0304805
638.204 .0304620
638.962 .0304415
639.718 .0304193
640.475 .0303955
641.231 .0303700
641.988 .0303427
642.743 .0303145
643.499 .0302851
644.254 .0302535
645.009 .0302206
645.764 .0301872
646.518 .0301530
647.272 .0301187
648.026 .0300847
648.780 .0300519
649.533 .0300211
650.286 .0299926
651.039 .0299661
651.792 .0299420
652.544 .0299195
653.296 .0298981
654.048 .0298767
654.799 .0298559
655.550 .0298352
656.301 .0298149
657.052 .0297955
657.802 .0297772
658.552 .0297600
659.302 .0297437
660.052 .0297283
660.801 .0297133
661.550 .0296976
662.299 .0296814
663.048 .0296637
663.796 .0296454
664.544 .0296263
665.292 .0296070
666.040 .0295878
666.787 .0295701
667.534 .0295537
668.281 .0295384
669.028 .0295243
669.774 .0295114
670.521 .0294991
671.266 .0294873
672.012 .0294767
672.758 .0294671
673.503 .0294584
674.248 .0294513
674.992 .0294452
675.737 .0294407
676.481 .0294367
677.225 .0294331
677.969 .0294298
678.712 .0294261
679.455 .0294220
680.199 .0294175
680.941 .0294131
681.684 .0294089
682.426 .0294046
683.168 .0294005
683.910 .0293967
684.652 .0293924
685.393 .0293874
686.134 .0293813
686.875 .0293743
687.616 .0293668
688.356 .0293583
689.097 .0293495
689.837 .0293408
690.576 .0293323
691.316 .0293248
692.055 .0293175
692.794 .0293105
693.533 .0293035
694.272 .0292959
695.010 .0292874
695.748 .0292776
696.486 .0292664
697.224 .0292536
697.962 .0292396
698.699 .0292249
699.436 .0292094
700.173 .0291936
700.909 .0291780
701.646 .0291624
702.382 .0291473
703.118 .0291323
703.853 .0291173
704.589 .0291032
705.324 .0290895
706.059 .0290763
706.794 .0290634
707.529 .0290512
708.263 .0290396
708.997 .0290283
709.731 .0290168
710.465 .0290051
711.198 .0289928
711.931 .0289796
712.664 .0289651
713.397 .0289495
714.130 .0289327
714.862 .0289146
715.594 .0288953
716.326 .0288757
717.058 .0288556
717.789 .0288357
718.520 .0288159
719.251 .0287968
719.982 .0287783
720.713 .0287598
721.443 .0287413
722.173 .0287228
722.903 .0287040
723.633 .0286854
724.362 .0286667
725.091 .0286489
725.820 .0286320
726.549 .0286165
727.278 .0286019
728.006 .0285887
728.734 .0285758
729.462 .0285634
730.190 .0285510
730.917 .0285386
731.644 .0285259
732.371 .0285140
733.098 .0285036
733.825 .0284951
734.551 .0284888
735.277 .0284848
736.003 .0284828
736.728 .0284827
737.454 .0284834
738.179 .0284850
738.904 .0284871
739.629 .0284897
740.353 .0284927
741.077 .0284960
741.801 .0284999
742.525 .0285039
743.249 .0285082
743.972 .0285122
744.695 .0285154
745.418 .0285176
746.141 .0285183
746.863 .0285183
747.585 .0285172
748.307 .0285150
749.029 .0285118
749.750 .0285078
750.472 .0285030
751.193 .0284976
751.913 .0284920
752.634 .0284860
753.354 .0284801
754.074 .0284742
754.794 .0284684
755.514 .0284626
756.233 .0284571
756.952 .0284514
757.671 .0284458
758.390 .0284399
759.108 .0284336
759.826 .0284275
760.544 .0284214
761.262 .0284149
761.979 .0284082
762.697 .0284010
763.414 .0283935
764.130 .0283855
764.847 .0283775
765.563 .0283690
766.279 .0283605
766.995 .0283519
767.710 .0283432
768.426 .0283343
769.141 .0283254
769.855 .0283160
770.570 .0283061
771.284 .0282958
771.998 .0282851
772.712 .0282748
773.426 .0282659
774.139 .0282582
774.852 .0282518
775.565 .0282464
776.277 .0282420
776.990 .0282376
777.702 .0282331
778.414 .0282277
779.125 .0282215
779.836 .0282143
780.547 .0282063
781.258 .0281977
781.969 .0281893
782.679 .0281813
783.389 .0281734
784.099 .0281658
784.808 .0281580
785.517 .0281494
786.226 .0281400
786.935 .0281296
787.643 .0281183
788.352 .0281063
789.060 .0280940
789.767 .0280812
790.475 .0280685
791.182 .0280560
791.889 .0280433
792.595 .0280307
793.301 .0280178
794.008 .0280037
794.713 .0279885
795.419 .0279725
796.124 .0279556
796.829 .0279380
797.534 .0279207
798.238 .0279036
798.942 .0278874
799.646 .0278724
800.350 .0278582
801.053 .0278447
801.756 .0278321
802.459 .0278198
803.162 .0278074
803.864 .0277956
804.566 .0277846
805.267 .0277743
805.969 .0277654
806.670 .0277580
807.371 .0277520
808.071 .0277479
808.772 .0277452
809.472 .0277429
810.171 .0277411
810.871 .0277396
811.570 .0277380
812.269 .0277362
812.967 .0277344
813.666 .0277322
814.364 .0277297
815.061 .0277270
815.759 .0277238
816.456 .0277200
817.153 .0277159
817.849 .0277109
818.545 .0277053
819.241 .0276993
819.937 .0276928
820.632 .0276864
821.327 .0276803
822.022 .0276742
822.717 .0276683
823.411 .0276621
824.105 .0276557
824.798 .0276491
825.491 .0276422
826.184 .0276352
826.877 .0276284
827.569 .0276225
828.261 .0276174
828.953 .0276135
829.645 .0276110
830.336 .0276100
831.027 .0276106
831.717 .0276120
832.407 .0276135
833.097 .0276152
833.787 .0276170
834.476 .0276184
835.165 .0276199
835.854 .0276220
836.542 .0276246
837.230 .0276277
837.918 .0276315
838.605 .0276359
839.292 .0276407
839.979 .0276452
840.665 .0276486
841.352 .0276510
842.037 .0276515
842.723 .0276498
843.408 .0276463
844.093 .0276417
844.777 .0276362
845.462 .0276303
846.145 .0276240
846.829 .0276177
847.512 .0276109
848.195 .0276035
848.878 .0275951
849.560 .0275855
850.242 .0275745
850.923 .0275616
851.605 .0275476
852.286 .0275331
852.966 .0275182
853.646 .0275039
854.326 .0274903
855.006 .0274772
855.685 .0274638
856.364 .0274497
857.043 .0274344
857.721 .0274180
858.399 .0274005
859.077 .0273819
859.754 .0273631
860.431 .0273448
861.107 .0273275
861.784 .0273117
862.459 .0272975
863.135 .0272843
863.810 .0272716
864.485 .0272589
865.160 .0272458
865.834 .0272324
866.508 .0272192
867.181 .0272065
867.854 .0271949
868.527 .0271844
869.199 .0271745
869.872 .0271648
870.543 .0271553
871.215 .0271448
871.886 .0271331
872.557 .0271198
873.227 .0271050
873.897 .0270888
874.567 .0270717
875.236 .0270541
875.905 .0270365
876.573 .0270189
877.242 .0270008
877.909 .0269823
878.577 .0269635
879.244 .0269434
879.911 .0269225
880.577 .0269014
881.243 .0268804
881.909 .0268595
882.575 .0268394
883.240 .0268202
883.904 .0268020
884.569 .0267848
885.232 .0267677
885.896 .0267510
886.559 .0267350
887.222 .0267191
887.885 .0267028
888.547 .0266872
889.208 .0266721
889.870 .0266574
890.531 .0266436
891.192 .0266306
891.852 .0266182
892.512 .0266066
893.171 .0265959
893.830 .0265859
894.489 .0265767
895.148 .0265681
895.806 .0265594
896.464 .0265509
897.121 .0265428
897.778 .0265348
898.434 .0265274
899.091 .0265213
899.747 .0265162
900.402 .0265119
901.057 .0265086
901.712 .0265056
902.366 .0265025
903.020 .0264993
903.674 .0264951
904.327 .0264900
904.980 .0264842
905.633 .0264776
906.285 .0264707
906.936 .0264644
907.588 .0264583
908.239 .0264522
908.889 .0264460
909.540 .0264392
910.190 .0264313
910.839 .0264228
911.488 .0264138
912.137 .0264042
912.785 .0263951
913.433 .0263863
914.081 .0263778
914.728 .0263703
915.375 .0263633
916.021 .0263568
916.668 .0263505
917.313 .0263443
917.959 .0263379
918.604 .0263317
919.248 .0263260
919.892 .0263205
920.536 .0263156
921.180 .0263114
921.823 .0263068
922.465 .0263016
923.108 .0262961
923.750 .0262895
924.391 .0262818
925.032 .0262731
925.673 .0262632
926.313 .0262525
926.953 .0262415
927.593 .0262299
928.232 .0262179
928.871 .0262063
929.510 .0261949
930.148 .0261834
930.786 .0261720
931.423 .0261611
932.060 .0261505
932.697 .0261404
933.333 .0261304
933.969 .0261205
934.604 .0261111
935.239 .0261018
935.874 .0260927
936.508 .0260844
937.142 .0260764
937.776 .0260686
938.409 .0260612
939.042 .0260540
939.674 .0260463
940.306 .0260381
940.938 .0260298
941.569 .0260214
942.200 .0260126
942.830 .0260033
943.460 .0259939
944.090 .0259847
944.720 .0259756
945.349 .0259657
945.977 .0259557
946.606 .0259457
947.233 .0259352
947.861 .0259244
948.488 .0259133
949.115 .0259022
949.741 .0258913
950.367 .0258806
950.993 .0258703
951.618 .0258606
952.243 .0258514
952.868 .0258424
953.492 .0258336
954.115 .0258246
954.739 .0258151
955.362 .0258050
955.984 .0257948
956.607 .0257843
957.229 .0257742
957.850 .0257646
958.471 .0257558
959.092 .0257477
959.713 .0257402
960.333 .0257328
960.952 .0257257
961.572 .0257185
962.191 .0257110
962.809 .0257033
963.428 .0256956
964.045 .0256880
964.663 .0256809
965.280 .0256748
965.897 .0256692
966.513 .0256646
967.129 .0256609
967.745 .0256568
968.361 .0256523
968.976 .0256469
969.590 .0256407
970.205 .0256336
970.818 .0256254
971.432 .0256167
972.045 .0256068
972.658 .0255971
973.271 .0255866
973.883 .0255754
974.495 .0255638
975.106 .0255513
975.717 .0255377
976.328 .0255235
976.938 .0255088
977.548 .0254943
978.158 .0254805
978.768 .0254677
979.377 .0254550
979.985 .0254429
980.594 .0254309
981.202 .0254189
981.809 .0254065
982.417 .0253941
983.024 .0253810
983.631 .0253679
984.237 .0253545
984.843 .0253407
985.449 .0253264
986.054 .0253115
986.659 .0252953
987.264 .0252783
987.868 .0252603
988.472 .0252416
989.076 .0252229
989.679 .0252053
990.282 .0251885
990.885 .0251732
991.487 .0251589
992.090 .0251455
992.691 .0251327
993.293 .0251200
993.894 .0251070
994.495 .0250950
995.095 .0250833
995.696 .0250723
996.296 .0250624
996.895 .0250541
997.494 .0250464
998.093 .0250392
998.692 .0250323
999.291 .0250253
999.889 .0250175
1000.487 .0250089
1001.084 .0249991
1001.681 .0249891
1002.278 .0249787
1002.875 .0249685
1003.471 .0249586
1004.067 .0249492
1004.663 .0249400
1005.258 .0249311
1005.854 .0249224
1006.449 .0249142
1007.043 .0249058
1007.638 .0248975
1008.232 .0248895
1008.826 .0248817
1009.419 .0248735
1010.012 .0248656
1010.605 .0248576
1011.198 .0248497
1011.791 .0248407
1012.383 .0248315
1012.975 .0248219
1013.566 .0248122
1014.158 .0248025
1014.749 .0247936
1015.340 .0247858
1015.931 .0247796
1016.521 .0247746
1017.111 .0247711
1017.701 .0247689
1018.291 .0247676
1018.880 .0247663
1019.470 .0247655
1020.059 .0247648
1020.647 .0247638
1021.236 .0247626
1021.824 .0247624
1022.412 .0247625
1023.000 .0247630
1023.588 .0247639
1024.175 .0247654
1024.762 .0247670
1025.349 .0247685
1025.936 .0247701
1026.523 .0247711
1027.109 .0247720
1027.695 .0247722
1028.281 .0247717
1028.867 .0247709
1029.452 .0247691
1030.038 .0247667
1030.623 .0247636
1031.208 .0247603
1031.792 .0247569
1032.377 .0247535
1032.961 .0247507
1033.546 .0247477
1034.130 .0247446
1034.714 .0247407
1035.297 .0247365
1035.881 .0247314
1036.464 .0247258
1037.047 .0247197
1037.630 .0247138
1038.213 .0247081
1038.796 .0247035
1039.378 .0247004
1039.961 .0246992
1040.543 .0246997
1041.125 .0247025
1041.707 .0247064
1042.289 .0247119
1042.871 .0247175
1043.452 .0247238
1044.034 .0247298
1044.615 .0247351
1045.196 .0247388
1045.777 .0247413
1046.358 .0247427
1046.939 .0247441
1047.520 .0247448
1048.101 .0247469
1048.681 .0247499
1049.262 .0247544
1049.842 .0247592
1050.422 .0247643
1051.002 .0247687
1051.582 .0247718
1052.162 .0247732
1052.742 .0247740
1053.322 .0247729
1053.902 .0247722
1054.482 .0247723
1055.061 .0247743
1055.641 .0247772
1056.220 .0247811
1056.800 .0247847
1057.379 .0247883
1057.958 .0247914
1058.538 .0247929
1059.117 .0247931
1059.696 .0247948
1060.275 .0247967
1060.854 .0247981
1061.433 .0248012
1062.012 .0248058
1062.592 .0248125
1063.171 .0248226
1063.750 .0248344
1064.329 .0248475
1064.908 .0248618
1065.487 .0248765
1066.066 .0248904
1066.645 .0249039
1067.224 .0249165
1067.803 .0249257
1068.382 .0249340
1068.961 .0249401
1069.540 .0249432
1070.119 .0249451
1070.698 .0249464
1071.278 .0249460
1071.857 .0249441
1072.436 .0249398
1073.016 .0249341
1073.595 .0249276
1074.175 .0249213
1074.754 .0249148
1075.334 .0249096
1075.913 .0249064
1076.493 .0249045
1077.073 .0249038
1077.653 .0249053
1078.233 .0249067
1078.813 .0249083
1079.393 .0249086
1079.974 .0249080
1080.554 .0249066
1081.135 .0249045
1081.716 .0249028
1082.296 .0249022
1082.877 .0249023
1083.458 .0249022
1084.040 .0249020
1084.621 .0249016
1085.202 .0249008
1085.784 .0249008
1086.366 .0249010
1086.948 .0249021
1087.530 .0249051
1088.112 .0249104
1088.695 .0249183
1089.277 .0249292
1089.860 .0249423
1090.443 .0249568
1091.026 .0249723
1091.610 .0249864
1092.193 .0249992
1092.777 .0250089
1093.361 .0250173
1093.946 .0250243
1094.530 .0250299
1095.115 .0250352
1095.700 .0250394
1096.285 .0250434
1096.871 .0250459
1097.456 .0250472
1098.042 .0250476
1098.628 .0250455
1099.215 .0250430
1099.802 .0250399
1100.389 .0250376
1100.976 .0250382
1101.564 .0250412
1102.152 .0250474
1102.740 .0250562
1103.329 .0250660
1103.917 .0250755
1104.507 .0250831
1105.096 .0250876
1105.686 .0250889
1106.276 .0250849
1106.867 .0250781
1107.457 .0250686
1108.049 .0250588
1108.640 .0250512
1109.232 .0250445
1109.825 .0250415
1110.417 .0250399
1111.010 .0250399
1111.604 .0250419
1112.198 .0250433
1112.792 .0250475
1113.387 .0250505
1113.982 .0250536
1114.577 .0250588
1115.173 .0250650
1115.769 .0250732
1116.366 .0250829
1116.963 .0250938
1117.561 .0251043
1118.159 .0251127
1118.758 .0251184
1119.357 .0251203
1119.957 .0251209
1120.557 .0251197
1121.157 .0251155
1121.758 .0251109
1122.360 .0251089
1122.962 .0251070
1123.564 .0251081
1124.167 .0251105
1124.771 .0251151
1125.375 .0251220
1125.980 .0251320
1126.585 .0251446
1127.191 .0251630
1127.797 .0251886
1128.404 .0252209
1129.012 .0252577
1129.620 .0253002
1130.229 .0253422
1130.838 .0253837
1131.448 .0254188
1132.058 .0254476
1132.669 .0254657
1133.281 .0254769
1133.894 .0254844
1134.507 .0254915
1135.120 .0255012
1135.735 .0255189
1136.350 .0255451
1136.965 .0255849
1137.582 .0256328
1138.199 .0256846
1138.816 .0257370
1139.435 .0257926
1140.054 .0258531
1140.674 .0259191
1141.294 .0259928
1141.916 .0260859
1142.538 .0260554
1143.160 .0263116
1143.784 .0264964
1144.408 .0265415
1145.033 .0268310
