Measurement Sequence started on: 14-45-04-498
Integration time: 36
Scans to Average: 2 
>>>>>Begin Spectral Data<<<<<
433.946 .0428513
434.870 .0473431
435.793 .0434517
436.715 .0417616
437.635 .0415156
438.555 .0418506
439.473 .0414367
440.389 .0409699
441.305 .0406760
442.219 .0404450
443.132 .0402403
444.044 .0400470
444.954 .0399127
445.863 .0398127
446.771 .0397389
447.678 .0396735
448.584 .0396266
449.488 .0395864
450.391 .0395478
451.293 .0395047
452.194 .0394619
453.094 .0394155
453.992 .0393703
454.890 .0393174
455.786 .0392667
456.681 .0392143
457.575 .0391594
458.468 .0390985
459.360 .0390399
460.250 .0389787
461.140 .0389193
462.028 .0388641
462.915 .0388144
463.801 .0387681
464.687 .0387210
465.571 .0386758
466.454 .0386343
467.335 .0385932
468.216 .0385487
469.096 .0385019
469.975 .0384559
470.853 .0384065
471.729 .0383520
472.605 .0382885
473.479 .0382208
474.353 .0381468
475.226 .0380646
476.097 .0379729
476.968 .0378795
477.838 .0377821
478.706 .0376807
479.574 .0375812
480.441 .0374855
481.306 .0373921
482.171 .0373033
483.035 .0372195
483.898 .0371425
484.760 .0370697
485.621 .0370044
486.481 .0369469
487.340 .0369037
488.198 .0368702
489.055 .0368440
489.912 .0368270
490.767 .0368197
491.622 .0368130
492.476 .0368083
493.329 .0368039
494.180 .0367975
495.032 .0367885
495.882 .0367768
496.731 .0367631
497.580 .0367502
498.427 .0367351
499.274 .0367181
500.120 .0366982
500.965 .0366793
501.809 .0366566
502.653 .0366341
503.495 .0366149
504.337 .0365957
505.178 .0365754
506.018 .0365553
506.858 .0365307
507.696 .0365052
508.534 .0364779
509.371 .0364463
510.208 .0364126
511.043 .0363837
511.878 .0363560
512.712 .0363328
513.545 .0363133
514.377 .0362978
515.209 .0362775
516.040 .0362583
516.870 .0362314
517.699 .0361976
518.528 .0361620
519.356 .0361233
520.183 .0360827
521.010 .0360513
521.836 .0360238
522.661 .0360005
523.485 .0359809
524.309 .0359673
525.132 .0359441
525.954 .0359118
526.776 .0358671
527.597 .0358133
528.417 .0357504
529.237 .0356782
530.056 .0355939
530.874 .0355103
531.692 .0354285
532.508 .0353436
533.325 .0352607
534.140 .0351846
534.955 .0351121
535.770 .0350446
536.583 .0349786
537.397 .0349164
538.209 .0348554
539.021 .0347942
539.832 .0347278
540.643 .0346587
541.453 .0345894
542.262 .0345185
543.071 .0344557
543.879 .0343990
544.687 .0343464
545.494 .0342990
546.300 .0342520
547.106 .0342044
547.911 .0341527
548.716 .0340979
549.520 .0340408
550.323 .0339854
551.126 .0339337
551.929 .0338858
552.731 .0338463
553.532 .0338157
554.332 .0337924
555.133 .0337741
555.932 .0337589
556.731 .0337430
557.530 .0337241
558.328 .0337028
559.125 .0336778
559.922 .0336545
560.719 .0336286
561.515 .0336045
562.310 .0335800
563.105 .0335575
563.899 .0335407
564.693 .0335221
565.487 .0334995
566.280 .0334720
567.072 .0334380
567.864 .0333950
568.655 .0333435
569.446 .0332888
570.236 .0332319
571.026 .0331766
571.816 .0331247
572.605 .0330767
573.393 .0330360
574.181 .0330040
574.969 .0329761
575.756 .0329516
576.543 .0329269
577.329 .0328986
578.115 .0328689
578.900 .0328369
579.685 .0328024
580.469 .0327679
581.253 .0327355
582.036 .0327064
582.820 .0326783
583.602 .0326527
584.384 .0326283
585.166 .0326052
585.947 .0325807
586.728 .0325536
587.509 .0325231
588.289 .0324904
589.069 .0324557
589.848 .0324198
590.627 .0323835
591.405 .0323476
592.183 .0323132
592.961 .0322821
593.738 .0322544
594.515 .0322288
595.291 .0322051
596.067 .0321831
596.843 .0321614
597.618 .0321390
598.393 .0321159
599.167 .0320934
599.941 .0320707
600.715 .0320488
601.488 .0320273
602.261 .0320065
603.034 .0319866
603.806 .0319676
604.578 .0319488
605.349 .0319311
606.121 .0319136
606.891 .0318960
607.662 .0318788
608.432 .0318621
609.201 .0318444
609.971 .0318262
610.740 .0318076
611.508 .0317879
612.277 .0317666
613.045 .0317449
613.812 .0317230
614.579 .0317015
615.346 .0316806
616.113 .0316603
616.879 .0316402
617.645 .0316206
618.411 .0316000
619.176 .0315779
619.941 .0315543
620.705 .0315288
621.470 .0315015
622.233 .0314733
622.997 .0314448
623.760 .0314161
624.523 .0313873
625.286 .0313589
626.048 .0313302
626.810 .0313007
627.572 .0312701
628.333 .0312390
629.095 .0312072
629.855 .0311754
630.616 .0311442
631.376 .0311146
632.136 .0310871
632.895 .0310617
633.655 .0310382
634.414 .0310161
635.172 .0309957
635.931 .0309767
636.689 .0309586
637.447 .0309423
638.204 .0309274
638.962 .0309137
639.718 .0309009
640.475 .0308891
641.231 .0308773
641.988 .0308647
642.743 .0308508
643.499 .0308347
644.254 .0308170
645.009 .0307974
645.764 .0307767
646.518 .0307555
647.272 .0307351
648.026 .0307149
648.780 .0306951
649.533 .0306764
650.286 .0306583
651.039 .0306406
651.792 .0306234
652.544 .0306065
653.296 .0305901
654.048 .0305742
654.799 .0305591
655.550 .0305446
656.301 .0305309
657.052 .0305173
657.802 .0305042
658.552 .0304916
659.302 .0304790
660.052 .0304659
660.801 .0304525
661.550 .0304395
662.299 .0304261
663.048 .0304125
663.796 .0303988
664.544 .0303852
665.292 .0303722
666.040 .0303589
666.787 .0303460
667.534 .0303338
668.281 .0303220
669.028 .0303105
669.774 .0302989
670.521 .0302868
671.266 .0302742
672.012 .0302609
672.758 .0302471
673.503 .0302321
674.248 .0302162
674.992 .0301997
675.737 .0301828
676.481 .0301660
677.225 .0301487
677.969 .0301317
678.712 .0301150
679.455 .0300984
680.199 .0300815
680.941 .0300645
681.684 .0300477
682.426 .0300308
683.168 .0300134
683.910 .0299957
684.652 .0299781
685.393 .0299609
686.134 .0299444
686.875 .0299288
687.616 .0299137
688.356 .0298993
689.097 .0298855
689.837 .0298717
690.576 .0298575
691.316 .0298431
692.055 .0298280
692.794 .0298124
693.533 .0297969
694.272 .0297814
695.010 .0297666
695.748 .0297526
696.486 .0297391
697.224 .0297255
697.962 .0297123
698.699 .0296994
699.436 .0296864
700.173 .0296733
700.909 .0296605
701.646 .0296479
702.382 .0296364
703.118 .0296258
703.853 .0296166
704.589 .0296087
705.324 .0296019
706.059 .0295963
706.794 .0295910
707.529 .0295861
708.263 .0295819
708.997 .0295780
709.731 .0295747
710.465 .0295714
711.198 .0295683
711.931 .0295650
712.664 .0295616
713.397 .0295578
714.130 .0295530
714.862 .0295474
715.594 .0295413
716.326 .0295343
717.058 .0295274
717.789 .0295204
718.520 .0295132
719.251 .0295061
719.982 .0294989
720.713 .0294913
721.443 .0294839
722.173 .0294769
722.903 .0294705
723.633 .0294648
724.362 .0294596
725.091 .0294543
725.820 .0294494
726.549 .0294442
727.278 .0294380
728.006 .0294306
728.734 .0294222
729.462 .0294121
730.190 .0294014
730.917 .0293901
731.644 .0293784
732.371 .0293668
733.098 .0293556
733.825 .0293442
734.551 .0293327
735.277 .0293209
736.003 .0293085
736.728 .0292958
737.454 .0292833
738.179 .0292700
738.904 .0292575
739.629 .0292455
740.353 .0292340
741.077 .0292226
741.801 .0292115
742.525 .0292003
743.249 .0291890
743.972 .0291774
744.695 .0291659
745.418 .0291537
746.141 .0291415
746.863 .0291285
747.585 .0291148
748.307 .0291000
749.029 .0290842
749.750 .0290670
750.472 .0290489
751.193 .0290301
751.913 .0290110
752.634 .0289918
753.354 .0289734
754.074 .0289556
754.794 .0289382
755.514 .0289209
756.233 .0289041
756.952 .0288874
757.671 .0288715
758.390 .0288557
759.108 .0288405
759.826 .0288260
760.544 .0288123
761.262 .0287994
761.979 .0287876
762.697 .0287768
763.414 .0287669
764.130 .0287581
764.847 .0287501
765.563 .0287428
766.279 .0287366
766.995 .0287314
767.710 .0287270
768.426 .0287233
769.141 .0287202
769.855 .0287167
770.570 .0287137
771.284 .0287110
771.998 .0287082
772.712 .0287062
773.426 .0287051
774.139 .0287048
774.852 .0287055
775.565 .0287070
776.277 .0287087
776.990 .0287108
777.702 .0287129
778.414 .0287136
779.125 .0287135
779.836 .0287123
780.547 .0287100
781.258 .0287068
781.969 .0287037
782.679 .0287005
783.389 .0286977
784.099 .0286959
784.808 .0286940
785.517 .0286923
786.226 .0286906
786.935 .0286883
787.643 .0286855
788.352 .0286822
789.060 .0286781
789.767 .0286735
790.475 .0286688
791.182 .0286643
791.889 .0286599
792.595 .0286564
793.301 .0286532
794.008 .0286500
794.713 .0286467
795.419 .0286428
796.124 .0286381
796.829 .0286330
797.534 .0286269
798.238 .0286199
798.942 .0286122
799.646 .0286039
800.350 .0285949
801.053 .0285860
801.756 .0285768
802.459 .0285672
803.162 .0285572
803.864 .0285471
804.566 .0285365
805.267 .0285253
805.969 .0285139
806.670 .0285023
807.371 .0284908
808.071 .0284797
808.772 .0284687
809.472 .0284582
810.171 .0284484
810.871 .0284393
811.570 .0284305
812.269 .0284222
812.967 .0284137
813.666 .0284048
814.364 .0283958
815.061 .0283863
815.759 .0283762
816.456 .0283657
817.153 .0283551
817.849 .0283437
818.545 .0283318
819.241 .0283192
819.937 .0283058
820.632 .0282919
821.327 .0282771
822.022 .0282615
822.717 .0282449
823.411 .0282276
824.105 .0282095
824.798 .0281905
825.491 .0281710
826.184 .0281509
826.877 .0281305
827.569 .0281102
828.261 .0280900
828.953 .0280700
829.645 .0280505
830.336 .0280314
831.027 .0280127
831.717 .0279945
832.407 .0279763
833.097 .0279584
833.787 .0279406
834.476 .0279232
835.165 .0279062
835.854 .0278899
836.542 .0278751
837.230 .0278612
837.918 .0278485
838.605 .0278368
839.292 .0278259
839.979 .0278160
840.665 .0278066
841.352 .0277975
842.037 .0277888
842.723 .0277804
843.408 .0277717
844.093 .0277627
844.777 .0277534
845.462 .0277436
846.145 .0277333
846.829 .0277228
847.512 .0277119
848.195 .0277005
848.878 .0276896
849.560 .0276791
850.242 .0276690
850.923 .0276594
851.605 .0276501
852.286 .0276407
852.966 .0276310
853.646 .0276208
854.326 .0276102
855.006 .0275994
855.685 .0275891
856.364 .0275788
857.043 .0275696
857.721 .0275616
858.399 .0275551
859.077 .0275494
859.754 .0275444
860.431 .0275394
861.107 .0275339
861.784 .0275278
862.459 .0275210
863.135 .0275134
863.810 .0275057
864.485 .0274984
865.160 .0274919
865.834 .0274860
866.508 .0274815
867.181 .0274773
867.854 .0274740
868.527 .0274706
869.199 .0274665
869.872 .0274618
870.543 .0274569
871.215 .0274515
871.886 .0274456
872.557 .0274395
873.227 .0274333
873.897 .0274268
874.567 .0274203
875.236 .0274135
875.905 .0274070
876.573 .0274004
877.242 .0273936
877.909 .0273867
878.577 .0273803
879.244 .0273739
879.911 .0273676
880.577 .0273610
881.243 .0273539
881.909 .0273465
882.575 .0273387
883.240 .0273310
883.904 .0273240
884.569 .0273177
885.232 .0273119
885.896 .0273066
886.559 .0273023
887.222 .0272979
887.885 .0272935
888.547 .0272890
889.208 .0272841
889.870 .0272787
890.531 .0272728
891.192 .0272664
891.852 .0272606
892.512 .0272548
893.171 .0272490
893.830 .0272430
894.489 .0272368
895.148 .0272297
895.806 .0272220
896.464 .0272141
897.121 .0272059
897.778 .0271972
898.434 .0271885
899.091 .0271793
899.747 .0271700
900.402 .0271605
901.057 .0271503
901.712 .0271399
902.366 .0271292
903.020 .0271175
903.674 .0271056
904.327 .0270933
904.980 .0270811
905.633 .0270687
906.285 .0270565
906.936 .0270440
907.588 .0270313
908.239 .0270185
908.889 .0270051
909.540 .0269912
910.190 .0269772
910.839 .0269630
911.488 .0269492
912.137 .0269356
912.785 .0269217
913.433 .0269075
914.081 .0268925
914.728 .0268765
915.375 .0268594
916.021 .0268414
916.668 .0268224
917.313 .0268030
917.959 .0267840
918.604 .0267652
919.248 .0267470
919.892 .0267292
920.536 .0267112
921.180 .0266930
921.823 .0266738
922.465 .0266536
923.108 .0266329
923.750 .0266125
924.391 .0265919
925.032 .0265715
925.673 .0265518
926.313 .0265322
926.953 .0265126
927.593 .0264926
928.232 .0264711
928.871 .0264481
929.510 .0264234
930.148 .0263967
930.786 .0263687
931.423 .0263405
932.060 .0263124
932.697 .0262847
933.333 .0262580
933.969 .0262317
934.604 .0262057
935.239 .0261801
935.874 .0261545
936.508 .0261292
937.142 .0261044
937.776 .0260800
938.409 .0260571
939.042 .0260355
939.674 .0260153
940.306 .0259961
940.938 .0259777
941.569 .0259596
942.200 .0259408
942.830 .0259216
943.460 .0259015
944.090 .0258805
944.720 .0258594
945.349 .0258380
945.977 .0258175
946.606 .0257981
947.233 .0257799
947.861 .0257633
948.488 .0257482
949.115 .0257342
949.741 .0257215
950.367 .0257096
950.993 .0256986
951.618 .0256883
952.243 .0256787
952.868 .0256699
953.492 .0256616
954.115 .0256540
954.739 .0256467
955.362 .0256391
955.984 .0256315
956.607 .0256234
957.229 .0256154
957.850 .0256070
958.471 .0255984
959.092 .0255892
959.713 .0255799
960.333 .0255700
960.952 .0255592
961.572 .0255484
962.191 .0255377
962.809 .0255272
963.428 .0255175
964.045 .0255085
964.663 .0255008
965.280 .0254943
965.897 .0254891
966.513 .0254849
967.129 .0254816
967.745 .0254789
968.361 .0254765
968.976 .0254746
969.590 .0254729
970.205 .0254715
970.818 .0254706
971.432 .0254706
972.045 .0254715
972.658 .0254733
973.271 .0254759
973.883 .0254791
974.495 .0254825
975.106 .0254854
975.717 .0254874
976.328 .0254882
976.938 .0254875
977.548 .0254860
978.158 .0254840
978.768 .0254820
979.377 .0254802
979.985 .0254788
980.594 .0254777
981.202 .0254766
981.809 .0254746
982.417 .0254722
983.024 .0254692
983.631 .0254661
984.237 .0254627
984.843 .0254598
985.449 .0254576
986.054 .0254562
986.659 .0254560
987.264 .0254569
987.868 .0254578
988.472 .0254593
989.076 .0254606
989.679 .0254614
990.282 .0254617
990.885 .0254619
991.487 .0254613
992.090 .0254610
992.691 .0254604
993.293 .0254594
993.894 .0254585
994.495 .0254583
995.095 .0254579
995.696 .0254577
996.296 .0254576
996.895 .0254573
997.494 .0254566
998.093 .0254565
998.692 .0254558
999.291 .0254555
999.889 .0254551
1000.487 .0254549
1001.084 .0254546
1001.681 .0254547
1002.278 .0254546
1002.875 .0254543
1003.471 .0254537
1004.067 .0254527
1004.663 .0254512
1005.258 .0254498
1005.854 .0254480
1006.449 .0254461
1007.043 .0254441
1007.638 .0254418
1008.232 .0254390
1008.826 .0254362
1009.419 .0254326
1010.012 .0254292
1010.605 .0254260
1011.198 .0254229
1011.791 .0254203
1012.383 .0254186
1012.975 .0254177
1013.566 .0254164
1014.158 .0254144
1014.749 .0254115
1015.340 .0254066
1015.931 .0254003
1016.521 .0253929
1017.111 .0253850
1017.701 .0253774
1018.291 .0253705
1018.880 .0253648
1019.470 .0253606
1020.059 .0253578
1020.647 .0253557
1021.236 .0253535
1021.824 .0253511
1022.412 .0253478
1023.000 .0253431
1023.588 .0253383
1024.175 .0253345
1024.762 .0253311
1025.349 .0253286
1025.936 .0253278
1026.523 .0253282
1027.109 .0253294
1027.695 .0253302
1028.281 .0253299
1028.867 .0253279
1029.452 .0253235
1030.038 .0253163
1030.623 .0253070
1031.208 .0252971
1031.792 .0252871
1032.377 .0252767
1032.961 .0252677
1033.546 .0252597
1034.130 .0252523
1034.714 .0252453
1035.297 .0252385
1035.881 .0252310
1036.464 .0252229
1037.047 .0252140
1037.630 .0252050
1038.213 .0251965
1038.796 .0251890
1039.378 .0251826
1039.961 .0251770
1040.543 .0251723
1041.125 .0251675
1041.707 .0251619
1042.289 .0251555
1042.871 .0251481
1043.452 .0251397
1044.034 .0251303
1044.615 .0251203
1045.196 .0251107
1045.777 .0251011
1046.358 .0250919
1046.939 .0250822
1047.520 .0250723
1048.101 .0250616
1048.681 .0250493
1049.262 .0250351
1049.842 .0250193
1050.422 .0250022
1051.002 .0249848
1051.582 .0249675
1052.162 .0249514
1052.742 .0249370
1053.322 .0249248
1053.902 .0249142
1054.482 .0249051
1055.061 .0248976
1055.641 .0248907
1056.220 .0248848
1056.800 .0248798
1057.379 .0248754
1057.958 .0248720
1058.538 .0248698
1059.117 .0248691
1059.696 .0248693
1060.275 .0248703
1060.854 .0248706
1061.433 .0248702
1062.012 .0248696
1062.592 .0248677
1063.171 .0248653
1063.750 .0248623
1064.329 .0248589
1064.908 .0248548
1065.487 .0248499
1066.066 .0248437
1066.645 .0248369
1067.224 .0248302
1067.803 .0248226
1068.382 .0248150
1068.961 .0248083
1069.540 .0248028
1070.119 .0247991
1070.698 .0247975
1071.278 .0247975
1071.857 .0247982
1072.436 .0247984
1073.016 .0247968
1073.595 .0247934
1074.175 .0247889
1074.754 .0247831
1075.334 .0247763
1075.913 .0247704
1076.493 .0247657
1077.073 .0247619
1077.653 .0247599
1078.233 .0247594
1078.813 .0247606
1079.393 .0247626
1079.974 .0247647
1080.554 .0247663
1081.135 .0247679
1081.716 .0247700
1082.296 .0247719
1082.877 .0247743
1083.458 .0247759
1084.040 .0247770
1084.621 .0247762
1085.202 .0247736
1085.784 .0247693
1086.366 .0247635
1086.948 .0247567
1087.530 .0247511
1088.112 .0247461
1088.695 .0247425
1089.277 .0247410
1089.860 .0247424
1090.443 .0247454
1091.026 .0247492
1091.610 .0247518
1092.193 .0247527
1092.777 .0247517
1093.361 .0247504
1093.946 .0247466
1094.530 .0247456
1095.115 .0247464
1095.700 .0247500
1096.285 .0247559
1096.871 .0247641
1097.456 .0247734
1098.042 .0247832
1098.628 .0247914
1099.215 .0247973
1099.802 .0247991
1100.389 .0247985
1100.976 .0247946
1101.564 .0247892
1102.152 .0247834
1102.740 .0247781
1103.329 .0247734
1103.917 .0247713
1104.507 .0247687
1105.096 .0247687
1105.686 .0247691
1106.276 .0247699
1106.867 .0247696
1107.457 .0247677
1108.049 .0247641
1108.640 .0247588
1109.232 .0247522
1109.825 .0247484
1110.417 .0247457
1111.010 .0247473
1111.604 .0247547
1112.198 .0247704
1112.792 .0247934
1113.387 .0248235
1113.982 .0248602
1114.577 .0249018
1115.173 .0249450
1115.769 .0249886
1116.366 .0250290
1116.963 .0250691
1117.561 .0251073
1118.159 .0251437
1118.758 .0251806
1119.357 .0252196
1119.957 .0252596
1120.557 .0253009
1121.157 .0253429
1121.758 .0253824
1122.360 .0254169
1122.962 .0254469
1123.564 .0254719
1124.167 .0254892
1124.771 .0255034
1125.375 .0255140
1125.980 .0255248
1126.585 .0255368
1127.191 .0255514
1127.797 .0255706
1128.404 .0255954
1129.012 .0256253
1129.620 .0256576
1130.229 .0256916
1130.838 .0257291
1131.448 .0257617
1132.058 .0257929
1132.669 .0258187
1133.281 .0258394
1133.894 .0258551
1134.507 .0258702
1135.120 .0258833
1135.735 .0258998
1136.350 .0259217
1136.965 .0259526
1137.582 .0259906
1138.199 .0260354
1138.816 .0260831
1139.435 .0261322
1140.054 .0261911
1140.674 .0262615
1141.294 .0263497
1141.916 .0264718
1142.538 .0263134
1143.160 .0266589
1143.784 .0269304
1144.408 .0272482
1145.033 .0276760
