Measurement Sequence started on: 14-45-04-498
Integration time: 36
Scans to Average: 2 
>>>>>Begin Spectral Data<<<<<
433.946 .0387039
434.870 .0421405
435.793 .0432114
436.715 .0407364
437.635 .0395008
438.555 .0399856
439.473 .0397619
440.389 .0394698
441.305 .0392062
442.219 .0390411
443.132 .0388969
444.044 .0387596
444.954 .0386100
445.863 .0384737
446.771 .0383547
447.678 .0382426
448.584 .0381408
449.488 .0380310
450.391 .0379157
451.293 .0377898
452.194 .0376608
453.094 .0375395
453.992 .0374125
454.890 .0372948
455.786 .0371924
456.681 .0370979
457.575 .0370135
458.468 .0369411
459.360 .0368741
460.250 .0368098
461.140 .0367475
462.028 .0366850
462.915 .0366197
463.801 .0365562
464.687 .0364844
465.571 .0363998
466.454 .0363170
467.335 .0362263
468.216 .0361286
469.096 .0360398
469.975 .0359581
470.853 .0358827
471.729 .0358132
472.605 .0357530
473.479 .0356950
474.353 .0356423
475.226 .0355923
476.097 .0355402
476.968 .0354883
477.838 .0354362
478.706 .0353822
479.574 .0353331
480.441 .0352953
481.306 .0352589
482.171 .0352266
483.035 .0351938
483.898 .0351549
484.760 .0351101
485.621 .0350561
486.481 .0349925
487.340 .0349210
488.198 .0348404
489.055 .0347530
489.912 .0346626
490.767 .0345746
491.622 .0344888
492.476 .0344049
493.329 .0343206
494.180 .0342340
495.032 .0341446
495.882 .0340569
496.731 .0339690
497.580 .0338914
498.427 .0338238
499.274 .0337622
500.120 .0337114
500.965 .0336687
501.809 .0336324
502.653 .0336014
503.495 .0335771
504.337 .0335532
505.178 .0335302
506.018 .0335091
506.858 .0334884
507.696 .0334803
508.534 .0334821
509.371 .0334910
510.208 .0335032
511.043 .0335200
511.878 .0335316
512.712 .0335348
513.545 .0335348
514.377 .0335260
515.209 .0335131
516.040 .0334977
516.870 .0334785
517.699 .0334586
518.528 .0334366
519.356 .0334122
520.183 .0333832
521.010 .0333560
521.836 .0333166
522.661 .0332788
523.485 .0332400
524.309 .0332074
525.132 .0331787
525.954 .0331554
526.776 .0331402
527.597 .0331356
528.417 .0331390
529.237 .0331478
530.056 .0331555
530.874 .0331667
531.692 .0331648
532.508 .0331595
533.325 .0331432
534.140 .0331154
534.955 .0330798
535.770 .0330393
536.583 .0329980
537.397 .0329668
538.209 .0329423
539.021 .0329244
539.832 .0329098
540.643 .0328926
541.453 .0328626
542.262 .0328236
543.071 .0327825
543.879 .0327393
544.687 .0327018
545.494 .0326706
546.300 .0326432
547.106 .0326312
547.911 .0326281
548.716 .0326255
549.520 .0326143
550.323 .0325933
551.126 .0325561
551.929 .0325067
552.731 .0324505
553.532 .0323922
554.332 .0323408
555.133 .0323014
555.932 .0322641
556.731 .0322330
557.530 .0322031
558.328 .0321756
559.125 .0321495
559.922 .0321271
560.719 .0321016
561.515 .0320808
562.310 .0320707
563.105 .0320702
563.899 .0320741
564.693 .0320842
565.487 .0320944
566.280 .0321038
567.072 .0321051
567.864 .0320927
568.655 .0320706
569.446 .0320450
570.236 .0320121
571.026 .0319739
571.816 .0319352
572.605 .0319008
573.393 .0318663
574.181 .0318319
574.969 .0317947
575.756 .0317528
576.543 .0317070
577.329 .0316550
578.115 .0315991
578.900 .0315440
579.685 .0314924
580.469 .0314467
581.253 .0314100
582.036 .0313798
582.820 .0313550
583.602 .0313346
584.384 .0313168
585.166 .0312987
585.947 .0312797
586.728 .0312600
587.509 .0312407
588.289 .0312256
589.069 .0312137
589.848 .0312050
590.627 .0311997
591.405 .0311962
592.183 .0311928
592.961 .0311892
593.738 .0311841
594.515 .0311781
595.291 .0311723
596.067 .0311680
596.843 .0311650
597.618 .0311647
598.393 .0311663
599.167 .0311690
599.941 .0311713
600.715 .0311726
601.488 .0311711
602.261 .0311679
603.034 .0311632
603.806 .0311580
604.578 .0311529
605.349 .0311486
606.121 .0311437
606.891 .0311387
607.662 .0311326
608.432 .0311244
609.201 .0311146
609.971 .0311034
610.740 .0310908
611.508 .0310781
612.277 .0310652
613.045 .0310530
613.812 .0310423
614.579 .0310331
615.346 .0310247
616.113 .0310174
616.879 .0310115
617.645 .0310064
618.411 .0310023
619.176 .0309998
619.941 .0309994
620.705 .0310010
621.470 .0310043
622.233 .0310088
622.997 .0310144
623.760 .0310199
624.523 .0310235
625.286 .0310244
626.048 .0310224
626.810 .0310169
627.572 .0310083
628.333 .0309966
629.095 .0309829
629.855 .0309671
630.616 .0309499
631.376 .0309311
632.136 .0309112
632.895 .0308896
633.655 .0308671
634.414 .0308438
635.172 .0308196
635.931 .0307951
636.689 .0307720
637.447 .0307511
638.204 .0307327
638.962 .0307170
639.718 .0307039
640.475 .0306923
641.231 .0306824
641.988 .0306726
642.743 .0306626
643.499 .0306528
644.254 .0306425
645.009 .0306317
645.764 .0306209
646.518 .0306107
647.272 .0306006
648.026 .0305915
648.780 .0305831
649.533 .0305736
650.286 .0305634
651.039 .0305524
651.792 .0305406
652.544 .0305286
653.296 .0305167
654.048 .0305055
654.799 .0304951
655.550 .0304862
656.301 .0304775
657.052 .0304698
657.802 .0304636
658.552 .0304572
659.302 .0304505
660.052 .0304432
660.801 .0304352
661.550 .0304263
662.299 .0304168
663.048 .0304070
663.796 .0303974
664.544 .0303881
665.292 .0303784
666.040 .0303686
666.787 .0303594
667.534 .0303507
668.281 .0303428
669.028 .0303354
669.774 .0303286
670.521 .0303220
671.266 .0303160
672.012 .0303096
672.758 .0303030
673.503 .0302952
674.248 .0302863
674.992 .0302766
675.737 .0302663
676.481 .0302559
677.225 .0302459
677.969 .0302375
678.712 .0302307
679.455 .0302246
680.199 .0302201
680.941 .0302152
681.684 .0302111
682.426 .0302062
683.168 .0301995
683.910 .0301912
684.652 .0301815
685.393 .0301712
686.134 .0301606
686.875 .0301503
687.616 .0301408
688.356 .0301324
689.097 .0301254
689.837 .0301183
690.576 .0301104
691.316 .0301014
692.055 .0300905
692.794 .0300770
693.533 .0300612
694.272 .0300433
695.010 .0300250
695.748 .0300078
696.486 .0299918
697.224 .0299780
697.962 .0299663
698.699 .0299573
699.436 .0299499
700.173 .0299439
700.909 .0299386
701.646 .0299334
702.382 .0299285
703.118 .0299233
703.853 .0299180
704.589 .0299133
705.324 .0299089
706.059 .0299057
706.794 .0299027
707.529 .0298994
708.263 .0298959
708.997 .0298918
709.731 .0298865
710.465 .0298801
711.198 .0298723
711.931 .0298635
712.664 .0298535
713.397 .0298423
714.130 .0298300
714.862 .0298171
715.594 .0298042
716.326 .0297913
717.058 .0297783
717.789 .0297654
718.520 .0297524
719.251 .0297393
719.982 .0297264
720.713 .0297125
721.443 .0296985
722.173 .0296839
722.903 .0296690
723.633 .0296543
724.362 .0296396
725.091 .0296258
725.820 .0296130
726.549 .0296010
727.278 .0295892
728.006 .0295775
728.734 .0295656
729.462 .0295527
730.190 .0295388
730.917 .0295240
731.644 .0295083
732.371 .0294921
733.098 .0294765
733.825 .0294613
734.551 .0294470
735.277 .0294336
736.003 .0294206
736.728 .0294085
737.454 .0293966
738.179 .0293843
738.904 .0293721
739.629 .0293602
740.353 .0293490
741.077 .0293384
741.801 .0293295
742.525 .0293217
743.249 .0293154
743.972 .0293102
744.695 .0293060
745.418 .0293024
746.141 .0292992
746.863 .0292969
747.585 .0292948
748.307 .0292927
749.029 .0292901
749.750 .0292866
750.472 .0292824
751.193 .0292768
751.913 .0292694
752.634 .0292604
753.354 .0292502
754.074 .0292390
754.794 .0292279
755.514 .0292166
756.233 .0292063
756.952 .0291966
757.671 .0291875
758.390 .0291782
759.108 .0291681
759.826 .0291572
760.544 .0291446
761.262 .0291305
761.979 .0291153
762.697 .0290991
763.414 .0290838
764.130 .0290695
764.847 .0290569
765.563 .0290463
766.279 .0290379
766.995 .0290309
767.710 .0290245
768.426 .0290180
769.141 .0290106
769.855 .0290020
770.570 .0289923
771.284 .0289820
771.998 .0289717
772.712 .0289622
773.426 .0289534
774.139 .0289452
774.852 .0289377
775.565 .0289298
776.277 .0289208
776.990 .0289108
777.702 .0288989
778.414 .0288850
779.125 .0288694
779.836 .0288534
780.547 .0288372
781.258 .0288215
781.969 .0288064
782.679 .0287921
783.389 .0287781
784.099 .0287637
784.808 .0287486
785.517 .0287336
786.226 .0287189
786.935 .0287048
787.643 .0286911
788.352 .0286796
789.060 .0286693
789.767 .0286602
790.475 .0286520
791.182 .0286440
791.889 .0286358
792.595 .0286267
793.301 .0286166
794.008 .0286060
794.713 .0285956
795.419 .0285856
796.124 .0285764
796.829 .0285680
797.534 .0285594
798.238 .0285506
798.942 .0285415
799.646 .0285317
800.350 .0285209
801.053 .0285092
801.756 .0284969
802.459 .0284840
803.162 .0284709
803.864 .0284577
804.566 .0284449
805.267 .0284321
805.969 .0284191
806.670 .0284057
807.371 .0283925
808.071 .0283797
808.772 .0283673
809.472 .0283558
810.171 .0283449
810.871 .0283341
811.570 .0283233
812.269 .0283121
812.967 .0283005
813.666 .0282880
814.364 .0282748
815.061 .0282614
815.759 .0282478
816.456 .0282344
817.153 .0282211
817.849 .0282082
818.545 .0281960
819.241 .0281841
819.937 .0281720
820.632 .0281599
821.327 .0281471
822.022 .0281336
822.717 .0281195
823.411 .0281052
824.105 .0280909
824.798 .0280766
825.491 .0280632
826.184 .0280500
826.877 .0280373
827.569 .0280252
828.261 .0280129
828.953 .0280002
829.645 .0279868
830.336 .0279722
831.027 .0279566
831.717 .0279409
832.407 .0279254
833.097 .0279102
833.787 .0278959
834.476 .0278824
835.165 .0278696
835.854 .0278570
836.542 .0278451
837.230 .0278328
837.918 .0278212
838.605 .0278098
839.292 .0277986
839.979 .0277881
840.665 .0277784
841.352 .0277694
842.037 .0277599
842.723 .0277492
843.408 .0277369
844.093 .0277219
844.777 .0277048
845.462 .0276856
846.145 .0276648
846.829 .0276434
847.512 .0276227
848.195 .0276026
848.878 .0275843
849.560 .0275679
850.242 .0275529
850.923 .0275391
851.605 .0275261
852.286 .0275132
852.966 .0275003
853.646 .0274881
854.326 .0274763
855.006 .0274651
855.685 .0274549
856.364 .0274452
857.043 .0274361
857.721 .0274275
858.399 .0274183
859.077 .0274075
859.754 .0273952
860.431 .0273806
861.107 .0273632
861.784 .0273438
862.459 .0273225
863.135 .0273000
863.810 .0272767
864.485 .0272532
865.160 .0272299
865.834 .0272078
866.508 .0271873
867.181 .0271685
867.854 .0271521
868.527 .0271385
869.199 .0271265
869.872 .0271161
870.543 .0271074
871.215 .0270993
871.886 .0270915
872.557 .0270832
873.227 .0270740
873.897 .0270640
874.567 .0270534
875.236 .0270424
875.905 .0270314
876.573 .0270210
877.242 .0270103
877.909 .0269999
878.577 .0269897
879.244 .0269791
879.911 .0269678
880.577 .0269560
881.243 .0269440
881.909 .0269316
882.575 .0269191
883.240 .0269069
883.904 .0268964
884.569 .0268880
885.232 .0268807
885.896 .0268749
886.559 .0268708
887.222 .0268677
887.885 .0268648
888.547 .0268623
889.208 .0268596
889.870 .0268575
890.531 .0268557
891.192 .0268541
891.852 .0268535
892.512 .0268536
893.171 .0268545
893.830 .0268557
894.489 .0268566
895.148 .0268566
895.806 .0268559
896.464 .0268548
897.121 .0268526
897.778 .0268497
898.434 .0268466
899.091 .0268428
899.747 .0268384
900.402 .0268332
901.057 .0268265
901.712 .0268190
902.366 .0268102
903.020 .0267999
903.674 .0267884
904.327 .0267767
904.980 .0267650
905.633 .0267533
906.285 .0267427
906.936 .0267326
907.588 .0267231
908.239 .0267147
908.889 .0267074
909.540 .0267005
910.190 .0266938
910.839 .0266868
911.488 .0266785
912.137 .0266688
912.785 .0266570
913.433 .0266431
914.081 .0266275
914.728 .0266106
915.375 .0265921
916.021 .0265725
916.668 .0265531
917.313 .0265332
917.959 .0265123
918.604 .0264904
919.248 .0264667
919.892 .0264415
920.536 .0264151
921.180 .0263888
921.823 .0263631
922.465 .0263394
923.108 .0263176
923.750 .0262984
924.391 .0262817
925.032 .0262673
925.673 .0262540
926.313 .0262414
926.953 .0262290
927.593 .0262155
928.232 .0262010
928.871 .0261861
929.510 .0261711
930.148 .0261566
930.786 .0261413
931.423 .0261263
932.060 .0261108
932.697 .0260950
933.333 .0260783
933.969 .0260607
934.604 .0260421
935.239 .0260220
935.874 .0260003
936.508 .0259774
937.142 .0259541
937.776 .0259305
938.409 .0259074
939.042 .0258847
939.674 .0258628
940.306 .0258417
940.938 .0258212
941.569 .0258021
942.200 .0257834
942.830 .0257651
943.460 .0257467
944.090 .0257279
944.720 .0257091
945.349 .0256902
945.977 .0256715
946.606 .0256536
947.233 .0256371
947.861 .0256212
948.488 .0256059
949.115 .0255915
949.741 .0255775
950.367 .0255633
950.993 .0255489
951.618 .0255340
952.243 .0255179
952.868 .0255016
953.492 .0254845
954.115 .0254672
954.739 .0254501
955.362 .0254332
955.984 .0254165
956.607 .0254006
957.229 .0253853
957.850 .0253705
958.471 .0253567
959.092 .0253438
959.713 .0253311
960.333 .0253187
960.952 .0253067
961.572 .0252950
962.191 .0252839
962.809 .0252741
963.428 .0252655
964.045 .0252589
964.663 .0252543
965.280 .0252512
965.897 .0252493
966.513 .0252484
967.129 .0252482
967.745 .0252479
968.361 .0252480
968.976 .0252487
969.590 .0252499
970.205 .0252524
970.818 .0252564
971.432 .0252620
972.045 .0252689
972.658 .0252771
973.271 .0252856
973.883 .0252937
974.495 .0253010
975.106 .0253070
975.717 .0253117
976.328 .0253158
976.938 .0253190
977.548 .0253215
978.158 .0253240
978.768 .0253263
979.377 .0253273
979.985 .0253271
980.594 .0253256
981.202 .0253223
981.809 .0253172
982.417 .0253107
983.024 .0253033
983.631 .0252956
984.237 .0252878
984.843 .0252802
985.449 .0252732
986.054 .0252662
986.659 .0252601
987.264 .0252545
987.868 .0252497
988.472 .0252456
989.076 .0252425
989.679 .0252410
990.282 .0252410
990.885 .0252417
991.487 .0252432
992.090 .0252450
992.691 .0252476
993.293 .0252492
993.894 .0252505
994.495 .0252520
995.095 .0252528
995.696 .0252531
996.296 .0252538
996.895 .0252540
997.494 .0252546
998.093 .0252552
998.692 .0252559
999.291 .0252561
999.889 .0252553
1000.487 .0252532
1001.084 .0252496
1001.681 .0252457
1002.278 .0252411
1002.875 .0252354
1003.471 .0252302
1004.067 .0252253
1004.663 .0252207
1005.258 .0252172
1005.854 .0252140
1006.449 .0252110
1007.043 .0252073
1007.638 .0252026
1008.232 .0251974
1008.826 .0251916
1009.419 .0251857
1010.012 .0251799
1010.605 .0251751
1011.198 .0251716
1011.791 .0251687
1012.383 .0251672
1012.975 .0251667
1013.566 .0251663
1014.158 .0251656
1014.749 .0251644
1015.340 .0251626
1015.931 .0251605
1016.521 .0251584
1017.111 .0251561
1017.701 .0251543
1018.291 .0251517
1018.880 .0251476
1019.470 .0251420
1020.059 .0251351
1020.647 .0251255
1021.236 .0251143
1021.824 .0251020
1022.412 .0250888
1023.000 .0250750
1023.588 .0250613
1024.175 .0250481
1024.762 .0250345
1025.349 .0250210
1025.936 .0250069
1026.523 .0249927
1027.109 .0249797
1027.695 .0249671
1028.281 .0249564
1028.867 .0249480
1029.452 .0249418
1030.038 .0249369
1030.623 .0249333
1031.208 .0249313
1031.792 .0249296
1032.377 .0249281
1032.961 .0249267
1033.546 .0249265
1034.130 .0249276
1034.714 .0249304
1035.297 .0249351
1035.881 .0249411
1036.464 .0249480
1037.047 .0249542
1037.630 .0249587
1038.213 .0249621
1038.796 .0249642
1039.378 .0249650
1039.961 .0249651
1040.543 .0249664
1041.125 .0249676
1041.707 .0249694
1042.289 .0249717
1042.871 .0249748
1043.452 .0249767
1044.034 .0249771
1044.615 .0249743
1045.196 .0249692
1045.777 .0249628
1046.358 .0249546
1046.939 .0249454
1047.520 .0249365
1048.101 .0249268
1048.681 .0249176
1049.262 .0249084
1049.842 .0248999
1050.422 .0248912
1051.002 .0248823
1051.582 .0248731
1052.162 .0248632
1052.742 .0248530
1053.322 .0248435
1053.902 .0248354
1054.482 .0248301
1055.061 .0248259
1055.641 .0248246
1056.220 .0248256
1056.800 .0248296
1057.379 .0248363
1057.958 .0248448
1058.538 .0248540
1059.117 .0248634
1059.696 .0248721
1060.275 .0248779
1060.854 .0248814
1061.433 .0248835
1062.012 .0248836
1062.592 .0248836
1063.171 .0248828
1063.750 .0248819
1064.329 .0248824
1064.908 .0248847
1065.487 .0248868
1066.066 .0248899
1066.645 .0248942
1067.224 .0248975
1067.803 .0248995
1068.382 .0249011
1068.961 .0249019
1069.540 .0249029
1070.119 .0249067
1070.698 .0249112
1071.278 .0249167
1071.857 .0249242
1072.436 .0249326
1073.016 .0249391
1073.595 .0249434
1074.175 .0249441
1074.754 .0249400
1075.334 .0249313
1075.913 .0249162
1076.493 .0248945
1077.073 .0248705
1077.653 .0248453
1078.233 .0248198
1078.813 .0247962
1079.393 .0247768
1079.974 .0247616
1080.554 .0247525
1081.135 .0247470
1081.716 .0247453
1082.296 .0247451
1082.877 .0247490
1083.458 .0247531
1084.040 .0247589
1084.621 .0247656
1085.202 .0247746
1085.784 .0247889
1086.366 .0248070
1086.948 .0248268
1087.530 .0248501
1088.112 .0248745
1088.695 .0249000
1089.277 .0249228
1089.860 .0249432
1090.443 .0249595
1091.026 .0249728
1091.610 .0249800
1092.193 .0249807
1092.777 .0249753
1093.361 .0249660
1093.946 .0249512
1094.530 .0249337
1095.115 .0249141
1095.700 .0248917
1096.285 .0248691
1096.871 .0248488
1097.456 .0248303
1098.042 .0248149
1098.628 .0248032
1099.215 .0247945
1099.802 .0247880
1100.389 .0247824
1100.976 .0247775
1101.564 .0247718
1102.152 .0247690
1102.740 .0247677
1103.329 .0247673
1103.917 .0247708
1104.507 .0247781
1105.096 .0247884
1105.686 .0248018
1106.276 .0248178
1106.867 .0248344
1107.457 .0248466
1108.049 .0248549
1108.640 .0248572
1109.232 .0248539
1109.825 .0248463
1110.417 .0248371
1111.010 .0248275
1111.604 .0248204
1112.198 .0248167
1112.792 .0248159
1113.387 .0248193
1113.982 .0248254
1114.577 .0248327
1115.173 .0248391
1115.769 .0248450
1116.366 .0248477
1116.963 .0248499
1117.561 .0248560
1118.159 .0248657
1118.758 .0248806
1119.357 .0249007
1119.957 .0249261
1120.557 .0249560
1121.157 .0249872
1121.758 .0250189
1122.360 .0250459
1122.962 .0250685
1123.564 .0250853
1124.167 .0250952
1124.771 .0251020
1125.375 .0251083
1125.980 .0251181
1126.585 .0251323
1127.191 .0251480
1127.797 .0251688
1128.404 .0251926
1129.012 .0252139
1129.620 .0252345
1130.229 .0252465
1130.838 .0252502
1131.448 .0252420
1132.058 .0252267
1132.669 .0252091
1133.281 .0251924
1133.894 .0251845
1134.507 .0251872
1135.120 .0251995
1135.735 .0252244
1136.350 .0252503
1136.965 .0252785
1137.582 .0253035
1138.199 .0253177
1138.816 .0253201
1139.435 .0253217
1140.054 .0253347
1140.674 .0253585
1141.294 .0253836
1141.916 .0254205
1142.538 .0255161
1143.160 .0257820
1143.784 .0257872
1144.408 .0254205
1145.033 .0254793
