Measurement Sequence started on: 14-45-04-498
Integration time: 36
Scans to Average: 2 
>>>>>Begin Spectral Data<<<<<
433.946 .0411770
434.870 .0412783
435.793 .0422220
436.715 .0422947
437.635 .0413082
438.555 .0412451
439.473 .0410069
440.389 .0407224
441.305 .0404035
442.219 .0400983
443.132 .0398355
444.044 .0395837
444.954 .0393801
445.863 .0392141
446.771 .0390745
447.678 .0389490
448.584 .0388333
449.488 .0387277
450.391 .0386256
451.293 .0385274
452.194 .0384335
453.094 .0383495
453.992 .0382697
454.890 .0381935
455.786 .0381217
456.681 .0380545
457.575 .0379789
458.468 .0378967
459.360 .0378094
460.250 .0377169
461.140 .0376211
462.028 .0375308
462.915 .0374475
463.801 .0373752
464.687 .0373135
465.571 .0372601
466.454 .0372128
467.335 .0371703
468.216 .0371253
469.096 .0370803
469.975 .0370357
470.853 .0369918
471.729 .0369472
472.605 .0369052
473.479 .0368624
474.353 .0368171
475.226 .0367727
476.097 .0367284
476.968 .0366835
477.838 .0366383
478.706 .0365971
479.574 .0365617
480.441 .0365307
481.306 .0365073
482.171 .0364860
483.035 .0364682
483.898 .0364492
484.760 .0364269
485.621 .0364009
486.481 .0363709
487.340 .0363419
488.198 .0363161
489.055 .0362962
489.912 .0362817
490.767 .0362692
491.622 .0362577
492.476 .0362454
493.329 .0362271
494.180 .0361998
495.032 .0361659
495.882 .0361256
496.731 .0360815
497.580 .0360375
498.427 .0359962
499.274 .0359620
500.120 .0359343
500.965 .0359146
501.809 .0358975
502.653 .0358804
503.495 .0358605
504.337 .0358321
505.178 .0357976
506.018 .0357534
506.858 .0356983
507.696 .0356378
508.534 .0355751
509.371 .0355142
510.208 .0354576
511.043 .0354097
511.878 .0353713
512.712 .0353408
513.545 .0353167
514.377 .0352959
515.209 .0352776
516.040 .0352606
516.870 .0352452
517.699 .0352323
518.528 .0352244
519.356 .0352152
520.183 .0352125
521.010 .0352153
521.836 .0352190
522.661 .0352138
523.485 .0351964
524.309 .0351627
525.132 .0351088
525.954 .0350307
526.776 .0349301
527.597 .0348137
528.417 .0346881
529.237 .0345501
530.056 .0344103
530.874 .0342739
531.692 .0341437
532.508 .0340193
533.325 .0339082
534.140 .0338005
534.955 .0337001
535.770 .0336059
536.583 .0335227
537.397 .0334507
538.209 .0333902
539.021 .0333417
539.832 .0333054
540.643 .0332836
541.453 .0332689
542.262 .0332580
543.071 .0332541
543.879 .0332505
544.687 .0332465
545.494 .0332410
546.300 .0332409
547.106 .0332448
547.911 .0332566
548.716 .0332753
549.520 .0332954
550.323 .0333151
551.126 .0333291
551.929 .0333402
552.731 .0333405
553.532 .0333330
554.332 .0333197
555.133 .0333026
555.932 .0332845
556.731 .0332652
557.530 .0332446
558.328 .0332283
559.125 .0332109
559.922 .0331896
560.719 .0331606
561.515 .0331277
562.310 .0330871
563.105 .0330420
563.899 .0329927
564.693 .0329430
565.487 .0328922
566.280 .0328478
567.072 .0328045
567.864 .0327644
568.655 .0327260
569.446 .0326868
570.236 .0326454
571.026 .0326032
571.816 .0325546
572.605 .0325062
573.393 .0324586
574.181 .0324162
574.969 .0323778
575.756 .0323457
576.543 .0323180
577.329 .0322948
578.115 .0322732
578.900 .0322502
579.685 .0322238
580.469 .0321978
581.253 .0321697
582.036 .0321402
582.820 .0321110
583.602 .0320844
584.384 .0320605
585.166 .0320410
585.947 .0320232
586.728 .0320075
587.509 .0319926
588.289 .0319782
589.069 .0319631
589.848 .0319477
590.627 .0319309
591.405 .0319129
592.183 .0318945
592.961 .0318768
593.738 .0318584
594.515 .0318409
595.291 .0318239
596.067 .0318084
596.843 .0317925
597.618 .0317755
598.393 .0317567
599.167 .0317363
599.941 .0317134
600.715 .0316884
601.488 .0316614
602.261 .0316333
603.034 .0316045
603.806 .0315772
604.578 .0315503
605.349 .0315253
606.121 .0315013
606.891 .0314785
607.662 .0314554
608.432 .0314325
609.201 .0314089
609.971 .0313858
610.740 .0313634
611.508 .0313419
612.277 .0313214
613.045 .0313031
613.812 .0312863
614.579 .0312708
615.346 .0312563
616.113 .0312430
616.879 .0312289
617.645 .0312150
618.411 .0311999
619.176 .0311843
619.941 .0311679
620.705 .0311514
621.470 .0311342
622.233 .0311171
622.997 .0310997
623.760 .0310825
624.523 .0310660
625.286 .0310502
626.048 .0310338
626.810 .0310175
627.572 .0310007
628.333 .0309831
629.095 .0309640
629.855 .0309440
630.616 .0309233
631.376 .0309026
632.136 .0308819
632.895 .0308619
633.655 .0308430
634.414 .0308260
635.172 .0308104
635.931 .0307956
636.689 .0307815
637.447 .0307675
638.204 .0307535
638.962 .0307405
639.718 .0307279
640.475 .0307160
641.231 .0307047
641.988 .0306939
642.743 .0306834
643.499 .0306721
644.254 .0306603
645.009 .0306474
645.764 .0306334
646.518 .0306180
647.272 .0306010
648.026 .0305833
648.780 .0305652
649.533 .0305467
650.286 .0305276
651.039 .0305076
651.792 .0304871
652.544 .0304657
653.296 .0304437
654.048 .0304218
654.799 .0303999
655.550 .0303780
656.301 .0303566
657.052 .0303359
657.802 .0303157
658.552 .0302965
659.302 .0302779
660.052 .0302599
660.801 .0302419
661.550 .0302243
662.299 .0302066
663.048 .0301893
663.796 .0301728
664.544 .0301561
665.292 .0301398
666.040 .0301239
666.787 .0301082
667.534 .0300928
668.281 .0300780
669.028 .0300642
669.774 .0300506
670.521 .0300378
671.266 .0300252
672.012 .0300135
672.758 .0300024
673.503 .0299910
674.248 .0299795
674.992 .0299673
675.737 .0299546
676.481 .0299413
677.225 .0299276
677.969 .0299139
678.712 .0299004
679.455 .0298879
680.199 .0298762
680.941 .0298659
681.684 .0298569
682.426 .0298488
683.168 .0298411
683.910 .0298334
684.652 .0298249
685.393 .0298161
686.134 .0298074
686.875 .0297990
687.616 .0297909
688.356 .0297837
689.097 .0297775
689.837 .0297719
690.576 .0297664
691.316 .0297605
692.055 .0297536
692.794 .0297456
693.533 .0297360
694.272 .0297253
695.010 .0297143
695.748 .0297033
696.486 .0296923
697.224 .0296814
697.962 .0296704
698.699 .0296587
699.436 .0296461
700.173 .0296324
700.909 .0296175
701.646 .0296016
702.382 .0295848
703.118 .0295678
703.853 .0295511
704.589 .0295347
705.324 .0295187
706.059 .0295030
706.794 .0294876
707.529 .0294716
708.263 .0294551
708.997 .0294389
709.731 .0294225
710.465 .0294062
711.198 .0293906
711.931 .0293757
712.664 .0293621
713.397 .0293492
714.130 .0293367
714.862 .0293244
715.594 .0293122
716.326 .0292996
717.058 .0292865
717.789 .0292737
718.520 .0292613
719.251 .0292489
719.982 .0292375
720.713 .0292269
721.443 .0292170
722.173 .0292077
722.903 .0291983
723.633 .0291884
724.362 .0291779
725.091 .0291662
725.820 .0291535
726.549 .0291399
727.278 .0291257
728.006 .0291107
728.734 .0290951
729.462 .0290794
730.190 .0290634
730.917 .0290474
731.644 .0290316
732.371 .0290155
733.098 .0289995
733.825 .0289835
734.551 .0289678
735.277 .0289527
736.003 .0289381
736.728 .0289242
737.454 .0289113
738.179 .0288998
738.904 .0288895
739.629 .0288809
740.353 .0288742
741.077 .0288690
741.801 .0288651
742.525 .0288620
743.249 .0288597
743.972 .0288576
744.695 .0288560
745.418 .0288542
746.141 .0288520
746.863 .0288497
747.585 .0288470
748.307 .0288446
749.029 .0288424
749.750 .0288404
750.472 .0288385
751.193 .0288368
751.913 .0288347
752.634 .0288319
753.354 .0288286
754.074 .0288246
754.794 .0288193
755.514 .0288131
756.233 .0288059
756.952 .0287977
757.671 .0287890
758.390 .0287801
759.108 .0287707
759.826 .0287612
760.544 .0287511
761.262 .0287411
761.979 .0287308
762.697 .0287207
763.414 .0287103
764.130 .0287002
764.847 .0286905
765.563 .0286811
766.279 .0286718
766.995 .0286632
767.710 .0286546
768.426 .0286461
769.141 .0286378
769.855 .0286298
770.570 .0286215
771.284 .0286137
771.998 .0286059
772.712 .0285986
773.426 .0285910
774.139 .0285832
774.852 .0285743
775.565 .0285646
776.277 .0285538
776.990 .0285414
777.702 .0285280
778.414 .0285144
779.125 .0285009
779.836 .0284877
780.547 .0284753
781.258 .0284634
781.969 .0284519
782.679 .0284406
783.389 .0284292
784.099 .0284176
784.808 .0284057
785.517 .0283938
786.226 .0283820
786.935 .0283707
787.643 .0283608
788.352 .0283521
789.060 .0283446
789.767 .0283382
790.475 .0283319
791.182 .0283253
791.889 .0283181
792.595 .0283099
793.301 .0283005
794.008 .0282901
794.713 .0282785
795.419 .0282664
796.124 .0282542
796.829 .0282426
797.534 .0282312
798.238 .0282204
798.942 .0282103
799.646 .0282006
800.350 .0281909
801.053 .0281815
801.756 .0281722
802.459 .0281630
803.162 .0281540
803.864 .0281454
804.566 .0281372
805.267 .0281298
805.969 .0281232
806.670 .0281178
807.371 .0281130
808.071 .0281092
808.772 .0281055
809.472 .0281014
810.171 .0280970
810.871 .0280920
811.570 .0280859
812.269 .0280791
812.967 .0280718
813.666 .0280642
814.364 .0280566
815.061 .0280498
815.759 .0280435
816.456 .0280378
817.153 .0280323
817.849 .0280263
818.545 .0280199
819.241 .0280128
819.937 .0280050
820.632 .0279964
821.327 .0279875
822.022 .0279784
822.717 .0279691
823.411 .0279602
824.105 .0279518
824.798 .0279435
825.491 .0279355
826.184 .0279270
826.877 .0279183
827.569 .0279092
828.261 .0278998
828.953 .0278901
829.645 .0278806
830.336 .0278712
831.027 .0278625
831.717 .0278546
832.407 .0278480
833.097 .0278424
833.787 .0278382
834.476 .0278349
835.165 .0278320
835.854 .0278294
836.542 .0278270
837.230 .0278237
837.918 .0278199
838.605 .0278152
839.292 .0278097
839.979 .0278036
840.665 .0277972
841.352 .0277903
842.037 .0277832
842.723 .0277755
843.408 .0277669
844.093 .0277570
844.777 .0277460
845.462 .0277336
846.145 .0277199
846.829 .0277056
847.512 .0276908
848.195 .0276757
848.878 .0276611
849.560 .0276472
850.242 .0276337
850.923 .0276201
851.605 .0276065
852.286 .0275924
852.966 .0275781
853.646 .0275634
854.326 .0275487
855.006 .0275341
855.685 .0275198
856.364 .0275053
857.043 .0274908
857.721 .0274760
858.399 .0274610
859.077 .0274452
859.754 .0274291
860.431 .0274125
861.107 .0273960
861.784 .0273795
862.459 .0273637
863.135 .0273484
863.810 .0273336
864.485 .0273191
865.160 .0273051
865.834 .0272910
866.508 .0272769
867.181 .0272633
867.854 .0272503
868.527 .0272375
869.199 .0272252
869.872 .0272125
870.543 .0272003
871.215 .0271874
871.886 .0271738
872.557 .0271595
873.227 .0271445
873.897 .0271289
874.567 .0271122
875.236 .0270952
875.905 .0270782
876.573 .0270612
877.242 .0270444
877.909 .0270271
878.577 .0270099
879.244 .0269925
879.911 .0269753
880.577 .0269582
881.243 .0269417
881.909 .0269256
882.575 .0269102
883.240 .0268956
883.904 .0268819
884.569 .0268691
885.232 .0268576
885.896 .0268473
886.559 .0268382
887.222 .0268301
887.885 .0268230
888.547 .0268169
889.208 .0268119
889.870 .0268072
890.531 .0268032
891.192 .0267994
891.852 .0267964
892.512 .0267942
893.171 .0267926
893.830 .0267921
894.489 .0267926
895.148 .0267938
895.806 .0267954
896.464 .0267972
897.121 .0267993
897.778 .0268008
898.434 .0268023
899.091 .0268028
899.747 .0268031
900.402 .0268032
901.057 .0268029
901.712 .0268024
902.366 .0268017
903.020 .0268001
903.674 .0267980
904.327 .0267953
904.980 .0267921
905.633 .0267878
906.285 .0267835
906.936 .0267790
907.588 .0267746
908.239 .0267704
908.889 .0267664
909.540 .0267623
910.190 .0267581
910.839 .0267532
911.488 .0267472
912.137 .0267405
912.785 .0267329
913.433 .0267243
914.081 .0267150
914.728 .0267051
915.375 .0266950
916.021 .0266844
916.668 .0266740
917.313 .0266633
917.959 .0266521
918.604 .0266401
919.248 .0266272
919.892 .0266135
920.536 .0265990
921.180 .0265844
921.823 .0265700
922.465 .0265565
923.108 .0265441
923.750 .0265327
924.391 .0265227
925.032 .0265141
925.673 .0265062
926.313 .0264987
926.953 .0264914
927.593 .0264838
928.232 .0264756
928.871 .0264672
929.510 .0264588
930.148 .0264505
930.786 .0264427
931.423 .0264356
932.060 .0264290
932.697 .0264226
933.333 .0264164
933.969 .0264097
934.604 .0264025
935.239 .0263942
935.874 .0263843
936.508 .0263732
937.142 .0263609
937.776 .0263475
938.409 .0263332
939.042 .0263182
939.674 .0263020
940.306 .0262844
940.938 .0262655
941.569 .0262451
942.200 .0262232
942.830 .0261999
943.460 .0261755
944.090 .0261503
944.720 .0261249
945.349 .0260997
945.977 .0260758
946.606 .0260535
947.233 .0260323
947.861 .0260122
948.488 .0259928
949.115 .0259739
949.741 .0259551
950.367 .0259364
950.993 .0259179
951.618 .0258998
952.243 .0258817
952.868 .0258639
953.492 .0258467
954.115 .0258301
954.739 .0258137
955.362 .0257971
955.984 .0257800
956.607 .0257621
957.229 .0257436
957.850 .0257248
958.471 .0257053
959.092 .0256859
959.713 .0256666
960.333 .0256471
960.952 .0256283
961.572 .0256104
962.191 .0255932
962.809 .0255771
963.428 .0255618
964.045 .0255470
964.663 .0255328
965.280 .0255195
965.897 .0255072
966.513 .0254957
967.129 .0254855
967.745 .0254755
968.361 .0254658
968.976 .0254563
969.590 .0254467
970.205 .0254368
970.818 .0254270
971.432 .0254172
972.045 .0254081
972.658 .0253997
973.271 .0253925
973.883 .0253863
974.495 .0253806
975.106 .0253747
975.717 .0253680
976.328 .0253594
976.938 .0253493
977.548 .0253378
978.158 .0253258
978.768 .0253136
979.377 .0253024
979.985 .0252918
980.594 .0252822
981.202 .0252734
981.809 .0252646
982.417 .0252555
983.024 .0252459
983.631 .0252357
984.237 .0252252
984.843 .0252144
985.449 .0252039
986.054 .0251936
986.659 .0251839
987.264 .0251744
987.868 .0251645
988.472 .0251543
989.076 .0251435
989.679 .0251325
990.282 .0251217
990.885 .0251111
991.487 .0251009
992.090 .0250914
992.691 .0250818
993.293 .0250725
993.894 .0250633
994.495 .0250544
995.095 .0250459
995.696 .0250382
996.296 .0250317
996.895 .0250269
997.494 .0250243
998.093 .0250241
998.692 .0250259
999.291 .0250301
999.889 .0250353
1000.487 .0250411
1001.084 .0250477
1001.681 .0250542
1002.278 .0250607
1002.875 .0250672
1003.471 .0250737
1004.067 .0250799
1004.663 .0250859
1005.258 .0250913
1005.854 .0250962
1006.449 .0251009
1007.043 .0251049
1007.638 .0251074
1008.232 .0251094
1008.826 .0251100
1009.419 .0251095
1010.012 .0251085
1010.605 .0251071
1011.198 .0251048
1011.791 .0251028
1012.383 .0251006
1012.975 .0250987
1013.566 .0250970
1014.158 .0250965
1014.749 .0250969
1015.340 .0250986
1015.931 .0251015
1016.521 .0251043
1017.111 .0251074
1017.701 .0251114
1018.291 .0251147
1018.880 .0251179
1019.470 .0251211
1020.059 .0251247
1020.647 .0251291
1021.236 .0251346
1021.824 .0251410
1022.412 .0251487
1023.000 .0251573
1023.588 .0251664
1024.175 .0251747
1024.762 .0251824
1025.349 .0251890
1025.936 .0251947
1026.523 .0252000
1027.109 .0252050
1027.695 .0252098
1028.281 .0252152
1028.867 .0252210
1029.452 .0252273
1030.038 .0252335
1030.623 .0252395
1031.208 .0252448
1031.792 .0252494
1032.377 .0252528
1032.961 .0252555
1033.546 .0252581
1034.130 .0252612
1034.714 .0252650
1035.297 .0252697
1035.881 .0252754
1036.464 .0252827
1037.047 .0252910
1037.630 .0252997
1038.213 .0253088
1038.796 .0253183
1039.378 .0253271
1039.961 .0253355
1040.543 .0253430
1041.125 .0253499
1041.707 .0253561
1042.289 .0253618
1042.871 .0253673
1043.452 .0253722
1044.034 .0253771
1044.615 .0253811
1045.196 .0253848
1045.777 .0253873
1046.358 .0253885
1046.939 .0253887
1047.520 .0253872
1048.101 .0253842
1048.681 .0253796
1049.262 .0253741
1049.842 .0253679
1050.422 .0253614
1051.002 .0253554
1051.582 .0253498
1052.162 .0253462
1052.742 .0253430
1053.322 .0253406
1053.902 .0253385
1054.482 .0253367
1055.061 .0253344
1055.641 .0253316
1056.220 .0253284
1056.800 .0253249
1057.379 .0253206
1057.958 .0253171
1058.538 .0253136
1059.117 .0253105
1059.696 .0253080
1060.275 .0253054
1060.854 .0253023
1061.433 .0252990
1062.012 .0252944
1062.592 .0252892
1063.171 .0252835
1063.750 .0252772
1064.329 .0252693
1064.908 .0252604
1065.487 .0252498
1066.066 .0252376
1066.645 .0252237
1067.224 .0252093
1067.803 .0251936
1068.382 .0251784
1068.961 .0251638
1069.540 .0251494
1070.119 .0251369
1070.698 .0251259
1071.278 .0251154
1071.857 .0251064
1072.436 .0250991
1073.016 .0250931
1073.595 .0250881
1074.175 .0250852
1074.754 .0250837
1075.334 .0250834
1075.913 .0250846
1076.493 .0250865
1077.073 .0250885
1077.653 .0250908
1078.233 .0250922
1078.813 .0250924
1079.393 .0250918
1079.974 .0250900
1080.554 .0250868
1081.135 .0250817
1081.716 .0250751
1082.296 .0250671
1082.877 .0250571
1083.458 .0250454
1084.040 .0250327
1084.621 .0250181
1085.202 .0250036
1085.784 .0249902
1086.366 .0249775
1086.948 .0249668
1087.530 .0249596
1088.112 .0249539
1088.695 .0249500
1089.277 .0249484
1089.860 .0249471
1090.443 .0249445
1091.026 .0249429
1091.610 .0249401
1092.193 .0249364
1092.777 .0249328
1093.361 .0249288
1093.946 .0249239
1094.530 .0249195
1095.115 .0249132
1095.700 .0249038
1096.285 .0248930
1096.871 .0248796
1097.456 .0248615
1098.042 .0248423
1098.628 .0248218
1099.215 .0247991
1099.802 .0247758
1100.389 .0247543
1100.976 .0247333
1101.564 .0247134
1102.152 .0246945
1102.740 .0246765
1103.329 .0246607
1103.917 .0246457
1104.507 .0246311
1105.096 .0246183
1105.686 .0246102
1106.276 .0246038
1106.867 .0245994
1107.457 .0245991
1108.049 .0246009
1108.640 .0246040
1109.232 .0246090
1109.825 .0246156
1110.417 .0246242
1111.010 .0246327
1111.604 .0246427
1112.198 .0246533
1112.792 .0246666
1113.387 .0246791
1113.982 .0246940
1114.577 .0247124
1115.173 .0247346
1115.769 .0247563
1116.366 .0247795
1116.963 .0248046
1117.561 .0248289
1118.159 .0248491
1118.758 .0248655
1119.357 .0248761
1119.957 .0248846
1120.557 .0248883
1121.157 .0248938
1121.758 .0249012
1122.360 .0249156
1122.962 .0249344
1123.564 .0249578
1124.167 .0249832
1124.771 .0250063
1125.375 .0250237
1125.980 .0250385
1126.585 .0250488
1127.191 .0250574
1127.797 .0250659
1128.404 .0250812
1129.012 .0251010
1129.620 .0251277
1130.229 .0251586
1130.838 .0251900
1131.448 .0252169
1132.058 .0252363
1132.669 .0252462
1133.281 .0252494
1133.894 .0252481
1134.507 .0252464
1135.120 .0252482
1135.735 .0252580
1136.350 .0252737
1136.965 .0252964
1137.582 .0253254
1138.199 .0253584
1138.816 .0253970
1139.435 .0254381
1140.054 .0254872
1140.674 .0255414
1141.294 .0256099
1141.916 .0256925
1142.538 .0257322
1143.160 .0259089
1143.784 .0258825
1144.408 .0261757
1145.033 .0263276
