Measurement Sequence started on: 14-45-04-498
Integration time: 36
Scans to Average: 2 
>>>>>Begin Spectral Data<<<<<
433.946 .0513332
434.870 .0511111
435.793 .0438203
436.715 .0428497
437.635 .0416344
438.555 .0432488
439.473 .0426531
440.389 .0422830
441.305 .0422221
442.219 .0422126
443.132 .0422446
444.044 .0422597
444.954 .0422945
445.863 .0423221
446.771 .0423355
447.678 .0423326
448.584 .0423083
449.488 .0422632
450.391 .0421949
451.293 .0421171
452.194 .0420445
453.094 .0419721
453.992 .0418987
454.890 .0418230
455.786 .0417424
456.681 .0416540
457.575 .0415578
458.468 .0414545
459.360 .0413522
460.250 .0412497
461.140 .0411459
462.028 .0410474
462.915 .0409563
463.801 .0408691
464.687 .0407806
465.571 .0406929
466.454 .0406041
467.335 .0405109
468.216 .0404178
469.096 .0403263
469.975 .0402386
470.853 .0401596
471.729 .0400825
472.605 .0400097
473.479 .0399429
474.353 .0398830
475.226 .0398279
476.097 .0397751
476.968 .0397240
477.838 .0396732
478.706 .0396243
479.574 .0395789
480.441 .0395387
481.306 .0395046
482.171 .0394763
483.035 .0394511
483.898 .0394292
484.760 .0394088
485.621 .0393885
486.481 .0393685
487.340 .0393470
488.198 .0393256
489.055 .0393035
489.912 .0392803
490.767 .0392635
491.622 .0392510
492.476 .0392426
493.329 .0392367
494.180 .0392330
495.032 .0392295
495.882 .0392247
496.731 .0392160
497.580 .0392055
498.427 .0391913
499.274 .0391746
500.120 .0391517
500.965 .0391259
501.809 .0390989
502.653 .0390673
503.495 .0390322
504.337 .0389948
505.178 .0389528
506.018 .0389108
506.858 .0388624
507.696 .0388144
508.534 .0387634
509.371 .0387106
510.208 .0386569
511.043 .0386026
511.878 .0385505
512.712 .0384998
513.545 .0384486
514.377 .0384023
515.209 .0383585
516.040 .0383190
516.870 .0382797
517.699 .0382424
518.528 .0382072
519.356 .0381743
520.183 .0381392
521.010 .0381084
521.836 .0380755
522.661 .0380426
523.485 .0380011
524.309 .0379539
525.132 .0379022
525.954 .0378415
526.776 .0377759
527.597 .0377120
528.417 .0376499
529.237 .0375923
530.056 .0375302
530.874 .0374736
531.692 .0374152
532.508 .0373551
533.325 .0372879
534.140 .0372145
534.955 .0371378
535.770 .0370598
536.583 .0369812
537.397 .0369137
538.209 .0368580
539.021 .0368094
539.832 .0367642
540.643 .0367194
541.453 .0366670
542.262 .0366116
543.071 .0365481
543.879 .0364838
544.687 .0364192
545.494 .0363634
546.300 .0363156
547.106 .0362846
547.911 .0362717
548.716 .0362711
549.520 .0362743
550.323 .0362796
551.126 .0362747
551.929 .0362617
552.731 .0362378
553.532 .0362063
554.332 .0361698
555.133 .0361381
555.932 .0361079
556.731 .0360842
557.530 .0360668
558.328 .0360580
559.125 .0360524
559.922 .0360478
560.719 .0360383
561.515 .0360214
562.310 .0359972
563.105 .0359693
563.899 .0359339
564.693 .0358987
565.487 .0358619
566.280 .0358282
567.072 .0357984
567.864 .0357706
568.655 .0357435
569.446 .0357182
570.236 .0356940
571.026 .0356674
571.816 .0356361
572.605 .0356015
573.393 .0355642
574.181 .0355257
574.969 .0354865
575.756 .0354472
576.543 .0354108
577.329 .0353779
578.115 .0353465
578.900 .0353148
579.685 .0352832
580.469 .0352507
581.253 .0352192
582.036 .0351851
582.820 .0351492
583.602 .0351114
584.384 .0350752
585.166 .0350396
585.947 .0350055
586.728 .0349736
587.509 .0349430
588.289 .0349134
589.069 .0348833
589.848 .0348513
590.627 .0348174
591.405 .0347821
592.183 .0347450
592.961 .0347065
593.738 .0346674
594.515 .0346291
595.291 .0345921
596.067 .0345577
596.843 .0345250
597.618 .0344924
598.393 .0344597
599.167 .0344262
599.941 .0343905
600.715 .0343547
601.488 .0343191
602.261 .0342846
603.034 .0342523
603.806 .0342230
604.578 .0341965
605.349 .0341732
606.121 .0341517
606.891 .0341310
607.662 .0341101
608.432 .0340888
609.201 .0340666
609.971 .0340438
610.740 .0340222
611.508 .0340015
612.277 .0339822
613.045 .0339648
613.812 .0339485
614.579 .0339334
615.346 .0339190
616.113 .0339048
616.879 .0338898
617.645 .0338739
618.411 .0338575
619.176 .0338401
619.941 .0338230
620.705 .0338063
621.470 .0337904
622.233 .0337751
622.997 .0337606
623.760 .0337456
624.523 .0337304
625.286 .0337142
626.048 .0336963
626.810 .0336767
627.572 .0336550
628.333 .0336316
629.095 .0336068
629.855 .0335822
630.616 .0335582
631.376 .0335347
632.136 .0335130
632.895 .0334917
633.655 .0334704
634.414 .0334487
635.172 .0334258
635.931 .0334018
636.689 .0333771
637.447 .0333516
638.204 .0333255
638.962 .0333004
639.718 .0332760
640.475 .0332523
641.231 .0332297
641.988 .0332071
642.743 .0331840
643.499 .0331596
644.254 .0331339
645.009 .0331064
645.764 .0330785
646.518 .0330506
647.272 .0330226
648.026 .0329959
648.780 .0329699
649.533 .0329446
650.286 .0329205
651.039 .0328971
651.792 .0328738
652.544 .0328505
653.296 .0328271
654.048 .0328042
654.799 .0327819
655.550 .0327604
656.301 .0327397
657.052 .0327199
657.802 .0327014
658.552 .0326834
659.302 .0326660
660.052 .0326496
660.801 .0326337
661.550 .0326190
662.299 .0326049
663.048 .0325916
663.796 .0325796
664.544 .0325687
665.292 .0325584
666.040 .0325489
666.787 .0325394
667.534 .0325300
668.281 .0325207
669.028 .0325115
669.774 .0325023
670.521 .0324931
671.266 .0324840
672.012 .0324747
672.758 .0324656
673.503 .0324562
674.248 .0324460
674.992 .0324355
675.737 .0324240
676.481 .0324114
677.225 .0323976
677.969 .0323827
678.712 .0323674
679.455 .0323512
680.199 .0323347
680.941 .0323178
681.684 .0323009
682.426 .0322840
683.168 .0322673
683.910 .0322505
684.652 .0322342
685.393 .0322183
686.134 .0322026
686.875 .0321876
687.616 .0321733
688.356 .0321598
689.097 .0321470
689.837 .0321347
690.576 .0321226
691.316 .0321098
692.055 .0320969
692.794 .0320831
693.533 .0320683
694.272 .0320531
695.010 .0320368
695.748 .0320196
696.486 .0320019
697.224 .0319835
697.962 .0319645
698.699 .0319450
699.436 .0319251
700.173 .0319045
700.909 .0318831
701.646 .0318611
702.382 .0318384
703.118 .0318155
703.853 .0317930
704.589 .0317708
705.324 .0317495
706.059 .0317295
706.794 .0317105
707.529 .0316930
708.263 .0316772
708.997 .0316630
709.731 .0316496
710.465 .0316368
711.198 .0316242
711.931 .0316110
712.664 .0315977
713.397 .0315839
714.130 .0315697
714.862 .0315559
715.594 .0315418
716.326 .0315277
717.058 .0315141
717.789 .0315009
718.520 .0314876
719.251 .0314741
719.982 .0314602
720.713 .0314457
721.443 .0314309
722.173 .0314161
722.903 .0314015
723.633 .0313881
724.362 .0313757
725.091 .0313638
725.820 .0313527
726.549 .0313423
727.278 .0313319
728.006 .0313218
728.734 .0313117
729.462 .0313019
730.190 .0312927
730.917 .0312840
731.644 .0312761
732.371 .0312695
733.098 .0312638
733.825 .0312584
734.551 .0312532
735.277 .0312476
736.003 .0312412
736.728 .0312344
737.454 .0312274
738.179 .0312204
738.904 .0312135
739.629 .0312066
740.353 .0311999
741.077 .0311939
741.801 .0311880
742.525 .0311819
743.249 .0311765
743.972 .0311713
744.695 .0311662
745.418 .0311614
746.141 .0311569
746.863 .0311527
747.585 .0311483
748.307 .0311429
749.029 .0311364
749.750 .0311286
750.472 .0311200
751.193 .0311104
751.913 .0311006
752.634 .0310908
753.354 .0310811
754.074 .0310711
754.794 .0310610
755.514 .0310501
756.233 .0310378
756.952 .0310235
757.671 .0310076
758.390 .0309899
759.108 .0309709
759.826 .0309516
760.544 .0309325
761.262 .0309140
761.979 .0308962
762.697 .0308785
763.414 .0308612
764.130 .0308444
764.847 .0308273
765.563 .0308097
766.279 .0307923
766.995 .0307746
767.710 .0307573
768.426 .0307411
769.141 .0307263
769.855 .0307126
770.570 .0306998
771.284 .0306880
771.998 .0306763
772.712 .0306650
773.426 .0306539
774.139 .0306426
774.852 .0306321
775.565 .0306217
776.277 .0306115
776.990 .0306019
777.702 .0305933
778.414 .0305850
779.125 .0305768
779.836 .0305679
780.547 .0305585
781.258 .0305479
781.969 .0305365
782.679 .0305243
783.389 .0305118
784.099 .0304994
784.808 .0304874
785.517 .0304764
786.226 .0304668
786.935 .0304579
787.643 .0304502
788.352 .0304428
789.060 .0304354
789.767 .0304275
790.475 .0304189
791.182 .0304099
791.889 .0304011
792.595 .0303925
793.301 .0303845
794.008 .0303777
794.713 .0303722
795.419 .0303673
796.124 .0303634
796.829 .0303593
797.534 .0303552
798.238 .0303504
798.942 .0303453
799.646 .0303399
800.350 .0303349
801.053 .0303304
801.756 .0303269
802.459 .0303247
803.162 .0303236
803.864 .0303231
804.566 .0303237
805.267 .0303246
805.969 .0303258
806.670 .0303267
807.371 .0303279
808.071 .0303293
808.772 .0303315
809.472 .0303336
810.171 .0303359
810.871 .0303385
811.570 .0303407
812.269 .0303423
812.967 .0303432
813.666 .0303428
814.364 .0303414
815.061 .0303385
815.759 .0303347
816.456 .0303293
817.153 .0303229
817.849 .0303148
818.545 .0303058
819.241 .0302954
819.937 .0302836
820.632 .0302708
821.327 .0302571
822.022 .0302426
822.717 .0302274
823.411 .0302118
824.105 .0301962
824.798 .0301809
825.491 .0301658
826.184 .0301508
826.877 .0301361
827.569 .0301213
828.261 .0301065
828.953 .0300918
829.645 .0300771
830.336 .0300621
831.027 .0300473
831.717 .0300328
832.407 .0300181
833.097 .0300036
833.787 .0299891
834.476 .0299747
835.165 .0299606
835.854 .0299464
836.542 .0299324
837.230 .0299187
837.918 .0299054
838.605 .0298921
839.292 .0298789
839.979 .0298660
840.665 .0298528
841.352 .0298394
842.037 .0298259
842.723 .0298120
843.408 .0297975
844.093 .0297822
844.777 .0297659
845.462 .0297484
846.145 .0297295
846.829 .0297089
847.512 .0296869
848.195 .0296637
848.878 .0296396
849.560 .0296147
850.242 .0295900
850.923 .0295654
851.605 .0295407
852.286 .0295160
852.966 .0294915
853.646 .0294669
854.326 .0294424
855.006 .0294185
855.685 .0293953
856.364 .0293731
857.043 .0293525
857.721 .0293329
858.399 .0293151
859.077 .0292987
859.754 .0292831
860.431 .0292678
861.107 .0292531
861.784 .0292383
862.459 .0292235
863.135 .0292088
863.810 .0291945
864.485 .0291804
865.160 .0291673
865.834 .0291543
866.508 .0291419
867.181 .0291301
867.854 .0291190
868.527 .0291076
869.199 .0290965
869.872 .0290851
870.543 .0290736
871.215 .0290619
871.886 .0290505
872.557 .0290390
873.227 .0290281
873.897 .0290176
874.567 .0290076
875.236 .0289981
875.905 .0289897
876.573 .0289818
877.242 .0289749
877.909 .0289685
878.577 .0289633
879.244 .0289586
879.911 .0289551
880.577 .0289525
881.243 .0289509
881.909 .0289501
882.575 .0289494
883.240 .0289489
883.904 .0289481
884.569 .0289465
885.232 .0289444
885.896 .0289416
886.559 .0289383
887.222 .0289346
887.885 .0289308
888.547 .0289271
889.208 .0289239
889.870 .0289208
890.531 .0289179
891.192 .0289155
891.852 .0289132
892.512 .0289112
893.171 .0289095
893.830 .0289086
894.489 .0289086
895.148 .0289095
895.806 .0289116
896.464 .0289150
897.121 .0289198
897.778 .0289254
898.434 .0289317
899.091 .0289383
899.747 .0289445
900.402 .0289501
901.057 .0289546
901.712 .0289578
902.366 .0289596
903.020 .0289604
903.674 .0289599
904.327 .0289590
904.980 .0289574
905.633 .0289554
906.285 .0289531
906.936 .0289505
907.588 .0289474
908.239 .0289432
908.889 .0289377
909.540 .0289307
910.190 .0289218
910.839 .0289114
911.488 .0288993
912.137 .0288861
912.785 .0288718
913.433 .0288570
914.081 .0288419
914.728 .0288272
915.375 .0288126
916.021 .0287981
916.668 .0287836
917.313 .0287690
917.959 .0287541
918.604 .0287384
919.248 .0287223
919.892 .0287059
920.536 .0286887
921.180 .0286710
921.823 .0286533
922.465 .0286356
923.108 .0286177
923.750 .0285997
924.391 .0285811
925.032 .0285617
925.673 .0285415
926.313 .0285203
926.953 .0284985
927.593 .0284759
928.232 .0284527
928.871 .0284292
929.510 .0284060
930.148 .0283828
930.786 .0283597
931.423 .0283370
932.060 .0283148
932.697 .0282924
933.333 .0282699
933.969 .0282478
934.604 .0282265
935.239 .0282054
935.874 .0281849
936.508 .0281646
937.142 .0281444
937.776 .0281234
938.409 .0281012
939.042 .0280768
939.674 .0280503
940.306 .0280214
940.938 .0279904
941.569 .0279583
942.200 .0279262
942.830 .0278942
943.460 .0278637
944.090 .0278342
944.720 .0278056
945.349 .0277778
945.977 .0277505
946.606 .0277232
947.233 .0276959
947.861 .0276685
948.488 .0276409
949.115 .0276141
949.741 .0275885
950.367 .0275639
950.993 .0275406
951.618 .0275187
952.243 .0274975
952.868 .0274767
953.492 .0274561
954.115 .0274350
954.739 .0274138
955.362 .0273925
955.984 .0273708
956.607 .0273494
957.229 .0273287
957.850 .0273086
958.471 .0272894
959.092 .0272715
959.713 .0272542
960.333 .0272378
960.952 .0272224
961.572 .0272075
962.191 .0271933
962.809 .0271797
963.428 .0271667
964.045 .0271544
964.663 .0271431
965.280 .0271322
965.897 .0271218
966.513 .0271127
967.129 .0271041
967.745 .0270954
968.361 .0270866
968.976 .0270772
969.590 .0270668
970.205 .0270556
970.818 .0270438
971.432 .0270317
972.045 .0270201
972.658 .0270095
973.271 .0270004
973.883 .0269924
974.495 .0269856
975.106 .0269793
975.717 .0269734
976.328 .0269674
976.938 .0269610
977.548 .0269549
978.158 .0269497
978.768 .0269457
979.377 .0269431
979.985 .0269417
980.594 .0269416
981.202 .0269424
981.809 .0269435
982.417 .0269445
983.024 .0269451
983.631 .0269454
984.237 .0269455
984.843 .0269455
985.449 .0269454
986.054 .0269454
986.659 .0269450
987.264 .0269439
987.868 .0269411
988.472 .0269368
989.076 .0269316
989.679 .0269260
990.282 .0269206
990.885 .0269162
991.487 .0269130
992.090 .0269115
992.691 .0269113
993.293 .0269121
993.894 .0269128
994.495 .0269131
995.095 .0269125
995.696 .0269110
996.296 .0269088
996.895 .0269069
997.494 .0269060
998.093 .0269071
998.692 .0269103
999.291 .0269155
999.889 .0269222
1000.487 .0269303
1001.084 .0269393
1001.681 .0269482
1002.278 .0269562
1002.875 .0269642
1003.471 .0269716
1004.067 .0269790
1004.663 .0269865
1005.258 .0269947
1005.854 .0270036
1006.449 .0270137
1007.043 .0270237
1007.638 .0270330
1008.232 .0270422
1008.826 .0270508
1009.419 .0270576
1010.012 .0270633
1010.605 .0270676
1011.198 .0270701
1011.791 .0270715
1012.383 .0270725
1012.975 .0270725
1013.566 .0270722
1014.158 .0270721
1014.749 .0270724
1015.340 .0270731
1015.931 .0270743
1016.521 .0270757
1017.111 .0270778
1017.701 .0270808
1018.291 .0270835
1018.880 .0270861
1019.470 .0270896
1020.059 .0270942
1020.647 .0270994
1021.236 .0271052
1021.824 .0271123
1022.412 .0271206
1023.000 .0271294
1023.588 .0271390
1024.175 .0271486
1024.762 .0271572
1025.349 .0271648
1025.936 .0271711
1026.523 .0271760
1027.109 .0271793
1027.695 .0271816
1028.281 .0271833
1028.867 .0271845
1029.452 .0271852
1030.038 .0271847
1030.623 .0271833
1031.208 .0271820
1031.792 .0271793
1032.377 .0271752
1032.961 .0271701
1033.546 .0271650
1034.130 .0271595
1034.714 .0271540
1035.297 .0271486
1035.881 .0271435
1036.464 .0271386
1037.047 .0271340
1037.630 .0271291
1038.213 .0271247
1038.796 .0271211
1039.378 .0271182
1039.961 .0271157
1040.543 .0271139
1041.125 .0271122
1041.707 .0271103
1042.289 .0271069
1042.871 .0271027
1043.452 .0270957
1044.034 .0270872
1044.615 .0270769
1045.196 .0270656
1045.777 .0270539
1046.358 .0270426
1046.939 .0270317
1047.520 .0270212
1048.101 .0270103
1048.681 .0269989
1049.262 .0269862
1049.842 .0269725
1050.422 .0269573
1051.002 .0269413
1051.582 .0269252
1052.162 .0269099
1052.742 .0268953
1053.322 .0268828
1053.902 .0268715
1054.482 .0268615
1055.061 .0268526
1055.641 .0268442
1056.220 .0268361
1056.800 .0268277
1057.379 .0268189
1057.958 .0268092
1058.538 .0267983
1059.117 .0267856
1059.696 .0267717
1060.275 .0267576
1060.854 .0267424
1061.433 .0267269
1062.012 .0267118
1062.592 .0266981
1063.171 .0266860
1063.750 .0266751
1064.329 .0266666
1064.908 .0266588
1065.487 .0266508
1066.066 .0266416
1066.645 .0266308
1067.224 .0266189
1067.803 .0266056
1068.382 .0265912
1068.961 .0265772
1069.540 .0265630
1070.119 .0265492
1070.698 .0265355
1071.278 .0265226
1071.857 .0265100
1072.436 .0264965
1073.016 .0264833
1073.595 .0264708
1074.175 .0264585
1074.754 .0264484
1075.334 .0264403
1075.913 .0264344
1076.493 .0264313
1077.073 .0264288
1077.653 .0264271
1078.233 .0264265
1078.813 .0264267
1079.393 .0264270
1079.974 .0264282
1080.554 .0264319
1081.135 .0264348
1081.716 .0264383
1082.296 .0264418
1082.877 .0264420
1083.458 .0264395
1084.040 .0264332
1084.621 .0264222
1085.202 .0264069
1085.784 .0263879
1086.366 .0263642
1086.948 .0263389
1087.530 .0263136
1088.112 .0262879
1088.695 .0262620
1089.277 .0262378
1089.860 .0262142
1090.443 .0261897
1091.026 .0261659
1091.610 .0261418
1092.193 .0261182
1092.777 .0260969
1093.361 .0260775
1093.946 .0260613
1094.530 .0260489
1095.115 .0260409
1095.700 .0260375
1096.285 .0260374
1096.871 .0260400
1097.456 .0260431
1098.042 .0260467
1098.628 .0260509
1099.215 .0260547
1099.802 .0260566
1100.389 .0260590
1100.976 .0260636
1101.564 .0260687
1102.152 .0260735
1102.740 .0260803
1103.329 .0260878
1103.917 .0260958
1104.507 .0261020
1105.096 .0261065
1105.686 .0261093
1106.276 .0261126
1106.867 .0261143
1107.457 .0261162
1108.049 .0261205
1108.640 .0261277
1109.232 .0261371
1109.825 .0261530
1110.417 .0261722
1111.010 .0261949
1111.604 .0262204
1112.198 .0262493
1112.792 .0262778
1113.387 .0263042
1113.982 .0263251
1114.577 .0263427
1115.173 .0263565
1115.769 .0263659
1116.366 .0263728
1116.963 .0263806
1117.561 .0263883
1118.159 .0263952
1118.758 .0264007
1119.357 .0264066
1119.957 .0264115
1120.557 .0264155
1121.157 .0264167
1121.758 .0264186
1122.360 .0264227
1122.962 .0264269
1123.564 .0264371
1124.167 .0264541
1124.771 .0264760
1125.375 .0265023
1125.980 .0265354
1126.585 .0265727
1127.191 .0266114
1127.797 .0266551
1128.404 .0267008
1129.012 .0267504
1129.620 .0268018
1130.229 .0268517
1130.838 .0269023
1131.448 .0269543
1132.058 .0270069
1132.669 .0270547
1133.281 .0271015
1133.894 .0271466
1134.507 .0271880
1135.120 .0272311
1135.735 .0272744
1136.350 .0273182
1136.965 .0273650
1137.582 .0274156
1138.199 .0274653
1138.816 .0275165
1139.435 .0275693
1140.054 .0276185
1140.674 .0276775
1141.294 .0277340
1141.916 .0277977
1142.538 .0277955
1143.160 .0277446
1143.784 .0281801
1144.408 .0280684
1145.033 .0282858
