Measurement Sequence started on: 14-45-04-498
Integration time: 36
Scans to Average: 2 
>>>>>Begin Spectral Data<<<<<
433.946 .0400921
434.870 .0473733
435.793 .0451906
436.715 .0430225
437.635 .0428808
438.555 .0424686
439.473 .0421638
440.389 .0417081
441.305 .0413936
442.219 .0411739
443.132 .0409705
444.044 .0408130
444.954 .0406519
445.863 .0405349
446.771 .0404529
447.678 .0403975
448.584 .0403749
449.488 .0403871
450.391 .0404144
451.293 .0404429
452.194 .0404666
453.094 .0404814
453.992 .0404804
454.890 .0404648
455.786 .0404271
456.681 .0403772
457.575 .0403286
458.468 .0402761
459.360 .0402162
460.250 .0401580
461.140 .0400993
462.028 .0400370
462.915 .0399729
463.801 .0399010
464.687 .0398187
465.571 .0397325
466.454 .0396397
467.335 .0395385
468.216 .0394379
469.096 .0393396
469.975 .0392471
470.853 .0391625
471.729 .0390832
472.605 .0390086
473.479 .0389416
474.353 .0388790
475.226 .0388155
476.097 .0387518
476.968 .0386912
477.838 .0386289
478.706 .0385692
479.574 .0385146
480.441 .0384649
481.306 .0384236
482.171 .0383902
483.035 .0383608
483.898 .0383369
484.760 .0383132
485.621 .0382896
486.481 .0382655
487.340 .0382380
488.198 .0382098
489.055 .0381814
489.912 .0381570
490.767 .0381370
491.622 .0381194
492.476 .0381073
493.329 .0381009
494.180 .0380993
495.032 .0380989
495.882 .0380988
496.731 .0381022
497.580 .0381062
498.427 .0381092
499.274 .0381119
500.120 .0381152
500.965 .0381178
501.809 .0381210
502.653 .0381186
503.495 .0381130
504.337 .0380999
505.178 .0380778
506.018 .0380468
506.858 .0380058
507.696 .0379556
508.534 .0378932
509.371 .0378225
510.208 .0377471
511.043 .0376645
511.878 .0375801
512.712 .0374948
513.545 .0374129
514.377 .0373363
515.209 .0372622
516.040 .0371924
516.870 .0371298
517.699 .0370749
518.528 .0370259
519.356 .0369825
520.183 .0369419
521.010 .0369033
521.836 .0368654
522.661 .0368291
523.485 .0367938
524.309 .0367592
525.132 .0367326
525.954 .0367090
526.776 .0366864
527.597 .0366655
528.417 .0366401
529.237 .0366125
530.056 .0365795
530.874 .0365363
531.692 .0364882
532.508 .0364374
533.325 .0363884
534.140 .0363378
534.955 .0362927
535.770 .0362512
536.583 .0362126
537.397 .0361782
538.209 .0361455
539.021 .0361059
539.832 .0360640
540.643 .0360165
541.453 .0359674
542.262 .0359157
543.071 .0358633
543.879 .0358096
544.687 .0357623
545.494 .0357175
546.300 .0356763
547.106 .0356370
547.911 .0356055
548.716 .0355781
549.520 .0355518
550.323 .0355237
551.126 .0354952
551.929 .0354635
552.731 .0354278
553.532 .0353833
554.332 .0353331
555.133 .0352789
555.932 .0352240
556.731 .0351721
557.530 .0351254
558.328 .0350864
559.125 .0350529
559.922 .0350225
560.719 .0349875
561.515 .0349458
562.310 .0348955
563.105 .0348397
563.899 .0347817
564.693 .0347228
565.487 .0346659
566.280 .0346161
567.072 .0345749
567.864 .0345409
568.655 .0345090
569.446 .0344791
570.236 .0344454
571.026 .0344079
571.816 .0343646
572.605 .0343192
573.393 .0342761
574.181 .0342395
574.969 .0342077
575.756 .0341808
576.543 .0341596
577.329 .0341396
578.115 .0341184
578.900 .0340954
579.685 .0340679
580.469 .0340370
581.253 .0340055
582.036 .0339743
582.820 .0339429
583.602 .0339158
584.384 .0338900
585.166 .0338639
585.947 .0338381
586.728 .0338107
587.509 .0337822
588.289 .0337535
589.069 .0337268
589.848 .0337003
590.627 .0336762
591.405 .0336547
592.183 .0336342
592.961 .0336162
593.738 .0335993
594.515 .0335821
595.291 .0335642
596.067 .0335454
596.843 .0335248
597.618 .0335023
598.393 .0334793
599.167 .0334551
599.941 .0334293
600.715 .0334023
601.488 .0333750
602.261 .0333470
603.034 .0333203
603.806 .0332951
604.578 .0332706
605.349 .0332481
606.121 .0332264
606.891 .0332043
607.662 .0331816
608.432 .0331587
609.201 .0331348
609.971 .0331097
610.740 .0330845
611.508 .0330591
612.277 .0330342
613.045 .0330111
613.812 .0329894
614.579 .0329687
615.346 .0329492
616.113 .0329304
616.879 .0329113
617.645 .0328921
618.411 .0328718
619.176 .0328507
619.941 .0328294
620.705 .0328079
621.470 .0327867
622.233 .0327665
622.997 .0327479
623.760 .0327305
624.523 .0327136
625.286 .0326975
626.048 .0326812
626.810 .0326641
627.572 .0326461
628.333 .0326269
629.095 .0326065
629.855 .0325853
630.616 .0325642
631.376 .0325436
632.136 .0325236
632.895 .0325038
633.655 .0324843
634.414 .0324646
635.172 .0324443
635.931 .0324230
636.689 .0324013
637.447 .0323796
638.204 .0323577
638.962 .0323357
639.718 .0323144
640.475 .0322934
641.231 .0322722
641.988 .0322500
642.743 .0322268
643.499 .0322019
644.254 .0321753
645.009 .0321477
645.764 .0321199
646.518 .0320928
647.272 .0320668
648.026 .0320421
648.780 .0320189
649.533 .0319971
650.286 .0319764
651.039 .0319560
651.792 .0319363
652.544 .0319169
653.296 .0318975
654.048 .0318788
654.799 .0318607
655.550 .0318427
656.301 .0318251
657.052 .0318078
657.802 .0317906
658.552 .0317738
659.302 .0317574
660.052 .0317411
660.801 .0317250
661.550 .0317099
662.299 .0316945
663.048 .0316790
663.796 .0316641
664.544 .0316492
665.292 .0316340
666.040 .0316190
666.787 .0316038
667.534 .0315892
668.281 .0315756
669.028 .0315625
669.774 .0315500
670.521 .0315382
671.266 .0315263
672.012 .0315141
672.758 .0315022
673.503 .0314898
674.248 .0314768
674.992 .0314641
675.737 .0314519
676.481 .0314400
677.225 .0314291
677.969 .0314188
678.712 .0314092
679.455 .0314003
680.199 .0313910
680.941 .0313815
681.684 .0313721
682.426 .0313627
683.168 .0313527
683.910 .0313426
684.652 .0313328
685.393 .0313227
686.134 .0313128
686.875 .0313026
687.616 .0312921
688.356 .0312813
689.097 .0312703
689.837 .0312585
690.576 .0312465
691.316 .0312342
692.055 .0312213
692.794 .0312078
693.533 .0311935
694.272 .0311789
695.010 .0311641
695.748 .0311490
696.486 .0311336
697.224 .0311181
697.962 .0311024
698.699 .0310863
699.436 .0310697
700.173 .0310526
700.909 .0310345
701.646 .0310159
702.382 .0309963
703.118 .0309759
703.853 .0309553
704.589 .0309350
705.324 .0309154
706.059 .0308969
706.794 .0308789
707.529 .0308614
708.263 .0308448
708.997 .0308288
709.731 .0308129
710.465 .0307972
711.198 .0307816
711.931 .0307661
712.664 .0307505
713.397 .0307347
714.130 .0307188
714.862 .0307031
715.594 .0306879
716.326 .0306728
717.058 .0306585
717.789 .0306450
718.520 .0306324
719.251 .0306212
719.982 .0306107
720.713 .0306008
721.443 .0305909
722.173 .0305804
722.903 .0305693
723.633 .0305573
724.362 .0305450
725.091 .0305324
725.820 .0305201
726.549 .0305083
727.278 .0304968
728.006 .0304857
728.734 .0304746
729.462 .0304634
730.190 .0304518
730.917 .0304397
731.644 .0304267
732.371 .0304136
733.098 .0304011
733.825 .0303895
734.551 .0303793
735.277 .0303706
736.003 .0303631
736.728 .0303566
737.454 .0303508
738.179 .0303456
738.904 .0303405
739.629 .0303356
740.353 .0303309
741.077 .0303268
741.801 .0303232
742.525 .0303196
743.249 .0303166
743.972 .0303138
744.695 .0303110
745.418 .0303077
746.141 .0303039
746.863 .0303001
747.585 .0302961
748.307 .0302919
749.029 .0302874
749.750 .0302829
750.472 .0302777
751.193 .0302714
751.913 .0302646
752.634 .0302567
753.354 .0302476
754.074 .0302377
754.794 .0302270
755.514 .0302154
756.233 .0302030
756.952 .0301895
757.671 .0301751
758.390 .0301600
759.108 .0301436
759.826 .0301265
760.544 .0301094
761.262 .0300928
761.979 .0300764
762.697 .0300606
763.414 .0300459
764.130 .0300320
764.847 .0300189
765.563 .0300068
766.279 .0299954
766.995 .0299854
767.710 .0299760
768.426 .0299671
769.141 .0299586
769.855 .0299500
770.570 .0299409
771.284 .0299311
771.998 .0299203
772.712 .0299086
773.426 .0298965
774.139 .0298845
774.852 .0298729
775.565 .0298618
776.277 .0298512
776.990 .0298407
777.702 .0298300
778.414 .0298187
779.125 .0298064
779.836 .0297935
780.547 .0297802
781.258 .0297667
781.969 .0297532
782.679 .0297399
783.389 .0297273
784.099 .0297151
784.808 .0297030
785.517 .0296906
786.226 .0296779
786.935 .0296646
787.643 .0296511
788.352 .0296376
789.060 .0296240
789.767 .0296106
790.475 .0295975
791.182 .0295843
791.889 .0295716
792.595 .0295590
793.301 .0295464
794.008 .0295345
794.713 .0295235
795.419 .0295134
796.124 .0295045
796.829 .0294971
797.534 .0294907
798.238 .0294850
798.942 .0294802
799.646 .0294757
800.350 .0294715
801.053 .0294679
801.756 .0294644
802.459 .0294611
803.162 .0294579
803.864 .0294551
804.566 .0294525
805.267 .0294500
805.969 .0294476
806.670 .0294450
807.371 .0294425
808.071 .0294405
808.772 .0294387
809.472 .0294366
810.171 .0294350
810.871 .0294332
811.570 .0294310
812.269 .0294287
812.967 .0294258
813.666 .0294222
814.364 .0294184
815.061 .0294144
815.759 .0294102
816.456 .0294057
817.153 .0294014
817.849 .0293965
818.545 .0293915
819.241 .0293857
819.937 .0293790
820.632 .0293713
821.327 .0293626
822.022 .0293525
822.717 .0293415
823.411 .0293299
824.105 .0293181
824.798 .0293067
825.491 .0292956
826.184 .0292851
826.877 .0292751
827.569 .0292653
828.261 .0292560
828.953 .0292467
829.645 .0292371
830.336 .0292270
831.027 .0292169
831.717 .0292070
832.407 .0291976
833.097 .0291888
833.787 .0291809
834.476 .0291739
835.165 .0291676
835.854 .0291612
836.542 .0291547
837.230 .0291478
837.918 .0291400
838.605 .0291314
839.292 .0291220
839.979 .0291123
840.665 .0291025
841.352 .0290929
842.037 .0290836
842.723 .0290739
843.408 .0290638
844.093 .0290528
844.777 .0290407
845.462 .0290276
846.145 .0290127
846.829 .0289960
847.512 .0289780
848.195 .0289587
848.878 .0289383
849.560 .0289168
850.242 .0288947
850.923 .0288716
851.605 .0288475
852.286 .0288227
852.966 .0287975
853.646 .0287722
854.326 .0287475
855.006 .0287231
855.685 .0286993
856.364 .0286761
857.043 .0286538
857.721 .0286327
858.399 .0286121
859.077 .0285922
859.754 .0285727
860.431 .0285538
861.107 .0285356
861.784 .0285178
862.459 .0285009
863.135 .0284848
863.810 .0284693
864.485 .0284537
865.160 .0284384
865.834 .0284234
866.508 .0284086
867.181 .0283939
867.854 .0283793
868.527 .0283651
869.199 .0283509
869.872 .0283371
870.543 .0283234
871.215 .0283096
871.886 .0282957
872.557 .0282816
873.227 .0282675
873.897 .0282535
874.567 .0282399
875.236 .0282269
875.905 .0282150
876.573 .0282041
877.242 .0281937
877.909 .0281838
878.577 .0281742
879.244 .0281648
879.911 .0281547
880.577 .0281446
881.243 .0281345
881.909 .0281248
882.575 .0281156
883.240 .0281068
883.904 .0280989
884.569 .0280918
885.232 .0280849
885.896 .0280781
886.559 .0280712
887.222 .0280643
887.885 .0280572
888.547 .0280502
889.208 .0280434
889.870 .0280374
890.531 .0280328
891.192 .0280296
891.852 .0280278
892.512 .0280278
893.171 .0280293
893.830 .0280322
894.489 .0280363
895.148 .0280410
895.806 .0280461
896.464 .0280515
897.121 .0280567
897.778 .0280619
898.434 .0280669
899.091 .0280718
899.747 .0280762
900.402 .0280801
901.057 .0280833
901.712 .0280858
902.366 .0280873
903.020 .0280880
903.674 .0280879
904.327 .0280870
904.980 .0280854
905.633 .0280835
906.285 .0280818
906.936 .0280804
907.588 .0280787
908.239 .0280772
908.889 .0280754
909.540 .0280735
910.190 .0280708
910.839 .0280681
911.488 .0280652
912.137 .0280622
912.785 .0280590
913.433 .0280556
914.081 .0280516
914.728 .0280467
915.375 .0280401
916.021 .0280317
916.668 .0280216
917.313 .0280098
917.959 .0279961
918.604 .0279818
919.248 .0279673
919.892 .0279531
920.536 .0279388
921.180 .0279253
921.823 .0279117
922.465 .0278980
923.108 .0278831
923.750 .0278672
924.391 .0278501
925.032 .0278322
925.673 .0278134
926.313 .0277948
926.953 .0277768
927.593 .0277591
928.232 .0277416
928.871 .0277248
929.510 .0277079
930.148 .0276903
930.786 .0276716
931.423 .0276521
932.060 .0276316
932.697 .0276106
933.333 .0275889
933.969 .0275673
934.604 .0275462
935.239 .0275253
935.874 .0275046
936.508 .0274844
937.142 .0274644
937.776 .0274446
938.409 .0274250
939.042 .0274051
939.674 .0273845
940.306 .0273633
940.938 .0273415
941.569 .0273191
942.200 .0272963
942.830 .0272727
943.460 .0272483
944.090 .0272236
944.720 .0271984
945.349 .0271723
945.977 .0271460
946.606 .0271191
947.233 .0270920
947.861 .0270642
948.488 .0270357
949.115 .0270073
949.741 .0269791
950.367 .0269517
950.993 .0269252
951.618 .0268998
952.243 .0268759
952.868 .0268531
953.492 .0268313
954.115 .0268099
954.739 .0267892
955.362 .0267683
955.984 .0267473
956.607 .0267267
957.229 .0267071
957.850 .0266887
958.471 .0266717
959.092 .0266562
959.713 .0266419
960.333 .0266281
960.952 .0266147
961.572 .0266010
962.191 .0265870
962.809 .0265722
963.428 .0265564
964.045 .0265395
964.663 .0265228
965.280 .0265058
965.897 .0264891
966.513 .0264730
967.129 .0264575
967.745 .0264422
968.361 .0264274
968.976 .0264132
969.590 .0263994
970.205 .0263861
970.818 .0263739
971.432 .0263623
972.045 .0263516
972.658 .0263421
973.271 .0263333
973.883 .0263253
974.495 .0263178
975.106 .0263098
975.717 .0263019
976.328 .0262941
976.938 .0262863
977.548 .0262786
978.158 .0262715
978.768 .0262650
979.377 .0262587
979.985 .0262524
980.594 .0262456
981.202 .0262381
981.809 .0262305
982.417 .0262226
983.024 .0262146
983.631 .0262077
984.237 .0262019
984.843 .0261976
985.449 .0261951
986.054 .0261932
986.659 .0261921
987.264 .0261907
987.868 .0261890
988.472 .0261866
989.076 .0261833
989.679 .0261797
990.282 .0261757
990.885 .0261716
991.487 .0261677
992.090 .0261634
992.691 .0261591
993.293 .0261547
993.894 .0261497
994.495 .0261443
995.095 .0261389
995.696 .0261338
996.296 .0261294
996.895 .0261259
997.494 .0261242
998.093 .0261243
998.692 .0261264
999.291 .0261299
999.889 .0261346
1000.487 .0261398
1001.084 .0261452
1001.681 .0261496
1002.278 .0261538
1002.875 .0261578
1003.471 .0261618
1004.067 .0261664
1004.663 .0261720
1005.258 .0261786
1005.854 .0261862
1006.449 .0261945
1007.043 .0262032
1007.638 .0262115
1008.232 .0262198
1008.826 .0262275
1009.419 .0262350
1010.012 .0262426
1010.605 .0262507
1011.198 .0262593
1011.791 .0262689
1012.383 .0262789
1012.975 .0262894
1013.566 .0263001
1014.158 .0263113
1014.749 .0263224
1015.340 .0263332
1015.931 .0263437
1016.521 .0263543
1017.111 .0263642
1017.701 .0263736
1018.291 .0263814
1018.880 .0263876
1019.470 .0263923
1020.059 .0263954
1020.647 .0263972
1021.236 .0263980
1021.824 .0263988
1022.412 .0263998
1023.000 .0264003
1023.588 .0264010
1024.175 .0264016
1024.762 .0264020
1025.349 .0264025
1025.936 .0264024
1026.523 .0264024
1027.109 .0264030
1027.695 .0264046
1028.281 .0264072
1028.867 .0264108
1029.452 .0264155
1030.038 .0264211
1030.623 .0264273
1031.208 .0264344
1031.792 .0264415
1032.377 .0264486
1032.961 .0264556
1033.546 .0264619
1034.130 .0264667
1034.714 .0264700
1035.297 .0264717
1035.881 .0264726
1036.464 .0264718
1037.047 .0264703
1037.630 .0264675
1038.213 .0264656
1038.796 .0264642
1039.378 .0264634
1039.961 .0264628
1040.543 .0264626
1041.125 .0264620
1041.707 .0264604
1042.289 .0264577
1042.871 .0264546
1043.452 .0264503
1044.034 .0264465
1044.615 .0264422
1045.196 .0264389
1045.777 .0264361
1046.358 .0264351
1046.939 .0264350
1047.520 .0264357
1048.101 .0264361
1048.681 .0264358
1049.262 .0264345
1049.842 .0264317
1050.422 .0264273
1051.002 .0264217
1051.582 .0264151
1052.162 .0264085
1052.742 .0264022
1053.322 .0263970
1053.902 .0263926
1054.482 .0263900
1055.061 .0263881
1055.641 .0263861
1056.220 .0263830
1056.800 .0263777
1057.379 .0263705
1057.958 .0263606
1058.538 .0263481
1059.117 .0263330
1059.696 .0263165
1060.275 .0262995
1060.854 .0262808
1061.433 .0262626
1062.012 .0262448
1062.592 .0262273
1063.171 .0262100
1063.750 .0261923
1064.329 .0261748
1064.908 .0261560
1065.487 .0261367
1066.066 .0261174
1066.645 .0260989
1067.224 .0260815
1067.803 .0260651
1068.382 .0260513
1068.961 .0260403
1069.540 .0260312
1070.119 .0260238
1070.698 .0260180
1071.278 .0260135
1071.857 .0260085
1072.436 .0260020
1073.016 .0259940
1073.595 .0259851
1074.175 .0259747
1074.754 .0259634
1075.334 .0259522
1075.913 .0259423
1076.493 .0259344
1077.073 .0259294
1077.653 .0259280
1078.233 .0259302
1078.813 .0259347
1079.393 .0259415
1079.974 .0259481
1080.554 .0259539
1081.135 .0259570
1081.716 .0259571
1082.296 .0259548
1082.877 .0259511
1083.458 .0259449
1084.040 .0259376
1084.621 .0259294
1085.202 .0259201
1085.784 .0259079
1086.366 .0258922
1086.948 .0258714
1087.530 .0258460
1088.112 .0258163
1088.695 .0257834
1089.277 .0257490
1089.860 .0257163
1090.443 .0256861
1091.026 .0256595
1091.610 .0256369
1092.193 .0256171
1092.777 .0255994
1093.361 .0255836
1093.946 .0255684
1094.530 .0255541
1095.115 .0255422
1095.700 .0255329
1096.285 .0255283
1096.871 .0255275
1097.456 .0255296
1098.042 .0255325
1098.628 .0255355
1099.215 .0255359
1099.802 .0255330
1100.389 .0255264
1100.976 .0255172
1101.564 .0255062
1102.152 .0254958
1102.740 .0254857
1103.329 .0254788
1103.917 .0254762
1104.507 .0254771
1105.096 .0254796
1105.686 .0254851
1106.276 .0254922
1106.867 .0255011
1107.457 .0255106
1108.049 .0255213
1108.640 .0255325
1109.232 .0255434
1109.825 .0255542
1110.417 .0255647
1111.010 .0255753
1111.604 .0255859
1112.198 .0255980
1112.792 .0256119
1113.387 .0256278
1113.982 .0256451
1114.577 .0256632
1115.173 .0256821
1115.769 .0256984
1116.366 .0257106
1116.963 .0257187
1117.561 .0257234
1118.159 .0257263
1118.758 .0257274
1119.357 .0257312
1119.957 .0257385
1120.557 .0257508
1121.157 .0257666
1121.758 .0257841
1122.360 .0258036
1122.962 .0258209
1123.564 .0258359
1124.167 .0258478
1124.771 .0258553
1125.375 .0258611
1125.980 .0258672
1126.585 .0258744
1127.191 .0258837
1127.797 .0258959
1128.404 .0259111
1129.012 .0259273
1129.620 .0259466
1130.229 .0259673
1130.838 .0259882
1131.448 .0260093
1132.058 .0260348
1132.669 .0260591
1133.281 .0260895
1133.894 .0261270
1134.507 .0261713
1135.120 .0262266
1135.735 .0262900
1136.350 .0263612
1136.965 .0264385
1137.582 .0265209
1138.199 .0266086
1138.816 .0266959
1139.435 .0267915
1140.054 .0268937
1140.674 .0270104
1141.294 .0271341
1141.916 .0272742
1142.538 .0273742
1143.160 .0275834
1143.784 .0279003
1144.408 .0277991
1145.033 .0281478
