Measurement Sequence started on: 14-45-04-498
Integration time: 36
Scans to Average: 2 
>>>>>Begin Spectral Data<<<<<
433.946 .0694676
434.870 .0605527
435.793 .0580756
436.715 .0583359
437.635 .0577370
438.555 .0572559
439.473 .0562599
440.389 .0556152
441.305 .0550805
442.219 .0545817
443.132 .0541643
444.044 .0538255
444.954 .0535477
445.863 .0533263
446.771 .0531311
447.678 .0529481
448.584 .0527835
449.488 .0526162
450.391 .0524635
451.293 .0523364
452.194 .0522382
453.094 .0521696
453.992 .0521244
454.890 .0520975
455.786 .0520867
456.681 .0520726
457.575 .0520585
458.468 .0520315
459.360 .0519806
460.250 .0519056
461.140 .0518041
462.028 .0516888
462.915 .0515563
463.801 .0514210
464.687 .0512887
465.571 .0511588
466.454 .0510387
467.335 .0509218
468.216 .0507984
469.096 .0506737
469.975 .0505418
470.853 .0503974
471.729 .0502467
472.605 .0500948
473.479 .0499436
474.353 .0498046
475.226 .0496831
476.097 .0495754
476.968 .0494840
477.838 .0494070
478.706 .0493336
479.574 .0492574
480.441 .0491818
481.306 .0490989
482.171 .0490107
483.035 .0489239
483.898 .0488386
484.760 .0487587
485.621 .0486930
486.481 .0486364
487.340 .0485875
488.198 .0485490
489.055 .0485153
489.912 .0484781
490.767 .0484440
491.622 .0484042
492.476 .0483623
493.329 .0483177
494.180 .0482715
495.032 .0482229
495.882 .0481706
496.731 .0481169
497.580 .0480591
498.427 .0479947
499.274 .0479246
500.120 .0478415
500.965 .0477525
501.809 .0476576
502.653 .0475570
503.495 .0474532
504.337 .0473505
505.178 .0472512
506.018 .0471566
506.858 .0470611
507.696 .0469740
508.534 .0468936
509.371 .0468144
510.208 .0467424
511.043 .0466737
511.878 .0466081
512.712 .0465473
513.545 .0464828
514.377 .0464189
515.209 .0463470
516.040 .0462693
516.870 .0461847
517.699 .0460950
518.528 .0460122
519.356 .0459273
520.183 .0458442
521.010 .0457670
521.836 .0456905
522.661 .0456082
523.485 .0455284
524.309 .0454490
525.132 .0453723
525.954 .0452973
526.776 .0452304
527.597 .0451803
528.417 .0451445
529.237 .0451233
530.056 .0451052
530.874 .0450773
531.692 .0450531
532.508 .0449994
533.325 .0449304
534.140 .0448497
534.955 .0447589
535.770 .0446576
536.583 .0445569
537.397 .0444606
538.209 .0443705
539.021 .0442842
539.832 .0442097
540.643 .0441302
541.453 .0440604
542.262 .0439956
543.071 .0439382
543.879 .0438971
544.687 .0438760
545.494 .0438630
546.300 .0438716
547.106 .0438862
547.911 .0439017
548.716 .0439131
549.520 .0439185
550.323 .0439158
551.126 .0439030
551.929 .0438825
552.731 .0438534
553.532 .0438123
554.332 .0437627
555.133 .0436997
555.932 .0436259
556.731 .0435414
557.530 .0434427
558.328 .0433365
559.125 .0432220
559.922 .0431005
560.719 .0429727
561.515 .0428439
562.310 .0427216
563.105 .0426057
563.899 .0425018
564.693 .0424124
565.487 .0423386
566.280 .0422799
567.072 .0422349
567.864 .0422000
568.655 .0421636
569.446 .0421299
570.236 .0420902
571.026 .0420464
571.816 .0419993
572.605 .0419528
573.393 .0419092
574.181 .0418688
574.969 .0418306
575.756 .0417928
576.543 .0417532
577.329 .0417130
578.115 .0416665
578.900 .0416184
579.685 .0415675
580.469 .0415168
581.253 .0414675
582.036 .0414235
582.820 .0413823
583.602 .0413465
584.384 .0413120
585.166 .0412812
585.947 .0412503
586.728 .0412167
587.509 .0411850
588.289 .0411533
589.069 .0411224
589.848 .0410935
590.627 .0410652
591.405 .0410378
592.183 .0410077
592.961 .0409766
593.738 .0409432
594.515 .0409076
595.291 .0408701
596.067 .0408289
596.843 .0407856
597.618 .0407421
598.393 .0406983
599.167 .0406548
599.941 .0406125
600.715 .0405709
601.488 .0405297
602.261 .0404880
603.034 .0404468
603.806 .0404054
604.578 .0403654
605.349 .0403268
606.121 .0402902
606.891 .0402547
607.662 .0402219
608.432 .0401909
609.201 .0401623
609.971 .0401352
610.740 .0401088
611.508 .0400816
612.277 .0400552
613.045 .0400280
613.812 .0400006
614.579 .0399718
615.346 .0399433
616.113 .0399141
616.879 .0398849
617.645 .0398543
618.411 .0398227
619.176 .0397899
619.941 .0397567
620.705 .0397211
621.470 .0396848
622.233 .0396478
622.997 .0396107
623.760 .0395731
624.523 .0395360
625.286 .0394982
626.048 .0394613
626.810 .0394235
627.572 .0393860
628.333 .0393480
629.095 .0393110
629.855 .0392741
630.616 .0392383
631.376 .0392044
632.136 .0391714
632.895 .0391391
633.655 .0391089
634.414 .0390794
635.172 .0390510
635.931 .0390230
636.689 .0389963
637.447 .0389698
638.204 .0389440
638.962 .0389176
639.718 .0388909
640.475 .0388640
641.231 .0388362
641.988 .0388060
642.743 .0387741
643.499 .0387406
644.254 .0387057
645.009 .0386701
645.764 .0386349
646.518 .0386002
647.272 .0385668
648.026 .0385346
648.780 .0385037
649.533 .0384734
650.286 .0384443
651.039 .0384151
651.792 .0383863
652.544 .0383574
653.296 .0383294
654.048 .0383024
654.799 .0382774
655.550 .0382539
656.301 .0382320
657.052 .0382109
657.802 .0381910
658.552 .0381712
659.302 .0381520
660.052 .0381320
660.801 .0381116
661.550 .0380905
662.299 .0380694
663.048 .0380478
663.796 .0380271
664.544 .0380063
665.292 .0379867
666.040 .0379670
666.787 .0379473
667.534 .0379268
668.281 .0379060
669.028 .0378838
669.774 .0378596
670.521 .0378337
671.266 .0378065
672.012 .0377782
672.758 .0377507
673.503 .0377238
674.248 .0376985
674.992 .0376750
675.737 .0376534
676.481 .0376331
677.225 .0376137
677.969 .0375947
678.712 .0375755
679.455 .0375559
680.199 .0375367
680.941 .0375173
681.684 .0374990
682.426 .0374820
683.168 .0374656
683.910 .0374495
684.652 .0374330
685.393 .0374150
686.134 .0373956
686.875 .0373740
687.616 .0373507
688.356 .0373251
689.097 .0372987
689.837 .0372715
690.576 .0372442
691.316 .0372172
692.055 .0371912
692.794 .0371655
693.533 .0371409
694.272 .0371173
695.010 .0370954
695.748 .0370751
696.486 .0370567
697.224 .0370400
697.962 .0370251
698.699 .0370114
699.436 .0369982
700.173 .0369851
700.909 .0369723
701.646 .0369582
702.382 .0369434
703.118 .0369273
703.853 .0369108
704.589 .0368932
705.324 .0368753
706.059 .0368570
706.794 .0368386
707.529 .0368205
708.263 .0368028
708.997 .0367858
709.731 .0367693
710.465 .0367530
711.198 .0367371
711.931 .0367207
712.664 .0367041
713.397 .0366872
714.130 .0366700
714.862 .0366529
715.594 .0366367
716.326 .0366208
717.058 .0366059
717.789 .0365917
718.520 .0365771
719.251 .0365615
719.982 .0365441
720.713 .0365250
721.443 .0365041
722.173 .0364824
722.903 .0364600
723.633 .0364374
724.362 .0364161
725.091 .0363949
725.820 .0363740
726.549 .0363539
727.278 .0363338
728.006 .0363127
728.734 .0362908
729.462 .0362678
730.190 .0362445
730.917 .0362218
731.644 .0361998
732.371 .0361783
733.098 .0361580
733.825 .0361382
734.551 .0361182
735.277 .0360981
736.003 .0360782
736.728 .0360574
737.454 .0360369
738.179 .0360157
738.904 .0359943
739.629 .0359729
740.353 .0359524
741.077 .0359327
741.801 .0359142
742.525 .0358965
743.249 .0358798
743.972 .0358644
744.695 .0358507
745.418 .0358375
746.141 .0358252
746.863 .0358135
747.585 .0358008
748.307 .0357866
749.029 .0357718
749.750 .0357553
750.472 .0357385
751.193 .0357209
751.913 .0357024
752.634 .0356831
753.354 .0356633
754.074 .0356427
754.794 .0356214
755.514 .0355995
756.233 .0355765
756.952 .0355521
757.671 .0355275
758.390 .0355022
759.108 .0354771
759.826 .0354533
760.544 .0354308
761.262 .0354097
761.979 .0353902
762.697 .0353727
763.414 .0353574
764.130 .0353443
764.847 .0353334
765.563 .0353237
766.279 .0353150
766.995 .0353063
767.710 .0352974
768.426 .0352876
769.141 .0352769
769.855 .0352650
770.570 .0352519
771.284 .0352384
771.998 .0352246
772.712 .0352112
773.426 .0351988
774.139 .0351875
774.852 .0351763
775.565 .0351646
776.277 .0351528
776.990 .0351405
777.702 .0351275
778.414 .0351146
779.125 .0351023
779.836 .0350904
780.547 .0350799
781.258 .0350703
781.969 .0350620
782.679 .0350548
783.389 .0350479
784.099 .0350404
784.808 .0350317
785.517 .0350216
786.226 .0350101
786.935 .0349976
787.643 .0349856
788.352 .0349740
789.060 .0349634
789.767 .0349542
790.475 .0349456
791.182 .0349374
791.889 .0349293
792.595 .0349206
793.301 .0349108
794.008 .0348997
794.713 .0348879
795.419 .0348754
796.124 .0348634
796.829 .0348525
797.534 .0348417
798.238 .0348315
798.942 .0348207
799.646 .0348084
800.350 .0347941
801.053 .0347777
801.756 .0347592
802.459 .0347392
803.162 .0347180
803.864 .0346957
804.566 .0346732
805.267 .0346510
805.969 .0346294
806.670 .0346074
807.371 .0345854
808.071 .0345631
808.772 .0345409
809.472 .0345189
810.171 .0344973
810.871 .0344776
811.570 .0344596
812.269 .0344431
812.967 .0344281
813.666 .0344141
814.364 .0344011
815.061 .0343885
815.759 .0343773
816.456 .0343667
817.153 .0343570
817.849 .0343476
818.545 .0343387
819.241 .0343297
819.937 .0343203
820.632 .0343095
821.327 .0342965
822.022 .0342815
822.717 .0342638
823.411 .0342432
824.105 .0342210
824.798 .0341973
825.491 .0341726
826.184 .0341468
826.877 .0341208
827.569 .0340941
828.261 .0340678
828.953 .0340417
829.645 .0340152
830.336 .0339885
831.027 .0339623
831.717 .0339362
832.407 .0339103
833.097 .0338855
833.787 .0338614
834.476 .0338387
835.165 .0338184
835.854 .0337992
836.542 .0337821
837.230 .0337663
837.918 .0337514
838.605 .0337369
839.292 .0337228
839.979 .0337080
840.665 .0336930
841.352 .0336787
842.037 .0336652
842.723 .0336520
843.408 .0336406
844.093 .0336308
844.777 .0336222
845.462 .0336142
846.145 .0336060
846.829 .0335965
847.512 .0335866
848.195 .0335752
848.878 .0335626
849.560 .0335498
850.242 .0335373
850.923 .0335252
851.605 .0335143
852.286 .0335044
852.966 .0334953
853.646 .0334865
854.326 .0334787
855.006 .0334698
855.685 .0334600
856.364 .0334496
857.043 .0334382
857.721 .0334262
858.399 .0334136
859.077 .0334005
859.754 .0333874
860.431 .0333747
861.107 .0333624
861.784 .0333500
862.459 .0333377
863.135 .0333255
863.810 .0333118
864.485 .0332971
865.160 .0332818
865.834 .0332654
866.508 .0332493
867.181 .0332338
867.854 .0332196
868.527 .0332073
869.199 .0331968
869.872 .0331886
870.543 .0331812
871.215 .0331748
871.886 .0331682
872.557 .0331605
873.227 .0331521
873.897 .0331427
874.567 .0331329
875.236 .0331235
875.905 .0331146
876.573 .0331063
877.242 .0330983
877.909 .0330902
878.577 .0330819
879.244 .0330725
879.911 .0330617
880.577 .0330492
881.243 .0330347
881.909 .0330182
882.575 .0329999
883.240 .0329802
883.904 .0329596
884.569 .0329375
885.232 .0329141
885.896 .0328891
886.559 .0328634
887.222 .0328367
887.885 .0328091
888.547 .0327805
889.208 .0327515
889.870 .0327218
890.531 .0326913
891.192 .0326601
891.852 .0326297
892.512 .0326002
893.171 .0325721
893.830 .0325459
894.489 .0325222
895.148 .0325012
895.806 .0324832
896.464 .0324677
897.121 .0324540
897.778 .0324418
898.434 .0324303
899.091 .0324185
899.747 .0324070
900.402 .0323951
901.057 .0323825
901.712 .0323704
902.366 .0323586
903.020 .0323470
903.674 .0323351
904.327 .0323237
904.980 .0323117
905.633 .0322990
906.285 .0322849
906.936 .0322692
907.588 .0322515
908.239 .0322321
908.889 .0322105
909.540 .0321879
910.190 .0321644
910.839 .0321411
911.488 .0321183
912.137 .0320966
912.785 .0320759
913.433 .0320565
914.081 .0320381
914.728 .0320214
915.375 .0320056
916.021 .0319902
916.668 .0319750
917.313 .0319604
917.959 .0319459
918.604 .0319318
919.248 .0319183
919.892 .0319056
920.536 .0318933
921.180 .0318824
921.823 .0318722
922.465 .0318629
923.108 .0318543
923.750 .0318457
924.391 .0318367
925.032 .0318267
925.673 .0318155
926.313 .0318034
926.953 .0317907
927.593 .0317785
928.232 .0317660
928.871 .0317545
929.510 .0317440
930.148 .0317342
930.786 .0317248
931.423 .0317158
932.060 .0317066
932.697 .0316965
933.333 .0316856
933.969 .0316737
934.604 .0316610
935.239 .0316485
935.874 .0316351
936.508 .0316214
937.142 .0316078
937.776 .0315940
938.409 .0315791
939.042 .0315641
939.674 .0315483
940.306 .0315313
940.938 .0315141
941.569 .0314963
942.200 .0314779
942.830 .0314598
943.460 .0314417
944.090 .0314235
944.720 .0314057
945.349 .0313877
945.977 .0313687
946.606 .0313506
947.233 .0313321
947.861 .0313134
948.488 .0312946
949.115 .0312761
949.741 .0312573
950.367 .0312388
950.993 .0312208
951.618 .0312027
952.243 .0311852
952.868 .0311681
953.492 .0311505
954.115 .0311333
954.739 .0311159
955.362 .0310984
955.984 .0310811
956.607 .0310648
957.229 .0310490
957.850 .0310343
958.471 .0310214
959.092 .0310099
959.713 .0309988
960.333 .0309880
960.952 .0309775
961.572 .0309666
962.191 .0309550
962.809 .0309428
963.428 .0309301
964.045 .0309167
964.663 .0309030
965.280 .0308890
965.897 .0308751
966.513 .0308619
967.129 .0308486
967.745 .0308356
968.361 .0308224
968.976 .0308082
969.590 .0307922
970.205 .0307750
970.818 .0307567
971.432 .0307367
972.045 .0307165
972.658 .0306966
973.271 .0306780
973.883 .0306613
974.495 .0306463
975.106 .0306324
975.717 .0306186
976.328 .0306036
976.938 .0305869
977.548 .0305689
978.158 .0305500
978.768 .0305309
979.377 .0305121
979.985 .0304936
980.594 .0304761
981.202 .0304587
981.809 .0304409
982.417 .0304222
983.024 .0304016
983.631 .0303784
984.237 .0303531
984.843 .0303257
985.449 .0302967
986.054 .0302673
986.659 .0302383
987.264 .0302090
987.868 .0301802
988.472 .0301523
989.076 .0301254
989.679 .0301010
990.282 .0300802
990.885 .0300632
991.487 .0300507
992.090 .0300422
992.691 .0300370
993.293 .0300348
993.894 .0300346
994.495 .0300350
995.095 .0300359
995.696 .0300375
996.296 .0300400
996.895 .0300440
997.494 .0300506
998.093 .0300593
998.692 .0300691
999.291 .0300788
999.889 .0300856
1000.487 .0300895
1001.084 .0300896
1001.681 .0300860
1002.278 .0300794
1002.875 .0300720
1003.471 .0300637
1004.067 .0300554
1004.663 .0300480
1005.258 .0300409
1005.854 .0300332
1006.449 .0300245
1007.043 .0300131
1007.638 .0299996
1008.232 .0299840
1008.826 .0299681
1009.419 .0299520
1010.012 .0299382
1010.605 .0299260
1011.198 .0299156
1011.791 .0299065
1012.383 .0298981
1012.975 .0298887
1013.566 .0298794
1014.158 .0298694
1014.749 .0298589
1015.340 .0298491
1015.931 .0298410
1016.521 .0298349
1017.111 .0298313
1017.701 .0298306
1018.291 .0298325
1018.880 .0298354
1019.470 .0298402
1020.059 .0298448
1020.647 .0298505
1021.236 .0298567
1021.824 .0298642
1022.412 .0298733
1023.000 .0298842
1023.588 .0298956
1024.175 .0299072
1024.762 .0299195
1025.349 .0299316
1025.936 .0299424
1026.523 .0299527
1027.109 .0299628
1027.695 .0299724
1028.281 .0299800
1028.867 .0299874
1029.452 .0299943
1030.038 .0300022
1030.623 .0300090
1031.208 .0300156
1031.792 .0300228
1032.377 .0300306
1032.961 .0300387
1033.546 .0300482
1034.130 .0300596
1034.714 .0300721
1035.297 .0300844
1035.881 .0300970
1036.464 .0301091
1037.047 .0301215
1037.630 .0301328
1038.213 .0301448
1038.796 .0301559
1039.378 .0301665
1039.961 .0301755
1040.543 .0301838
1041.125 .0301899
1041.707 .0301929
1042.289 .0301921
1042.871 .0301890
1043.452 .0301832
1044.034 .0301764
1044.615 .0301686
1045.196 .0301638
1045.777 .0301615
1046.358 .0301622
1046.939 .0301648
1047.520 .0301690
1048.101 .0301730
1048.681 .0301761
1049.262 .0301757
1049.842 .0301728
1050.422 .0301667
1051.002 .0301592
1051.582 .0301507
1052.162 .0301438
1052.742 .0301389
1053.322 .0301373
1053.902 .0301378
1054.482 .0301394
1055.061 .0301396
1055.641 .0301382
1056.220 .0301346
1056.800 .0301292
1057.379 .0301224
1057.958 .0301163
1058.538 .0301123
1059.117 .0301134
1059.696 .0301187
1060.275 .0301294
1060.854 .0301436
1061.433 .0301594
1062.012 .0301748
1062.592 .0301868
1063.171 .0301954
1063.750 .0302017
1064.329 .0302044
1064.908 .0302051
1065.487 .0302040
1066.066 .0302031
1066.645 .0302008
1067.224 .0301981
1067.803 .0301948
1068.382 .0301909
1068.961 .0301853
1069.540 .0301778
1070.119 .0301676
1070.698 .0301572
1071.278 .0301457
1071.857 .0301328
1072.436 .0301200
1073.016 .0301068
1073.595 .0300941
1074.175 .0300843
1074.754 .0300769
1075.334 .0300731
1075.913 .0300701
1076.493 .0300688
1077.073 .0300670
1077.653 .0300632
1078.233 .0300558
1078.813 .0300447
1079.393 .0300309
1079.974 .0300140
1080.554 .0299953
1081.135 .0299764
1081.716 .0299589
1082.296 .0299442
1082.877 .0299310
1083.458 .0299186
1084.040 .0299076
1084.621 .0298995
1085.202 .0298927
1085.784 .0298878
1086.366 .0298852
1086.948 .0298836
1087.530 .0298843
1088.112 .0298869
1088.695 .0298896
1089.277 .0298929
1089.860 .0298963
1090.443 .0298991
1091.026 .0299006
1091.610 .0299031
1092.193 .0299045
1092.777 .0299056
1093.361 .0299067
1093.946 .0299045
1094.530 .0298984
1095.115 .0298897
1095.700 .0298797
1096.285 .0298689
1096.871 .0298588
1097.456 .0298493
1098.042 .0298409
1098.628 .0298365
1099.215 .0298328
1099.802 .0298307
1100.389 .0298280
1100.976 .0298237
1101.564 .0298169
1102.152 .0298075
1102.740 .0297980
1103.329 .0297870
1103.917 .0297771
1104.507 .0297687
1105.096 .0297596
1105.686 .0297502
1106.276 .0297401
1106.867 .0297287
1107.457 .0297179
1108.049 .0297044
1108.640 .0296875
1109.232 .0296687
1109.825 .0296512
1110.417 .0296374
1111.010 .0296273
1111.604 .0296216
1112.198 .0296213
1112.792 .0296259
1113.387 .0296334
1113.982 .0296416
1114.577 .0296510
1115.173 .0296626
1115.769 .0296733
1116.366 .0296831
1116.963 .0296945
1117.561 .0297061
1118.159 .0297236
1118.758 .0297441
1119.357 .0297666
1119.957 .0297916
1120.557 .0298168
1121.157 .0298457
1121.758 .0298765
1122.360 .0299124
1122.962 .0299509
1123.564 .0299929
1124.167 .0300397
1124.771 .0300870
1125.375 .0301349
1125.980 .0301843
1126.585 .0302362
1127.191 .0302882
1127.797 .0303437
1128.404 .0304035
1129.012 .0304707
1129.620 .0305462
1130.229 .0306259
1130.838 .0307098
1131.448 .0307901
1132.058 .0308662
1132.669 .0309338
1133.281 .0309924
1133.894 .0310464
1134.507 .0310979
1135.120 .0311500
1135.735 .0312032
1136.350 .0312638
1136.965 .0313285
1137.582 .0313972
1138.199 .0314668
1138.816 .0315351
1139.435 .0315977
1140.054 .0316625
1140.674 .0317318
1141.294 .0317974
1141.916 .0318848
1142.538 .0318080
1143.160 .0320712
1143.784 .0322779
1144.408 .0321240
1145.033 .0326753
