Measurement Sequence started on: 14-45-04-498
Integration time: 36
Scans to Average: 2 
>>>>>Begin Spectral Data<<<<<
433.946 .0502485
434.870 .0500853
435.793 .0434682
436.715 .0420668
437.635 .0417938
438.555 .0421563
439.473 .0414258
440.389 .0409112
441.305 .0407019
442.219 .0405680
443.132 .0404675
444.044 .0403980
444.954 .0403477
445.863 .0402885
446.771 .0402249
447.678 .0401539
448.584 .0400836
449.488 .0400177
450.391 .0399460
451.293 .0398750
452.194 .0398084
453.094 .0397323
453.992 .0396394
454.890 .0395357
455.786 .0394201
456.681 .0392877
457.575 .0391497
458.468 .0390099
459.360 .0388732
460.250 .0387499
461.140 .0386346
462.028 .0385339
462.915 .0384426
463.801 .0383592
464.687 .0382726
465.571 .0381853
466.454 .0380973
467.335 .0380064
468.216 .0379160
469.096 .0378261
469.975 .0377387
470.853 .0376547
471.729 .0375753
472.605 .0375001
473.479 .0374279
474.353 .0373605
475.226 .0372914
476.097 .0372242
476.968 .0371574
477.838 .0370945
478.706 .0370380
479.574 .0369911
480.441 .0369559
481.306 .0369315
482.171 .0369158
483.035 .0369067
483.898 .0369032
484.760 .0369031
485.621 .0369019
486.481 .0368986
487.340 .0368938
488.198 .0368910
489.055 .0368875
489.912 .0368850
490.767 .0368848
491.622 .0368848
492.476 .0368837
493.329 .0368790
494.180 .0368675
495.032 .0368514
495.882 .0368307
496.731 .0368065
497.580 .0367797
498.427 .0367548
499.274 .0367287
500.120 .0367026
500.965 .0366754
501.809 .0366434
502.653 .0366029
503.495 .0365543
504.337 .0364973
505.178 .0364296
506.018 .0363566
506.858 .0362771
507.696 .0361951
508.534 .0361156
509.371 .0360323
510.208 .0359476
511.043 .0358643
511.878 .0357817
512.712 .0357032
513.545 .0356311
514.377 .0355702
515.209 .0355220
516.040 .0354918
516.870 .0354755
517.699 .0354752
518.528 .0354893
519.356 .0355158
520.183 .0355452
521.010 .0355832
521.836 .0356205
522.661 .0356554
523.485 .0356920
524.309 .0357263
525.132 .0357518
525.954 .0357706
526.776 .0357724
527.597 .0357566
528.417 .0357194
529.237 .0356666
530.056 .0355922
530.874 .0355085
531.692 .0354180
532.508 .0353285
533.325 .0352454
534.140 .0351727
534.955 .0351021
535.770 .0350350
536.583 .0349703
537.397 .0349013
538.209 .0348241
539.021 .0347397
539.832 .0346451
540.643 .0345470
541.453 .0344441
542.262 .0343439
543.071 .0342482
543.879 .0341605
544.687 .0340768
545.494 .0339948
546.300 .0339164
547.106 .0338364
547.911 .0337554
548.716 .0336769
549.520 .0336012
550.323 .0335318
551.126 .0334750
551.929 .0334361
552.731 .0334159
553.532 .0334141
554.332 .0334257
555.133 .0334450
555.932 .0334699
556.731 .0334933
557.530 .0335135
558.328 .0335290
559.125 .0335423
559.922 .0335511
560.719 .0335572
561.515 .0335592
562.310 .0335592
563.105 .0335565
563.899 .0335497
564.693 .0335354
565.487 .0335103
566.280 .0334731
567.072 .0334290
567.864 .0333755
568.655 .0333198
569.446 .0332629
570.236 .0332060
571.026 .0331478
571.816 .0330902
572.605 .0330327
573.393 .0329728
574.181 .0329121
574.969 .0328504
575.756 .0327873
576.543 .0327275
577.329 .0326693
578.115 .0326147
578.900 .0325666
579.685 .0325238
580.469 .0324812
581.253 .0324407
582.036 .0324008
582.820 .0323607
583.602 .0323226
584.384 .0322871
585.166 .0322546
585.947 .0322251
586.728 .0322003
587.509 .0321786
588.289 .0321601
589.069 .0321455
589.848 .0321316
590.627 .0321187
591.405 .0321059
592.183 .0320923
592.961 .0320801
593.738 .0320692
594.515 .0320586
595.291 .0320478
596.067 .0320369
596.843 .0320242
597.618 .0320099
598.393 .0319941
599.167 .0319773
599.941 .0319590
600.715 .0319408
601.488 .0319225
602.261 .0319038
603.034 .0318851
603.806 .0318656
604.578 .0318450
605.349 .0318237
606.121 .0318005
606.891 .0317759
607.662 .0317505
608.432 .0317257
609.201 .0317001
609.971 .0316749
610.740 .0316505
611.508 .0316260
612.277 .0316015
613.045 .0315763
613.812 .0315503
614.579 .0315234
615.346 .0314955
616.113 .0314669
616.879 .0314380
617.645 .0314094
618.411 .0313805
619.176 .0313510
619.941 .0313216
620.705 .0312919
621.470 .0312614
622.233 .0312306
622.997 .0311993
623.760 .0311679
624.523 .0311372
625.286 .0311065
626.048 .0310772
626.810 .0310484
627.572 .0310207
628.333 .0309935
629.095 .0309669
629.855 .0309413
630.616 .0309161
631.376 .0308919
632.136 .0308692
632.895 .0308473
633.655 .0308272
634.414 .0308085
635.172 .0307920
635.931 .0307773
636.689 .0307646
637.447 .0307532
638.204 .0307434
638.962 .0307343
639.718 .0307262
640.475 .0307174
641.231 .0307091
641.988 .0307003
642.743 .0306908
643.499 .0306808
644.254 .0306702
645.009 .0306592
645.764 .0306483
646.518 .0306370
647.272 .0306253
648.026 .0306128
648.780 .0305998
649.533 .0305851
650.286 .0305699
651.039 .0305537
651.792 .0305366
652.544 .0305190
653.296 .0305015
654.048 .0304835
654.799 .0304658
655.550 .0304482
656.301 .0304301
657.052 .0304119
657.802 .0303939
658.552 .0303755
659.302 .0303574
660.052 .0303397
660.801 .0303215
661.550 .0303032
662.299 .0302845
663.048 .0302643
663.796 .0302431
664.544 .0302208
665.292 .0301975
666.040 .0301732
666.787 .0301487
667.534 .0301241
668.281 .0300993
669.028 .0300749
669.774 .0300503
670.521 .0300254
671.266 .0300002
672.012 .0299746
672.758 .0299489
673.503 .0299237
674.248 .0298994
674.992 .0298765
675.737 .0298554
676.481 .0298360
677.225 .0298184
677.969 .0298024
678.712 .0297878
679.455 .0297739
680.199 .0297605
680.941 .0297474
681.684 .0297353
682.426 .0297240
683.168 .0297133
683.910 .0297038
684.652 .0296952
685.393 .0296868
686.134 .0296785
686.875 .0296701
687.616 .0296613
688.356 .0296524
689.097 .0296436
689.837 .0296344
690.576 .0296257
691.316 .0296181
692.055 .0296112
692.794 .0296048
693.533 .0295992
694.272 .0295938
695.010 .0295889
695.748 .0295844
696.486 .0295801
697.224 .0295760
697.962 .0295727
698.699 .0295698
699.436 .0295669
700.173 .0295639
700.909 .0295604
701.646 .0295560
702.382 .0295508
703.118 .0295441
703.853 .0295358
704.589 .0295265
705.324 .0295173
706.059 .0295081
706.794 .0294993
707.529 .0294913
708.263 .0294843
708.997 .0294784
709.731 .0294722
710.465 .0294660
711.198 .0294592
711.931 .0294515
712.664 .0294425
713.397 .0294324
714.130 .0294214
714.862 .0294100
715.594 .0293984
716.326 .0293867
717.058 .0293750
717.789 .0293632
718.520 .0293506
719.251 .0293375
719.982 .0293233
720.713 .0293077
721.443 .0292906
722.173 .0292727
722.903 .0292542
723.633 .0292357
724.362 .0292173
725.091 .0291993
725.820 .0291820
726.549 .0291654
727.278 .0291488
728.006 .0291326
728.734 .0291166
729.462 .0291008
730.190 .0290852
730.917 .0290703
731.644 .0290557
732.371 .0290424
733.098 .0290301
733.825 .0290189
734.551 .0290086
735.277 .0289985
736.003 .0289886
736.728 .0289787
737.454 .0289689
738.179 .0289594
738.904 .0289500
739.629 .0289411
740.353 .0289328
741.077 .0289253
741.801 .0289177
742.525 .0289101
743.249 .0289021
743.972 .0288930
744.695 .0288826
745.418 .0288707
746.141 .0288573
746.863 .0288432
747.585 .0288290
748.307 .0288151
749.029 .0288011
749.750 .0287882
750.472 .0287759
751.193 .0287643
751.913 .0287530
752.634 .0287420
753.354 .0287314
754.074 .0287214
754.794 .0287118
755.514 .0287026
756.233 .0286941
756.952 .0286865
757.671 .0286798
758.390 .0286735
759.108 .0286676
759.826 .0286619
760.544 .0286566
761.262 .0286520
761.979 .0286478
762.697 .0286435
763.414 .0286398
764.130 .0286366
764.847 .0286336
765.563 .0286307
766.279 .0286277
766.995 .0286249
767.710 .0286224
768.426 .0286201
769.141 .0286176
769.855 .0286153
770.570 .0286136
771.284 .0286122
771.998 .0286109
772.712 .0286100
773.426 .0286093
774.139 .0286088
774.852 .0286083
775.565 .0286074
776.277 .0286062
776.990 .0286046
777.702 .0286027
778.414 .0286004
779.125 .0285979
779.836 .0285950
780.547 .0285921
781.258 .0285890
781.969 .0285857
782.679 .0285822
783.389 .0285783
784.099 .0285740
784.808 .0285695
785.517 .0285650
786.226 .0285606
786.935 .0285562
787.643 .0285523
788.352 .0285487
789.060 .0285449
789.767 .0285410
790.475 .0285367
791.182 .0285322
791.889 .0285275
792.595 .0285224
793.301 .0285169
794.008 .0285112
794.713 .0285051
795.419 .0284982
796.124 .0284906
796.829 .0284819
797.534 .0284721
798.238 .0284612
798.942 .0284495
799.646 .0284371
800.350 .0284241
801.053 .0284111
801.756 .0283978
802.459 .0283845
803.162 .0283708
803.864 .0283569
804.566 .0283430
805.267 .0283284
805.969 .0283138
806.670 .0282991
807.371 .0282850
808.071 .0282716
808.772 .0282587
809.472 .0282461
810.171 .0282342
810.871 .0282222
811.570 .0282101
812.269 .0281973
812.967 .0281837
813.666 .0281693
814.364 .0281544
815.061 .0281393
815.759 .0281243
816.456 .0281096
817.153 .0280957
817.849 .0280820
818.545 .0280682
819.241 .0280538
819.937 .0280390
820.632 .0280237
821.327 .0280073
822.022 .0279898
822.717 .0279719
823.411 .0279537
824.105 .0279362
824.798 .0279191
825.491 .0279025
826.184 .0278866
826.877 .0278710
827.569 .0278550
828.261 .0278389
828.953 .0278223
829.645 .0278056
830.336 .0277888
831.027 .0277728
831.717 .0277573
832.407 .0277430
833.097 .0277297
833.787 .0277175
834.476 .0277061
835.165 .0276953
835.854 .0276852
836.542 .0276757
837.230 .0276670
837.918 .0276590
838.605 .0276521
839.292 .0276463
839.979 .0276416
840.665 .0276378
841.352 .0276344
842.037 .0276316
842.723 .0276290
843.408 .0276263
844.093 .0276237
844.777 .0276211
845.462 .0276186
846.145 .0276157
846.829 .0276126
847.512 .0276087
848.195 .0276046
848.878 .0275998
849.560 .0275941
850.242 .0275878
850.923 .0275808
851.605 .0275733
852.286 .0275653
852.966 .0275571
853.646 .0275492
854.326 .0275413
855.006 .0275338
855.685 .0275265
856.364 .0275197
857.043 .0275137
857.721 .0275087
858.399 .0275045
859.077 .0275015
859.754 .0274990
860.431 .0274969
861.107 .0274947
861.784 .0274922
862.459 .0274891
863.135 .0274849
863.810 .0274799
864.485 .0274746
865.160 .0274688
865.834 .0274637
866.508 .0274587
867.181 .0274544
867.854 .0274507
868.527 .0274468
869.199 .0274425
869.872 .0274377
870.543 .0274321
871.215 .0274254
871.886 .0274178
872.557 .0274098
873.227 .0274010
873.897 .0273920
874.567 .0273831
875.236 .0273741
875.905 .0273649
876.573 .0273553
877.242 .0273448
877.909 .0273334
878.577 .0273211
879.244 .0273077
879.911 .0272936
880.577 .0272790
881.243 .0272644
881.909 .0272497
882.575 .0272353
883.240 .0272218
883.904 .0272088
884.569 .0271969
885.232 .0271856
885.896 .0271752
886.559 .0271651
887.222 .0271551
887.885 .0271447
888.547 .0271335
889.208 .0271216
889.870 .0271087
890.531 .0270949
891.192 .0270807
891.852 .0270663
892.512 .0270517
893.171 .0270369
893.830 .0270224
894.489 .0270076
895.148 .0269928
895.806 .0269779
896.464 .0269633
897.121 .0269490
897.778 .0269357
898.434 .0269230
899.091 .0269115
899.747 .0269011
900.402 .0268915
901.057 .0268820
901.712 .0268731
902.366 .0268639
903.020 .0268542
903.674 .0268438
904.327 .0268331
904.980 .0268219
905.633 .0268105
906.285 .0267985
906.936 .0267863
907.588 .0267737
908.239 .0267602
908.889 .0267454
909.540 .0267297
910.190 .0267131
910.839 .0266954
911.488 .0266776
912.137 .0266598
912.785 .0266421
913.433 .0266247
914.081 .0266073
914.728 .0265902
915.375 .0265734
916.021 .0265561
916.668 .0265386
917.313 .0265210
917.959 .0265035
918.604 .0264857
919.248 .0264684
919.892 .0264517
920.536 .0264354
921.180 .0264198
921.823 .0264048
922.465 .0263900
923.108 .0263758
923.750 .0263618
924.391 .0263477
925.032 .0263337
925.673 .0263195
926.313 .0263045
926.953 .0262892
927.593 .0262736
928.232 .0262572
928.871 .0262398
929.510 .0262221
930.148 .0262035
930.786 .0261846
931.423 .0261654
932.060 .0261457
932.697 .0261258
933.333 .0261061
933.969 .0260859
934.604 .0260653
935.239 .0260448
935.874 .0260247
936.508 .0260056
937.142 .0259879
937.776 .0259714
938.409 .0259567
939.042 .0259434
939.674 .0259313
940.306 .0259194
940.938 .0259077
941.569 .0258961
942.200 .0258843
942.830 .0258724
943.460 .0258604
944.090 .0258486
944.720 .0258373
945.349 .0258263
945.977 .0258157
946.606 .0258047
947.233 .0257930
947.861 .0257806
948.488 .0257675
949.115 .0257531
949.741 .0257384
950.367 .0257236
950.993 .0257092
951.618 .0256952
952.243 .0256823
952.868 .0256703
953.492 .0256594
954.115 .0256497
954.739 .0256409
955.362 .0256328
955.984 .0256259
956.607 .0256198
957.229 .0256151
957.850 .0256115
958.471 .0256087
959.092 .0256067
959.713 .0256052
960.333 .0256040
960.952 .0256031
961.572 .0256025
962.191 .0256023
962.809 .0256020
963.428 .0256016
964.045 .0256006
964.663 .0255992
965.280 .0255970
965.897 .0255934
966.513 .0255886
967.129 .0255831
967.745 .0255765
968.361 .0255693
968.976 .0255624
969.590 .0255557
970.205 .0255498
970.818 .0255443
971.432 .0255396
972.045 .0255355
972.658 .0255324
973.271 .0255296
973.883 .0255268
974.495 .0255241
975.106 .0255217
975.717 .0255190
976.328 .0255165
976.938 .0255139
977.548 .0255117
978.158 .0255101
978.768 .0255093
979.377 .0255088
979.985 .0255084
980.594 .0255077
981.202 .0255067
981.809 .0255042
982.417 .0255008
983.024 .0254960
983.631 .0254902
984.237 .0254839
984.843 .0254771
985.449 .0254699
986.054 .0254625
986.659 .0254549
987.264 .0254474
987.868 .0254394
988.472 .0254319
989.076 .0254242
989.679 .0254168
990.282 .0254097
990.885 .0254027
991.487 .0253956
992.090 .0253888
992.691 .0253818
993.293 .0253753
993.894 .0253692
994.495 .0253643
995.095 .0253604
995.696 .0253579
996.296 .0253565
996.895 .0253562
997.494 .0253563
998.093 .0253566
998.692 .0253559
999.291 .0253548
999.889 .0253525
1000.487 .0253493
1001.084 .0253450
1001.681 .0253400
1002.278 .0253342
1002.875 .0253277
1003.471 .0253202
1004.067 .0253124
1004.663 .0253038
1005.258 .0252945
1005.854 .0252838
1006.449 .0252728
1007.043 .0252609
1007.638 .0252485
1008.232 .0252362
1008.826 .0252244
1009.419 .0252127
1010.012 .0252019
1010.605 .0251917
1011.198 .0251823
1011.791 .0251739
1012.383 .0251661
1012.975 .0251586
1013.566 .0251523
1014.158 .0251465
1014.749 .0251414
1015.340 .0251367
1015.931 .0251328
1016.521 .0251287
1017.111 .0251245
1017.701 .0251197
1018.291 .0251141
1018.880 .0251076
1019.470 .0251008
1020.059 .0250942
1020.647 .0250882
1021.236 .0250832
1021.824 .0250798
1022.412 .0250773
1023.000 .0250759
1023.588 .0250739
1024.175 .0250709
1024.762 .0250658
1025.349 .0250587
1025.936 .0250499
1026.523 .0250398
1027.109 .0250297
1027.695 .0250208
1028.281 .0250135
1028.867 .0250083
1029.452 .0250042
1030.038 .0250007
1030.623 .0249961
1031.208 .0249902
1031.792 .0249823
1032.377 .0249726
1032.961 .0249616
1033.546 .0249512
1034.130 .0249411
1034.714 .0249326
1035.297 .0249261
1035.881 .0249214
1036.464 .0249175
1037.047 .0249139
1037.630 .0249092
1038.213 .0249034
1038.796 .0248961
1039.378 .0248879
1039.961 .0248785
1040.543 .0248698
1041.125 .0248608
1041.707 .0248525
1042.289 .0248447
1042.871 .0248377
1043.452 .0248299
1044.034 .0248220
1044.615 .0248138
1045.196 .0248051
1045.777 .0247961
1046.358 .0247876
1046.939 .0247796
1047.520 .0247731
1048.101 .0247670
1048.681 .0247618
1049.262 .0247571
1049.842 .0247525
1050.422 .0247472
1051.002 .0247416
1051.582 .0247353
1052.162 .0247291
1052.742 .0247229
1053.322 .0247180
1053.902 .0247151
1054.482 .0247141
1055.061 .0247153
1055.641 .0247184
1056.220 .0247237
1056.800 .0247297
1057.379 .0247357
1057.958 .0247412
1058.538 .0247457
1059.117 .0247492
1059.696 .0247524
1060.275 .0247550
1060.854 .0247583
1061.433 .0247623
1062.012 .0247664
1062.592 .0247711
1063.171 .0247757
1063.750 .0247782
1064.329 .0247790
1064.908 .0247760
1065.487 .0247690
1066.066 .0247581
1066.645 .0247453
1067.224 .0247311
1067.803 .0247171
1068.382 .0247051
1068.961 .0246952
1069.540 .0246879
1070.119 .0246835
1070.698 .0246799
1071.278 .0246771
1071.857 .0246745
1072.436 .0246717
1073.016 .0246683
1073.595 .0246663
1074.175 .0246660
1074.754 .0246693
1075.334 .0246755
1075.913 .0246850
1076.493 .0246968
1077.073 .0247091
1077.653 .0247208
1078.233 .0247310
1078.813 .0247389
1079.393 .0247447
1079.974 .0247480
1080.554 .0247507
1081.135 .0247530
1081.716 .0247563
1082.296 .0247596
1082.877 .0247635
1083.458 .0247671
1084.040 .0247698
1084.621 .0247703
1085.202 .0247697
1085.784 .0247682
1086.366 .0247659
1086.948 .0247643
1087.530 .0247643
1088.112 .0247654
1088.695 .0247688
1089.277 .0247736
1089.860 .0247805
1090.443 .0247867
1091.026 .0247928
1091.610 .0247973
1092.193 .0248007
1092.777 .0248022
1093.361 .0248012
1093.946 .0247980
1094.530 .0247951
1095.115 .0247930
1095.700 .0247920
1096.285 .0247939
1096.871 .0247993
1097.456 .0248069
1098.042 .0248156
1098.628 .0248236
1099.215 .0248295
1099.802 .0248313
1100.389 .0248291
1100.976 .0248218
1101.564 .0248106
1102.152 .0247987
1102.740 .0247882
1103.329 .0247820
1103.917 .0247813
1104.507 .0247840
1105.096 .0247890
1105.686 .0247955
1106.276 .0247996
1106.867 .0248015
1107.457 .0248018
1108.049 .0248033
1108.640 .0248066
1109.232 .0248133
1109.825 .0248275
1110.417 .0248489
1111.010 .0248769
1111.604 .0249106
1112.198 .0249458
1112.792 .0249813
1113.387 .0250143
1113.982 .0250443
1114.577 .0250738
1115.173 .0251036
1115.769 .0251325
1116.366 .0251618
1116.963 .0251908
1117.561 .0252177
1118.159 .0252390
1118.758 .0252544
1119.357 .0252653
1119.957 .0252703
1120.557 .0252715
1121.157 .0252705
1121.758 .0252697
1122.360 .0252717
1122.962 .0252737
1123.564 .0252771
1124.167 .0252818
1124.771 .0252846
1125.375 .0252849
1125.980 .0252824
1126.585 .0252788
1127.191 .0252755
1127.797 .0252768
1128.404 .0252855
1129.012 .0253035
1129.620 .0253307
1130.229 .0253644
1130.838 .0254027
1131.448 .0254441
1132.058 .0254864
1132.669 .0255261
1133.281 .0255629
1133.894 .0255998
1134.507 .0256385
1135.120 .0256829
1135.735 .0257325
1136.350 .0257923
1136.965 .0258600
1137.582 .0259309
1138.199 .0259992
1138.816 .0260629
1139.435 .0261274
1140.054 .0261913
1140.674 .0262655
1141.294 .0263409
1141.916 .0264284
1142.538 .0264859
1143.160 .0265715
1143.784 .0269702
1144.408 .0268234
1145.033 .0269858
