Measurement Sequence started on: 14-45-04-498
Integration time: 36
Scans to Average: 2 
>>>>>Begin Spectral Data<<<<<
433.946 .0377928
434.870 .0376387
435.793 .0379130
436.715 .0371298
437.635 .0384174
438.555 .0394454
439.473 .0399176
440.389 .0403471
441.305 .0406969
442.219 .0409719
443.132 .0411297
444.044 .0412034
444.954 .0412450
445.863 .0412646
446.771 .0412870
447.678 .0413014
448.584 .0413173
449.488 .0413229
450.391 .0413161
451.293 .0412909
452.194 .0412515
453.094 .0411942
453.992 .0411225
454.890 .0410429
455.786 .0409658
456.681 .0408891
457.575 .0408173
458.468 .0407417
459.360 .0406683
460.250 .0405907
461.140 .0405072
462.028 .0404211
462.915 .0403348
463.801 .0402434
464.687 .0401499
465.571 .0400578
466.454 .0399694
467.335 .0398840
468.216 .0398039
469.096 .0397292
469.975 .0396572
470.853 .0395833
471.729 .0395051
472.605 .0394239
473.479 .0393430
474.353 .0392587
475.226 .0391721
476.097 .0390874
476.968 .0390067
477.838 .0389287
478.706 .0388596
479.574 .0387990
480.441 .0387451
481.306 .0387009
482.171 .0386616
483.035 .0386223
483.898 .0385871
484.760 .0385529
485.621 .0385200
486.481 .0384900
487.340 .0384648
488.198 .0384451
489.055 .0384325
489.912 .0384278
490.767 .0384237
491.622 .0384186
492.476 .0384149
493.329 .0384049
494.180 .0383881
495.032 .0383665
495.882 .0383399
496.731 .0383091
497.580 .0382797
498.427 .0382493
499.274 .0382189
500.120 .0381900
500.965 .0381631
501.809 .0381350
502.653 .0381064
503.495 .0380777
504.337 .0380459
505.178 .0380125
506.018 .0379774
506.858 .0379341
507.696 .0378862
508.534 .0378347
509.371 .0377786
510.208 .0377152
511.043 .0376520
511.878 .0375883
512.712 .0375269
513.545 .0374685
514.377 .0374168
515.209 .0373712
516.040 .0373313
516.870 .0372937
517.699 .0372602
518.528 .0372295
519.356 .0372045
520.183 .0371799
521.010 .0371615
521.836 .0371469
522.661 .0371323
523.485 .0371172
524.309 .0371013
525.132 .0370819
525.954 .0370623
526.776 .0370353
527.597 .0370112
528.417 .0369873
529.237 .0369664
530.056 .0369484
530.874 .0369376
531.692 .0369322
532.508 .0369276
533.325 .0369241
534.140 .0369172
534.955 .0368996
535.770 .0368723
536.583 .0368321
537.397 .0367787
538.209 .0367200
539.021 .0366572
539.832 .0365893
540.643 .0365229
541.453 .0364609
542.262 .0363996
543.071 .0363370
543.879 .0362671
544.687 .0361931
545.494 .0361115
546.300 .0360315
547.106 .0359496
547.911 .0358763
548.716 .0358136
549.520 .0357592
550.323 .0357117
551.126 .0356727
551.929 .0356347
552.731 .0355969
553.532 .0355541
554.332 .0355084
555.133 .0354581
555.932 .0354067
556.731 .0353533
557.530 .0353040
558.328 .0352567
559.125 .0352110
559.922 .0351661
560.719 .0351237
561.515 .0350800
562.310 .0350351
563.105 .0349928
563.899 .0349499
564.693 .0349095
565.487 .0348741
566.280 .0348430
567.072 .0348187
567.864 .0347975
568.655 .0347792
569.446 .0347605
570.236 .0347391
571.026 .0347138
571.816 .0346816
572.605 .0346467
573.393 .0346073
574.181 .0345668
574.969 .0345277
575.756 .0344903
576.543 .0344545
577.329 .0344211
578.115 .0343887
578.900 .0343556
579.685 .0343196
580.469 .0342831
581.253 .0342457
582.036 .0342068
582.820 .0341662
583.602 .0341253
584.384 .0340852
585.166 .0340457
585.947 .0340047
586.728 .0339636
587.509 .0339221
588.289 .0338804
589.069 .0338385
589.848 .0337962
590.627 .0337540
591.405 .0337125
592.183 .0336719
592.961 .0336324
593.738 .0335935
594.515 .0335560
595.291 .0335193
596.067 .0334829
596.843 .0334468
597.618 .0334099
598.393 .0333733
599.167 .0333376
599.941 .0333026
600.715 .0332692
601.488 .0332375
602.261 .0332077
603.034 .0331800
603.806 .0331543
604.578 .0331310
605.349 .0331099
606.121 .0330912
606.891 .0330745
607.662 .0330588
608.432 .0330448
609.201 .0330319
609.971 .0330199
610.740 .0330085
611.508 .0329971
612.277 .0329858
613.045 .0329743
613.812 .0329623
614.579 .0329499
615.346 .0329371
616.113 .0329240
616.879 .0329105
617.645 .0328964
618.411 .0328815
619.176 .0328651
619.941 .0328472
620.705 .0328279
621.470 .0328064
622.233 .0327837
622.997 .0327594
623.760 .0327337
624.523 .0327071
625.286 .0326797
626.048 .0326516
626.810 .0326229
627.572 .0325935
628.333 .0325636
629.095 .0325326
629.855 .0325007
630.616 .0324674
631.376 .0324330
632.136 .0323985
632.895 .0323637
633.655 .0323296
634.414 .0322965
635.172 .0322648
635.931 .0322350
636.689 .0322071
637.447 .0321808
638.204 .0321556
638.962 .0321311
639.718 .0321068
640.475 .0320824
641.231 .0320574
641.988 .0320314
642.743 .0320046
643.499 .0319768
644.254 .0319477
645.009 .0319173
645.764 .0318869
646.518 .0318567
647.272 .0318272
648.026 .0317985
648.780 .0317707
649.533 .0317442
650.286 .0317191
651.039 .0316953
651.792 .0316726
652.544 .0316515
653.296 .0316313
654.048 .0316119
654.799 .0315942
655.550 .0315774
656.301 .0315620
657.052 .0315475
657.802 .0315344
658.552 .0315222
659.302 .0315108
660.052 .0315001
660.801 .0314900
661.550 .0314809
662.299 .0314722
663.048 .0314634
663.796 .0314551
664.544 .0314468
665.292 .0314384
666.040 .0314298
666.787 .0314217
667.534 .0314137
668.281 .0314064
669.028 .0314003
669.774 .0313953
670.521 .0313909
671.266 .0313866
672.012 .0313818
672.758 .0313761
673.503 .0313689
674.248 .0313596
674.992 .0313485
675.737 .0313359
676.481 .0313219
677.225 .0313067
677.969 .0312903
678.712 .0312733
679.455 .0312557
680.199 .0312375
680.941 .0312180
681.684 .0311979
682.426 .0311771
683.168 .0311561
683.910 .0311351
684.652 .0311138
685.393 .0310923
686.134 .0310710
686.875 .0310497
687.616 .0310280
688.356 .0310064
689.097 .0309846
689.837 .0309622
690.576 .0309397
691.316 .0309168
692.055 .0308933
692.794 .0308695
693.533 .0308459
694.272 .0308218
695.010 .0307980
695.748 .0307741
696.486 .0307503
697.224 .0307272
697.962 .0307045
698.699 .0306825
699.436 .0306616
700.173 .0306421
700.909 .0306235
701.646 .0306064
702.382 .0305912
703.118 .0305770
703.853 .0305647
704.589 .0305534
705.324 .0305432
706.059 .0305341
706.794 .0305259
707.529 .0305182
708.263 .0305116
708.997 .0305060
709.731 .0305003
710.465 .0304952
711.198 .0304899
711.931 .0304838
712.664 .0304770
713.397 .0304696
714.130 .0304614
714.862 .0304529
715.594 .0304446
716.326 .0304362
717.058 .0304286
717.789 .0304214
718.520 .0304139
719.251 .0304064
719.982 .0303984
720.713 .0303895
721.443 .0303800
722.173 .0303705
722.903 .0303611
723.633 .0303525
724.362 .0303448
725.091 .0303379
725.820 .0303320
726.549 .0303271
727.278 .0303222
728.006 .0303173
728.734 .0303124
729.462 .0303073
730.190 .0303024
730.917 .0302979
731.644 .0302937
732.371 .0302903
733.098 .0302876
733.825 .0302853
734.551 .0302827
735.277 .0302799
736.003 .0302761
736.728 .0302713
737.454 .0302656
738.179 .0302588
738.904 .0302510
739.629 .0302426
740.353 .0302341
741.077 .0302255
741.801 .0302171
742.525 .0302089
743.249 .0302011
743.972 .0301934
744.695 .0301854
745.418 .0301767
746.141 .0301672
746.863 .0301571
747.585 .0301459
748.307 .0301337
749.029 .0301205
749.750 .0301060
750.472 .0300907
751.193 .0300741
751.913 .0300565
752.634 .0300376
753.354 .0300175
754.074 .0299966
754.794 .0299747
755.514 .0299519
756.233 .0299283
756.952 .0299046
757.671 .0298812
758.390 .0298582
759.108 .0298355
759.826 .0298139
760.544 .0297938
761.262 .0297755
761.979 .0297591
762.697 .0297442
763.414 .0297310
764.130 .0297190
764.847 .0297081
765.563 .0296982
766.279 .0296890
766.995 .0296805
767.710 .0296724
768.426 .0296644
769.141 .0296559
769.855 .0296469
770.570 .0296371
771.284 .0296270
771.998 .0296166
772.712 .0296063
773.426 .0295964
774.139 .0295875
774.852 .0295801
775.565 .0295737
776.277 .0295686
776.990 .0295642
777.702 .0295598
778.414 .0295556
779.125 .0295513
779.836 .0295472
780.547 .0295436
781.258 .0295415
781.969 .0295408
782.679 .0295421
783.389 .0295450
784.099 .0295491
784.808 .0295542
785.517 .0295597
786.226 .0295650
786.935 .0295693
787.643 .0295730
788.352 .0295759
789.060 .0295780
789.767 .0295799
790.475 .0295814
791.182 .0295826
791.889 .0295836
792.595 .0295848
793.301 .0295857
794.008 .0295864
794.713 .0295867
795.419 .0295869
796.124 .0295869
796.829 .0295867
797.534 .0295862
798.238 .0295855
798.942 .0295854
799.646 .0295854
800.350 .0295855
801.053 .0295859
801.756 .0295868
802.459 .0295878
803.162 .0295886
803.864 .0295893
804.566 .0295898
805.267 .0295895
805.969 .0295885
806.670 .0295864
807.371 .0295835
808.071 .0295795
808.772 .0295746
809.472 .0295687
810.171 .0295623
810.871 .0295550
811.570 .0295471
812.269 .0295389
812.967 .0295304
813.666 .0295210
814.364 .0295112
815.061 .0295010
815.759 .0294906
816.456 .0294799
817.153 .0294694
817.849 .0294587
818.545 .0294485
819.241 .0294380
819.937 .0294274
820.632 .0294161
821.327 .0294043
822.022 .0293911
822.717 .0293770
823.411 .0293619
824.105 .0293462
824.798 .0293302
825.491 .0293142
826.184 .0292975
826.877 .0292812
827.569 .0292641
828.261 .0292466
828.953 .0292283
829.645 .0292092
830.336 .0291893
831.027 .0291689
831.717 .0291487
832.407 .0291286
833.097 .0291086
833.787 .0290892
834.476 .0290697
835.165 .0290506
835.854 .0290319
836.542 .0290137
837.230 .0289955
837.918 .0289778
838.605 .0289606
839.292 .0289439
839.979 .0289277
840.665 .0289121
841.352 .0288972
842.037 .0288823
842.723 .0288675
843.408 .0288527
844.093 .0288380
844.777 .0288239
845.462 .0288105
846.145 .0287976
846.829 .0287850
847.512 .0287732
848.195 .0287614
848.878 .0287498
849.560 .0287384
850.242 .0287265
850.923 .0287136
851.605 .0287003
852.286 .0286863
852.966 .0286713
853.646 .0286562
854.326 .0286414
855.006 .0286263
855.685 .0286114
856.364 .0285968
857.043 .0285821
857.721 .0285685
858.399 .0285560
859.077 .0285438
859.754 .0285325
860.431 .0285222
861.107 .0285122
861.784 .0285029
862.459 .0284950
863.135 .0284876
863.810 .0284811
864.485 .0284758
865.160 .0284714
865.834 .0284681
866.508 .0284665
867.181 .0284659
867.854 .0284663
868.527 .0284676
869.199 .0284686
869.872 .0284688
870.543 .0284684
871.215 .0284671
871.886 .0284649
872.557 .0284620
873.227 .0284588
873.897 .0284558
874.567 .0284534
875.236 .0284515
875.905 .0284502
876.573 .0284494
877.242 .0284486
877.909 .0284473
878.577 .0284460
879.244 .0284441
879.911 .0284420
880.577 .0284395
881.243 .0284369
881.909 .0284347
882.575 .0284323
883.240 .0284297
883.904 .0284271
884.569 .0284241
885.232 .0284201
885.896 .0284152
886.559 .0284100
887.222 .0284043
887.885 .0283983
888.547 .0283921
889.208 .0283863
889.870 .0283808
890.531 .0283753
891.192 .0283698
891.852 .0283647
892.512 .0283595
893.171 .0283539
893.830 .0283486
894.489 .0283438
895.148 .0283395
895.806 .0283355
896.464 .0283319
897.121 .0283287
897.778 .0283257
898.434 .0283225
899.091 .0283194
899.747 .0283165
900.402 .0283131
901.057 .0283088
901.712 .0283043
902.366 .0282995
903.020 .0282947
903.674 .0282900
904.327 .0282855
904.980 .0282813
905.633 .0282772
906.285 .0282731
906.936 .0282694
907.588 .0282652
908.239 .0282605
908.889 .0282547
909.540 .0282480
910.190 .0282401
910.839 .0282315
911.488 .0282226
912.137 .0282132
912.785 .0282031
913.433 .0281917
914.081 .0281785
914.728 .0281642
915.375 .0281481
916.021 .0281301
916.668 .0281107
917.313 .0280903
917.959 .0280693
918.604 .0280485
919.248 .0280282
919.892 .0280083
920.536 .0279886
921.180 .0279685
921.823 .0279472
922.465 .0279249
923.108 .0279018
923.750 .0278781
924.391 .0278544
925.032 .0278310
925.673 .0278082
926.313 .0277864
926.953 .0277651
927.593 .0277437
928.232 .0277214
928.871 .0276977
929.510 .0276725
930.148 .0276456
930.786 .0276175
931.423 .0275892
932.060 .0275614
932.697 .0275342
933.333 .0275078
933.969 .0274823
934.604 .0274576
935.239 .0274331
935.874 .0274082
936.508 .0273829
937.142 .0273574
937.776 .0273320
938.409 .0273069
939.042 .0272824
939.674 .0272591
940.306 .0272364
940.938 .0272147
941.569 .0271931
942.200 .0271714
942.830 .0271493
943.460 .0271267
944.090 .0271031
944.720 .0270785
945.349 .0270532
945.977 .0270278
946.606 .0270022
947.233 .0269768
947.861 .0269517
948.488 .0269276
949.115 .0269047
949.741 .0268828
950.367 .0268620
950.993 .0268423
951.618 .0268239
952.243 .0268068
952.868 .0267907
953.492 .0267753
954.115 .0267612
954.739 .0267479
955.362 .0267359
955.984 .0267249
956.607 .0267150
957.229 .0267063
957.850 .0266991
958.471 .0266924
959.092 .0266861
959.713 .0266802
960.333 .0266745
960.952 .0266688
961.572 .0266631
962.191 .0266569
962.809 .0266505
963.428 .0266441
964.045 .0266379
964.663 .0266316
965.280 .0266264
965.897 .0266216
966.513 .0266175
967.129 .0266142
967.745 .0266111
968.361 .0266081
968.976 .0266049
969.590 .0266016
970.205 .0265979
970.818 .0265941
971.432 .0265906
972.045 .0265875
972.658 .0265860
973.271 .0265854
973.883 .0265856
974.495 .0265863
975.106 .0265873
975.717 .0265879
976.328 .0265879
976.938 .0265874
977.548 .0265869
978.158 .0265869
978.768 .0265873
979.377 .0265882
979.985 .0265895
980.594 .0265912
981.202 .0265926
981.809 .0265930
982.417 .0265925
983.024 .0265906
983.631 .0265881
984.237 .0265846
984.843 .0265812
985.449 .0265772
986.054 .0265728
986.659 .0265685
987.264 .0265642
987.868 .0265593
988.472 .0265549
989.076 .0265508
989.679 .0265476
990.282 .0265450
990.885 .0265433
991.487 .0265426
992.090 .0265431
992.691 .0265446
993.293 .0265466
993.894 .0265495
994.495 .0265537
995.095 .0265586
995.696 .0265646
996.296 .0265710
996.895 .0265778
997.494 .0265845
998.093 .0265907
998.692 .0265962
999.291 .0266008
999.889 .0266041
1000.487 .0266064
1001.084 .0266076
1001.681 .0266077
1002.278 .0266070
1002.875 .0266055
1003.471 .0266036
1004.067 .0266011
1004.663 .0265988
1005.258 .0265961
1005.854 .0265942
1006.449 .0265935
1007.043 .0265933
1007.638 .0265941
1008.232 .0265954
1008.826 .0265969
1009.419 .0265984
1010.012 .0265994
1010.605 .0265998
1011.198 .0265995
1011.791 .0265995
1012.383 .0265991
1012.975 .0265990
1013.566 .0266003
1014.158 .0266027
1014.749 .0266061
1015.340 .0266106
1015.931 .0266154
1016.521 .0266195
1017.111 .0266228
1017.701 .0266244
1018.291 .0266246
1018.880 .0266233
1019.470 .0266215
1020.059 .0266196
1020.647 .0266185
1021.236 .0266184
1021.824 .0266192
1022.412 .0266212
1023.000 .0266239
1023.588 .0266258
1024.175 .0266258
1024.762 .0266237
1025.349 .0266195
1025.936 .0266128
1026.523 .0266046
1027.109 .0265960
1027.695 .0265876
1028.281 .0265805
1028.867 .0265745
1029.452 .0265697
1030.038 .0265666
1030.623 .0265642
1031.208 .0265617
1031.792 .0265584
1032.377 .0265540
1032.961 .0265478
1033.546 .0265411
1034.130 .0265343
1034.714 .0265273
1035.297 .0265207
1035.881 .0265150
1036.464 .0265097
1037.047 .0265050
1037.630 .0265008
1038.213 .0264966
1038.796 .0264925
1039.378 .0264883
1039.961 .0264830
1040.543 .0264772
1041.125 .0264712
1041.707 .0264646
1042.289 .0264570
1042.871 .0264488
1043.452 .0264396
1044.034 .0264294
1044.615 .0264182
1045.196 .0264061
1045.777 .0263927
1046.358 .0263785
1046.939 .0263646
1047.520 .0263505
1048.101 .0263369
1048.681 .0263247
1049.262 .0263132
1049.842 .0263023
1050.422 .0262916
1051.002 .0262814
1051.582 .0262704
1052.162 .0262598
1052.742 .0262487
1053.322 .0262367
1053.902 .0262253
1054.482 .0262145
1055.061 .0262024
1055.641 .0261903
1056.220 .0261776
1056.800 .0261634
1057.379 .0261479
1057.958 .0261314
1058.538 .0261122
1059.117 .0260922
1059.696 .0260723
1060.275 .0260528
1060.854 .0260337
1061.433 .0260174
1062.012 .0260031
1062.592 .0259918
1063.171 .0259842
1063.750 .0259794
1064.329 .0259769
1064.908 .0259787
1065.487 .0259817
1066.066 .0259867
1066.645 .0259932
1067.224 .0260014
1067.803 .0260095
1068.382 .0260187
1068.961 .0260268
1069.540 .0260321
1070.119 .0260343
1070.698 .0260327
1071.278 .0260272
1071.857 .0260174
1072.436 .0260038
1073.016 .0259873
1073.595 .0259692
1074.175 .0259523
1074.754 .0259356
1075.334 .0259225
1075.913 .0259115
1076.493 .0259014
1077.073 .0258912
1077.653 .0258795
1078.233 .0258669
1078.813 .0258532
1079.393 .0258403
1079.974 .0258290
1080.554 .0258207
1081.135 .0258158
1081.716 .0258156
1082.296 .0258201
1082.877 .0258261
1083.458 .0258313
1084.040 .0258341
1084.621 .0258346
1085.202 .0258316
1085.784 .0258267
1086.366 .0258213
1086.948 .0258164
1087.530 .0258151
1088.112 .0258160
1088.695 .0258198
1089.277 .0258267
1089.860 .0258351
1090.443 .0258429
1091.026 .0258487
1091.610 .0258520
1092.193 .0258516
1092.777 .0258490
1093.361 .0258458
1093.946 .0258391
1094.530 .0258295
1095.115 .0258191
1095.700 .0258074
1096.285 .0257957
1096.871 .0257845
1097.456 .0257751
1098.042 .0257675
1098.628 .0257615
1099.215 .0257551
1099.802 .0257479
1100.389 .0257429
1100.976 .0257384
1101.564 .0257324
1102.152 .0257272
1102.740 .0257229
1103.329 .0257208
1103.917 .0257219
1104.507 .0257255
1105.096 .0257301
1105.686 .0257363
1106.276 .0257417
1106.867 .0257467
1107.457 .0257523
1108.049 .0257580
1108.640 .0257635
1109.232 .0257707
1109.825 .0257812
1110.417 .0257925
1111.010 .0258071
1111.604 .0258257
1112.198 .0258493
1112.792 .0258783
1113.387 .0259103
1113.982 .0259447
1114.577 .0259838
1115.173 .0260236
1115.769 .0260605
1116.366 .0260928
1116.963 .0261196
1117.561 .0261381
1118.159 .0261497
1118.758 .0261563
1119.357 .0261607
1119.957 .0261652
1120.557 .0261715
1121.157 .0261795
1121.758 .0261928
1122.360 .0262088
1122.962 .0262268
1123.564 .0262463
1124.167 .0262699
1124.771 .0262940
1125.375 .0263205
1125.980 .0263509
1126.585 .0263837
1127.191 .0264185
1127.797 .0264548
1128.404 .0264901
1129.012 .0265259
1129.620 .0265604
1130.229 .0265970
1130.838 .0266320
1131.448 .0266661
1132.058 .0266951
1132.669 .0267175
1133.281 .0267333
1133.894 .0267393
1134.507 .0267353
1135.120 .0267277
1135.735 .0267171
1136.350 .0267087
1136.965 .0267069
1137.582 .0267163
1138.199 .0267347
1138.816 .0267616
1139.435 .0267905
1140.054 .0268241
1140.674 .0268601
1141.294 .0269005
1141.916 .0269408
1142.538 .0268238
1143.160 .0270154
1143.784 .0271138
1144.408 .0272490
1145.033 .0271974
