Measurement Sequence started on: 14-45-04-498
Integration time: 36
Scans to Average: 2 
>>>>>Begin Spectral Data<<<<<
433.946 .0471484
434.870 .0527016
435.793 .0442849
436.715 .0416872
437.635 .0415425
438.555 .0427461
439.473 .0421030
440.389 .0414594
441.305 .0411250
442.219 .0408481
443.132 .0405665
444.044 .0402926
444.954 .0400785
445.863 .0399249
446.771 .0398399
447.678 .0397953
448.584 .0397905
449.488 .0398045
450.391 .0398154
451.293 .0398136
452.194 .0398046
453.094 .0397900
453.992 .0397717
454.890 .0397496
455.786 .0397365
456.681 .0397237
457.575 .0397177
458.468 .0397117
459.360 .0397049
460.250 .0396934
461.140 .0396708
462.028 .0396338
462.915 .0395793
463.801 .0395065
464.687 .0394195
465.571 .0393229
466.454 .0392245
467.335 .0391272
468.216 .0390378
469.096 .0389610
469.975 .0388931
470.853 .0388316
471.729 .0387709
472.605 .0387077
473.479 .0386382
474.353 .0385609
475.226 .0384756
476.097 .0383880
476.968 .0383005
477.838 .0382150
478.706 .0381358
479.574 .0380650
480.441 .0380029
481.306 .0379496
482.171 .0379014
483.035 .0378548
483.898 .0378087
484.760 .0377655
485.621 .0377241
486.481 .0376853
487.340 .0376508
488.198 .0376193
489.055 .0375926
489.912 .0375643
490.767 .0375346
491.622 .0375026
492.476 .0374676
493.329 .0374278
494.180 .0373820
495.032 .0373326
495.882 .0372808
496.731 .0372292
497.580 .0371784
498.427 .0371270
499.274 .0370780
500.120 .0370279
500.965 .0369785
501.809 .0369295
502.653 .0368807
503.495 .0368304
504.337 .0367814
505.178 .0367280
506.018 .0366705
506.858 .0366086
507.696 .0365427
508.534 .0364735
509.371 .0363972
510.208 .0363161
511.043 .0362316
511.878 .0361488
512.712 .0360690
513.545 .0359931
514.377 .0359325
515.209 .0358842
516.040 .0358523
516.870 .0358373
517.699 .0358393
518.528 .0358557
519.356 .0358903
520.183 .0359410
521.010 .0360056
521.836 .0360855
522.661 .0361764
523.485 .0362747
524.309 .0363774
525.132 .0364778
525.954 .0365649
526.776 .0366342
527.597 .0366816
528.417 .0366893
529.237 .0366676
530.056 .0366136
530.874 .0365323
531.692 .0364289
532.508 .0363163
533.325 .0361979
534.140 .0360743
534.955 .0359575
535.770 .0358449
536.583 .0357388
537.397 .0356407
538.209 .0355479
539.021 .0354622
539.832 .0353834
540.643 .0353098
541.453 .0352359
542.262 .0351734
543.071 .0351144
543.879 .0350531
544.687 .0349938
545.494 .0349385
546.300 .0348874
547.106 .0348354
547.911 .0347870
548.716 .0347416
549.520 .0346925
550.323 .0346402
551.126 .0345858
551.929 .0345325
552.731 .0344762
553.532 .0344190
554.332 .0343634
555.133 .0343114
555.932 .0342612
556.731 .0342158
557.530 .0341746
558.328 .0341434
559.125 .0341144
559.922 .0340881
560.719 .0340651
561.515 .0340455
562.310 .0340217
563.105 .0339944
563.899 .0339646
564.693 .0339341
565.487 .0339018
566.280 .0338728
567.072 .0338480
567.864 .0338311
568.655 .0338153
569.446 .0338054
570.236 .0337962
571.026 .0337874
571.816 .0337748
572.605 .0337570
573.393 .0337331
574.181 .0337071
574.969 .0336767
575.756 .0336465
576.543 .0336156
577.329 .0335884
578.115 .0335607
578.900 .0335343
579.685 .0335088
580.469 .0334839
581.253 .0334603
582.036 .0334385
582.820 .0334141
583.602 .0333921
584.384 .0333700
585.166 .0333479
585.947 .0333249
586.728 .0333020
587.509 .0332776
588.289 .0332521
589.069 .0332264
589.848 .0332016
590.627 .0331767
591.405 .0331534
592.183 .0331317
592.961 .0331123
593.738 .0330952
594.515 .0330781
595.291 .0330607
596.067 .0330441
596.843 .0330273
597.618 .0330091
598.393 .0329898
599.167 .0329705
599.941 .0329511
600.715 .0329313
601.488 .0329135
602.261 .0328966
603.034 .0328815
603.806 .0328680
604.578 .0328555
605.349 .0328436
606.121 .0328325
606.891 .0328214
607.662 .0328101
608.432 .0327992
609.201 .0327881
609.971 .0327762
610.740 .0327652
611.508 .0327546
612.277 .0327448
613.045 .0327358
613.812 .0327272
614.579 .0327178
615.346 .0327080
616.113 .0326968
616.879 .0326846
617.645 .0326717
618.411 .0326578
619.176 .0326429
619.941 .0326270
620.705 .0326110
621.470 .0325950
622.233 .0325797
622.997 .0325653
623.760 .0325515
624.523 .0325390
625.286 .0325273
626.048 .0325161
626.810 .0325064
627.572 .0324975
628.333 .0324893
629.095 .0324811
629.855 .0324729
630.616 .0324652
631.376 .0324576
632.136 .0324502
632.895 .0324432
633.655 .0324363
634.414 .0324289
635.172 .0324202
635.931 .0324103
636.689 .0323989
637.447 .0323853
638.204 .0323696
638.962 .0323517
639.718 .0323320
640.475 .0323106
641.231 .0322879
641.988 .0322643
642.743 .0322411
643.499 .0322174
644.254 .0321940
645.009 .0321707
645.764 .0321481
646.518 .0321263
647.272 .0321055
648.026 .0320860
648.780 .0320672
649.533 .0320493
650.286 .0320327
651.039 .0320165
651.792 .0320015
652.544 .0319871
653.296 .0319740
654.048 .0319625
654.799 .0319524
655.550 .0319435
656.301 .0319353
657.052 .0319276
657.802 .0319203
658.552 .0319125
659.302 .0319043
660.052 .0318953
660.801 .0318860
661.550 .0318766
662.299 .0318672
663.048 .0318576
663.796 .0318486
664.544 .0318401
665.292 .0318319
666.040 .0318232
666.787 .0318139
667.534 .0318043
668.281 .0317933
669.028 .0317804
669.774 .0317656
670.521 .0317488
671.266 .0317307
672.012 .0317114
672.758 .0316919
673.503 .0316725
674.248 .0316537
674.992 .0316362
675.737 .0316192
676.481 .0316030
677.225 .0315869
677.969 .0315706
678.712 .0315543
679.455 .0315379
680.199 .0315215
680.941 .0315055
681.684 .0314910
682.426 .0314782
683.168 .0314667
683.910 .0314566
684.652 .0314477
685.393 .0314394
686.134 .0314316
686.875 .0314240
687.616 .0314158
688.356 .0314081
689.097 .0314004
689.837 .0313923
690.576 .0313842
691.316 .0313761
692.055 .0313676
692.794 .0313586
693.533 .0313491
694.272 .0313392
695.010 .0313287
695.748 .0313184
696.486 .0313076
697.224 .0312965
697.962 .0312850
698.699 .0312732
699.436 .0312608
700.173 .0312483
700.909 .0312355
701.646 .0312227
702.382 .0312100
703.118 .0311977
703.853 .0311859
704.589 .0311746
705.324 .0311642
706.059 .0311548
706.794 .0311461
707.529 .0311381
708.263 .0311307
708.997 .0311235
709.731 .0311160
710.465 .0311081
711.198 .0310986
711.931 .0310874
712.664 .0310749
713.397 .0310610
714.130 .0310459
714.862 .0310307
715.594 .0310155
716.326 .0310007
717.058 .0309868
717.789 .0309737
718.520 .0309608
719.251 .0309480
719.982 .0309346
720.713 .0309203
721.443 .0309054
722.173 .0308902
722.903 .0308750
723.633 .0308606
724.362 .0308474
725.091 .0308347
725.820 .0308227
726.549 .0308114
727.278 .0308001
728.006 .0307880
728.734 .0307746
729.462 .0307595
730.190 .0307427
730.917 .0307249
731.644 .0307060
732.371 .0306867
733.098 .0306681
733.825 .0306502
734.551 .0306335
735.277 .0306181
736.003 .0306042
736.728 .0305913
737.454 .0305794
738.179 .0305681
738.904 .0305571
739.629 .0305467
740.353 .0305367
741.077 .0305274
741.801 .0305194
742.525 .0305123
743.249 .0305063
743.972 .0305012
744.695 .0304972
745.418 .0304937
746.141 .0304903
746.863 .0304868
747.585 .0304827
748.307 .0304777
749.029 .0304715
749.750 .0304637
750.472 .0304549
751.193 .0304450
751.913 .0304338
752.634 .0304219
753.354 .0304091
754.074 .0303958
754.794 .0303817
755.514 .0303670
756.233 .0303519
756.952 .0303358
757.671 .0303194
758.390 .0303025
759.108 .0302855
759.826 .0302689
760.544 .0302525
761.262 .0302371
761.979 .0302229
762.697 .0302098
763.414 .0301976
764.130 .0301863
764.847 .0301759
765.563 .0301660
766.279 .0301567
766.995 .0301478
767.710 .0301390
768.426 .0301304
769.141 .0301217
769.855 .0301125
770.570 .0301032
771.284 .0300938
771.998 .0300839
772.712 .0300741
773.426 .0300643
774.139 .0300549
774.852 .0300461
775.565 .0300377
776.277 .0300296
776.990 .0300217
777.702 .0300133
778.414 .0300043
779.125 .0299947
779.836 .0299847
780.547 .0299744
781.258 .0299646
781.969 .0299549
782.679 .0299456
783.389 .0299364
784.099 .0299269
784.808 .0299170
785.517 .0299066
786.226 .0298951
786.935 .0298827
787.643 .0298695
788.352 .0298565
789.060 .0298430
789.767 .0298297
790.475 .0298166
791.182 .0298032
791.889 .0297899
792.595 .0297763
793.301 .0297622
794.008 .0297482
794.713 .0297342
795.419 .0297203
796.124 .0297067
796.829 .0296935
797.534 .0296805
798.238 .0296677
798.942 .0296550
799.646 .0296424
800.350 .0296296
801.053 .0296171
801.756 .0296047
802.459 .0295922
803.162 .0295798
803.864 .0295671
804.566 .0295544
805.267 .0295416
805.969 .0295287
806.670 .0295157
807.371 .0295030
808.071 .0294912
808.772 .0294802
809.472 .0294692
810.171 .0294591
810.871 .0294491
811.570 .0294391
812.269 .0294288
812.967 .0294185
813.666 .0294082
814.364 .0293983
815.061 .0293892
815.759 .0293810
816.456 .0293731
817.153 .0293656
817.849 .0293575
818.545 .0293489
819.241 .0293391
819.937 .0293279
820.632 .0293152
821.327 .0293016
822.022 .0292873
822.717 .0292725
823.411 .0292581
824.105 .0292445
824.798 .0292313
825.491 .0292184
826.184 .0292054
826.877 .0291926
827.569 .0291793
828.261 .0291656
828.953 .0291514
829.645 .0291369
830.336 .0291223
831.027 .0291078
831.717 .0290939
832.407 .0290807
833.097 .0290689
833.787 .0290580
834.476 .0290479
835.165 .0290385
835.854 .0290295
836.542 .0290207
837.230 .0290117
837.918 .0290026
838.605 .0289932
839.292 .0289839
839.979 .0289750
840.665 .0289663
841.352 .0289583
842.037 .0289509
842.723 .0289439
843.408 .0289371
844.093 .0289302
844.777 .0289224
845.462 .0289136
846.145 .0289035
846.829 .0288921
847.512 .0288794
848.195 .0288656
848.878 .0288512
849.560 .0288362
850.242 .0288205
850.923 .0288043
851.605 .0287876
852.286 .0287708
852.966 .0287536
853.646 .0287361
854.326 .0287187
855.006 .0287015
855.685 .0286843
856.364 .0286674
857.043 .0286507
857.721 .0286346
858.399 .0286180
859.077 .0286012
859.754 .0285838
860.431 .0285660
861.107 .0285479
861.784 .0285295
862.459 .0285113
863.135 .0284933
863.810 .0284751
864.485 .0284572
865.160 .0284395
865.834 .0284224
866.508 .0284055
867.181 .0283894
867.854 .0283741
868.527 .0283601
869.199 .0283466
869.872 .0283342
870.543 .0283224
871.215 .0283114
871.886 .0283003
872.557 .0282893
873.227 .0282785
873.897 .0282676
874.567 .0282564
875.236 .0282460
875.905 .0282360
876.573 .0282263
877.242 .0282160
877.909 .0282057
878.577 .0281948
879.244 .0281831
879.911 .0281702
880.577 .0281570
881.243 .0281438
881.909 .0281310
882.575 .0281189
883.240 .0281079
883.904 .0280981
884.569 .0280897
885.232 .0280819
885.896 .0280746
886.559 .0280674
887.222 .0280601
887.885 .0280527
888.547 .0280454
889.208 .0280382
889.870 .0280314
890.531 .0280254
891.192 .0280200
891.852 .0280148
892.512 .0280093
893.171 .0280038
893.830 .0279980
894.489 .0279919
895.148 .0279856
895.806 .0279792
896.464 .0279731
897.121 .0279678
897.778 .0279629
898.434 .0279583
899.091 .0279537
899.747 .0279491
900.402 .0279439
901.057 .0279381
901.712 .0279312
902.366 .0279230
903.020 .0279145
903.674 .0279056
904.327 .0278966
904.980 .0278877
905.633 .0278794
906.285 .0278716
906.936 .0278642
907.588 .0278570
908.239 .0278498
908.889 .0278425
909.540 .0278348
910.190 .0278266
910.839 .0278177
911.488 .0278080
912.137 .0277975
912.785 .0277864
913.433 .0277748
914.081 .0277625
914.728 .0277502
915.375 .0277374
916.021 .0277241
916.668 .0277102
917.313 .0276952
917.959 .0276794
918.604 .0276625
919.248 .0276446
919.892 .0276256
920.536 .0276065
921.180 .0275873
921.823 .0275683
922.465 .0275501
923.108 .0275328
923.750 .0275159
924.391 .0274996
925.032 .0274836
925.673 .0274676
926.313 .0274518
926.953 .0274364
927.593 .0274209
928.232 .0274054
928.871 .0273898
929.510 .0273739
930.148 .0273570
930.786 .0273396
931.423 .0273211
932.060 .0273021
932.697 .0272825
933.333 .0272625
933.969 .0272419
934.604 .0272215
935.239 .0272011
935.874 .0271802
936.508 .0271590
937.142 .0271373
937.776 .0271149
938.409 .0270919
939.042 .0270689
939.674 .0270458
940.306 .0270232
940.938 .0270019
941.569 .0269814
942.200 .0269619
942.830 .0269431
943.460 .0269246
944.090 .0269066
944.720 .0268890
945.349 .0268714
945.977 .0268543
946.606 .0268378
947.233 .0268219
947.861 .0268063
948.488 .0267908
949.115 .0267756
949.741 .0267599
950.367 .0267438
950.993 .0267268
951.618 .0267096
952.243 .0266926
952.868 .0266754
953.492 .0266585
954.115 .0266419
954.739 .0266255
955.362 .0266091
955.984 .0265930
956.607 .0265772
957.229 .0265619
957.850 .0265476
958.471 .0265342
959.092 .0265219
959.713 .0265108
960.333 .0265005
960.952 .0264910
961.572 .0264823
962.191 .0264740
962.809 .0264658
963.428 .0264585
964.045 .0264514
964.663 .0264453
965.280 .0264398
965.897 .0264351
966.513 .0264309
967.129 .0264271
967.745 .0264231
968.361 .0264188
968.976 .0264141
969.590 .0264096
970.205 .0264050
970.818 .0264011
971.432 .0263980
972.045 .0263962
972.658 .0263955
973.271 .0263958
973.883 .0263966
974.495 .0263977
975.106 .0263984
975.717 .0263986
976.328 .0263983
976.938 .0263979
977.548 .0263976
978.158 .0263977
978.768 .0263981
979.377 .0263991
979.985 .0264001
980.594 .0264006
981.202 .0264007
981.809 .0263999
982.417 .0263984
983.024 .0263962
983.631 .0263935
984.237 .0263909
984.843 .0263886
985.449 .0263867
986.054 .0263851
986.659 .0263837
987.264 .0263829
987.868 .0263824
988.472 .0263829
989.076 .0263843
989.679 .0263869
990.282 .0263907
990.885 .0263950
991.487 .0263998
992.090 .0264046
992.691 .0264090
993.293 .0264128
993.894 .0264156
994.495 .0264179
995.095 .0264197
995.696 .0264220
996.296 .0264242
996.895 .0264267
997.494 .0264289
998.093 .0264303
998.692 .0264305
999.291 .0264290
999.889 .0264254
1000.487 .0264196
1001.084 .0264120
1001.681 .0264027
1002.278 .0263920
1002.875 .0263811
1003.471 .0263703
1004.067 .0263602
1004.663 .0263504
1005.258 .0263411
1005.854 .0263315
1006.449 .0263218
1007.043 .0263120
1007.638 .0263011
1008.232 .0262899
1008.826 .0262785
1009.419 .0262670
1010.012 .0262562
1010.605 .0262468
1011.198 .0262394
1011.791 .0262341
1012.383 .0262315
1012.975 .0262299
1013.566 .0262291
1014.158 .0262289
1014.749 .0262281
1015.340 .0262256
1015.931 .0262215
1016.521 .0262159
1017.111 .0262092
1017.701 .0262024
1018.291 .0261963
1018.880 .0261909
1019.470 .0261874
1020.059 .0261846
1020.647 .0261818
1021.236 .0261785
1021.824 .0261744
1022.412 .0261686
1023.000 .0261613
1023.588 .0261533
1024.175 .0261449
1024.762 .0261365
1025.349 .0261292
1025.936 .0261235
1026.523 .0261198
1027.109 .0261171
1027.695 .0261153
1028.281 .0261131
1028.867 .0261108
1029.452 .0261073
1030.038 .0261037
1030.623 .0260997
1031.208 .0260961
1031.792 .0260926
1032.377 .0260896
1032.961 .0260874
1033.546 .0260860
1034.130 .0260850
1034.714 .0260845
1035.297 .0260844
1035.881 .0260836
1036.464 .0260821
1037.047 .0260810
1037.630 .0260792
1038.213 .0260772
1038.796 .0260742
1039.378 .0260706
1039.961 .0260656
1040.543 .0260600
1041.125 .0260534
1041.707 .0260462
1042.289 .0260391
1042.871 .0260313
1043.452 .0260225
1044.034 .0260134
1044.615 .0260035
1045.196 .0259926
1045.777 .0259818
1046.358 .0259710
1046.939 .0259593
1047.520 .0259474
1048.101 .0259359
1048.681 .0259249
1049.262 .0259154
1049.842 .0259075
1050.422 .0259016
1051.002 .0258982
1051.582 .0258972
1052.162 .0258983
1052.742 .0259023
1053.322 .0259073
1053.902 .0259137
1054.482 .0259203
1055.061 .0259275
1055.641 .0259340
1056.220 .0259409
1056.800 .0259481
1057.379 .0259560
1057.958 .0259646
1058.538 .0259730
1059.117 .0259812
1059.696 .0259894
1060.275 .0259967
1060.854 .0260023
1061.433 .0260056
1062.012 .0260068
1062.592 .0260058
1063.171 .0260040
1063.750 .0260000
1064.329 .0259953
1064.908 .0259894
1065.487 .0259828
1066.066 .0259748
1066.645 .0259654
1067.224 .0259548
1067.803 .0259433
1068.382 .0259311
1068.961 .0259184
1069.540 .0259063
1070.119 .0258947
1070.698 .0258843
1071.278 .0258768
1071.857 .0258710
1072.436 .0258679
1073.016 .0258667
1073.595 .0258686
1074.175 .0258725
1074.754 .0258792
1075.334 .0258879
1075.913 .0258983
1076.493 .0259118
1077.073 .0259274
1077.653 .0259437
1078.233 .0259617
1078.813 .0259785
1079.393 .0259936
1079.974 .0260061
1080.554 .0260163
1081.135 .0260226
1081.716 .0260270
1082.296 .0260297
1082.877 .0260315
1083.458 .0260322
1084.040 .0260320
1084.621 .0260295
1085.202 .0260259
1085.784 .0260209
1086.366 .0260143
1086.948 .0260063
1087.530 .0259997
1088.112 .0259946
1088.695 .0259926
1089.277 .0259939
1089.860 .0259973
1090.443 .0260011
1091.026 .0260058
1091.610 .0260090
1092.193 .0260102
1092.777 .0260102
1093.361 .0260109
1093.946 .0260129
1094.530 .0260179
1095.115 .0260253
1095.700 .0260348
1096.285 .0260450
1096.871 .0260554
1097.456 .0260616
1098.042 .0260645
1098.628 .0260631
1099.215 .0260581
1099.802 .0260525
1100.389 .0260483
1100.976 .0260444
1101.564 .0260421
1102.152 .0260403
1102.740 .0260390
1103.329 .0260353
1103.917 .0260285
1104.507 .0260184
1105.096 .0260060
1105.686 .0259927
1106.276 .0259790
1106.867 .0259675
1107.457 .0259610
1108.049 .0259581
1108.640 .0259596
1109.232 .0259635
1109.825 .0259681
1110.417 .0259723
1111.010 .0259750
1111.604 .0259762
1112.198 .0259770
1112.792 .0259781
1113.387 .0259818
1113.982 .0259919
1114.577 .0260092
1115.173 .0260315
1115.769 .0260562
1116.366 .0260829
1116.963 .0261075
1117.561 .0261289
1118.159 .0261464
1118.758 .0261588
1119.357 .0261686
1119.957 .0261773
1120.557 .0261873
1121.157 .0261988
1121.758 .0262131
1122.360 .0262309
1122.962 .0262495
1123.564 .0262671
1124.167 .0262834
1124.771 .0262974
1125.375 .0263106
1125.980 .0263245
1126.585 .0263391
1127.191 .0263554
1127.797 .0263741
1128.404 .0263936
1129.012 .0264160
1129.620 .0264401
1130.229 .0264641
1130.838 .0264850
1131.448 .0265047
1132.058 .0265213
1132.669 .0265332
1133.281 .0265412
1133.894 .0265442
1134.507 .0265459
1135.120 .0265471
1135.735 .0265462
1136.350 .0265476
1136.965 .0265553
1137.582 .0265677
1138.199 .0265885
1138.816 .0266109
1139.435 .0266413
1140.054 .0266821
1140.674 .0267336
1141.294 .0267994
1141.916 .0268716
1142.538 .0268748
1143.160 .0270848
1143.784 .0271908
1144.408 .0273734
1145.033 .0272671
