Measurement Sequence started on: 14-45-04-498
Integration time: 36
Scans to Average: 2 
>>>>>Begin Spectral Data<<<<<
433.946 .0605618
434.870 .0425841
435.793 .0390793
436.715 .0362997
437.635 .0378343
438.555 .0396694
439.473 .0389304
440.389 .0389140
441.305 .0390131
442.219 .0391369
443.132 .0391933
444.044 .0392072
444.954 .0392431
445.863 .0392653
446.771 .0392643
447.678 .0392433
448.584 .0391801
449.488 .0390763
450.391 .0389326
451.293 .0387501
452.194 .0385569
453.094 .0383538
453.992 .0381664
454.890 .0380008
455.786 .0378672
456.681 .0377447
457.575 .0376421
458.468 .0375521
459.360 .0374748
460.250 .0374023
461.140 .0373352
462.028 .0372697
462.915 .0372078
463.801 .0371518
464.687 .0371030
465.571 .0370643
466.454 .0370322
467.335 .0370030
468.216 .0369729
469.096 .0369308
469.975 .0368792
470.853 .0368131
471.729 .0367326
472.605 .0366395
473.479 .0365409
474.353 .0364404
475.226 .0363439
476.097 .0362562
476.968 .0361749
477.838 .0361054
478.706 .0360454
479.574 .0359888
480.441 .0359396
481.306 .0358992
482.171 .0358617
483.035 .0358270
483.898 .0357979
484.760 .0357729
485.621 .0357538
486.481 .0357430
487.340 .0357324
488.198 .0357251
489.055 .0357184
489.912 .0357107
490.767 .0357005
491.622 .0356943
492.476 .0356868
493.329 .0356820
494.180 .0356799
495.032 .0356768
495.882 .0356675
496.731 .0356537
497.580 .0356326
498.427 .0355999
499.274 .0355521
500.120 .0354980
500.965 .0354340
501.809 .0353741
502.653 .0353155
503.495 .0352641
504.337 .0352164
505.178 .0351749
506.018 .0351354
506.858 .0350880
507.696 .0350318
508.534 .0349697
509.371 .0348970
510.208 .0348229
511.043 .0347515
511.878 .0346896
512.712 .0346456
513.545 .0346244
514.377 .0346154
515.209 .0346187
516.040 .0346319
516.870 .0346502
517.699 .0346654
518.528 .0346773
519.356 .0346812
520.183 .0346692
521.010 .0346594
521.836 .0346441
522.661 .0346235
523.485 .0346063
524.309 .0345926
525.132 .0345830
525.954 .0345759
526.776 .0345713
527.597 .0345716
528.417 .0345671
529.237 .0345609
530.056 .0345340
530.874 .0344912
531.692 .0344335
532.508 .0343573
533.325 .0342732
534.140 .0341840
534.955 .0340921
535.770 .0340058
536.583 .0339249
537.397 .0338606
538.209 .0338032
539.021 .0337545
539.832 .0337102
540.643 .0336632
541.453 .0336117
542.262 .0335518
543.071 .0334906
543.879 .0334307
544.687 .0333722
545.494 .0333163
546.300 .0332656
547.106 .0332187
547.911 .0331782
548.716 .0331434
549.520 .0331090
550.323 .0330730
551.126 .0330267
551.929 .0329763
552.731 .0329173
553.532 .0328495
554.332 .0327840
555.133 .0327151
555.932 .0326499
556.731 .0325865
557.530 .0325297
558.328 .0324831
559.125 .0324427
559.922 .0324118
560.719 .0323834
561.515 .0323565
562.310 .0323279
563.105 .0322978
563.899 .0322697
564.693 .0322420
565.487 .0322139
566.280 .0321844
567.072 .0321547
567.864 .0321243
568.655 .0320932
569.446 .0320629
570.236 .0320320
571.026 .0319999
571.816 .0319602
572.605 .0319190
573.393 .0318752
574.181 .0318279
574.969 .0317778
575.756 .0317254
576.543 .0316700
577.329 .0316122
578.115 .0315539
578.900 .0314983
579.685 .0314467
580.469 .0314013
581.253 .0313604
582.036 .0313242
582.820 .0312927
583.602 .0312642
584.384 .0312389
585.166 .0312183
585.947 .0312003
586.728 .0311844
587.509 .0311729
588.289 .0311654
589.069 .0311614
589.848 .0311585
590.627 .0311557
591.405 .0311516
592.183 .0311451
592.961 .0311357
593.738 .0311249
594.515 .0311128
595.291 .0311013
596.067 .0310905
596.843 .0310808
597.618 .0310711
598.393 .0310617
599.167 .0310515
599.941 .0310394
600.715 .0310252
601.488 .0310087
602.261 .0309898
603.034 .0309714
603.806 .0309532
604.578 .0309355
605.349 .0309186
606.121 .0309033
606.891 .0308885
607.662 .0308730
608.432 .0308562
609.201 .0308372
609.971 .0308159
610.740 .0307927
611.508 .0307675
612.277 .0307408
613.045 .0307146
613.812 .0306893
614.579 .0306657
615.346 .0306437
616.113 .0306230
616.879 .0306035
617.645 .0305858
618.411 .0305688
619.176 .0305513
619.941 .0305334
620.705 .0305160
621.470 .0304981
622.233 .0304794
622.997 .0304598
623.760 .0304401
624.523 .0304194
625.286 .0303976
626.048 .0303739
626.810 .0303486
627.572 .0303216
628.333 .0302939
629.095 .0302650
629.855 .0302351
630.616 .0302047
631.376 .0301740
632.136 .0301427
632.895 .0301119
633.655 .0300818
634.414 .0300527
635.172 .0300264
635.931 .0300040
636.689 .0299841
637.447 .0299683
638.204 .0299562
638.962 .0299473
639.718 .0299402
640.475 .0299345
641.231 .0299283
641.988 .0299213
642.743 .0299140
643.499 .0299057
644.254 .0298968
645.009 .0298887
645.764 .0298809
646.518 .0298735
647.272 .0298667
648.026 .0298599
648.780 .0298520
649.533 .0298431
650.286 .0298330
651.039 .0298212
651.792 .0298080
652.544 .0297948
653.296 .0297813
654.048 .0297686
654.799 .0297571
655.550 .0297459
656.301 .0297344
657.052 .0297225
657.802 .0297097
658.552 .0296949
659.302 .0296789
660.052 .0296617
660.801 .0296429
661.550 .0296240
662.299 .0296050
663.048 .0295852
663.796 .0295667
664.544 .0295484
665.292 .0295303
666.040 .0295125
666.787 .0294954
667.534 .0294780
668.281 .0294603
669.028 .0294428
669.774 .0294251
670.521 .0294066
671.266 .0293881
672.012 .0293689
672.758 .0293500
673.503 .0293305
674.248 .0293105
674.992 .0292900
675.737 .0292696
676.481 .0292488
677.225 .0292276
677.969 .0292058
678.712 .0291841
679.455 .0291622
680.199 .0291404
680.941 .0291192
681.684 .0290991
682.426 .0290798
683.168 .0290621
683.910 .0290457
684.652 .0290305
685.393 .0290161
686.134 .0290033
686.875 .0289917
687.616 .0289811
688.356 .0289715
689.097 .0289627
689.837 .0289544
690.576 .0289462
691.316 .0289370
692.055 .0289271
692.794 .0289165
693.533 .0289055
694.272 .0288946
695.010 .0288850
695.748 .0288767
696.486 .0288699
697.224 .0288644
697.962 .0288591
698.699 .0288532
699.436 .0288460
700.173 .0288375
700.909 .0288273
701.646 .0288158
702.382 .0288040
703.118 .0287926
703.853 .0287824
704.589 .0287728
705.324 .0287640
706.059 .0287558
706.794 .0287469
707.529 .0287372
708.263 .0287263
708.997 .0287149
709.731 .0287028
710.465 .0286906
711.198 .0286794
711.931 .0286693
712.664 .0286600
713.397 .0286516
714.130 .0286433
714.862 .0286351
715.594 .0286258
716.326 .0286162
717.058 .0286067
717.789 .0285980
718.520 .0285899
719.251 .0285827
719.982 .0285762
720.713 .0285703
721.443 .0285640
722.173 .0285564
722.903 .0285480
723.633 .0285383
724.362 .0285271
725.091 .0285143
725.820 .0285007
726.549 .0284864
727.278 .0284708
728.006 .0284546
728.734 .0284366
729.462 .0284167
730.190 .0283958
730.917 .0283731
731.644 .0283497
732.371 .0283258
733.098 .0283019
733.825 .0282780
734.551 .0282551
735.277 .0282337
736.003 .0282128
736.728 .0281933
737.454 .0281752
738.179 .0281580
738.904 .0281421
739.629 .0281281
740.353 .0281159
741.077 .0281064
741.801 .0280996
742.525 .0280947
743.249 .0280912
743.972 .0280888
744.695 .0280869
745.418 .0280844
746.141 .0280811
746.863 .0280773
747.585 .0280721
748.307 .0280666
749.029 .0280603
749.750 .0280539
750.472 .0280476
751.193 .0280416
751.913 .0280351
752.634 .0280279
753.354 .0280198
754.074 .0280105
754.794 .0280000
755.514 .0279890
756.233 .0279774
756.952 .0279655
757.671 .0279541
758.390 .0279437
759.108 .0279342
759.826 .0279261
760.544 .0279190
761.262 .0279124
761.979 .0279063
762.697 .0279002
763.414 .0278935
764.130 .0278868
764.847 .0278801
765.563 .0278727
766.279 .0278648
766.995 .0278562
767.710 .0278477
768.426 .0278392
769.141 .0278313
769.855 .0278241
770.570 .0278180
771.284 .0278130
771.998 .0278087
772.712 .0278046
773.426 .0278012
774.139 .0277977
774.852 .0277943
775.565 .0277909
776.277 .0277879
776.990 .0277850
777.702 .0277830
778.414 .0277819
779.125 .0277812
779.836 .0277803
780.547 .0277795
781.258 .0277778
781.969 .0277753
782.679 .0277713
783.389 .0277660
784.099 .0277600
784.808 .0277537
785.517 .0277472
786.226 .0277409
786.935 .0277351
787.643 .0277300
788.352 .0277251
789.060 .0277203
789.767 .0277153
790.475 .0277097
791.182 .0277038
791.889 .0276975
792.595 .0276905
793.301 .0276830
794.008 .0276751
794.713 .0276672
795.419 .0276589
796.124 .0276499
796.829 .0276404
797.534 .0276304
798.238 .0276198
798.942 .0276080
799.646 .0275958
800.350 .0275831
801.053 .0275704
801.756 .0275583
802.459 .0275465
803.162 .0275352
803.864 .0275246
804.566 .0275140
805.267 .0275027
805.969 .0274903
806.670 .0274763
807.371 .0274606
808.071 .0274442
808.772 .0274268
809.472 .0274084
810.171 .0273900
810.871 .0273720
811.570 .0273535
812.269 .0273351
812.967 .0273164
813.666 .0272968
814.364 .0272771
815.061 .0272568
815.759 .0272365
816.456 .0272169
817.153 .0271986
817.849 .0271810
818.545 .0271645
819.241 .0271495
819.937 .0271351
820.632 .0271217
821.327 .0271092
822.022 .0270974
822.717 .0270864
823.411 .0270760
824.105 .0270670
824.798 .0270591
825.491 .0270522
826.184 .0270458
826.877 .0270401
827.569 .0270343
828.261 .0270285
828.953 .0270225
829.645 .0270169
830.336 .0270124
831.027 .0270087
831.717 .0270058
832.407 .0270042
833.097 .0270038
833.787 .0270039
834.476 .0270038
835.165 .0270041
835.854 .0270032
836.542 .0270016
837.230 .0269989
837.918 .0269952
838.605 .0269911
839.292 .0269864
839.979 .0269812
840.665 .0269763
841.352 .0269714
842.037 .0269665
842.723 .0269614
843.408 .0269568
844.093 .0269518
844.777 .0269462
845.462 .0269405
846.145 .0269346
846.829 .0269285
847.512 .0269221
848.195 .0269157
848.878 .0269097
849.560 .0269040
850.242 .0268987
850.923 .0268937
851.605 .0268888
852.286 .0268842
852.966 .0268796
853.646 .0268744
854.326 .0268688
855.006 .0268620
855.685 .0268539
856.364 .0268450
857.043 .0268352
857.721 .0268245
858.399 .0268134
859.077 .0268026
859.754 .0267919
860.431 .0267814
861.107 .0267718
861.784 .0267626
862.459 .0267539
863.135 .0267453
863.810 .0267360
864.485 .0267266
865.160 .0267173
865.834 .0267082
866.508 .0266996
867.181 .0266916
867.854 .0266842
868.527 .0266772
869.199 .0266703
869.872 .0266632
870.543 .0266553
871.215 .0266464
871.886 .0266359
872.557 .0266237
873.227 .0266102
873.897 .0265955
874.567 .0265803
875.236 .0265645
875.905 .0265483
876.573 .0265321
877.242 .0265158
877.909 .0264995
878.577 .0264836
879.244 .0264673
879.911 .0264511
880.577 .0264347
881.243 .0264182
881.909 .0264015
882.575 .0263849
883.240 .0263690
883.904 .0263536
884.569 .0263388
885.232 .0263241
885.896 .0263092
886.559 .0262945
887.222 .0262795
887.885 .0262638
888.547 .0262476
889.208 .0262311
889.870 .0262147
890.531 .0261984
891.192 .0261827
891.852 .0261681
892.512 .0261545
893.171 .0261420
893.830 .0261307
894.489 .0261196
895.148 .0261092
895.806 .0260994
896.464 .0260904
897.121 .0260816
897.778 .0260734
898.434 .0260654
899.091 .0260575
899.747 .0260498
900.402 .0260416
901.057 .0260327
901.712 .0260236
902.366 .0260143
903.020 .0260043
903.674 .0259943
904.327 .0259848
904.980 .0259750
905.633 .0259651
906.285 .0259545
906.936 .0259433
907.588 .0259312
908.239 .0259189
908.889 .0259062
909.540 .0258939
910.190 .0258822
910.839 .0258706
911.488 .0258594
912.137 .0258484
912.785 .0258372
913.433 .0258251
914.081 .0258123
914.728 .0257994
915.375 .0257863
916.021 .0257734
916.668 .0257614
917.313 .0257508
917.959 .0257411
918.604 .0257324
919.248 .0257249
919.892 .0257180
920.536 .0257121
921.180 .0257066
921.823 .0257021
922.465 .0256977
923.108 .0256939
923.750 .0256899
924.391 .0256854
925.032 .0256805
925.673 .0256745
926.313 .0256673
926.953 .0256599
927.593 .0256518
928.232 .0256441
928.871 .0256367
929.510 .0256304
930.148 .0256244
930.786 .0256183
931.423 .0256118
932.060 .0256046
932.697 .0255964
933.333 .0255880
933.969 .0255791
934.604 .0255706
935.239 .0255630
935.874 .0255567
936.508 .0255516
937.142 .0255478
937.776 .0255443
938.409 .0255406
939.042 .0255356
939.674 .0255287
940.306 .0255195
940.938 .0255087
941.569 .0254964
942.200 .0254826
942.830 .0254679
943.460 .0254526
944.090 .0254370
944.720 .0254215
945.349 .0254061
945.977 .0253907
946.606 .0253751
947.233 .0253589
947.861 .0253419
948.488 .0253237
949.115 .0253052
949.741 .0252863
950.367 .0252675
950.993 .0252484
951.618 .0252301
952.243 .0252133
952.868 .0251986
953.492 .0251856
954.115 .0251739
954.739 .0251630
955.362 .0251523
955.984 .0251410
956.607 .0251295
957.229 .0251182
957.850 .0251075
958.471 .0250972
959.092 .0250880
959.713 .0250798
960.333 .0250728
960.952 .0250666
961.572 .0250611
962.191 .0250549
962.809 .0250479
963.428 .0250392
964.045 .0250299
964.663 .0250202
965.280 .0250107
965.897 .0250020
966.513 .0249943
967.129 .0249872
967.745 .0249800
968.361 .0249726
968.976 .0249645
969.590 .0249553
970.205 .0249455
970.818 .0249352
971.432 .0249256
972.045 .0249177
972.658 .0249120
973.271 .0249085
973.883 .0249071
974.495 .0249059
975.106 .0249046
975.717 .0249024
976.328 .0248974
976.938 .0248904
977.548 .0248815
978.158 .0248711
978.768 .0248594
979.377 .0248474
979.985 .0248352
980.594 .0248230
981.202 .0248107
981.809 .0247976
982.417 .0247844
983.024 .0247709
983.631 .0247563
984.237 .0247404
984.843 .0247242
985.449 .0247066
986.054 .0246878
986.659 .0246692
987.264 .0246509
987.868 .0246337
988.472 .0246183
989.076 .0246055
989.679 .0245958
990.282 .0245888
990.885 .0245841
991.487 .0245797
992.090 .0245754
992.691 .0245690
993.293 .0245606
993.894 .0245505
994.495 .0245397
995.095 .0245283
995.696 .0245181
996.296 .0245095
996.895 .0245023
997.494 .0244967
998.093 .0244925
998.692 .0244885
999.291 .0244840
999.889 .0244777
1000.487 .0244699
1001.084 .0244609
1001.681 .0244514
1002.278 .0244414
1002.875 .0244318
1003.471 .0244231
1004.067 .0244150
1004.663 .0244083
1005.258 .0244036
1005.854 .0244005
1006.449 .0243981
1007.043 .0243968
1007.638 .0243953
1008.232 .0243930
1008.826 .0243899
1009.419 .0243853
1010.012 .0243791
1010.605 .0243720
1011.198 .0243630
1011.791 .0243536
1012.383 .0243446
1012.975 .0243364
1013.566 .0243294
1014.158 .0243238
1014.749 .0243190
1015.340 .0243138
1015.931 .0243091
1016.521 .0243045
1017.111 .0242996
1017.701 .0242954
1018.291 .0242915
1018.880 .0242879
1019.470 .0242860
1020.059 .0242856
1020.647 .0242868
1021.236 .0242899
1021.824 .0242943
1022.412 .0242990
1023.000 .0243041
1023.588 .0243085
1024.175 .0243125
1024.762 .0243155
1025.349 .0243180
1025.936 .0243190
1026.523 .0243199
1027.109 .0243213
1027.695 .0243227
1028.281 .0243249
1028.867 .0243280
1029.452 .0243310
1030.038 .0243336
1030.623 .0243353
1031.208 .0243364
1031.792 .0243370
1032.377 .0243378
1032.961 .0243385
1033.546 .0243403
1034.130 .0243442
1034.714 .0243498
1035.297 .0243571
1035.881 .0243652
1036.464 .0243740
1037.047 .0243825
1037.630 .0243907
1038.213 .0243992
1038.796 .0244083
1039.378 .0244186
1039.961 .0244308
1040.543 .0244439
1041.125 .0244576
1041.707 .0244710
1042.289 .0244828
1042.871 .0244927
1043.452 .0244999
1044.034 .0245042
1044.615 .0245063
1045.196 .0245073
1045.777 .0245088
1046.358 .0245108
1046.939 .0245135
1047.520 .0245166
1048.101 .0245189
1048.681 .0245203
1049.262 .0245193
1049.842 .0245166
1050.422 .0245131
1051.002 .0245099
1051.582 .0245074
1052.162 .0245068
1052.742 .0245095
1053.322 .0245142
1053.902 .0245198
1054.482 .0245263
1055.061 .0245320
1055.641 .0245361
1056.220 .0245373
1056.800 .0245370
1057.379 .0245357
1057.958 .0245339
1058.538 .0245318
1059.117 .0245302
1059.696 .0245306
1060.275 .0245324
1060.854 .0245345
1061.433 .0245370
1062.012 .0245402
1062.592 .0245437
1063.171 .0245469
1063.750 .0245504
1064.329 .0245549
1064.908 .0245596
1065.487 .0245643
1066.066 .0245697
1066.645 .0245748
1067.224 .0245800
1067.803 .0245855
1068.382 .0245903
1068.961 .0245970
1069.540 .0246039
1070.119 .0246109
1070.698 .0246181
1071.278 .0246250
1071.857 .0246315
1072.436 .0246348
1073.016 .0246383
1073.595 .0246413
1074.175 .0246435
1074.754 .0246470
1075.334 .0246513
1075.913 .0246577
1076.493 .0246651
1077.073 .0246724
1077.653 .0246797
1078.233 .0246871
1078.813 .0246923
1079.393 .0246945
1079.974 .0246952
1080.554 .0246954
1081.135 .0246941
1081.716 .0246921
1082.296 .0246912
1082.877 .0246899
1083.458 .0246877
1084.040 .0246841
1084.621 .0246775
1085.202 .0246696
1085.784 .0246587
1086.366 .0246465
1086.948 .0246345
1087.530 .0246235
1088.112 .0246148
1088.695 .0246100
1089.277 .0246079
1089.860 .0246055
1090.443 .0246017
1091.026 .0245963
1091.610 .0245882
1092.193 .0245761
1092.777 .0245609
1093.361 .0245435
1093.946 .0245273
1094.530 .0245109
1095.115 .0244942
1095.700 .0244797
1096.285 .0244671
1096.871 .0244537
1097.456 .0244406
1098.042 .0244263
1098.628 .0244107
1099.215 .0243935
1099.802 .0243772
1100.389 .0243592
1100.976 .0243430
1101.564 .0243280
1102.152 .0243159
1102.740 .0243062
1103.329 .0243002
1103.917 .0242954
1104.507 .0242932
1105.096 .0242930
1105.686 .0242931
1106.276 .0242916
1106.867 .0242898
1107.457 .0242839
1108.049 .0242768
1108.640 .0242672
1109.232 .0242561
1109.825 .0242444
1110.417 .0242357
1111.010 .0242289
1111.604 .0242249
1112.198 .0242253
1112.792 .0242305
1113.387 .0242401
1113.982 .0242533
1114.577 .0242693
1115.173 .0242892
1115.769 .0243090
1116.366 .0243300
1116.963 .0243512
1117.561 .0243751
1118.159 .0243988
1118.758 .0244218
1119.357 .0244465
1119.957 .0244717
1120.557 .0244946
1121.157 .0245148
1121.758 .0245313
1122.360 .0245451
1122.962 .0245505
1123.564 .0245490
1124.167 .0245414
1124.771 .0245306
1125.375 .0245150
1125.980 .0244996
1126.585 .0244850
1127.191 .0244782
1127.797 .0244802
1128.404 .0244924
1129.012 .0245180
1129.620 .0245590
1130.229 .0246092
1130.838 .0246669
1131.448 .0247246
1132.058 .0247827
1132.669 .0248324
1133.281 .0248824
1133.894 .0249287
1134.507 .0249723
1135.120 .0250210
1135.735 .0250735
1136.350 .0251317
1136.965 .0251953
1137.582 .0252560
1138.199 .0253120
1138.816 .0253501
1139.435 .0253774
1140.054 .0253973
1140.674 .0254106
1141.294 .0254360
1141.916 .0254731
1142.538 .0253298
1143.160 .0256443
1143.784 .0255959
1144.408 .0259217
1145.033 .0259607
