Measurement Sequence started on: 14-45-04-498
Integration time: 36
Scans to Average: 2 
>>>>>Begin Spectral Data<<<<<
433.946 .0527446
434.870 .0534045
435.793 .0478979
436.715 .0510172
437.635 .0503897
438.555 .0504478
439.473 .0502894
440.389 .0501519
441.305 .0501535
442.219 .0500471
443.132 .0499583
444.044 .0498708
444.954 .0497834
445.863 .0497015
446.771 .0496137
447.678 .0495158
448.584 .0494268
449.488 .0493402
450.391 .0492545
451.293 .0491650
452.194 .0490817
453.094 .0489876
453.992 .0488760
454.890 .0487535
455.786 .0486240
456.681 .0484844
457.575 .0483491
458.468 .0482204
459.360 .0481035
460.250 .0480039
461.140 .0479256
462.028 .0478555
462.915 .0477966
463.801 .0477375
464.687 .0476786
465.571 .0476215
466.454 .0475711
467.335 .0475266
468.216 .0474949
469.096 .0474767
469.975 .0474676
470.853 .0474607
471.729 .0474588
472.605 .0474466
473.479 .0474235
474.353 .0473847
475.226 .0473291
476.097 .0472601
476.968 .0471826
477.838 .0470978
478.706 .0470108
479.574 .0469229
480.441 .0468352
481.306 .0467436
482.171 .0466524
483.035 .0465570
483.898 .0464597
484.760 .0463619
485.621 .0462698
486.481 .0461823
487.340 .0461066
488.198 .0460428
489.055 .0459910
489.912 .0459486
490.767 .0459151
491.622 .0458884
492.476 .0458689
493.329 .0458528
494.180 .0458412
495.032 .0458317
495.882 .0458280
496.731 .0458273
497.580 .0458300
498.427 .0458365
499.274 .0458434
500.120 .0458463
500.965 .0458392
501.809 .0458226
502.653 .0457951
503.495 .0457575
504.337 .0457103
505.178 .0456539
506.018 .0455929
506.858 .0455294
507.696 .0454709
508.534 .0454162
509.371 .0453661
510.208 .0453254
511.043 .0452846
511.878 .0452477
512.712 .0452092
513.545 .0451740
514.377 .0451463
515.209 .0451282
516.040 .0451240
516.870 .0451360
517.699 .0451718
518.528 .0452291
519.356 .0453029
520.183 .0453913
521.010 .0454875
521.836 .0455817
522.661 .0456658
523.485 .0457318
524.309 .0457793
525.132 .0458107
525.954 .0458233
526.776 .0458240
527.597 .0458128
528.417 .0457889
529.237 .0457620
530.056 .0457302
530.874 .0456897
531.692 .0456426
532.508 .0455915
533.325 .0455337
534.140 .0454650
534.955 .0453885
535.770 .0452987
536.583 .0452019
537.397 .0451080
538.209 .0450056
539.021 .0449037
539.832 .0448099
540.643 .0447176
541.453 .0446315
542.262 .0445524
543.071 .0444784
543.879 .0444032
544.687 .0443308
545.494 .0442500
546.300 .0441588
547.106 .0440677
547.911 .0439751
548.716 .0438856
549.520 .0438016
550.323 .0437258
551.126 .0436596
551.929 .0436051
552.731 .0435551
553.532 .0435021
554.332 .0434532
555.133 .0433989
555.932 .0433379
556.731 .0432754
557.530 .0432176
558.328 .0431661
559.125 .0431268
559.922 .0431005
560.719 .0430818
561.515 .0430714
562.310 .0430607
563.105 .0430456
563.899 .0430237
564.693 .0429958
565.487 .0429589
566.280 .0429168
567.072 .0428767
567.864 .0428345
568.655 .0427948
569.446 .0427585
570.236 .0427217
571.026 .0426803
571.816 .0426305
572.605 .0425722
573.393 .0425047
574.181 .0424315
574.969 .0423555
575.756 .0422796
576.543 .0422098
577.329 .0421477
578.115 .0420902
578.900 .0420373
579.685 .0419880
580.469 .0419405
581.253 .0418960
582.036 .0418534
582.820 .0418147
583.602 .0417797
584.384 .0417500
585.166 .0417255
585.947 .0417048
586.728 .0416869
587.509 .0416700
588.289 .0416541
589.069 .0416387
589.848 .0416225
590.627 .0416059
591.405 .0415901
592.183 .0415759
592.961 .0415632
593.738 .0415516
594.515 .0415389
595.291 .0415258
596.067 .0415110
596.843 .0414937
597.618 .0414741
598.393 .0414530
599.167 .0414315
599.941 .0414099
600.715 .0413899
601.488 .0413713
602.261 .0413544
603.034 .0413401
603.806 .0413271
604.578 .0413150
605.349 .0413035
606.121 .0412940
606.891 .0412858
607.662 .0412793
608.432 .0412741
609.201 .0412702
609.971 .0412681
610.740 .0412676
611.508 .0412675
612.277 .0412671
613.045 .0412667
613.812 .0412661
614.579 .0412642
615.346 .0412622
616.113 .0412600
616.879 .0412576
617.645 .0412551
618.411 .0412527
619.176 .0412496
619.941 .0412457
620.705 .0412409
621.470 .0412358
622.233 .0412292
622.997 .0412223
623.760 .0412144
624.523 .0412063
625.286 .0411990
626.048 .0411919
626.810 .0411840
627.572 .0411765
628.333 .0411679
629.095 .0411576
629.855 .0411453
630.616 .0411315
631.376 .0411163
632.136 .0411002
632.895 .0410834
633.655 .0410666
634.414 .0410494
635.172 .0410325
635.931 .0410148
636.689 .0409969
637.447 .0409789
638.204 .0409604
638.962 .0409424
639.718 .0409255
640.475 .0409096
641.231 .0408953
641.988 .0408822
642.743 .0408711
643.499 .0408599
644.254 .0408482
645.009 .0408357
645.764 .0408222
646.518 .0408078
647.272 .0407929
648.026 .0407780
648.780 .0407644
649.533 .0407515
650.286 .0407395
651.039 .0407271
651.792 .0407145
652.544 .0407012
653.296 .0406862
654.048 .0406704
654.799 .0406545
655.550 .0406384
656.301 .0406235
657.052 .0406096
657.802 .0405971
658.552 .0405857
659.302 .0405753
660.052 .0405643
660.801 .0405528
661.550 .0405407
662.299 .0405277
663.048 .0405142
663.796 .0405012
664.544 .0404886
665.292 .0404762
666.040 .0404646
666.787 .0404530
667.534 .0404416
668.281 .0404299
669.028 .0404176
669.774 .0404045
670.521 .0403909
671.266 .0403769
672.012 .0403627
672.758 .0403493
673.503 .0403360
674.248 .0403224
674.992 .0403086
675.737 .0402933
676.481 .0402766
677.225 .0402579
677.969 .0402378
678.712 .0402163
679.455 .0401945
680.199 .0401727
680.941 .0401515
681.684 .0401320
682.426 .0401138
683.168 .0400964
683.910 .0400799
684.652 .0400637
685.393 .0400478
686.134 .0400319
686.875 .0400162
687.616 .0400011
688.356 .0399869
689.097 .0399739
689.837 .0399616
690.576 .0399494
691.316 .0399374
692.055 .0399243
692.794 .0399102
693.533 .0398952
694.272 .0398796
695.010 .0398642
695.748 .0398483
696.486 .0398327
697.224 .0398171
697.962 .0398013
698.699 .0397850
699.436 .0397675
700.173 .0397490
700.909 .0397296
701.646 .0397102
702.382 .0396914
703.118 .0396736
703.853 .0396579
704.589 .0396435
705.324 .0396304
706.059 .0396182
706.794 .0396052
707.529 .0395911
708.263 .0395763
708.997 .0395605
709.731 .0395439
710.465 .0395277
711.198 .0395125
711.931 .0394983
712.664 .0394853
713.397 .0394731
714.130 .0394599
714.862 .0394463
715.594 .0394307
716.326 .0394130
717.058 .0393938
717.789 .0393730
718.520 .0393514
719.251 .0393304
719.982 .0393104
720.713 .0392916
721.443 .0392737
722.173 .0392571
722.903 .0392401
723.633 .0392232
724.362 .0392056
725.091 .0391872
725.820 .0391686
726.549 .0391505
727.278 .0391325
728.006 .0391160
728.734 .0391004
729.462 .0390860
730.190 .0390726
730.917 .0390596
731.644 .0390462
732.371 .0390321
733.098 .0390179
733.825 .0390035
734.551 .0389891
735.277 .0389753
736.003 .0389619
736.728 .0389496
737.454 .0389382
738.179 .0389271
738.904 .0389163
739.629 .0389053
740.353 .0388942
741.077 .0388833
741.801 .0388720
742.525 .0388608
743.249 .0388503
743.972 .0388402
744.695 .0388306
745.418 .0388212
746.141 .0388116
746.863 .0388016
747.585 .0387915
748.307 .0387804
749.029 .0387683
749.750 .0387557
750.472 .0387425
751.193 .0387289
751.913 .0387159
752.634 .0387028
753.354 .0386899
754.074 .0386779
754.794 .0386665
755.514 .0386550
756.233 .0386438
756.952 .0386324
757.671 .0386203
758.390 .0386070
759.108 .0385930
759.826 .0385783
760.544 .0385638
761.262 .0385498
761.979 .0385360
762.697 .0385228
763.414 .0385105
764.130 .0384988
764.847 .0384876
765.563 .0384768
766.279 .0384660
766.995 .0384547
767.710 .0384431
768.426 .0384311
769.141 .0384189
769.855 .0384067
770.570 .0383952
771.284 .0383839
771.998 .0383727
772.712 .0383616
773.426 .0383508
774.139 .0383400
774.852 .0383290
775.565 .0383174
776.277 .0383052
776.990 .0382928
777.702 .0382796
778.414 .0382656
779.125 .0382511
779.836 .0382354
780.547 .0382188
781.258 .0382012
781.969 .0381831
782.679 .0381647
783.389 .0381464
784.099 .0381288
784.808 .0381115
785.517 .0380947
786.226 .0380780
786.935 .0380616
787.643 .0380454
788.352 .0380291
789.060 .0380124
789.767 .0379958
790.475 .0379797
791.182 .0379641
791.889 .0379498
792.595 .0379367
793.301 .0379249
794.008 .0379144
794.713 .0379041
795.419 .0378941
796.124 .0378837
796.829 .0378733
797.534 .0378623
798.238 .0378510
798.942 .0378396
799.646 .0378278
800.350 .0378162
801.053 .0378043
801.756 .0377919
802.459 .0377786
803.162 .0377642
803.864 .0377484
804.566 .0377316
805.267 .0377140
805.969 .0376958
806.670 .0376776
807.371 .0376600
808.071 .0376433
808.772 .0376277
809.472 .0376131
810.171 .0375999
810.871 .0375879
811.570 .0375769
812.269 .0375662
812.967 .0375553
813.666 .0375445
814.364 .0375335
815.061 .0375225
815.759 .0375116
816.456 .0375010
817.153 .0374907
817.849 .0374802
818.545 .0374692
819.241 .0374572
819.937 .0374444
820.632 .0374299
821.327 .0374135
822.022 .0373954
822.717 .0373760
823.411 .0373560
824.105 .0373363
824.798 .0373178
825.491 .0373007
826.184 .0372851
826.877 .0372709
827.569 .0372576
828.261 .0372446
828.953 .0372308
829.645 .0372163
830.336 .0372008
831.027 .0371842
831.717 .0371665
832.407 .0371488
833.097 .0371313
833.787 .0371138
834.476 .0370962
835.165 .0370786
835.854 .0370601
836.542 .0370407
837.230 .0370197
837.918 .0369978
838.605 .0369751
839.292 .0369526
839.979 .0369301
840.665 .0369087
841.352 .0368889
842.037 .0368706
842.723 .0368536
843.408 .0368379
844.093 .0368228
844.777 .0368077
845.462 .0367925
846.145 .0367773
846.829 .0367612
847.512 .0367452
848.195 .0367292
848.878 .0367134
849.560 .0366973
850.242 .0366810
850.923 .0366639
851.605 .0366454
852.286 .0366251
852.966 .0366023
853.646 .0365774
854.326 .0365514
855.006 .0365241
855.685 .0364961
856.364 .0364685
857.043 .0364417
857.721 .0364154
858.399 .0363900
859.077 .0363648
859.754 .0363392
860.431 .0363135
861.107 .0362876
861.784 .0362616
862.459 .0362365
863.135 .0362128
863.810 .0361912
864.485 .0361724
865.160 .0361565
865.834 .0361429
866.508 .0361314
867.181 .0361214
867.854 .0361121
868.527 .0361028
869.199 .0360932
869.872 .0360832
870.543 .0360735
871.215 .0360640
871.886 .0360554
872.557 .0360473
873.227 .0360397
873.897 .0360321
874.567 .0360243
875.236 .0360158
875.905 .0360065
876.573 .0359964
877.242 .0359854
877.909 .0359741
878.577 .0359626
879.244 .0359511
879.911 .0359400
880.577 .0359298
881.243 .0359200
881.909 .0359102
882.575 .0359007
883.240 .0358910
883.904 .0358815
884.569 .0358720
885.232 .0358620
885.896 .0358520
886.559 .0358419
887.222 .0358317
887.885 .0358210
888.547 .0358101
889.208 .0357983
889.870 .0357857
890.531 .0357722
891.192 .0357577
891.852 .0357425
892.512 .0357271
893.171 .0357117
893.830 .0356967
894.489 .0356823
895.148 .0356685
895.806 .0356555
896.464 .0356432
897.121 .0356310
897.778 .0356187
898.434 .0356056
899.091 .0355920
899.747 .0355776
900.402 .0355626
901.057 .0355470
901.712 .0355307
902.366 .0355141
903.020 .0354974
903.674 .0354802
904.327 .0354630
904.980 .0354454
905.633 .0354272
906.285 .0354082
906.936 .0353885
907.588 .0353680
908.239 .0353470
908.889 .0353260
909.540 .0353047
910.190 .0352828
910.839 .0352609
911.488 .0352386
912.137 .0352159
912.785 .0351926
913.433 .0351692
914.081 .0351448
914.728 .0351207
915.375 .0350965
916.021 .0350723
916.668 .0350484
917.313 .0350248
917.959 .0350007
918.604 .0349762
919.248 .0349513
919.892 .0349258
920.536 .0349002
921.180 .0348753
921.823 .0348508
922.465 .0348279
923.108 .0348061
923.750 .0347854
924.391 .0347651
925.032 .0347453
925.673 .0347252
926.313 .0347048
926.953 .0346847
927.593 .0346638
928.232 .0346426
928.871 .0346214
929.510 .0346005
930.148 .0345798
930.786 .0345590
931.423 .0345382
932.060 .0345168
932.697 .0344950
933.333 .0344728
933.969 .0344499
934.604 .0344274
935.239 .0344050
935.874 .0343828
936.508 .0343606
937.142 .0343388
937.776 .0343171
938.409 .0342961
939.042 .0342755
939.674 .0342557
940.306 .0342367
940.938 .0342195
941.569 .0342040
942.200 .0341905
942.830 .0341791
943.460 .0341697
944.090 .0341616
944.720 .0341548
945.349 .0341486
945.977 .0341434
946.606 .0341387
947.233 .0341342
947.861 .0341292
948.488 .0341232
949.115 .0341162
949.741 .0341081
950.367 .0340991
950.993 .0340892
951.618 .0340787
952.243 .0340678
952.868 .0340563
953.492 .0340448
954.115 .0340328
954.739 .0340203
955.362 .0340075
955.984 .0339941
956.607 .0339799
957.229 .0339660
957.850 .0339526
958.471 .0339398
959.092 .0339283
959.713 .0339175
960.333 .0339075
960.952 .0338983
961.572 .0338900
962.191 .0338817
962.809 .0338732
963.428 .0338648
964.045 .0338555
964.663 .0338458
965.280 .0338358
965.897 .0338251
966.513 .0338145
967.129 .0338039
967.745 .0337930
968.361 .0337820
968.976 .0337710
969.590 .0337599
970.205 .0337488
970.818 .0337380
971.432 .0337274
972.045 .0337170
972.658 .0337071
973.271 .0336973
973.883 .0336876
974.495 .0336777
975.106 .0336674
975.717 .0336562
976.328 .0336443
976.938 .0336311
977.548 .0336173
978.158 .0336028
978.768 .0335880
979.377 .0335732
979.985 .0335581
980.594 .0335431
981.202 .0335284
981.809 .0335135
982.417 .0334990
983.024 .0334851
983.631 .0334722
984.237 .0334599
984.843 .0334484
985.449 .0334375
986.054 .0334272
986.659 .0334175
987.264 .0334084
987.868 .0333998
988.472 .0333927
989.076 .0333867
989.679 .0333820
990.282 .0333779
990.885 .0333745
991.487 .0333703
992.090 .0333645
992.691 .0333562
993.293 .0333452
993.894 .0333314
994.495 .0333159
995.095 .0332989
995.696 .0332815
996.296 .0332637
996.895 .0332462
997.494 .0332285
998.093 .0332105
998.692 .0331918
999.291 .0331719
999.889 .0331506
1000.487 .0331286
1001.084 .0331057
1001.681 .0330827
1002.278 .0330606
1002.875 .0330398
1003.471 .0330206
1004.067 .0330033
1004.663 .0329873
1005.258 .0329735
1005.854 .0329607
1006.449 .0329488
1007.043 .0329375
1007.638 .0329271
1008.232 .0329175
1008.826 .0329089
1009.419 .0329014
1010.012 .0328958
1010.605 .0328916
1011.198 .0328883
1011.791 .0328850
1012.383 .0328825
1012.975 .0328797
1013.566 .0328756
1014.158 .0328707
1014.749 .0328658
1015.340 .0328602
1015.931 .0328552
1016.521 .0328507
1017.111 .0328470
1017.701 .0328444
1018.291 .0328416
1018.880 .0328372
1019.470 .0328320
1020.059 .0328248
1020.647 .0328158
1021.236 .0328055
1021.824 .0327950
1022.412 .0327843
1023.000 .0327744
1023.588 .0327660
1024.175 .0327589
1024.762 .0327518
1025.349 .0327440
1025.936 .0327347
1026.523 .0327243
1027.109 .0327122
1027.695 .0326990
1028.281 .0326862
1028.867 .0326751
1029.452 .0326663
1030.038 .0326607
1030.623 .0326580
1031.208 .0326591
1031.792 .0326634
1032.377 .0326692
1032.961 .0326761
1033.546 .0326840
1034.130 .0326927
1034.714 .0327025
1035.297 .0327137
1035.881 .0327262
1036.464 .0327408
1037.047 .0327575
1037.630 .0327751
1038.213 .0327930
1038.796 .0328117
1039.378 .0328296
1039.961 .0328454
1040.543 .0328592
1041.125 .0328701
1041.707 .0328780
1042.289 .0328840
1042.871 .0328874
1043.452 .0328902
1044.034 .0328924
1044.615 .0328942
1045.196 .0328959
1045.777 .0328979
1046.358 .0328991
1046.939 .0328992
1047.520 .0328981
1048.101 .0328961
1048.681 .0328926
1049.262 .0328891
1049.842 .0328855
1050.422 .0328832
1051.002 .0328822
1051.582 .0328822
1052.162 .0328828
1052.742 .0328843
1053.322 .0328838
1053.902 .0328814
1054.482 .0328765
1055.061 .0328697
1055.641 .0328612
1056.220 .0328518
1056.800 .0328425
1057.379 .0328348
1057.958 .0328285
1058.538 .0328222
1059.117 .0328159
1059.696 .0328099
1060.275 .0328022
1060.854 .0327933
1061.433 .0327831
1062.012 .0327731
1062.592 .0327651
1063.171 .0327608
1063.750 .0327604
1064.329 .0327639
1064.908 .0327711
1065.487 .0327790
1066.066 .0327866
1066.645 .0327924
1067.224 .0327951
1067.803 .0327945
1068.382 .0327918
1068.961 .0327875
1069.540 .0327816
1070.119 .0327756
1070.698 .0327699
1071.278 .0327640
1071.857 .0327570
1072.436 .0327481
1073.016 .0327377
1073.595 .0327264
1074.175 .0327153
1074.754 .0327039
1075.334 .0326935
1075.913 .0326849
1076.493 .0326782
1077.073 .0326718
1077.653 .0326657
1078.233 .0326599
1078.813 .0326544
1079.393 .0326500
1079.974 .0326487
1080.554 .0326499
1081.135 .0326546
1081.716 .0326612
1082.296 .0326685
1082.877 .0326726
1083.458 .0326728
1084.040 .0326661
1084.621 .0326531
1085.202 .0326361
1085.784 .0326164
1086.366 .0325953
1086.948 .0325774
1087.530 .0325626
1088.112 .0325527
1088.695 .0325435
1089.277 .0325357
1089.860 .0325243
1090.443 .0325095
1091.026 .0324894
1091.610 .0324659
1092.193 .0324406
1092.777 .0324161
1093.361 .0323934
1093.946 .0323745
1094.530 .0323591
1095.115 .0323470
1095.700 .0323364
1096.285 .0323275
1096.871 .0323178
1097.456 .0323078
1098.042 .0322950
1098.628 .0322836
1099.215 .0322723
1099.802 .0322627
1100.389 .0322550
1100.976 .0322498
1101.564 .0322470
1102.152 .0322451
1102.740 .0322444
1103.329 .0322433
1103.917 .0322435
1104.507 .0322450
1105.096 .0322471
1105.686 .0322514
1106.276 .0322564
1106.867 .0322635
1107.457 .0322708
1108.049 .0322785
1108.640 .0322848
1109.232 .0322892
1109.825 .0322921
1110.417 .0322905
1111.010 .0322878
1111.604 .0322833
1112.198 .0322794
1112.792 .0322783
1113.387 .0322812
1113.982 .0322881
1114.577 .0323006
1115.173 .0323174
1115.769 .0323359
1116.366 .0323548
1116.963 .0323728
1117.561 .0323881
1118.159 .0324033
1118.758 .0324181
1119.357 .0324330
1119.957 .0324489
1120.557 .0324700
1121.157 .0324909
1121.758 .0325136
1122.360 .0325374
1122.962 .0325570
1123.564 .0325744
1124.167 .0325875
1124.771 .0325958
1125.375 .0326009
1125.980 .0326057
1126.585 .0326115
1127.191 .0326172
1127.797 .0326296
1128.404 .0326436
1129.012 .0326607
1129.620 .0326846
1130.229 .0327131
1130.838 .0327427
1131.448 .0327733
1132.058 .0328061
1132.669 .0328379
1133.281 .0328732
1133.894 .0329092
1134.507 .0329471
1135.120 .0329914
1135.735 .0330419
1136.350 .0330945
1136.965 .0331504
1137.582 .0332123
1138.199 .0332755
1138.816 .0333388
1139.435 .0334018
1140.054 .0334662
1140.674 .0335311
1141.294 .0335979
1141.916 .0336444
1142.538 .0337094
1143.160 .0338902
1143.784 .0338459
1144.408 .0339648
1145.033 .0334118
