Measurement Sequence started on: 14-45-04-498
Integration time: 36
Scans to Average: 2 
>>>>>Begin Spectral Data<<<<<
433.946 .0440279
434.870 .0484439
435.793 .0434731
436.715 .0419668
437.635 .0413798
438.555 .0415355
439.473 .0410061
440.389 .0404928
441.305 .0402180
442.219 .0400345
443.132 .0399102
444.044 .0398311
444.954 .0398005
445.863 .0398014
446.771 .0398370
447.678 .0398956
448.584 .0399674
449.488 .0400365
450.391 .0400899
451.293 .0401333
452.194 .0401602
453.094 .0401688
453.992 .0401669
454.890 .0401590
455.786 .0401358
456.681 .0401071
457.575 .0400737
458.468 .0400227
459.360 .0399545
460.250 .0398717
461.140 .0397684
462.028 .0396506
462.915 .0395314
463.801 .0394115
464.687 .0392907
465.571 .0391797
466.454 .0390703
467.335 .0389665
468.216 .0388680
469.096 .0387728
469.975 .0386737
470.853 .0385698
471.729 .0384622
472.605 .0383451
473.479 .0382339
474.353 .0381270
475.226 .0380255
476.097 .0379370
476.968 .0378580
477.838 .0377828
478.706 .0377154
479.574 .0376555
480.441 .0376007
481.306 .0375454
482.171 .0374928
483.035 .0374381
483.898 .0373859
484.760 .0373378
485.621 .0372969
486.481 .0372649
487.340 .0372448
488.198 .0372270
489.055 .0372147
489.912 .0372081
490.767 .0372010
491.622 .0371881
492.476 .0371687
493.329 .0371425
494.180 .0371072
495.032 .0370638
495.882 .0370199
496.731 .0369748
497.580 .0369347
498.427 .0368968
499.274 .0368562
500.120 .0368190
500.965 .0367791
501.809 .0367341
502.653 .0366833
503.495 .0366338
504.337 .0365809
505.178 .0365266
506.018 .0364785
506.858 .0364393
507.696 .0364085
508.534 .0363854
509.371 .0363634
510.208 .0363418
511.043 .0363225
511.878 .0362995
512.712 .0362687
513.545 .0362429
514.377 .0362185
515.209 .0361922
516.040 .0361712
516.870 .0361574
517.699 .0361422
518.528 .0361288
519.356 .0361131
520.183 .0360896
521.010 .0360595
521.836 .0360183
522.661 .0359724
523.485 .0359264
524.309 .0358873
525.132 .0358486
525.954 .0358207
526.776 .0358114
527.597 .0358123
528.417 .0358209
529.237 .0358343
530.056 .0358440
530.874 .0358458
531.692 .0358269
532.508 .0357889
533.325 .0357345
534.140 .0356680
534.955 .0355906
535.770 .0355081
536.583 .0354246
537.397 .0353527
538.209 .0352921
539.021 .0352410
539.832 .0351957
540.643 .0351527
541.453 .0351064
542.262 .0350585
543.071 .0350130
543.879 .0349678
544.687 .0349268
545.494 .0348952
546.300 .0348689
547.106 .0348448
547.911 .0348274
548.716 .0348124
549.520 .0347926
550.323 .0347685
551.126 .0347281
551.929 .0346725
552.731 .0346054
553.532 .0345233
554.332 .0344268
555.133 .0343221
555.932 .0342168
556.731 .0341118
557.530 .0340149
558.328 .0339353
559.125 .0338726
559.922 .0338266
560.719 .0337948
561.515 .0337723
562.310 .0337547
563.105 .0337411
563.899 .0337273
564.693 .0337121
565.487 .0336976
566.280 .0336818
567.072 .0336663
567.864 .0336526
568.655 .0336413
569.446 .0336255
570.236 .0336046
571.026 .0335799
571.816 .0335448
572.605 .0335006
573.393 .0334491
574.181 .0333922
574.969 .0333323
575.756 .0332717
576.543 .0332117
577.329 .0331541
578.115 .0331013
578.900 .0330517
579.685 .0330046
580.469 .0329595
581.253 .0329175
582.036 .0328783
582.820 .0328413
583.602 .0328083
584.384 .0327769
585.166 .0327461
585.947 .0327153
586.728 .0326827
587.509 .0326484
588.289 .0326127
589.069 .0325781
589.848 .0325420
590.627 .0325041
591.405 .0324665
592.183 .0324286
592.961 .0323904
593.738 .0323536
594.515 .0323164
595.291 .0322794
596.067 .0322428
596.843 .0322064
597.618 .0321702
598.393 .0321350
599.167 .0321015
599.941 .0320681
600.715 .0320358
601.488 .0320049
602.261 .0319740
603.034 .0319458
603.806 .0319215
604.578 .0318999
605.349 .0318814
606.121 .0318666
606.891 .0318538
607.662 .0318422
608.432 .0318307
609.201 .0318179
609.971 .0318037
610.740 .0317874
611.508 .0317685
612.277 .0317475
613.045 .0317260
613.812 .0317043
614.579 .0316824
615.346 .0316613
616.113 .0316402
616.879 .0316178
617.645 .0315939
618.411 .0315684
619.176 .0315406
619.941 .0315119
620.705 .0314829
621.470 .0314545
622.233 .0314274
622.997 .0314018
623.760 .0313784
624.523 .0313568
625.286 .0313362
626.048 .0313149
626.810 .0312922
627.572 .0312676
628.333 .0312406
629.095 .0312119
629.855 .0311819
630.616 .0311517
631.376 .0311207
632.136 .0310894
632.895 .0310563
633.655 .0310224
634.414 .0309874
635.172 .0309514
635.931 .0309153
636.689 .0308790
637.447 .0308439
638.204 .0308114
638.962 .0307817
639.718 .0307554
640.475 .0307322
641.231 .0307122
641.988 .0306927
642.743 .0306750
643.499 .0306577
644.254 .0306406
645.009 .0306240
645.764 .0306094
646.518 .0305955
647.272 .0305830
648.026 .0305720
648.780 .0305616
649.533 .0305517
650.286 .0305423
651.039 .0305312
651.792 .0305194
652.544 .0305075
653.296 .0304954
654.048 .0304822
654.799 .0304709
655.550 .0304597
656.301 .0304486
657.052 .0304383
657.802 .0304281
658.552 .0304169
659.302 .0304052
660.052 .0303925
660.801 .0303785
661.550 .0303639
662.299 .0303498
663.048 .0303346
663.796 .0303210
664.544 .0303081
665.292 .0302946
666.040 .0302810
666.787 .0302679
667.534 .0302535
668.281 .0302384
669.028 .0302225
669.774 .0302061
670.521 .0301889
671.266 .0301718
672.012 .0301546
672.758 .0301375
673.503 .0301210
674.248 .0301040
674.992 .0300859
675.737 .0300679
676.481 .0300484
677.225 .0300278
677.969 .0300064
678.712 .0299839
679.455 .0299604
680.199 .0299357
680.941 .0299106
681.684 .0298851
682.426 .0298592
683.168 .0298340
683.910 .0298093
684.652 .0297855
685.393 .0297633
686.134 .0297424
686.875 .0297241
687.616 .0297076
688.356 .0296925
689.097 .0296785
689.837 .0296656
690.576 .0296538
691.316 .0296426
692.055 .0296321
692.794 .0296229
693.533 .0296142
694.272 .0296066
695.010 .0295997
695.748 .0295932
696.486 .0295865
697.224 .0295792
697.962 .0295705
698.699 .0295606
699.436 .0295490
700.173 .0295367
700.909 .0295239
701.646 .0295117
702.382 .0295001
703.118 .0294894
703.853 .0294798
704.589 .0294714
705.324 .0294637
706.059 .0294570
706.794 .0294504
707.529 .0294447
708.263 .0294396
708.997 .0294363
709.731 .0294343
710.465 .0294337
711.198 .0294341
711.931 .0294353
712.664 .0294362
713.397 .0294372
714.130 .0294371
714.862 .0294363
715.594 .0294339
716.326 .0294303
717.058 .0294252
717.789 .0294193
718.520 .0294125
719.251 .0294052
719.982 .0293972
720.713 .0293889
721.443 .0293796
722.173 .0293697
722.903 .0293593
723.633 .0293485
724.362 .0293371
725.091 .0293256
725.820 .0293137
726.549 .0293019
727.278 .0292905
728.006 .0292798
728.734 .0292700
729.462 .0292614
730.190 .0292540
730.917 .0292471
731.644 .0292405
732.371 .0292341
733.098 .0292271
733.825 .0292196
734.551 .0292115
735.277 .0292027
736.003 .0291933
736.728 .0291832
737.454 .0291727
738.179 .0291619
738.904 .0291509
739.629 .0291389
740.353 .0291261
741.077 .0291123
741.801 .0290977
742.525 .0290824
743.249 .0290670
743.972 .0290519
744.695 .0290371
745.418 .0290230
746.141 .0290089
746.863 .0289951
747.585 .0289815
748.307 .0289677
749.029 .0289537
749.750 .0289390
750.472 .0289239
751.193 .0289084
751.913 .0288932
752.634 .0288792
753.354 .0288658
754.074 .0288531
754.794 .0288408
755.514 .0288283
756.233 .0288147
756.952 .0288001
757.671 .0287844
758.390 .0287675
759.108 .0287498
759.826 .0287314
760.544 .0287130
761.262 .0286952
761.979 .0286781
762.697 .0286620
763.414 .0286470
764.130 .0286331
764.847 .0286199
765.563 .0286080
766.279 .0285971
766.995 .0285872
767.710 .0285783
768.426 .0285704
769.141 .0285635
769.855 .0285576
770.570 .0285525
771.284 .0285489
771.998 .0285470
772.712 .0285470
773.426 .0285488
774.139 .0285525
774.852 .0285572
775.565 .0285622
776.277 .0285673
776.990 .0285717
777.702 .0285752
778.414 .0285778
779.125 .0285799
779.836 .0285817
780.547 .0285843
781.258 .0285880
781.969 .0285927
782.679 .0285986
783.389 .0286048
784.099 .0286104
784.808 .0286149
785.517 .0286176
786.226 .0286186
786.935 .0286181
787.643 .0286170
788.352 .0286149
789.060 .0286127
789.767 .0286107
790.475 .0286086
791.182 .0286061
791.889 .0286035
792.595 .0286001
793.301 .0285961
794.008 .0285912
794.713 .0285862
795.419 .0285805
796.124 .0285746
796.829 .0285683
797.534 .0285617
798.238 .0285544
798.942 .0285468
799.646 .0285381
800.350 .0285293
801.053 .0285202
801.756 .0285107
802.459 .0285007
803.162 .0284906
803.864 .0284798
804.566 .0284685
805.267 .0284562
805.969 .0284439
806.670 .0284307
807.371 .0284180
808.071 .0284055
808.772 .0283937
809.472 .0283822
810.171 .0283716
810.871 .0283607
811.570 .0283496
812.269 .0283379
812.967 .0283255
813.666 .0283119
814.364 .0282982
815.061 .0282840
815.759 .0282698
816.456 .0282555
817.153 .0282415
817.849 .0282269
818.545 .0282123
819.241 .0281974
819.937 .0281819
820.632 .0281662
821.327 .0281509
822.022 .0281351
822.717 .0281195
823.411 .0281039
824.105 .0280878
824.798 .0280713
825.491 .0280546
826.184 .0280373
826.877 .0280196
827.569 .0280019
828.261 .0279843
828.953 .0279661
829.645 .0279480
830.336 .0279292
831.027 .0279095
831.717 .0278898
832.407 .0278696
833.097 .0278488
833.787 .0278282
834.476 .0278084
835.165 .0277900
835.854 .0277732
836.542 .0277582
837.230 .0277447
837.918 .0277328
838.605 .0277217
839.292 .0277111
839.979 .0277011
840.665 .0276917
841.352 .0276824
842.037 .0276727
842.723 .0276628
843.408 .0276530
844.093 .0276432
844.777 .0276336
845.462 .0276239
846.145 .0276141
846.829 .0276032
847.512 .0275918
848.195 .0275793
848.878 .0275660
849.560 .0275520
850.242 .0275382
850.923 .0275250
851.605 .0275128
852.286 .0275025
852.966 .0274942
853.646 .0274883
854.326 .0274847
855.006 .0274819
855.685 .0274797
856.364 .0274780
857.043 .0274767
857.721 .0274752
858.399 .0274743
859.077 .0274739
859.754 .0274739
860.431 .0274742
861.107 .0274746
861.784 .0274748
862.459 .0274750
863.135 .0274749
863.810 .0274734
864.485 .0274709
865.160 .0274679
865.834 .0274639
866.508 .0274602
867.181 .0274573
867.854 .0274553
868.527 .0274541
869.199 .0274542
869.872 .0274549
870.543 .0274554
871.215 .0274563
871.886 .0274568
872.557 .0274561
873.227 .0274547
873.897 .0274518
874.567 .0274474
875.236 .0274422
875.905 .0274368
876.573 .0274304
877.242 .0274236
877.909 .0274160
878.577 .0274070
879.244 .0273965
879.911 .0273850
880.577 .0273727
881.243 .0273600
881.909 .0273481
882.575 .0273362
883.240 .0273258
883.904 .0273178
884.569 .0273122
885.232 .0273080
885.896 .0273050
886.559 .0273026
887.222 .0272999
887.885 .0272970
888.547 .0272940
889.208 .0272907
889.870 .0272878
890.531 .0272852
891.192 .0272827
891.852 .0272801
892.512 .0272775
893.171 .0272746
893.830 .0272712
894.489 .0272668
895.148 .0272610
895.806 .0272534
896.464 .0272449
897.121 .0272354
897.778 .0272248
898.434 .0272136
899.091 .0272019
899.747 .0271901
900.402 .0271777
901.057 .0271651
901.712 .0271527
902.366 .0271397
903.020 .0271267
903.674 .0271132
904.327 .0270993
904.980 .0270853
905.633 .0270710
906.285 .0270561
906.936 .0270411
907.588 .0270254
908.239 .0270098
908.889 .0269942
909.540 .0269787
910.190 .0269630
910.839 .0269473
911.488 .0269317
912.137 .0269158
912.785 .0268993
913.433 .0268825
914.081 .0268644
914.728 .0268456
915.375 .0268258
916.021 .0268058
916.668 .0267856
917.313 .0267664
917.959 .0267480
918.604 .0267309
919.248 .0267149
919.892 .0266994
920.536 .0266847
921.180 .0266699
921.823 .0266546
922.465 .0266386
923.108 .0266216
923.750 .0266039
924.391 .0265847
925.032 .0265650
925.673 .0265443
926.313 .0265228
926.953 .0265006
927.593 .0264766
928.232 .0264509
928.871 .0264238
929.510 .0263955
930.148 .0263656
930.786 .0263346
931.423 .0263030
932.060 .0262716
932.697 .0262408
933.333 .0262109
933.969 .0261828
934.604 .0261569
935.239 .0261334
935.874 .0261115
936.508 .0260912
937.142 .0260722
937.776 .0260536
938.409 .0260358
939.042 .0260176
939.674 .0259991
940.306 .0259803
940.938 .0259616
941.569 .0259434
942.200 .0259253
942.830 .0259076
943.460 .0258902
944.090 .0258727
944.720 .0258547
945.349 .0258356
945.977 .0258163
946.606 .0257970
947.233 .0257779
947.861 .0257593
948.488 .0257417
949.115 .0257257
949.741 .0257116
950.367 .0256991
950.993 .0256882
951.618 .0256787
952.243 .0256704
952.868 .0256635
953.492 .0256577
954.115 .0256531
954.739 .0256497
955.362 .0256472
955.984 .0256452
956.607 .0256425
957.229 .0256391
957.850 .0256343
958.471 .0256273
959.092 .0256183
959.713 .0256073
960.333 .0255947
960.952 .0255814
961.572 .0255679
962.191 .0255547
962.809 .0255424
963.428 .0255312
964.045 .0255212
964.663 .0255122
965.280 .0255039
965.897 .0254959
966.513 .0254886
967.129 .0254826
967.745 .0254778
968.361 .0254744
968.976 .0254729
969.590 .0254734
970.205 .0254753
970.818 .0254786
971.432 .0254828
972.045 .0254865
972.658 .0254897
973.271 .0254916
973.883 .0254912
974.495 .0254886
975.106 .0254842
975.717 .0254785
976.328 .0254718
976.938 .0254648
977.548 .0254581
978.158 .0254525
978.768 .0254481
979.377 .0254449
979.985 .0254425
980.594 .0254410
981.202 .0254401
981.809 .0254397
982.417 .0254400
983.024 .0254412
983.631 .0254435
984.237 .0254472
984.843 .0254523
985.449 .0254579
986.054 .0254632
986.659 .0254678
987.264 .0254716
987.868 .0254739
988.472 .0254750
989.076 .0254766
989.679 .0254786
990.282 .0254817
990.885 .0254857
991.487 .0254907
992.090 .0254961
992.691 .0255012
993.293 .0255059
993.894 .0255093
994.495 .0255120
995.095 .0255145
995.696 .0255162
996.296 .0255188
996.895 .0255223
997.494 .0255262
998.093 .0255307
998.692 .0255351
999.291 .0255383
999.889 .0255399
1000.487 .0255403
1001.084 .0255389
1001.681 .0255351
1002.278 .0255296
1002.875 .0255228
1003.471 .0255143
1004.067 .0255055
1004.663 .0254963
1005.258 .0254869
1005.854 .0254785
1006.449 .0254708
1007.043 .0254630
1007.638 .0254555
1008.232 .0254488
1008.826 .0254427
1009.419 .0254367
1010.012 .0254322
1010.605 .0254287
1011.198 .0254264
1011.791 .0254257
1012.383 .0254263
1012.975 .0254278
1013.566 .0254305
1014.158 .0254330
1014.749 .0254356
1015.340 .0254378
1015.931 .0254397
1016.521 .0254417
1017.111 .0254447
1017.701 .0254483
1018.291 .0254518
1018.880 .0254540
1019.470 .0254553
1020.059 .0254552
1020.647 .0254528
1021.236 .0254485
1021.824 .0254434
1022.412 .0254374
1023.000 .0254309
1023.588 .0254250
1024.175 .0254201
1024.762 .0254144
1025.349 .0254098
1025.936 .0254049
1026.523 .0253986
1027.109 .0253914
1027.695 .0253837
1028.281 .0253764
1028.867 .0253704
1029.452 .0253651
1030.038 .0253598
1030.623 .0253555
1031.208 .0253519
1031.792 .0253470
1032.377 .0253417
1032.961 .0253368
1033.546 .0253315
1034.130 .0253260
1034.714 .0253213
1035.297 .0253160
1035.881 .0253103
1036.464 .0253040
1037.047 .0252957
1037.630 .0252848
1038.213 .0252714
1038.796 .0252564
1039.378 .0252407
1039.961 .0252253
1040.543 .0252108
1041.125 .0251976
1041.707 .0251857
1042.289 .0251745
1042.871 .0251624
1043.452 .0251491
1044.034 .0251338
1044.615 .0251167
1045.196 .0250982
1045.777 .0250787
1046.358 .0250596
1046.939 .0250420
1047.520 .0250263
1048.101 .0250136
1048.681 .0250025
1049.262 .0249934
1049.842 .0249857
1050.422 .0249781
1051.002 .0249701
1051.582 .0249621
1052.162 .0249547
1052.742 .0249481
1053.322 .0249422
1053.902 .0249376
1054.482 .0249343
1055.061 .0249323
1055.641 .0249314
1056.220 .0249308
1056.800 .0249299
1057.379 .0249279
1057.958 .0249235
1058.538 .0249175
1059.117 .0249085
1059.696 .0248971
1060.275 .0248844
1060.854 .0248707
1061.433 .0248563
1062.012 .0248412
1062.592 .0248271
1063.171 .0248155
1063.750 .0248053
1064.329 .0247965
1064.908 .0247881
1065.487 .0247814
1066.066 .0247754
1066.645 .0247713
1067.224 .0247699
1067.803 .0247721
1068.382 .0247786
1068.961 .0247902
1069.540 .0248040
1070.119 .0248217
1070.698 .0248401
1071.278 .0248600
1071.857 .0248786
1072.436 .0248966
1073.016 .0249109
1073.595 .0249238
1074.175 .0249363
1074.754 .0249470
1075.334 .0249543
1075.913 .0249604
1076.493 .0249620
1077.073 .0249603
1077.653 .0249527
1078.233 .0249405
1078.813 .0249231
1079.393 .0249045
1079.974 .0248817
1080.554 .0248578
1081.135 .0248338
1081.716 .0248104
1082.296 .0247862
1082.877 .0247632
1083.458 .0247399
1084.040 .0247177
1084.621 .0246970
1085.202 .0246796
1085.784 .0246640
1086.366 .0246531
1086.948 .0246450
1087.530 .0246400
1088.112 .0246375
1088.695 .0246378
1089.277 .0246374
1089.860 .0246391
1090.443 .0246406
1091.026 .0246421
1091.610 .0246429
1092.193 .0246440
1092.777 .0246459
1093.361 .0246490
1093.946 .0246522
1094.530 .0246560
1095.115 .0246599
1095.700 .0246669
1096.285 .0246743
1096.871 .0246835
1097.456 .0246962
1098.042 .0247096
1098.628 .0247225
1099.215 .0247358
1099.802 .0247473
1100.389 .0247573
1100.976 .0247641
1101.564 .0247676
1102.152 .0247686
1102.740 .0247687
1103.329 .0247677
1103.917 .0247638
1104.507 .0247620
1105.096 .0247601
1105.686 .0247555
1106.276 .0247502
1106.867 .0247456
1107.457 .0247412
1108.049 .0247400
1108.640 .0247404
1109.232 .0247471
1109.825 .0247608
1110.417 .0247829
1111.010 .0248092
1111.604 .0248430
1112.198 .0248813
1112.792 .0249217
1113.387 .0249622
1113.982 .0250035
1114.577 .0250414
1115.173 .0250763
1115.769 .0251056
1116.366 .0251303
1116.963 .0251496
1117.561 .0251648
1118.159 .0251741
1118.758 .0251824
1119.357 .0251890
1119.957 .0251941
1120.557 .0252005
1121.157 .0252113
1121.758 .0252264
1122.360 .0252441
1122.962 .0252623
1123.564 .0252830
1124.167 .0253025
1124.771 .0253219
1125.375 .0253402
1125.980 .0253635
1126.585 .0253907
1127.191 .0254228
1127.797 .0254602
1128.404 .0255039
1129.012 .0255549
1129.620 .0256100
1130.229 .0256653
1130.838 .0257180
1131.448 .0257645
1132.058 .0258032
1132.669 .0258320
1133.281 .0258584
1133.894 .0258834
1134.507 .0259150
1135.120 .0259521
1135.735 .0259939
1136.350 .0260412
1136.965 .0260946
1137.582 .0261486
1138.199 .0262029
1138.816 .0262498
1139.435 .0262952
1140.054 .0263470
1140.674 .0264090
1141.294 .0264570
1141.916 .0265462
1142.538 .0265335
1143.160 .0268415
1143.784 .0269908
1144.408 .0263823
1145.033 .0275844
