Measurement Sequence started on: 14-45-04-498
Integration time: 36
Scans to Average: 2 
>>>>>Begin Spectral Data<<<<<
433.946 .0513530
434.870 .0476947
435.793 .0454840
436.715 .0435109
437.635 .0433696
438.555 .0441423
439.473 .0436763
440.389 .0434367
441.305 .0433169
442.219 .0432611
443.132 .0432118
444.044 .0431631
444.954 .0431167
445.863 .0430882
446.771 .0430607
447.678 .0430306
448.584 .0429979
449.488 .0429597
450.391 .0429263
451.293 .0428950
452.194 .0428630
453.094 .0428278
453.992 .0427892
454.890 .0427446
455.786 .0426950
456.681 .0426335
457.575 .0425715
458.468 .0425007
459.360 .0424261
460.250 .0423495
461.140 .0422788
462.028 .0422190
462.915 .0421649
463.801 .0421185
464.687 .0420710
465.571 .0420215
466.454 .0419693
467.335 .0419114
468.216 .0418487
469.096 .0417793
469.975 .0417044
470.853 .0416217
471.729 .0415351
472.605 .0414439
473.479 .0413531
474.353 .0412696
475.226 .0411880
476.097 .0411055
476.968 .0410221
477.838 .0409355
478.706 .0408446
479.574 .0407482
480.441 .0406465
481.306 .0405407
482.171 .0404355
483.035 .0403327
483.898 .0402376
484.760 .0401559
485.621 .0400883
486.481 .0400327
487.340 .0399904
488.198 .0399564
489.055 .0399267
489.912 .0399014
490.767 .0398797
491.622 .0398596
492.476 .0398421
493.329 .0398275
494.180 .0398193
495.032 .0398186
495.882 .0398243
496.731 .0398346
497.580 .0398472
498.427 .0398615
499.274 .0398698
500.120 .0398727
500.965 .0398701
501.809 .0398566
502.653 .0398364
503.495 .0398052
504.337 .0397646
505.178 .0397143
506.018 .0396551
506.858 .0395881
507.696 .0395127
508.534 .0394321
509.371 .0393473
510.208 .0392596
511.043 .0391757
511.878 .0390930
512.712 .0390115
513.545 .0389309
514.377 .0388558
515.209 .0387817
516.040 .0387144
516.870 .0386512
517.699 .0385987
518.528 .0385550
519.356 .0385264
520.183 .0385011
521.010 .0384873
521.836 .0384797
522.661 .0384700
523.485 .0384532
524.309 .0384300
525.132 .0383920
525.954 .0383403
526.776 .0382755
527.597 .0382049
528.417 .0381200
529.237 .0380315
530.056 .0379293
530.874 .0378221
531.692 .0377129
532.508 .0376018
533.325 .0374930
534.140 .0373981
534.955 .0373117
535.770 .0372358
536.583 .0371720
537.397 .0371261
538.209 .0370918
539.021 .0370655
539.832 .0370479
540.643 .0370356
541.453 .0370282
542.262 .0370263
543.071 .0370264
543.879 .0370316
544.687 .0370354
545.494 .0370342
546.300 .0370271
547.106 .0370168
547.911 .0370040
548.716 .0369894
549.520 .0369773
550.323 .0369662
551.126 .0369547
551.929 .0369423
552.731 .0369325
553.532 .0369209
554.332 .0369084
555.133 .0368931
555.932 .0368746
556.731 .0368558
557.530 .0368360
558.328 .0368149
559.125 .0367926
559.922 .0367692
560.719 .0367379
561.515 .0366995
562.310 .0366552
563.105 .0366056
563.899 .0365586
564.693 .0365110
565.487 .0364651
566.280 .0364216
567.072 .0363813
567.864 .0363427
568.655 .0363027
569.446 .0362614
570.236 .0362140
571.026 .0361641
571.816 .0361127
572.605 .0360606
573.393 .0360124
574.181 .0359710
574.969 .0359370
575.756 .0359087
576.543 .0358834
577.329 .0358592
578.115 .0358348
578.900 .0358068
579.685 .0357739
580.469 .0357381
581.253 .0357011
582.036 .0356660
582.820 .0356329
583.602 .0356050
584.384 .0355827
585.166 .0355647
585.947 .0355483
586.728 .0355315
587.509 .0355138
588.289 .0354931
589.069 .0354687
589.848 .0354413
590.627 .0354111
591.405 .0353786
592.183 .0353444
592.961 .0353106
593.738 .0352779
594.515 .0352466
595.291 .0352167
596.067 .0351882
596.843 .0351605
597.618 .0351329
598.393 .0351056
599.167 .0350778
599.941 .0350499
600.715 .0350212
601.488 .0349911
602.261 .0349609
603.034 .0349305
603.806 .0349006
604.578 .0348716
605.349 .0348445
606.121 .0348195
606.891 .0347964
607.662 .0347745
608.432 .0347542
609.201 .0347347
609.971 .0347156
610.740 .0346963
611.508 .0346764
612.277 .0346566
613.045 .0346375
613.812 .0346196
614.579 .0346042
615.346 .0345909
616.113 .0345807
616.879 .0345719
617.645 .0345648
618.411 .0345581
619.176 .0345506
619.941 .0345421
620.705 .0345322
621.470 .0345202
622.233 .0345065
622.997 .0344912
623.760 .0344756
624.523 .0344595
625.286 .0344433
626.048 .0344266
626.810 .0344093
627.572 .0343906
628.333 .0343705
629.095 .0343479
629.855 .0343237
630.616 .0342976
631.376 .0342705
632.136 .0342420
632.895 .0342130
633.655 .0341841
634.414 .0341559
635.172 .0341287
635.931 .0341021
636.689 .0340756
637.447 .0340495
638.204 .0340235
638.962 .0339977
639.718 .0339715
640.475 .0339456
641.231 .0339200
641.988 .0338948
642.743 .0338702
643.499 .0338458
644.254 .0338218
645.009 .0337982
645.764 .0337748
646.518 .0337512
647.272 .0337277
648.026 .0337049
648.780 .0336825
649.533 .0336610
650.286 .0336405
651.039 .0336211
651.792 .0336025
652.544 .0335850
653.296 .0335677
654.048 .0335508
654.799 .0335346
655.550 .0335189
656.301 .0335040
657.052 .0334901
657.802 .0334771
658.552 .0334655
659.302 .0334551
660.052 .0334459
660.801 .0334371
661.550 .0334292
662.299 .0334207
663.048 .0334113
663.796 .0334013
664.544 .0333900
665.292 .0333773
666.040 .0333639
666.787 .0333494
667.534 .0333345
668.281 .0333193
669.028 .0333044
669.774 .0332895
670.521 .0332756
671.266 .0332618
672.012 .0332481
672.758 .0332347
673.503 .0332215
674.248 .0332078
674.992 .0331943
675.737 .0331810
676.481 .0331674
677.225 .0331536
677.969 .0331395
678.712 .0331246
679.455 .0331095
680.199 .0330936
680.941 .0330772
681.684 .0330598
682.426 .0330424
683.168 .0330241
683.910 .0330054
684.652 .0329865
685.393 .0329666
686.134 .0329459
686.875 .0329245
687.616 .0329023
688.356 .0328795
689.097 .0328564
689.837 .0328336
690.576 .0328113
691.316 .0327898
692.055 .0327689
692.794 .0327484
693.533 .0327286
694.272 .0327093
695.010 .0326896
695.748 .0326698
696.486 .0326496
697.224 .0326289
697.962 .0326085
698.699 .0325881
699.436 .0325683
700.173 .0325489
700.909 .0325303
701.646 .0325122
702.382 .0324945
703.118 .0324773
703.853 .0324608
704.589 .0324453
705.324 .0324313
706.059 .0324186
706.794 .0324072
707.529 .0323973
708.263 .0323887
708.997 .0323809
709.731 .0323732
710.465 .0323658
711.198 .0323578
711.931 .0323491
712.664 .0323399
713.397 .0323302
714.130 .0323198
714.862 .0323091
715.594 .0322979
716.326 .0322857
717.058 .0322730
717.789 .0322595
718.520 .0322447
719.251 .0322291
719.982 .0322120
720.713 .0321937
721.443 .0321743
722.173 .0321542
722.903 .0321330
723.633 .0321118
724.362 .0320902
725.091 .0320687
725.820 .0320473
726.549 .0320269
727.278 .0320069
728.006 .0319876
728.734 .0319687
729.462 .0319496
730.190 .0319301
730.917 .0319102
731.644 .0318890
732.371 .0318678
733.098 .0318462
733.825 .0318247
734.551 .0318038
735.277 .0317833
736.003 .0317631
736.728 .0317433
737.454 .0317236
738.179 .0317034
738.904 .0316826
739.629 .0316611
740.353 .0316391
741.077 .0316168
741.801 .0315946
742.525 .0315725
743.249 .0315510
743.972 .0315302
744.695 .0315098
745.418 .0314899
746.141 .0314706
746.863 .0314508
747.585 .0314313
748.307 .0314115
749.029 .0313913
749.750 .0313711
750.472 .0313511
751.193 .0313314
751.913 .0313129
752.634 .0312954
753.354 .0312789
754.074 .0312632
754.794 .0312483
755.514 .0312331
756.233 .0312176
756.952 .0312016
757.671 .0311851
758.390 .0311682
759.108 .0311518
759.826 .0311361
760.544 .0311219
761.262 .0311093
761.979 .0310983
762.697 .0310889
763.414 .0310802
764.130 .0310718
764.847 .0310629
765.563 .0310537
766.279 .0310442
766.995 .0310344
767.710 .0310246
768.426 .0310154
769.141 .0310069
769.855 .0309990
770.570 .0309911
771.284 .0309831
771.998 .0309744
772.712 .0309645
773.426 .0309535
774.139 .0309413
774.852 .0309278
775.565 .0309135
776.277 .0308985
776.990 .0308831
777.702 .0308669
778.414 .0308500
779.125 .0308331
779.836 .0308159
780.547 .0307985
781.258 .0307805
781.969 .0307627
782.679 .0307454
783.389 .0307283
784.099 .0307113
784.808 .0306946
785.517 .0306782
786.226 .0306621
786.935 .0306459
787.643 .0306303
788.352 .0306152
789.060 .0306005
789.767 .0305866
790.475 .0305730
791.182 .0305590
791.889 .0305446
792.595 .0305296
793.301 .0305136
794.008 .0304959
794.713 .0304771
795.419 .0304573
796.124 .0304373
796.829 .0304169
797.534 .0303962
798.238 .0303753
798.942 .0303546
799.646 .0303331
800.350 .0303105
801.053 .0302869
801.756 .0302624
802.459 .0302371
803.162 .0302115
803.864 .0301861
804.566 .0301614
805.267 .0301375
805.969 .0301150
806.670 .0300930
807.371 .0300723
808.071 .0300524
808.772 .0300326
809.472 .0300133
810.171 .0299938
810.871 .0299741
811.570 .0299543
812.269 .0299347
812.967 .0299147
813.666 .0298941
814.364 .0298733
815.061 .0298522
815.759 .0298313
816.456 .0298107
817.153 .0297903
817.849 .0297706
818.545 .0297516
819.241 .0297323
819.937 .0297129
820.632 .0296937
821.327 .0296739
822.022 .0296536
822.717 .0296329
823.411 .0296123
824.105 .0295926
824.798 .0295737
825.491 .0295558
826.184 .0295387
826.877 .0295225
827.569 .0295065
828.261 .0294906
828.953 .0294751
829.645 .0294599
830.336 .0294453
831.027 .0294319
831.717 .0294197
832.407 .0294090
833.097 .0293997
833.787 .0293916
834.476 .0293842
835.165 .0293773
835.854 .0293703
836.542 .0293638
837.230 .0293572
837.918 .0293509
838.605 .0293444
839.292 .0293380
839.979 .0293317
840.665 .0293251
841.352 .0293179
842.037 .0293098
842.723 .0293009
843.408 .0292910
844.093 .0292799
844.777 .0292679
845.462 .0292553
846.145 .0292420
846.829 .0292280
847.512 .0292137
848.195 .0291993
848.878 .0291852
849.560 .0291716
850.242 .0291588
850.923 .0291463
851.605 .0291338
852.286 .0291208
852.966 .0291070
853.646 .0290925
854.326 .0290773
855.006 .0290609
855.685 .0290439
856.364 .0290271
857.043 .0290108
857.721 .0289951
858.399 .0289803
859.077 .0289663
859.754 .0289527
860.431 .0289391
861.107 .0289250
861.784 .0289106
862.459 .0288966
863.135 .0288825
863.810 .0288685
864.485 .0288550
865.160 .0288423
865.834 .0288300
866.508 .0288184
867.181 .0288069
867.854 .0287953
868.527 .0287830
869.199 .0287698
869.872 .0287555
870.543 .0287399
871.215 .0287228
871.886 .0287047
872.557 .0286851
873.227 .0286641
873.897 .0286412
874.567 .0286176
875.236 .0285929
875.905 .0285680
876.573 .0285421
877.242 .0285158
877.909 .0284893
878.577 .0284628
879.244 .0284357
879.911 .0284085
880.577 .0283817
881.243 .0283548
881.909 .0283281
882.575 .0283018
883.240 .0282759
883.904 .0282515
884.569 .0282281
885.232 .0282054
885.896 .0281836
886.559 .0281628
887.222 .0281423
887.885 .0281222
888.547 .0281021
889.208 .0280821
889.870 .0280622
890.531 .0280428
891.192 .0280238
891.852 .0280060
892.512 .0279893
893.171 .0279735
893.830 .0279590
894.489 .0279456
895.148 .0279327
895.806 .0279207
896.464 .0279091
897.121 .0278979
897.778 .0278870
898.434 .0278764
899.091 .0278660
899.747 .0278564
900.402 .0278471
901.057 .0278379
901.712 .0278285
902.366 .0278189
903.020 .0278080
903.674 .0277962
904.327 .0277834
904.980 .0277695
905.633 .0277544
906.285 .0277392
906.936 .0277237
907.588 .0277090
908.239 .0276948
908.889 .0276816
909.540 .0276690
910.190 .0276570
910.839 .0276452
911.488 .0276338
912.137 .0276229
912.785 .0276122
913.433 .0276019
914.081 .0275919
914.728 .0275822
915.375 .0275731
916.021 .0275644
916.668 .0275559
917.313 .0275478
917.959 .0275394
918.604 .0275308
919.248 .0275222
919.892 .0275135
920.536 .0275047
921.180 .0274961
921.823 .0274879
922.465 .0274794
923.108 .0274710
923.750 .0274630
924.391 .0274549
925.032 .0274472
925.673 .0274396
926.313 .0274320
926.953 .0274244
927.593 .0274166
928.232 .0274079
928.871 .0273988
929.510 .0273896
930.148 .0273794
930.786 .0273688
931.423 .0273577
932.060 .0273462
932.697 .0273341
933.333 .0273219
933.969 .0273090
934.604 .0272951
935.239 .0272807
935.874 .0272652
936.508 .0272495
937.142 .0272342
937.776 .0272191
938.409 .0272041
939.042 .0271891
939.674 .0271737
940.306 .0271572
940.938 .0271401
941.569 .0271217
942.200 .0271021
942.830 .0270813
943.460 .0270593
944.090 .0270360
944.720 .0270122
945.349 .0269878
945.977 .0269625
946.606 .0269364
947.233 .0269094
947.861 .0268814
948.488 .0268528
949.115 .0268237
949.741 .0267946
950.367 .0267657
950.993 .0267372
951.618 .0267087
952.243 .0266803
952.868 .0266522
953.492 .0266240
954.115 .0265959
954.739 .0265686
955.362 .0265418
955.984 .0265161
956.607 .0264920
957.229 .0264696
957.850 .0264483
958.471 .0264276
959.092 .0264072
959.713 .0263860
960.333 .0263641
960.952 .0263414
961.572 .0263177
962.191 .0262939
962.809 .0262708
963.428 .0262483
964.045 .0262269
964.663 .0262070
965.280 .0261876
965.897 .0261684
966.513 .0261494
967.129 .0261299
967.745 .0261095
968.361 .0260886
968.976 .0260674
969.590 .0260456
970.205 .0260245
970.818 .0260042
971.432 .0259849
972.045 .0259672
972.658 .0259505
973.271 .0259342
973.883 .0259182
974.495 .0259022
975.106 .0258861
975.717 .0258702
976.328 .0258542
976.938 .0258387
977.548 .0258243
978.158 .0258114
978.768 .0258004
979.377 .0257910
979.985 .0257833
980.594 .0257769
981.202 .0257713
981.809 .0257658
982.417 .0257601
983.024 .0257550
983.631 .0257499
984.237 .0257449
984.843 .0257400
985.449 .0257345
986.054 .0257287
986.659 .0257226
987.264 .0257154
987.868 .0257069
988.472 .0256976
989.076 .0256871
989.679 .0256759
990.282 .0256651
990.885 .0256547
991.487 .0256452
992.090 .0256368
992.691 .0256292
993.293 .0256217
993.894 .0256151
994.495 .0256093
995.095 .0256041
995.696 .0256001
996.296 .0255969
996.895 .0255948
997.494 .0255944
998.093 .0255959
998.692 .0255985
999.291 .0256021
999.889 .0256065
1000.487 .0256103
1001.084 .0256143
1001.681 .0256181
1002.278 .0256217
1002.875 .0256258
1003.471 .0256306
1004.067 .0256359
1004.663 .0256415
1005.258 .0256472
1005.854 .0256530
1006.449 .0256584
1007.043 .0256629
1007.638 .0256658
1008.232 .0256682
1008.826 .0256707
1009.419 .0256732
1010.012 .0256770
1010.605 .0256822
1011.198 .0256878
1011.791 .0256934
1012.383 .0256982
1012.975 .0257012
1013.566 .0257017
1014.158 .0256999
1014.749 .0256958
1015.340 .0256904
1015.931 .0256845
1016.521 .0256784
1017.111 .0256736
1017.701 .0256705
1018.291 .0256679
1018.880 .0256653
1019.470 .0256632
1020.059 .0256609
1020.647 .0256583
1021.236 .0256561
1021.824 .0256546
1022.412 .0256546
1023.000 .0256560
1023.588 .0256596
1024.175 .0256648
1024.762 .0256713
1025.349 .0256786
1025.936 .0256861
1026.523 .0256935
1027.109 .0256998
1027.695 .0257050
1028.281 .0257094
1028.867 .0257129
1029.452 .0257155
1030.038 .0257170
1030.623 .0257179
1031.208 .0257184
1031.792 .0257188
1032.377 .0257183
1032.961 .0257182
1033.546 .0257177
1034.130 .0257173
1034.714 .0257172
1035.297 .0257180
1035.881 .0257199
1036.464 .0257234
1037.047 .0257294
1037.630 .0257372
1038.213 .0257470
1038.796 .0257589
1039.378 .0257720
1039.961 .0257860
1040.543 .0258002
1041.125 .0258137
1041.707 .0258266
1042.289 .0258390
1042.871 .0258513
1043.452 .0258633
1044.034 .0258757
1044.615 .0258878
1045.196 .0258993
1045.777 .0259085
1046.358 .0259161
1046.939 .0259203
1047.520 .0259232
1048.101 .0259240
1048.681 .0259246
1049.262 .0259253
1049.842 .0259267
1050.422 .0259289
1051.002 .0259321
1051.582 .0259350
1052.162 .0259379
1052.742 .0259391
1053.322 .0259400
1053.902 .0259398
1054.482 .0259398
1055.061 .0259400
1055.641 .0259414
1056.220 .0259435
1056.800 .0259464
1057.379 .0259479
1057.958 .0259485
1058.538 .0259465
1059.117 .0259421
1059.696 .0259359
1060.275 .0259267
1060.854 .0259164
1061.433 .0259047
1062.012 .0258927
1062.592 .0258808
1063.171 .0258683
1063.750 .0258567
1064.329 .0258450
1064.908 .0258336
1065.487 .0258216
1066.066 .0258097
1066.645 .0257997
1067.224 .0257903
1067.803 .0257824
1068.382 .0257740
1068.961 .0257666
1069.540 .0257581
1070.119 .0257488
1070.698 .0257381
1071.278 .0257273
1071.857 .0257157
1072.436 .0257032
1073.016 .0256911
1073.595 .0256788
1074.175 .0256668
1074.754 .0256558
1075.334 .0256450
1075.913 .0256344
1076.493 .0256222
1077.073 .0256082
1077.653 .0255916
1078.233 .0255753
1078.813 .0255572
1079.393 .0255396
1079.974 .0255237
1080.554 .0255099
1081.135 .0254972
1081.716 .0254876
1082.296 .0254802
1082.877 .0254747
1083.458 .0254696
1084.040 .0254644
1084.621 .0254569
1085.202 .0254502
1085.784 .0254428
1086.366 .0254365
1086.948 .0254327
1087.530 .0254326
1088.112 .0254328
1088.695 .0254356
1089.277 .0254389
1089.860 .0254415
1090.443 .0254406
1091.026 .0254359
1091.610 .0254253
1092.193 .0254098
1092.777 .0253894
1093.361 .0253673
1093.946 .0253441
1094.530 .0253227
1095.115 .0253016
1095.700 .0252821
1096.285 .0252639
1096.871 .0252452
1097.456 .0252252
1098.042 .0252055
1098.628 .0251860
1099.215 .0251672
1099.802 .0251509
1100.389 .0251396
1100.976 .0251337
1101.564 .0251326
1102.152 .0251365
1102.740 .0251437
1103.329 .0251539
1103.917 .0251647
1104.507 .0251763
1105.096 .0251884
1105.686 .0252008
1106.276 .0252127
1106.867 .0252272
1107.457 .0252440
1108.049 .0252621
1108.640 .0252798
1109.232 .0252982
1109.825 .0253159
1110.417 .0253334
1111.010 .0253500
1111.604 .0253664
1112.198 .0253837
1112.792 .0254008
1113.387 .0254165
1113.982 .0254308
1114.577 .0254422
1115.173 .0254494
1115.769 .0254523
1116.366 .0254517
1116.963 .0254469
1117.561 .0254404
1118.159 .0254377
1118.758 .0254346
1119.357 .0254339
1119.957 .0254349
1120.557 .0254368
1121.157 .0254380
1121.758 .0254388
1122.360 .0254395
1122.962 .0254432
1123.564 .0254503
1124.167 .0254644
1124.771 .0254819
1125.375 .0255122
1125.980 .0255505
1126.585 .0255934
1127.191 .0256401
1127.797 .0256906
1128.404 .0257374
1129.012 .0257842
1129.620 .0258283
1130.229 .0258712
1130.838 .0259114
1131.448 .0259516
1132.058 .0259851
1132.669 .0260140
1133.281 .0260414
1133.894 .0260652
1134.507 .0260844
1135.120 .0261058
1135.735 .0261243
1136.350 .0261480
1136.965 .0261797
1137.582 .0262182
1138.199 .0262621
1138.816 .0263134
1139.435 .0263679
1140.054 .0264401
1140.674 .0265236
1141.294 .0266179
1141.916 .0267415
1142.538 .0266323
1143.160 .0271693
1143.784 .0272192
1144.408 .0272021
1145.033 .0278051
