Measurement Sequence started on: 14-45-04-498
Integration time: 36
Scans to Average: 2 
>>>>>Begin Spectral Data<<<<<
433.946 .0435976
434.870 .0483799
435.793 .0443340
436.715 .0452811
437.635 .0443890
438.555 .0444184
439.473 .0441435
440.389 .0437558
441.305 .0435037
442.219 .0432414
443.132 .0430399
444.044 .0428637
444.954 .0427617
445.863 .0426939
446.771 .0426683
447.678 .0426543
448.584 .0426564
449.488 .0426532
450.391 .0426435
451.293 .0426263
452.194 .0426045
453.094 .0425715
453.992 .0425333
454.890 .0424811
455.786 .0424346
456.681 .0423765
457.575 .0423149
458.468 .0422391
459.360 .0421603
460.250 .0420695
461.140 .0419687
462.028 .0418585
462.915 .0417438
463.801 .0416241
464.687 .0415077
465.571 .0413896
466.454 .0412781
467.335 .0411764
468.216 .0410872
469.096 .0410084
469.975 .0409445
470.853 .0408887
471.729 .0408364
472.605 .0407827
473.479 .0407269
474.353 .0406639
475.226 .0405968
476.097 .0405278
476.968 .0404579
477.838 .0403898
478.706 .0403282
479.574 .0402738
480.441 .0402301
481.306 .0401967
482.171 .0401687
483.035 .0401456
483.898 .0401236
484.760 .0401027
485.621 .0400818
486.481 .0400642
487.340 .0400542
488.198 .0400501
489.055 .0400534
489.912 .0400614
490.767 .0400722
491.622 .0400855
492.476 .0400983
493.329 .0401100
494.180 .0401153
495.032 .0401164
495.882 .0401139
496.731 .0401051
497.580 .0400913
498.427 .0400730
499.274 .0400480
500.120 .0400141
500.965 .0399726
501.809 .0399234
502.653 .0398693
503.495 .0398149
504.337 .0397611
505.178 .0397085
506.018 .0396599
506.858 .0396136
507.696 .0395695
508.534 .0395274
509.371 .0394844
510.208 .0394366
511.043 .0393879
511.878 .0393380
512.712 .0392835
513.545 .0392292
514.377 .0391798
515.209 .0391381
516.040 .0391032
516.870 .0390759
517.699 .0390546
518.528 .0390404
519.356 .0390290
520.183 .0390123
521.010 .0389886
521.836 .0389539
522.661 .0389086
523.485 .0388492
524.309 .0387806
525.132 .0387090
525.954 .0386352
526.776 .0385664
527.597 .0385035
528.417 .0384427
529.237 .0383795
530.056 .0383093
530.874 .0382305
531.692 .0381410
532.508 .0380404
533.325 .0379332
534.140 .0378229
534.955 .0377161
535.770 .0376174
536.583 .0375327
537.397 .0374689
538.209 .0374227
539.021 .0373916
539.832 .0373695
540.643 .0373546
541.453 .0373455
542.262 .0373358
543.071 .0373239
543.879 .0373076
544.687 .0372862
545.494 .0372548
546.300 .0372237
547.106 .0371946
547.911 .0371663
548.716 .0371449
549.520 .0371235
550.323 .0371047
551.126 .0370873
551.929 .0370685
552.731 .0370413
553.532 .0370065
554.332 .0369660
555.133 .0369159
555.932 .0368646
556.731 .0368132
557.530 .0367647
558.328 .0367242
559.125 .0366901
559.922 .0366566
560.719 .0366223
561.515 .0365880
562.310 .0365467
563.105 .0365021
563.899 .0364512
564.693 .0363950
565.487 .0363394
566.280 .0362845
567.072 .0362324
567.864 .0361832
568.655 .0361379
569.446 .0360975
570.236 .0360574
571.026 .0360191
571.816 .0359802
572.605 .0359405
573.393 .0359012
574.181 .0358622
574.969 .0358255
575.756 .0357921
576.543 .0357607
577.329 .0357327
578.115 .0357054
578.900 .0356810
579.685 .0356581
580.469 .0356344
581.253 .0356126
582.036 .0355898
582.820 .0355653
583.602 .0355408
584.384 .0355157
585.166 .0354902
585.947 .0354651
586.728 .0354411
587.509 .0354166
588.289 .0353912
589.069 .0353667
589.848 .0353423
590.627 .0353176
591.405 .0352923
592.183 .0352653
592.961 .0352373
593.738 .0352102
594.515 .0351815
595.291 .0351529
596.067 .0351243
596.843 .0350953
597.618 .0350644
598.393 .0350317
599.167 .0349976
599.941 .0349626
600.715 .0349277
601.488 .0348929
602.261 .0348587
603.034 .0348250
603.806 .0347927
604.578 .0347618
605.349 .0347319
606.121 .0347039
606.891 .0346765
607.662 .0346502
608.432 .0346247
609.201 .0345997
609.971 .0345759
610.740 .0345536
611.508 .0345335
612.277 .0345148
613.045 .0344973
613.812 .0344813
614.579 .0344661
615.346 .0344515
616.113 .0344368
616.879 .0344213
617.645 .0344052
618.411 .0343881
619.176 .0343698
619.941 .0343505
620.705 .0343309
621.470 .0343114
622.233 .0342917
622.997 .0342720
623.760 .0342522
624.523 .0342321
625.286 .0342108
626.048 .0341882
626.810 .0341636
627.572 .0341364
628.333 .0341074
629.095 .0340768
629.855 .0340458
630.616 .0340153
631.376 .0339864
632.136 .0339596
632.895 .0339355
633.655 .0339140
634.414 .0338943
635.172 .0338761
635.931 .0338580
636.689 .0338390
637.447 .0338193
638.204 .0337990
638.962 .0337778
639.718 .0337565
640.475 .0337363
641.231 .0337165
641.988 .0336976
642.743 .0336789
643.499 .0336596
644.254 .0336389
645.009 .0336159
645.764 .0335905
646.518 .0335633
647.272 .0335352
648.026 .0335071
648.780 .0334797
649.533 .0334543
650.286 .0334302
651.039 .0334078
651.792 .0333866
652.544 .0333668
653.296 .0333476
654.048 .0333289
654.799 .0333107
655.550 .0332933
656.301 .0332768
657.052 .0332610
657.802 .0332458
658.552 .0332307
659.302 .0332149
660.052 .0331987
660.801 .0331814
661.550 .0331638
662.299 .0331458
663.048 .0331280
663.796 .0331109
664.544 .0330941
665.292 .0330773
666.040 .0330609
666.787 .0330448
667.534 .0330291
668.281 .0330137
669.028 .0329987
669.774 .0329842
670.521 .0329711
671.266 .0329593
672.012 .0329485
672.758 .0329383
673.503 .0329287
674.248 .0329187
674.992 .0329083
675.737 .0328971
676.481 .0328850
677.225 .0328724
677.969 .0328590
678.712 .0328446
679.455 .0328296
680.199 .0328139
680.941 .0327974
681.684 .0327805
682.426 .0327635
683.168 .0327462
683.910 .0327282
684.652 .0327101
685.393 .0326913
686.134 .0326718
686.875 .0326518
687.616 .0326312
688.356 .0326102
689.097 .0325893
689.837 .0325684
690.576 .0325478
691.316 .0325279
692.055 .0325087
692.794 .0324893
693.533 .0324698
694.272 .0324501
695.010 .0324298
695.748 .0324090
696.486 .0323883
697.224 .0323677
697.962 .0323476
698.699 .0323283
699.436 .0323098
700.173 .0322921
700.909 .0322755
701.646 .0322592
702.382 .0322433
703.118 .0322278
703.853 .0322132
704.589 .0321988
705.324 .0321853
706.059 .0321728
706.794 .0321609
707.529 .0321497
708.263 .0321386
708.997 .0321274
709.731 .0321153
710.465 .0321027
711.198 .0320889
711.931 .0320743
712.664 .0320593
713.397 .0320439
714.130 .0320282
714.862 .0320127
715.594 .0319971
716.326 .0319814
717.058 .0319656
717.789 .0319496
718.520 .0319332
719.251 .0319165
719.982 .0318995
720.713 .0318826
721.443 .0318658
722.173 .0318494
722.903 .0318331
723.633 .0318172
724.362 .0318017
725.091 .0317862
725.820 .0317710
726.549 .0317563
727.278 .0317418
728.006 .0317277
728.734 .0317136
729.462 .0316994
730.190 .0316856
730.917 .0316716
731.644 .0316577
732.371 .0316444
733.098 .0316314
733.825 .0316195
734.551 .0316088
735.277 .0315995
736.003 .0315911
736.728 .0315830
737.454 .0315750
738.179 .0315662
738.904 .0315568
739.629 .0315463
740.353 .0315350
741.077 .0315235
741.801 .0315121
742.525 .0315007
743.249 .0314896
743.972 .0314795
744.695 .0314694
745.418 .0314591
746.141 .0314480
746.863 .0314364
747.585 .0314239
748.307 .0314109
749.029 .0313979
749.750 .0313851
750.472 .0313730
751.193 .0313612
751.913 .0313499
752.634 .0313391
753.354 .0313288
754.074 .0313184
754.794 .0313078
755.514 .0312969
756.233 .0312848
756.952 .0312721
757.671 .0312587
758.390 .0312446
759.108 .0312295
759.826 .0312132
760.544 .0311963
761.262 .0311784
761.979 .0311601
762.697 .0311414
763.414 .0311226
764.130 .0311041
764.847 .0310859
765.563 .0310677
766.279 .0310502
766.995 .0310334
767.710 .0310175
768.426 .0310019
769.141 .0309869
769.855 .0309724
770.570 .0309583
771.284 .0309449
771.998 .0309327
772.712 .0309211
773.426 .0309111
774.139 .0309022
774.852 .0308941
775.565 .0308866
776.277 .0308795
776.990 .0308722
777.702 .0308642
778.414 .0308554
779.125 .0308456
779.836 .0308346
780.547 .0308233
781.258 .0308118
781.969 .0308001
782.679 .0307888
783.389 .0307775
784.099 .0307662
784.808 .0307550
785.517 .0307439
786.226 .0307328
786.935 .0307217
787.643 .0307110
788.352 .0307005
789.060 .0306902
789.767 .0306808
790.475 .0306717
791.182 .0306632
791.889 .0306552
792.595 .0306478
793.301 .0306405
794.008 .0306332
794.713 .0306265
795.419 .0306200
796.124 .0306137
796.829 .0306074
797.534 .0306007
798.238 .0305938
798.942 .0305868
799.646 .0305791
800.350 .0305708
801.053 .0305625
801.756 .0305538
802.459 .0305445
803.162 .0305353
803.864 .0305262
804.566 .0305169
805.267 .0305076
805.969 .0304981
806.670 .0304878
807.371 .0304774
808.071 .0304669
808.772 .0304566
809.472 .0304463
810.171 .0304365
810.871 .0304270
811.570 .0304181
812.269 .0304097
812.967 .0304012
813.666 .0303927
814.364 .0303840
815.061 .0303746
815.759 .0303654
816.456 .0303562
817.153 .0303470
817.849 .0303377
818.545 .0303286
819.241 .0303190
819.937 .0303089
820.632 .0302976
821.327 .0302848
822.022 .0302700
822.717 .0302535
823.411 .0302351
824.105 .0302157
824.798 .0301961
825.491 .0301766
826.184 .0301577
826.877 .0301398
827.569 .0301216
828.261 .0301037
828.953 .0300855
829.645 .0300666
830.336 .0300469
831.027 .0300272
831.717 .0300075
832.407 .0299887
833.097 .0299711
833.787 .0299547
834.476 .0299395
835.165 .0299257
835.854 .0299123
836.542 .0298990
837.230 .0298856
837.918 .0298719
838.605 .0298576
839.292 .0298438
839.979 .0298296
840.665 .0298154
841.352 .0298019
842.037 .0297889
842.723 .0297754
843.408 .0297620
844.093 .0297484
844.777 .0297346
845.462 .0297204
846.145 .0297059
846.829 .0296906
847.512 .0296753
848.195 .0296599
848.878 .0296442
849.560 .0296287
850.242 .0296136
850.923 .0295979
851.605 .0295822
852.286 .0295668
852.966 .0295510
853.646 .0295353
854.326 .0295202
855.006 .0295052
855.685 .0294902
856.364 .0294759
857.043 .0294623
857.721 .0294495
858.399 .0294377
859.077 .0294265
859.754 .0294155
860.431 .0294049
861.107 .0293939
861.784 .0293823
862.459 .0293705
863.135 .0293582
863.810 .0293451
864.485 .0293314
865.160 .0293179
865.834 .0293043
866.508 .0292914
867.181 .0292792
867.854 .0292672
868.527 .0292562
869.199 .0292455
869.872 .0292349
870.543 .0292248
871.215 .0292143
871.886 .0292036
872.557 .0291923
873.227 .0291812
873.897 .0291703
874.567 .0291600
875.236 .0291508
875.905 .0291428
876.573 .0291355
877.242 .0291288
877.909 .0291223
878.577 .0291161
879.244 .0291096
879.911 .0291021
880.577 .0290940
881.243 .0290855
881.909 .0290765
882.575 .0290675
883.240 .0290584
883.904 .0290499
884.569 .0290412
885.232 .0290321
885.896 .0290230
886.559 .0290137
887.222 .0290044
887.885 .0289951
888.547 .0289862
889.208 .0289777
889.870 .0289696
890.531 .0289628
891.192 .0289572
891.852 .0289528
892.512 .0289492
893.171 .0289467
893.830 .0289448
894.489 .0289436
895.148 .0289427
895.806 .0289420
896.464 .0289417
897.121 .0289410
897.778 .0289397
898.434 .0289380
899.091 .0289354
899.747 .0289316
900.402 .0289265
901.057 .0289201
901.712 .0289118
902.366 .0289018
903.020 .0288901
903.674 .0288773
904.327 .0288637
904.980 .0288495
905.633 .0288351
906.285 .0288211
906.936 .0288078
907.588 .0287948
908.239 .0287822
908.889 .0287702
909.540 .0287576
910.190 .0287445
910.839 .0287310
911.488 .0287171
912.137 .0287031
912.785 .0286890
913.433 .0286754
914.081 .0286620
914.728 .0286490
915.375 .0286361
916.021 .0286228
916.668 .0286092
917.313 .0285946
917.959 .0285787
918.604 .0285622
919.248 .0285454
919.892 .0285286
920.536 .0285124
921.180 .0284973
921.823 .0284831
922.465 .0284695
923.108 .0284558
923.750 .0284416
924.391 .0284256
925.032 .0284076
925.673 .0283874
926.313 .0283652
926.953 .0283414
927.593 .0283165
928.232 .0282910
928.871 .0282658
929.510 .0282410
930.148 .0282166
930.786 .0281917
931.423 .0281673
932.060 .0281427
932.697 .0281175
933.333 .0280919
933.969 .0280664
934.604 .0280412
935.239 .0280171
935.874 .0279944
936.508 .0279734
937.142 .0279547
937.776 .0279383
938.409 .0279234
939.042 .0279094
939.674 .0278956
940.306 .0278814
940.938 .0278661
941.569 .0278499
942.200 .0278321
942.830 .0278127
943.460 .0277925
944.090 .0277714
944.720 .0277490
945.349 .0277258
945.977 .0277018
946.606 .0276769
947.233 .0276512
947.861 .0276244
948.488 .0275968
949.115 .0275688
949.741 .0275410
950.367 .0275135
950.993 .0274863
951.618 .0274603
952.243 .0274354
952.868 .0274116
953.492 .0273893
954.115 .0273683
954.739 .0273488
955.362 .0273303
955.984 .0273132
956.607 .0272969
957.229 .0272818
957.850 .0272681
958.471 .0272550
959.092 .0272421
959.713 .0272294
960.333 .0272165
960.952 .0272033
961.572 .0271901
962.191 .0271770
962.809 .0271641
963.428 .0271517
964.045 .0271392
964.663 .0271271
965.280 .0271155
965.897 .0271045
966.513 .0270936
967.129 .0270835
967.745 .0270739
968.361 .0270645
968.976 .0270559
969.590 .0270479
970.205 .0270408
970.818 .0270347
971.432 .0270293
972.045 .0270247
972.658 .0270209
973.271 .0270178
973.883 .0270147
974.495 .0270120
975.106 .0270087
975.717 .0270047
976.328 .0269999
976.938 .0269949
977.548 .0269894
978.158 .0269841
978.768 .0269790
979.377 .0269745
979.985 .0269706
980.594 .0269671
981.202 .0269636
981.809 .0269602
982.417 .0269567
983.024 .0269530
983.631 .0269489
984.237 .0269447
984.843 .0269406
985.449 .0269370
986.054 .0269336
986.659 .0269311
987.264 .0269294
987.868 .0269285
988.472 .0269290
989.076 .0269303
989.679 .0269320
990.282 .0269343
990.885 .0269366
991.487 .0269387
992.090 .0269400
992.691 .0269405
993.293 .0269402
993.894 .0269395
994.495 .0269385
995.095 .0269374
995.696 .0269366
996.296 .0269366
996.895 .0269366
997.494 .0269366
998.093 .0269362
998.692 .0269352
999.291 .0269336
999.889 .0269308
1000.487 .0269270
1001.084 .0269225
1001.681 .0269171
1002.278 .0269114
1002.875 .0269059
1003.471 .0269012
1004.067 .0268979
1004.663 .0268964
1005.258 .0268965
1005.854 .0268980
1006.449 .0269007
1007.043 .0269038
1007.638 .0269064
1008.232 .0269087
1008.826 .0269100
1009.419 .0269108
1010.012 .0269117
1010.605 .0269131
1011.198 .0269154
1011.791 .0269191
1012.383 .0269236
1012.975 .0269287
1013.566 .0269333
1014.158 .0269368
1014.749 .0269388
1015.340 .0269392
1015.931 .0269376
1016.521 .0269344
1017.111 .0269309
1017.701 .0269276
1018.291 .0269246
1018.880 .0269219
1019.470 .0269189
1020.059 .0269158
1020.647 .0269117
1021.236 .0269057
1021.824 .0268986
1022.412 .0268907
1023.000 .0268817
1023.588 .0268725
1024.175 .0268637
1024.762 .0268556
1025.349 .0268484
1025.936 .0268426
1026.523 .0268376
1027.109 .0268339
1027.695 .0268312
1028.281 .0268288
1028.867 .0268272
1029.452 .0268264
1030.038 .0268255
1030.623 .0268248
1031.208 .0268241
1031.792 .0268233
1032.377 .0268220
1032.961 .0268213
1033.546 .0268203
1034.130 .0268201
1034.714 .0268206
1035.297 .0268210
1035.881 .0268204
1036.464 .0268193
1037.047 .0268164
1037.630 .0268123
1038.213 .0268071
1038.796 .0268013
1039.378 .0267951
1039.961 .0267895
1040.543 .0267837
1041.125 .0267785
1041.707 .0267741
1042.289 .0267693
1042.871 .0267633
1043.452 .0267569
1044.034 .0267480
1044.615 .0267375
1045.196 .0267262
1045.777 .0267147
1046.358 .0267029
1046.939 .0266920
1047.520 .0266804
1048.101 .0266679
1048.681 .0266544
1049.262 .0266394
1049.842 .0266221
1050.422 .0266046
1051.002 .0265859
1051.582 .0265669
1052.162 .0265499
1052.742 .0265349
1053.322 .0265221
1053.902 .0265124
1054.482 .0265041
1055.061 .0264968
1055.641 .0264898
1056.220 .0264826
1056.800 .0264741
1057.379 .0264662
1057.958 .0264589
1058.538 .0264509
1059.117 .0264443
1059.696 .0264390
1060.275 .0264346
1060.854 .0264311
1061.433 .0264277
1062.012 .0264237
1062.592 .0264198
1063.171 .0264148
1063.750 .0264089
1064.329 .0264029
1064.908 .0263968
1065.487 .0263896
1066.066 .0263826
1066.645 .0263755
1067.224 .0263682
1067.803 .0263602
1068.382 .0263522
1068.961 .0263438
1069.540 .0263353
1070.119 .0263266
1070.698 .0263181
1071.278 .0263100
1071.857 .0263020
1072.436 .0262932
1073.016 .0262841
1073.595 .0262749
1074.175 .0262653
1074.754 .0262558
1075.334 .0262477
1075.913 .0262402
1076.493 .0262342
1077.073 .0262288
1077.653 .0262254
1078.233 .0262231
1078.813 .0262214
1079.393 .0262193
1079.974 .0262166
1080.554 .0262130
1081.135 .0262082
1081.716 .0262016
1082.296 .0261949
1082.877 .0261875
1083.458 .0261793
1084.040 .0261710
1084.621 .0261620
1085.202 .0261528
1085.784 .0261451
1086.366 .0261374
1086.948 .0261306
1087.530 .0261233
1088.112 .0261167
1088.695 .0261099
1089.277 .0261033
1089.860 .0260962
1090.443 .0260890
1091.026 .0260821
1091.610 .0260766
1092.193 .0260717
1092.777 .0260696
1093.361 .0260682
1093.946 .0260672
1094.530 .0260648
1095.115 .0260583
1095.700 .0260472
1096.285 .0260334
1096.871 .0260164
1097.456 .0259990
1098.042 .0259813
1098.628 .0259659
1099.215 .0259532
1099.802 .0259457
1100.389 .0259423
1100.976 .0259428
1101.564 .0259466
1102.152 .0259509
1102.740 .0259548
1103.329 .0259593
1103.917 .0259643
1104.507 .0259721
1105.096 .0259842
1105.686 .0260016
1106.276 .0260237
1106.867 .0260524
1107.457 .0260852
1108.049 .0261226
1108.640 .0261614
1109.232 .0262000
1109.825 .0262372
1110.417 .0262730
1111.010 .0263052
1111.604 .0263321
1112.198 .0263573
1112.792 .0263799
1113.387 .0264005
1113.982 .0264218
1114.577 .0264447
1115.173 .0264718
1115.769 .0265004
1116.366 .0265306
1116.963 .0265598
1117.561 .0265871
1118.159 .0266119
1118.758 .0266298
1119.357 .0266442
1119.957 .0266547
1120.557 .0266631
1121.157 .0266715
1121.758 .0266833
1122.360 .0266990
1122.962 .0267168
1123.564 .0267377
1124.167 .0267585
1124.771 .0267769
1125.375 .0267899
1125.980 .0267983
1126.585 .0268016
1127.191 .0268015
1127.797 .0268021
1128.404 .0268036
1129.012 .0268140
1129.620 .0268335
1130.229 .0268603
1130.838 .0268956
1131.448 .0269341
1132.058 .0269766
1132.669 .0270160
1133.281 .0270566
1133.894 .0270957
1134.507 .0271347
1135.120 .0271762
1135.735 .0272215
1136.350 .0272714
1136.965 .0273301
1137.582 .0273936
1138.199 .0274628
1138.816 .0275343
1139.435 .0276062
1140.054 .0276787
1140.674 .0277504
1141.294 .0278278
1141.916 .0279214
1142.538 .0278733
1143.160 .0280536
1143.784 .0281211
1144.408 .0284002
1145.033 .0287833
