Measurement Sequence started on: 14-45-04-498
Integration time: 36
Scans to Average: 2 
>>>>>Begin Spectral Data<<<<<
433.946 .0562789
434.870 .0601027
435.793 .0480314
436.715 .0505630
437.635 .0488824
438.555 .0482883
439.473 .0471494
440.389 .0461156
441.305 .0455574
442.219 .0450066
443.132 .0446045
444.044 .0443280
444.954 .0441321
445.863 .0440228
446.771 .0439506
447.678 .0438993
448.584 .0438661
449.488 .0438486
450.391 .0438220
451.293 .0437807
452.194 .0437603
453.094 .0437385
453.992 .0437122
454.890 .0436928
455.786 .0436577
456.681 .0436166
457.575 .0435728
458.468 .0435164
459.360 .0434474
460.250 .0433635
461.140 .0432652
462.028 .0431573
462.915 .0430440
463.801 .0429166
464.687 .0427715
465.571 .0426248
466.454 .0424783
467.335 .0423256
468.216 .0421786
469.096 .0420352
469.975 .0418984
470.853 .0417704
471.729 .0416441
472.605 .0415160
473.479 .0413904
474.353 .0412631
475.226 .0411385
476.097 .0410149
476.968 .0408998
477.838 .0407942
478.706 .0407091
479.574 .0406404
480.441 .0405836
481.306 .0405368
482.171 .0404975
483.035 .0404586
483.898 .0404232
484.760 .0403857
485.621 .0403520
486.481 .0403179
487.340 .0402876
488.198 .0402567
489.055 .0402309
489.912 .0402068
490.767 .0401866
491.622 .0401648
492.476 .0401443
493.329 .0401189
494.180 .0400972
495.032 .0400805
495.882 .0400665
496.731 .0400552
497.580 .0400517
498.427 .0400514
499.274 .0400524
500.120 .0400547
500.965 .0400585
501.809 .0400598
502.653 .0400581
503.495 .0400475
504.337 .0400290
505.178 .0400013
506.018 .0399675
506.858 .0399180
507.696 .0398585
508.534 .0397849
509.371 .0396927
510.208 .0395942
511.043 .0394881
511.878 .0393740
512.712 .0392544
513.545 .0391362
514.377 .0390215
515.209 .0389122
516.040 .0388200
516.870 .0387429
517.699 .0386880
518.528 .0386458
519.356 .0386174
520.183 .0385952
521.010 .0385832
521.836 .0385754
522.661 .0385638
523.485 .0385471
524.309 .0385198
525.132 .0384794
525.954 .0384305
526.776 .0383669
527.597 .0382968
528.417 .0382121
529.237 .0381231
530.056 .0380214
530.874 .0379164
531.692 .0378011
532.508 .0376844
533.325 .0375578
534.140 .0374328
534.955 .0373088
535.770 .0371957
536.583 .0370969
537.397 .0370227
538.209 .0369673
539.021 .0369362
539.832 .0369115
540.643 .0368955
541.453 .0368749
542.262 .0368542
543.071 .0368241
543.879 .0367913
544.687 .0367594
545.494 .0367341
546.300 .0367205
547.106 .0367255
547.911 .0367360
548.716 .0367594
549.520 .0367882
550.323 .0368186
551.126 .0368429
551.929 .0368636
552.731 .0368737
553.532 .0368786
554.332 .0368775
555.133 .0368709
555.932 .0368641
556.731 .0368620
557.530 .0368637
558.328 .0368682
559.125 .0368749
559.922 .0368815
560.719 .0368844
561.515 .0368881
562.310 .0368879
563.105 .0368805
563.899 .0368686
564.693 .0368530
565.487 .0368351
566.280 .0368140
567.072 .0367936
567.864 .0367727
568.655 .0367514
569.446 .0367274
570.236 .0366991
571.026 .0366612
571.816 .0366179
572.605 .0365677
573.393 .0365076
574.181 .0364418
574.969 .0363710
575.756 .0362968
576.543 .0362243
577.329 .0361549
578.115 .0360891
578.900 .0360258
579.685 .0359696
580.469 .0359173
581.253 .0358698
582.036 .0358285
582.820 .0357903
583.602 .0357567
584.384 .0357281
585.166 .0356997
585.947 .0356733
586.728 .0356493
587.509 .0356276
588.289 .0356065
589.069 .0355875
589.848 .0355704
590.627 .0355549
591.405 .0355406
592.183 .0355277
592.961 .0355147
593.738 .0355030
594.515 .0354892
595.291 .0354737
596.067 .0354579
596.843 .0354402
597.618 .0354212
598.393 .0354022
599.167 .0353820
599.941 .0353606
600.715 .0353382
601.488 .0353144
602.261 .0352899
603.034 .0352656
603.806 .0352424
604.578 .0352200
605.349 .0351994
606.121 .0351804
606.891 .0351623
607.662 .0351454
608.432 .0351285
609.201 .0351094
609.971 .0350889
610.740 .0350654
611.508 .0350391
612.277 .0350101
613.045 .0349795
613.812 .0349473
614.579 .0349145
615.346 .0348813
616.113 .0348482
616.879 .0348152
617.645 .0347830
618.411 .0347516
619.176 .0347204
619.941 .0346903
620.705 .0346623
621.470 .0346363
622.233 .0346133
622.997 .0345936
623.760 .0345778
624.523 .0345651
625.286 .0345551
626.048 .0345473
626.810 .0345408
627.572 .0345355
628.333 .0345310
629.095 .0345262
629.855 .0345217
630.616 .0345168
631.376 .0345113
632.136 .0345053
632.895 .0344986
633.655 .0344902
634.414 .0344801
635.172 .0344679
635.931 .0344539
636.689 .0344376
637.447 .0344205
638.204 .0344032
638.962 .0343852
639.718 .0343675
640.475 .0343504
641.231 .0343322
641.988 .0343131
642.743 .0342922
643.499 .0342692
644.254 .0342433
645.009 .0342153
645.764 .0341846
646.518 .0341527
647.272 .0341209
648.026 .0340902
648.780 .0340604
649.533 .0340331
650.286 .0340073
651.039 .0339823
651.792 .0339586
652.544 .0339361
653.296 .0339128
654.048 .0338902
654.799 .0338682
655.550 .0338461
656.301 .0338247
657.052 .0338044
657.802 .0337854
658.552 .0337675
659.302 .0337506
660.052 .0337338
660.801 .0337163
661.550 .0336987
662.299 .0336806
663.048 .0336614
663.796 .0336424
664.544 .0336223
665.292 .0336020
666.040 .0335815
666.787 .0335611
667.534 .0335403
668.281 .0335201
669.028 .0335011
669.774 .0334830
670.521 .0334661
671.266 .0334512
672.012 .0334383
672.758 .0334279
673.503 .0334192
674.248 .0334121
674.992 .0334059
675.737 .0334012
676.481 .0333968
677.225 .0333931
677.969 .0333898
678.712 .0333873
679.455 .0333851
680.199 .0333838
680.941 .0333826
681.684 .0333807
682.426 .0333785
683.168 .0333760
683.910 .0333725
684.652 .0333679
685.393 .0333623
686.134 .0333562
686.875 .0333489
687.616 .0333405
688.356 .0333312
689.097 .0333210
689.837 .0333103
690.576 .0332983
691.316 .0332851
692.055 .0332713
692.794 .0332566
693.533 .0332413
694.272 .0332257
695.010 .0332101
695.748 .0331946
696.486 .0331785
697.224 .0331630
697.962 .0331475
698.699 .0331322
699.436 .0331166
700.173 .0331008
700.909 .0330843
701.646 .0330670
702.382 .0330490
703.118 .0330300
703.853 .0330108
704.589 .0329912
705.324 .0329714
706.059 .0329511
706.794 .0329311
707.529 .0329107
708.263 .0328897
708.997 .0328685
709.731 .0328464
710.465 .0328240
711.198 .0328018
711.931 .0327798
712.664 .0327584
713.397 .0327376
714.130 .0327178
714.862 .0326985
715.594 .0326801
716.326 .0326617
717.058 .0326436
717.789 .0326253
718.520 .0326069
719.251 .0325880
719.982 .0325694
720.713 .0325507
721.443 .0325323
722.173 .0325144
722.903 .0324967
723.633 .0324788
724.362 .0324617
725.091 .0324444
725.820 .0324279
726.549 .0324120
727.278 .0323972
728.006 .0323835
728.734 .0323716
729.462 .0323612
730.190 .0323530
730.917 .0323466
731.644 .0323414
732.371 .0323365
733.098 .0323318
733.825 .0323265
734.551 .0323204
735.277 .0323134
736.003 .0323057
736.728 .0322973
737.454 .0322889
738.179 .0322804
738.904 .0322722
739.629 .0322643
740.353 .0322563
741.077 .0322476
741.801 .0322381
742.525 .0322279
743.249 .0322174
743.972 .0322070
744.695 .0321975
745.418 .0321887
746.141 .0321811
746.863 .0321749
747.585 .0321696
748.307 .0321649
749.029 .0321599
749.750 .0321540
750.472 .0321468
751.193 .0321381
751.913 .0321279
752.634 .0321161
753.354 .0321029
754.074 .0320884
754.794 .0320716
755.514 .0320533
756.233 .0320333
756.952 .0320120
757.671 .0319903
758.390 .0319680
759.108 .0319458
759.826 .0319242
760.544 .0319035
761.262 .0318836
761.979 .0318647
762.697 .0318460
763.414 .0318275
764.130 .0318092
764.847 .0317917
765.563 .0317746
766.279 .0317584
766.995 .0317436
767.710 .0317296
768.426 .0317161
769.141 .0317028
769.855 .0316888
770.570 .0316746
771.284 .0316593
771.998 .0316431
772.712 .0316256
773.426 .0316085
774.139 .0315911
774.852 .0315738
775.565 .0315567
776.277 .0315401
776.990 .0315240
777.702 .0315084
778.414 .0314937
779.125 .0314800
779.836 .0314674
780.547 .0314554
781.258 .0314434
781.969 .0314318
782.679 .0314197
783.389 .0314067
784.099 .0313924
784.808 .0313775
785.517 .0313618
786.226 .0313458
786.935 .0313297
787.643 .0313146
788.352 .0313004
789.060 .0312870
789.767 .0312738
790.475 .0312609
791.182 .0312479
791.889 .0312346
792.595 .0312217
793.301 .0312094
794.008 .0311974
794.713 .0311860
795.419 .0311753
796.124 .0311654
796.829 .0311558
797.534 .0311464
798.238 .0311372
798.942 .0311285
799.646 .0311203
800.350 .0311118
801.053 .0311035
801.756 .0310958
802.459 .0310878
803.162 .0310786
803.864 .0310679
804.566 .0310552
805.267 .0310409
805.969 .0310253
806.670 .0310093
807.371 .0309943
808.071 .0309810
808.772 .0309697
809.472 .0309599
810.171 .0309517
810.871 .0309446
811.570 .0309371
812.269 .0309292
812.967 .0309204
813.666 .0309104
814.364 .0308998
815.061 .0308901
815.759 .0308817
816.456 .0308750
817.153 .0308698
817.849 .0308648
818.545 .0308594
819.241 .0308526
819.937 .0308424
820.632 .0308292
821.327 .0308131
822.022 .0307948
822.717 .0307744
823.411 .0307542
824.105 .0307343
824.798 .0307153
825.491 .0306978
826.184 .0306812
826.877 .0306648
827.569 .0306486
828.261 .0306322
828.953 .0306152
829.645 .0305983
830.336 .0305815
831.027 .0305650
831.717 .0305501
832.407 .0305361
833.097 .0305225
833.787 .0305087
834.476 .0304945
835.165 .0304792
835.854 .0304620
836.542 .0304435
837.230 .0304233
837.918 .0304022
838.605 .0303802
839.292 .0303579
839.979 .0303361
840.665 .0303152
841.352 .0302955
842.037 .0302768
842.723 .0302591
843.408 .0302431
844.093 .0302284
844.777 .0302158
845.462 .0302048
846.145 .0301949
846.829 .0301854
847.512 .0301766
848.195 .0301672
848.878 .0301577
849.560 .0301475
850.242 .0301367
850.923 .0301249
851.605 .0301115
852.286 .0300969
852.966 .0300806
853.646 .0300633
854.326 .0300446
855.006 .0300240
855.685 .0300021
856.364 .0299787
857.043 .0299548
857.721 .0299304
858.399 .0299056
859.077 .0298808
859.754 .0298562
860.431 .0298318
861.107 .0298079
861.784 .0297848
862.459 .0297637
863.135 .0297447
863.810 .0297276
864.485 .0297128
865.160 .0297003
865.834 .0296899
866.508 .0296809
867.181 .0296722
867.854 .0296639
868.527 .0296549
869.199 .0296455
869.872 .0296359
870.543 .0296269
871.215 .0296185
871.886 .0296110
872.557 .0296039
873.227 .0295971
873.897 .0295892
874.567 .0295802
875.236 .0295694
875.905 .0295570
876.573 .0295433
877.242 .0295291
877.909 .0295149
878.577 .0295025
879.244 .0294911
879.911 .0294812
880.577 .0294727
881.243 .0294651
881.909 .0294571
882.575 .0294495
883.240 .0294414
883.904 .0294333
884.569 .0294255
885.232 .0294185
885.896 .0294120
886.559 .0294066
887.222 .0294017
887.885 .0293961
888.547 .0293903
889.208 .0293834
889.870 .0293747
890.531 .0293652
891.192 .0293547
891.852 .0293441
892.512 .0293343
893.171 .0293261
893.830 .0293195
894.489 .0293148
895.148 .0293120
895.806 .0293101
896.464 .0293090
897.121 .0293081
897.778 .0293068
898.434 .0293051
899.091 .0293036
899.747 .0293018
900.402 .0293000
901.057 .0292986
901.712 .0292972
902.366 .0292955
903.020 .0292932
903.674 .0292895
904.327 .0292841
904.980 .0292766
905.633 .0292668
906.285 .0292548
906.936 .0292414
907.588 .0292270
908.239 .0292123
908.889 .0291976
909.540 .0291836
910.190 .0291697
910.839 .0291554
911.488 .0291408
912.137 .0291255
912.785 .0291092
913.433 .0290920
914.081 .0290742
914.728 .0290562
915.375 .0290383
916.021 .0290207
916.668 .0290035
917.313 .0289867
917.959 .0289700
918.604 .0289524
919.248 .0289343
919.892 .0289158
920.536 .0288965
921.180 .0288768
921.823 .0288573
922.465 .0288381
923.108 .0288188
923.750 .0287994
924.391 .0287801
925.032 .0287608
925.673 .0287411
926.313 .0287210
926.953 .0287008
927.593 .0286808
928.232 .0286602
928.871 .0286387
929.510 .0286165
930.148 .0285933
930.786 .0285688
931.423 .0285431
932.060 .0285170
932.697 .0284906
933.333 .0284642
933.969 .0284382
934.604 .0284125
935.239 .0283873
935.874 .0283623
936.508 .0283374
937.142 .0283129
937.776 .0282880
938.409 .0282633
939.042 .0282393
939.674 .0282168
940.306 .0281954
940.938 .0281749
941.569 .0281559
942.200 .0281377
942.830 .0281196
943.460 .0281013
944.090 .0280818
944.720 .0280619
945.349 .0280415
945.977 .0280208
946.606 .0279999
947.233 .0279796
947.861 .0279595
948.488 .0279397
949.115 .0279202
949.741 .0279005
950.367 .0278800
950.993 .0278595
951.618 .0278391
952.243 .0278189
952.868 .0277990
953.492 .0277802
954.115 .0277624
954.739 .0277461
955.362 .0277304
955.984 .0277152
956.607 .0277003
957.229 .0276862
957.850 .0276721
958.471 .0276579
959.092 .0276438
959.713 .0276300
960.333 .0276165
960.952 .0276039
961.572 .0275917
962.191 .0275798
962.809 .0275675
963.428 .0275552
964.045 .0275418
964.663 .0275277
965.280 .0275127
965.897 .0274979
966.513 .0274839
967.129 .0274714
967.745 .0274604
968.361 .0274519
968.976 .0274461
969.590 .0274426
970.205 .0274398
970.818 .0274376
971.432 .0274349
972.045 .0274315
972.658 .0274270
973.271 .0274220
973.883 .0274164
974.495 .0274109
975.106 .0274063
975.717 .0274032
976.328 .0274004
976.938 .0273993
977.548 .0273990
978.158 .0273988
978.768 .0273980
979.377 .0273959
979.985 .0273924
980.594 .0273880
981.202 .0273834
981.809 .0273786
982.417 .0273749
983.024 .0273734
983.631 .0273735
984.237 .0273750
984.843 .0273784
985.449 .0273823
986.054 .0273862
986.659 .0273904
987.264 .0273937
987.868 .0273959
988.472 .0273979
989.076 .0273994
989.679 .0274009
990.282 .0274020
990.885 .0274026
991.487 .0274024
992.090 .0274021
992.691 .0274008
993.293 .0273983
993.894 .0273960
994.495 .0273940
995.095 .0273912
995.696 .0273876
996.296 .0273831
996.895 .0273780
997.494 .0273720
998.093 .0273654
998.692 .0273585
999.291 .0273522
999.889 .0273466
1000.487 .0273424
1001.084 .0273403
1001.681 .0273399
1002.278 .0273413
1002.875 .0273443
1003.471 .0273488
1004.067 .0273542
1004.663 .0273603
1005.258 .0273671
1005.854 .0273749
1006.449 .0273835
1007.043 .0273919
1007.638 .0274002
1008.232 .0274088
1008.826 .0274168
1009.419 .0274233
1010.012 .0274287
1010.605 .0274328
1011.198 .0274353
1011.791 .0274360
1012.383 .0274349
1012.975 .0274323
1013.566 .0274286
1014.158 .0274236
1014.749 .0274175
1015.340 .0274106
1015.931 .0274030
1016.521 .0273941
1017.111 .0273847
1017.701 .0273744
1018.291 .0273632
1018.880 .0273508
1019.470 .0273378
1020.059 .0273240
1020.647 .0273089
1021.236 .0272928
1021.824 .0272758
1022.412 .0272587
1023.000 .0272414
1023.588 .0272245
1024.175 .0272090
1024.762 .0271950
1025.349 .0271828
1025.936 .0271719
1026.523 .0271631
1027.109 .0271556
1027.695 .0271496
1028.281 .0271444
1028.867 .0271404
1029.452 .0271380
1030.038 .0271373
1030.623 .0271381
1031.208 .0271411
1031.792 .0271460
1032.377 .0271530
1032.961 .0271606
1033.546 .0271683
1034.130 .0271753
1034.714 .0271818
1035.297 .0271864
1035.881 .0271891
1036.464 .0271900
1037.047 .0271891
1037.630 .0271862
1038.213 .0271817
1038.796 .0271752
1039.378 .0271683
1039.961 .0271602
1040.543 .0271511
1041.125 .0271410
1041.707 .0271306
1042.289 .0271178
1042.871 .0271035
1043.452 .0270873
1044.034 .0270689
1044.615 .0270487
1045.196 .0270277
1045.777 .0270060
1046.358 .0269848
1046.939 .0269633
1047.520 .0269428
1048.101 .0269225
1048.681 .0269034
1049.262 .0268840
1049.842 .0268667
1050.422 .0268514
1051.002 .0268378
1051.582 .0268269
1052.162 .0268184
1052.742 .0268114
1053.322 .0268061
1053.902 .0268008
1054.482 .0267953
1055.061 .0267905
1055.641 .0267871
1056.220 .0267842
1056.800 .0267839
1057.379 .0267862
1057.958 .0267903
1058.538 .0267954
1059.117 .0268000
1059.696 .0268014
1060.275 .0267997
1060.854 .0267943
1061.433 .0267834
1062.012 .0267690
1062.592 .0267527
1063.171 .0267361
1063.750 .0267202
1064.329 .0267065
1064.908 .0266945
1065.487 .0266837
1066.066 .0266748
1066.645 .0266666
1067.224 .0266576
1067.803 .0266480
1068.382 .0266372
1068.961 .0266257
1069.540 .0266134
1070.119 .0266001
1070.698 .0265869
1071.278 .0265755
1071.857 .0265656
1072.436 .0265575
1073.016 .0265500
1073.595 .0265444
1074.175 .0265409
1074.754 .0265376
1075.334 .0265341
1075.913 .0265279
1076.493 .0265209
1077.073 .0265126
1077.653 .0265030
1078.233 .0264951
1078.813 .0264877
1079.393 .0264835
1079.974 .0264828
1080.554 .0264828
1081.135 .0264840
1081.716 .0264861
1082.296 .0264886
1082.877 .0264903
1083.458 .0264891
1084.040 .0264851
1084.621 .0264793
1085.202 .0264741
1085.784 .0264694
1086.366 .0264649
1086.948 .0264621
1087.530 .0264616
1088.112 .0264628
1088.695 .0264666
1089.277 .0264707
1089.860 .0264767
1090.443 .0264830
1091.026 .0264881
1091.610 .0264933
1092.193 .0264991
1092.777 .0265063
1093.361 .0265181
1093.946 .0265319
1094.530 .0265476
1095.115 .0265651
1095.700 .0265841
1096.285 .0266023
1096.871 .0266185
1097.456 .0266320
1098.042 .0266415
1098.628 .0266512
1099.215 .0266599
1099.802 .0266658
1100.389 .0266729
1100.976 .0266794
1101.564 .0266821
1102.152 .0266801
1102.740 .0266741
1103.329 .0266621
1103.917 .0266440
1104.507 .0266219
1105.096 .0265945
1105.686 .0265666
1106.276 .0265414
1106.867 .0265201
1107.457 .0265051
1108.049 .0264968
1108.640 .0264932
1109.232 .0264947
1109.825 .0265031
1110.417 .0265163
1111.010 .0265357
1111.604 .0265615
1112.198 .0265948
1112.792 .0266326
1113.387 .0266755
1113.982 .0267231
1114.577 .0267751
1115.173 .0268275
1115.769 .0268809
1116.366 .0269311
1116.963 .0269822
1117.561 .0270314
1118.159 .0270806
1118.758 .0271276
1119.357 .0271741
1119.957 .0272192
1120.557 .0272629
1121.157 .0273016
1121.758 .0273418
1122.360 .0273772
1122.962 .0274111
1123.564 .0274448
1124.167 .0274807
1124.771 .0275168
1125.375 .0275572
1125.980 .0275971
1126.585 .0276369
1127.191 .0276719
1127.797 .0277045
1128.404 .0277292
1129.012 .0277495
1129.620 .0277644
1130.229 .0277729
1130.838 .0277771
1131.448 .0277830
1132.058 .0277844
1132.669 .0277876
1133.281 .0277928
1133.894 .0277963
1134.507 .0278010
1135.120 .0278088
1135.735 .0278208
1136.350 .0278379
1136.965 .0278553
1137.582 .0278744
1138.199 .0278899
1138.816 .0279048
1139.435 .0279202
1140.054 .0279361
1140.674 .0279565
1141.294 .0279743
1141.916 .0279704
1142.538 .0280692
1143.160 .0281379
1143.784 .0280829
1144.408 .0280117
1145.033 .0274212
