Measurement Sequence started on: 14-45-04-498
Integration time: 36
Scans to Average: 2 
>>>>>Begin Spectral Data<<<<<
433.946 .0515688
434.870 .0476823
435.793 .0414783
436.715 .0414995
437.635 .0414927
438.555 .0420293
439.473 .0414856
440.389 .0412265
441.305 .0411988
442.219 .0411741
443.132 .0411568
444.044 .0411569
444.954 .0411582
445.863 .0411635
446.771 .0411802
447.678 .0411998
448.584 .0412295
449.488 .0412447
450.391 .0412556
451.293 .0412497
452.194 .0412286
453.094 .0411871
453.992 .0411248
454.890 .0410429
455.786 .0409469
456.681 .0408412
457.575 .0407478
458.468 .0406555
459.360 .0405713
460.250 .0404940
461.140 .0404210
462.028 .0403456
462.915 .0402611
463.801 .0401628
464.687 .0400534
465.571 .0399305
466.454 .0398030
467.335 .0396727
468.216 .0395491
469.096 .0394358
469.975 .0393314
470.853 .0392366
471.729 .0391460
472.605 .0390569
473.479 .0389702
474.353 .0388842
475.226 .0387992
476.097 .0387183
476.968 .0386435
477.838 .0385796
478.706 .0385243
479.574 .0384756
480.441 .0384326
481.306 .0383949
482.171 .0383583
483.035 .0383218
483.898 .0382825
484.760 .0382454
485.621 .0382089
486.481 .0381750
487.340 .0381399
488.198 .0381048
489.055 .0380648
489.912 .0380209
490.767 .0379717
491.622 .0379168
492.476 .0378578
493.329 .0378013
494.180 .0377466
495.032 .0376958
495.882 .0376461
496.731 .0376009
497.580 .0375573
498.427 .0375160
499.274 .0374702
500.120 .0374183
500.965 .0373646
501.809 .0373116
502.653 .0372574
503.495 .0372061
504.337 .0371554
505.178 .0371042
506.018 .0370523
506.858 .0369944
507.696 .0369329
508.534 .0368669
509.371 .0367981
510.208 .0367311
511.043 .0366667
511.878 .0366086
512.712 .0365603
513.545 .0365216
514.377 .0364964
515.209 .0364786
516.040 .0364677
516.870 .0364639
517.699 .0364733
518.528 .0364938
519.356 .0365213
520.183 .0365549
521.010 .0365984
521.836 .0366396
522.661 .0366822
523.485 .0367221
524.309 .0367530
525.132 .0367766
525.954 .0367841
526.776 .0367772
527.597 .0367633
528.417 .0367396
529.237 .0367097
530.056 .0366690
530.874 .0366195
531.692 .0365587
532.508 .0364896
533.325 .0364200
534.140 .0363471
534.955 .0362772
535.770 .0362113
536.583 .0361485
537.397 .0361009
538.209 .0360647
539.021 .0360390
539.832 .0360248
540.643 .0360144
541.453 .0360029
542.262 .0359935
543.071 .0359777
543.879 .0359511
544.687 .0359087
545.494 .0358500
546.300 .0357690
547.106 .0356719
547.911 .0355614
548.716 .0354471
549.520 .0353337
550.323 .0352266
551.126 .0351192
551.929 .0350205
552.731 .0349235
553.532 .0348274
554.332 .0347308
555.133 .0346356
555.932 .0345433
556.731 .0344637
557.530 .0343976
558.328 .0343516
559.125 .0343286
559.922 .0343267
560.719 .0343369
561.515 .0343584
562.310 .0343757
563.105 .0343865
563.899 .0343865
564.693 .0343741
565.487 .0343466
566.280 .0343109
567.072 .0342720
567.864 .0342290
568.655 .0341877
569.446 .0341464
570.236 .0341018
571.026 .0340580
571.816 .0340084
572.605 .0339510
573.393 .0338896
574.181 .0338276
574.969 .0337641
575.756 .0337035
576.543 .0336514
577.329 .0336070
578.115 .0335697
578.900 .0335386
579.685 .0335129
580.469 .0334917
581.253 .0334744
582.036 .0334578
582.820 .0334430
583.602 .0334315
584.384 .0334204
585.166 .0334098
585.947 .0334009
586.728 .0333926
587.509 .0333840
588.289 .0333748
589.069 .0333642
589.848 .0333527
590.627 .0333399
591.405 .0333263
592.183 .0333135
592.961 .0333018
593.738 .0332912
594.515 .0332815
595.291 .0332729
596.067 .0332634
596.843 .0332524
597.618 .0332390
598.393 .0332232
599.167 .0332050
599.941 .0331847
600.715 .0331633
601.488 .0331428
602.261 .0331241
603.034 .0331066
603.806 .0330905
604.578 .0330758
605.349 .0330611
606.121 .0330452
606.891 .0330277
607.662 .0330089
608.432 .0329884
609.201 .0329676
609.971 .0329462
610.740 .0329258
611.508 .0329069
612.277 .0328889
613.045 .0328722
613.812 .0328563
614.579 .0328406
615.346 .0328242
616.113 .0328079
616.879 .0327919
617.645 .0327760
618.411 .0327607
619.176 .0327460
619.941 .0327319
620.705 .0327183
621.470 .0327044
622.233 .0326896
622.997 .0326742
623.760 .0326576
624.523 .0326389
625.286 .0326198
626.048 .0326001
626.810 .0325807
627.572 .0325615
628.333 .0325435
629.095 .0325259
629.855 .0325089
630.616 .0324919
631.376 .0324750
632.136 .0324584
632.895 .0324424
633.655 .0324261
634.414 .0324108
635.172 .0323968
635.931 .0323846
636.689 .0323743
637.447 .0323661
638.204 .0323591
638.962 .0323528
639.718 .0323461
640.475 .0323382
641.231 .0323280
641.988 .0323154
642.743 .0322991
643.499 .0322801
644.254 .0322587
645.009 .0322356
645.764 .0322122
646.518 .0321902
647.272 .0321697
648.026 .0321510
648.780 .0321331
649.533 .0321158
650.286 .0320983
651.039 .0320806
651.792 .0320617
652.544 .0320417
653.296 .0320216
654.048 .0320024
654.799 .0319841
655.550 .0319677
656.301 .0319532
657.052 .0319410
657.802 .0319299
658.552 .0319188
659.302 .0319072
660.052 .0318945
660.801 .0318803
661.550 .0318653
662.299 .0318491
663.048 .0318330
663.796 .0318173
664.544 .0318020
665.292 .0317876
666.040 .0317735
666.787 .0317597
667.534 .0317459
668.281 .0317325
669.028 .0317193
669.774 .0317050
670.521 .0316908
671.266 .0316764
672.012 .0316618
672.758 .0316473
673.503 .0316329
674.248 .0316192
674.992 .0316062
675.737 .0315942
676.481 .0315832
677.225 .0315733
677.969 .0315646
678.712 .0315566
679.455 .0315489
680.199 .0315414
680.941 .0315337
681.684 .0315256
682.426 .0315172
683.168 .0315084
683.910 .0314993
684.652 .0314894
685.393 .0314793
686.134 .0314687
686.875 .0314576
687.616 .0314461
688.356 .0314341
689.097 .0314210
689.837 .0314069
690.576 .0313915
691.316 .0313748
692.055 .0313571
692.794 .0313387
693.533 .0313197
694.272 .0313008
695.010 .0312827
695.748 .0312654
696.486 .0312487
697.224 .0312330
697.962 .0312178
698.699 .0312032
699.436 .0311882
700.173 .0311732
700.909 .0311578
701.646 .0311429
702.382 .0311283
703.118 .0311143
703.853 .0311014
704.589 .0310896
705.324 .0310786
706.059 .0310682
706.794 .0310579
707.529 .0310477
708.263 .0310373
708.997 .0310272
709.731 .0310167
710.465 .0310063
711.198 .0309957
711.931 .0309850
712.664 .0309743
713.397 .0309634
714.130 .0309516
714.862 .0309395
715.594 .0309273
716.326 .0309145
717.058 .0309013
717.789 .0308885
718.520 .0308755
719.251 .0308629
719.982 .0308502
720.713 .0308370
721.443 .0308238
722.173 .0308111
722.903 .0307979
723.633 .0307850
724.362 .0307726
725.091 .0307606
725.820 .0307491
726.549 .0307381
727.278 .0307272
728.006 .0307165
728.734 .0307057
729.462 .0306946
730.190 .0306833
730.917 .0306724
731.644 .0306616
732.371 .0306515
733.098 .0306422
733.825 .0306333
734.551 .0306246
735.277 .0306159
736.003 .0306066
736.728 .0305962
737.454 .0305845
738.179 .0305719
738.904 .0305586
739.629 .0305449
740.353 .0305313
741.077 .0305185
741.801 .0305065
742.525 .0304950
743.249 .0304840
743.972 .0304733
744.695 .0304631
745.418 .0304524
746.141 .0304418
746.863 .0304316
747.585 .0304224
748.307 .0304138
749.029 .0304061
749.750 .0303988
750.472 .0303917
751.193 .0303841
751.913 .0303756
752.634 .0303658
753.354 .0303549
754.074 .0303429
754.794 .0303302
755.514 .0303171
756.233 .0303040
756.952 .0302902
757.671 .0302764
758.390 .0302617
759.108 .0302462
759.826 .0302299
760.544 .0302131
761.262 .0301967
761.979 .0301807
762.697 .0301655
763.414 .0301518
764.130 .0301392
764.847 .0301281
765.563 .0301175
766.279 .0301077
766.995 .0300982
767.710 .0300887
768.426 .0300791
769.141 .0300700
769.855 .0300614
770.570 .0300532
771.284 .0300450
771.998 .0300371
772.712 .0300295
773.426 .0300216
774.139 .0300137
774.852 .0300057
775.565 .0299979
776.277 .0299911
776.990 .0299848
777.702 .0299795
778.414 .0299752
779.125 .0299719
779.836 .0299686
780.547 .0299651
781.258 .0299610
781.969 .0299560
782.679 .0299502
783.389 .0299441
784.099 .0299370
784.808 .0299293
785.517 .0299220
786.226 .0299144
786.935 .0299068
787.643 .0298989
788.352 .0298903
789.060 .0298814
789.767 .0298721
790.475 .0298622
791.182 .0298516
791.889 .0298414
792.595 .0298315
793.301 .0298216
794.008 .0298119
794.713 .0298026
795.419 .0297932
796.124 .0297838
796.829 .0297740
797.534 .0297637
798.238 .0297532
798.942 .0297425
799.646 .0297318
800.350 .0297208
801.053 .0297094
801.756 .0296970
802.459 .0296834
803.162 .0296689
803.864 .0296528
804.566 .0296353
805.267 .0296168
805.969 .0295981
806.670 .0295796
807.371 .0295619
808.071 .0295453
808.772 .0295299
809.472 .0295149
810.171 .0295002
810.871 .0294859
811.570 .0294715
812.269 .0294572
812.967 .0294431
813.666 .0294295
814.364 .0294166
815.061 .0294043
815.759 .0293929
816.456 .0293824
817.153 .0293725
817.849 .0293621
818.545 .0293507
819.241 .0293387
819.937 .0293257
820.632 .0293117
821.327 .0292965
822.022 .0292810
822.717 .0292648
823.411 .0292482
824.105 .0292313
824.798 .0292143
825.491 .0291975
826.184 .0291811
826.877 .0291651
827.569 .0291498
828.261 .0291352
828.953 .0291218
829.645 .0291093
830.336 .0290979
831.027 .0290871
831.717 .0290773
832.407 .0290683
833.097 .0290604
833.787 .0290530
834.476 .0290467
835.165 .0290413
835.854 .0290371
836.542 .0290336
837.230 .0290308
837.918 .0290278
838.605 .0290246
839.292 .0290202
839.979 .0290149
840.665 .0290079
841.352 .0290001
842.037 .0289911
842.723 .0289817
843.408 .0289719
844.093 .0289624
844.777 .0289534
845.462 .0289452
846.145 .0289374
846.829 .0289296
847.512 .0289217
848.195 .0289133
848.878 .0289037
849.560 .0288934
850.242 .0288821
850.923 .0288704
851.605 .0288579
852.286 .0288453
852.966 .0288327
853.646 .0288204
854.326 .0288084
855.006 .0287961
855.685 .0287835
856.364 .0287704
857.043 .0287565
857.721 .0287420
858.399 .0287268
859.077 .0287111
859.754 .0286954
860.431 .0286796
861.107 .0286641
861.784 .0286493
862.459 .0286345
863.135 .0286197
863.810 .0286050
864.485 .0285898
865.160 .0285745
865.834 .0285595
866.508 .0285448
867.181 .0285304
867.854 .0285168
868.527 .0285035
869.199 .0284901
869.872 .0284765
870.543 .0284621
871.215 .0284463
871.886 .0284296
872.557 .0284116
873.227 .0283932
873.897 .0283751
874.567 .0283577
875.236 .0283414
875.905 .0283270
876.573 .0283135
877.242 .0283002
877.909 .0282873
878.577 .0282744
879.244 .0282608
879.911 .0282467
880.577 .0282325
881.243 .0282190
881.909 .0282065
882.575 .0281957
883.240 .0281863
883.904 .0281792
884.569 .0281734
885.232 .0281678
885.896 .0281623
886.559 .0281561
887.222 .0281489
887.885 .0281403
888.547 .0281305
889.208 .0281200
889.870 .0281090
890.531 .0280983
891.192 .0280884
891.852 .0280795
892.512 .0280714
893.171 .0280639
893.830 .0280572
894.489 .0280505
895.148 .0280433
895.806 .0280358
896.464 .0280278
897.121 .0280198
897.778 .0280119
898.434 .0280048
899.091 .0279987
899.747 .0279940
900.402 .0279908
901.057 .0279883
901.712 .0279862
902.366 .0279836
903.020 .0279805
903.674 .0279760
904.327 .0279705
904.980 .0279634
905.633 .0279552
906.285 .0279467
906.936 .0279383
907.588 .0279304
908.239 .0279234
908.889 .0279171
909.540 .0279115
910.190 .0279059
910.839 .0279002
911.488 .0278935
912.137 .0278860
912.785 .0278765
913.433 .0278659
914.081 .0278538
914.728 .0278411
915.375 .0278278
916.021 .0278146
916.668 .0278022
917.313 .0277903
917.959 .0277787
918.604 .0277671
919.248 .0277552
919.892 .0277430
920.536 .0277295
921.180 .0277154
921.823 .0277006
922.465 .0276857
923.108 .0276708
923.750 .0276563
924.391 .0276420
925.032 .0276278
925.673 .0276134
926.313 .0275984
926.953 .0275825
927.593 .0275655
928.232 .0275470
928.871 .0275276
929.510 .0275077
930.148 .0274872
930.786 .0274665
931.423 .0274465
932.060 .0274269
932.697 .0274076
933.333 .0273881
933.969 .0273687
934.604 .0273494
935.239 .0273301
935.874 .0273107
936.508 .0272914
937.142 .0272727
937.776 .0272541
938.409 .0272357
939.042 .0272175
939.674 .0271994
940.306 .0271812
940.938 .0271629
941.569 .0271446
942.200 .0271263
942.830 .0271083
943.460 .0270903
944.090 .0270725
944.720 .0270547
945.349 .0270368
945.977 .0270188
946.606 .0270008
947.233 .0269827
947.861 .0269648
948.488 .0269471
949.115 .0269297
949.741 .0269124
950.367 .0268949
950.993 .0268776
951.618 .0268603
952.243 .0268423
952.868 .0268239
953.492 .0268051
954.115 .0267859
954.739 .0267662
955.362 .0267462
955.984 .0267263
956.607 .0267063
957.229 .0266867
957.850 .0266675
958.471 .0266483
959.092 .0266300
959.713 .0266122
960.333 .0265948
960.952 .0265788
961.572 .0265638
962.191 .0265495
962.809 .0265367
963.428 .0265250
964.045 .0265141
964.663 .0265036
965.280 .0264939
965.897 .0264841
966.513 .0264748
967.129 .0264660
967.745 .0264576
968.361 .0264500
968.976 .0264435
969.590 .0264375
970.205 .0264326
970.818 .0264293
971.432 .0264267
972.045 .0264245
972.658 .0264234
973.271 .0264223
973.883 .0264211
974.495 .0264196
975.106 .0264181
975.717 .0264167
976.328 .0264159
976.938 .0264156
977.548 .0264160
978.158 .0264178
978.768 .0264209
979.377 .0264243
979.985 .0264275
980.594 .0264302
981.202 .0264313
981.809 .0264308
982.417 .0264291
983.024 .0264260
983.631 .0264227
984.237 .0264195
984.843 .0264163
985.449 .0264134
986.054 .0264107
986.659 .0264084
987.264 .0264055
987.868 .0264027
988.472 .0263996
989.076 .0263962
989.679 .0263935
990.282 .0263920
990.885 .0263916
991.487 .0263927
992.090 .0263949
992.691 .0263981
993.293 .0264019
993.894 .0264053
994.495 .0264082
995.095 .0264112
995.696 .0264144
996.296 .0264175
996.895 .0264211
997.494 .0264252
998.093 .0264300
998.692 .0264347
999.291 .0264396
999.889 .0264432
1000.487 .0264455
1001.084 .0264459
1001.681 .0264444
1002.278 .0264412
1002.875 .0264370
1003.471 .0264319
1004.067 .0264276
1004.663 .0264241
1005.258 .0264212
1005.854 .0264184
1006.449 .0264161
1007.043 .0264133
1007.638 .0264095
1008.232 .0264047
1008.826 .0263990
1009.419 .0263928
1010.012 .0263874
1010.605 .0263826
1011.198 .0263788
1011.791 .0263756
1012.383 .0263730
1012.975 .0263702
1013.566 .0263668
1014.158 .0263617
1014.749 .0263550
1015.340 .0263474
1015.931 .0263389
1016.521 .0263296
1017.111 .0263210
1017.701 .0263129
1018.291 .0263061
1018.880 .0263001
1019.470 .0262947
1020.059 .0262902
1020.647 .0262868
1021.236 .0262844
1021.824 .0262831
1022.412 .0262827
1023.000 .0262831
1023.588 .0262841
1024.175 .0262866
1024.762 .0262897
1025.349 .0262932
1025.936 .0262979
1026.523 .0263028
1027.109 .0263079
1027.695 .0263131
1028.281 .0263178
1028.867 .0263216
1029.452 .0263240
1030.038 .0263244
1030.623 .0263220
1031.208 .0263181
1031.792 .0263128
1032.377 .0263066
1032.961 .0263004
1033.546 .0262951
1034.130 .0262906
1034.714 .0262868
1035.297 .0262832
1035.881 .0262789
1036.464 .0262739
1037.047 .0262681
1037.630 .0262612
1038.213 .0262542
1038.796 .0262480
1039.378 .0262436
1039.961 .0262405
1040.543 .0262397
1041.125 .0262398
1041.707 .0262403
1042.289 .0262401
1042.871 .0262386
1043.452 .0262353
1044.034 .0262302
1044.615 .0262240
1045.196 .0262178
1045.777 .0262125
1046.358 .0262084
1046.939 .0262047
1047.520 .0262026
1048.101 .0262002
1048.681 .0261975
1049.262 .0261932
1049.842 .0261882
1050.422 .0261819
1051.002 .0261753
1051.582 .0261686
1052.162 .0261617
1052.742 .0261553
1053.322 .0261489
1053.902 .0261411
1054.482 .0261328
1055.061 .0261223
1055.641 .0261102
1056.220 .0260968
1056.800 .0260834
1057.379 .0260695
1057.958 .0260570
1058.538 .0260460
1059.117 .0260360
1059.696 .0260273
1060.275 .0260198
1060.854 .0260112
1061.433 .0260024
1062.012 .0259937
1062.592 .0259854
1063.171 .0259779
1063.750 .0259728
1064.329 .0259690
1064.908 .0259686
1065.487 .0259691
1066.066 .0259706
1066.645 .0259721
1067.224 .0259740
1067.803 .0259747
1068.382 .0259739
1068.961 .0259731
1069.540 .0259718
1070.119 .0259702
1070.698 .0259701
1071.278 .0259706
1071.857 .0259732
1072.436 .0259762
1073.016 .0259796
1073.595 .0259827
1074.175 .0259864
1074.754 .0259886
1075.334 .0259897
1075.913 .0259901
1076.493 .0259904
1077.073 .0259893
1077.653 .0259878
1078.233 .0259869
1078.813 .0259858
1079.393 .0259851
1079.974 .0259844
1080.554 .0259814
1081.135 .0259777
1081.716 .0259728
1082.296 .0259669
1082.877 .0259608
1083.458 .0259565
1084.040 .0259531
1084.621 .0259502
1085.202 .0259492
1085.784 .0259492
1086.366 .0259492
1086.948 .0259502
1087.530 .0259511
1088.112 .0259511
1088.695 .0259509
1089.277 .0259509
1089.860 .0259502
1090.443 .0259515
1091.026 .0259551
1091.610 .0259602
1092.193 .0259676
1092.777 .0259772
1093.361 .0259885
1093.946 .0259997
1094.530 .0260110
1095.115 .0260203
1095.700 .0260255
1096.285 .0260280
1096.871 .0260272
1097.456 .0260237
1098.042 .0260201
1098.628 .0260185
1099.215 .0260184
1099.802 .0260210
1100.389 .0260257
1100.976 .0260301
1101.564 .0260334
1102.152 .0260337
1102.740 .0260306
1103.329 .0260234
1103.917 .0260159
1104.507 .0260088
1105.096 .0260063
1105.686 .0260111
1106.276 .0260222
1106.867 .0260401
1107.457 .0260641
1108.049 .0260889
1108.640 .0261105
1109.232 .0261268
1109.825 .0261392
1110.417 .0261473
1111.010 .0261548
1111.604 .0261613
1112.198 .0261735
1112.792 .0261895
1113.387 .0262105
1113.982 .0262340
1114.577 .0262606
1115.173 .0262861
1115.769 .0263081
1116.366 .0263263
1116.963 .0263408
1117.561 .0263521
1118.159 .0263629
1118.758 .0263726
1119.357 .0263844
1119.957 .0263972
1120.557 .0264105
1121.157 .0264251
1121.758 .0264412
1122.360 .0264558
1122.962 .0264705
1123.564 .0264836
1124.167 .0264976
1124.771 .0265117
1125.375 .0265244
1125.980 .0265390
1126.585 .0265519
1127.191 .0265654
1127.797 .0265770
1128.404 .0265882
1129.012 .0266003
1129.620 .0266118
1130.229 .0266243
1130.838 .0266360
1131.448 .0266471
1132.058 .0266590
1132.669 .0266673
1133.281 .0266729
1133.894 .0266780
1134.507 .0266830
1135.120 .0266895
1135.735 .0267011
1136.350 .0267179
1136.965 .0267432
1137.582 .0267737
1138.199 .0268072
1138.816 .0268439
1139.435 .0268876
1140.054 .0269409
1140.674 .0270051
1141.294 .0270646
1141.916 .0271247
1142.538 .0272148
1143.160 .0273942
1143.784 .0276146
1144.408 .0271799
1145.033 .0272095
