Measurement Sequence started on: 14-45-04-498
Integration time: 36
Scans to Average: 2 
>>>>>Begin Spectral Data<<<<<
433.946 .0466185
434.870 .0457764
435.793 .0438791
436.715 .0439335
437.635 .0434937
438.555 .0433963
439.473 .0430318
440.389 .0427336
441.305 .0425160
442.219 .0423188
443.132 .0421619
444.044 .0420377
444.954 .0419624
445.863 .0419019
446.771 .0418662
447.678 .0418436
448.584 .0418253
449.488 .0417981
450.391 .0417622
451.293 .0417176
452.194 .0416659
453.094 .0416102
453.992 .0415485
454.890 .0414789
455.786 .0414107
456.681 .0413371
457.575 .0412613
458.468 .0411753
459.360 .0410933
460.250 .0410075
461.140 .0409140
462.028 .0408208
462.915 .0407251
463.801 .0406294
464.687 .0405326
465.571 .0404351
466.454 .0403388
467.335 .0402470
468.216 .0401629
469.096 .0400850
469.975 .0400173
470.853 .0399592
471.729 .0399056
472.605 .0398566
473.479 .0398126
474.353 .0397686
475.226 .0397271
476.097 .0396895
476.968 .0396515
477.838 .0396159
478.706 .0395840
479.574 .0395591
480.441 .0395378
481.306 .0395227
482.171 .0395104
483.035 .0394987
483.898 .0394899
484.760 .0394812
485.621 .0394731
486.481 .0394674
487.340 .0394632
488.198 .0394603
489.055 .0394562
489.912 .0394497
490.767 .0394392
491.622 .0394226
492.476 .0393979
493.329 .0393646
494.180 .0393217
495.032 .0392752
495.882 .0392230
496.731 .0391694
497.580 .0391185
498.427 .0390674
499.274 .0390194
500.120 .0389734
500.965 .0389298
501.809 .0388870
502.653 .0388445
503.495 .0388048
504.337 .0387639
505.178 .0387261
506.018 .0386928
506.858 .0386645
507.696 .0386468
508.534 .0386346
509.371 .0386249
510.208 .0386218
511.043 .0386220
511.878 .0386181
512.712 .0386135
513.545 .0386063
514.377 .0385927
515.209 .0385726
516.040 .0385474
516.870 .0385157
517.699 .0384808
518.528 .0384459
519.356 .0384053
520.183 .0383648
521.010 .0383305
521.836 .0382925
522.661 .0382601
523.485 .0382346
524.309 .0382090
525.132 .0381769
525.954 .0381424
526.776 .0381022
527.597 .0380518
528.417 .0379974
529.237 .0379376
530.056 .0378713
530.874 .0378057
531.692 .0377351
532.508 .0376615
533.325 .0375930
534.140 .0375269
534.955 .0374550
535.770 .0373801
536.583 .0373030
537.397 .0372221
538.209 .0371366
539.021 .0370537
539.832 .0369702
540.643 .0368894
541.453 .0368155
542.262 .0367459
543.071 .0366840
543.879 .0366290
544.687 .0365784
545.494 .0365329
546.300 .0364886
547.106 .0364454
547.911 .0363986
548.716 .0363542
549.520 .0363085
550.323 .0362594
551.126 .0362095
551.929 .0361631
552.731 .0361170
553.532 .0360705
554.332 .0360263
555.133 .0359835
555.932 .0359395
556.731 .0358935
557.530 .0358457
558.328 .0357966
559.125 .0357515
559.922 .0357133
560.719 .0356808
561.515 .0356592
562.310 .0356472
563.105 .0356425
563.899 .0356414
564.693 .0356421
565.487 .0356372
566.280 .0356250
567.072 .0356086
567.864 .0355825
568.655 .0355498
569.446 .0355148
570.236 .0354757
571.026 .0354342
571.816 .0353916
572.605 .0353489
573.393 .0353052
574.181 .0352617
574.969 .0352182
575.756 .0351726
576.543 .0351279
577.329 .0350849
578.115 .0350421
578.900 .0350006
579.685 .0349604
580.469 .0349216
581.253 .0348867
582.036 .0348556
582.820 .0348279
583.602 .0348031
584.384 .0347825
585.166 .0347634
585.947 .0347441
586.728 .0347242
587.509 .0347040
588.289 .0346811
589.069 .0346561
589.848 .0346289
590.627 .0345997
591.405 .0345704
592.183 .0345414
592.961 .0345126
593.738 .0344844
594.515 .0344554
595.291 .0344263
596.067 .0343965
596.843 .0343665
597.618 .0343348
598.393 .0343030
599.167 .0342706
599.941 .0342376
600.715 .0342045
601.488 .0341721
602.261 .0341413
603.034 .0341121
603.806 .0340845
604.578 .0340577
605.349 .0340321
606.121 .0340081
606.891 .0339844
607.662 .0339615
608.432 .0339394
609.201 .0339177
609.971 .0338970
610.740 .0338772
611.508 .0338579
612.277 .0338394
613.045 .0338219
613.812 .0338046
614.579 .0337870
615.346 .0337693
616.113 .0337519
616.879 .0337344
617.645 .0337169
618.411 .0336990
619.176 .0336805
619.941 .0336620
620.705 .0336429
621.470 .0336228
622.233 .0336014
622.997 .0335787
623.760 .0335547
624.523 .0335292
625.286 .0335024
626.048 .0334749
626.810 .0334463
627.572 .0334178
628.333 .0333893
629.095 .0333611
629.855 .0333342
630.616 .0333085
631.376 .0332844
632.136 .0332619
632.895 .0332408
633.655 .0332208
634.414 .0332016
635.172 .0331834
635.931 .0331649
636.689 .0331465
637.447 .0331284
638.204 .0331097
638.962 .0330904
639.718 .0330704
640.475 .0330491
641.231 .0330266
641.988 .0330023
642.743 .0329763
643.499 .0329485
644.254 .0329190
645.009 .0328888
645.764 .0328579
646.518 .0328273
647.272 .0327976
648.026 .0327684
648.780 .0327402
649.533 .0327133
650.286 .0326876
651.039 .0326632
651.792 .0326402
652.544 .0326190
653.296 .0325991
654.048 .0325810
654.799 .0325644
655.550 .0325488
656.301 .0325342
657.052 .0325205
657.802 .0325070
658.552 .0324937
659.302 .0324802
660.052 .0324666
660.801 .0324531
661.550 .0324403
662.299 .0324272
663.048 .0324138
663.796 .0324006
664.544 .0323874
665.292 .0323739
666.040 .0323607
666.787 .0323475
667.534 .0323348
668.281 .0323222
669.028 .0323098
669.774 .0322973
670.521 .0322850
671.266 .0322721
672.012 .0322587
672.758 .0322445
673.503 .0322297
674.248 .0322144
674.992 .0321994
675.737 .0321845
676.481 .0321704
677.225 .0321567
677.969 .0321433
678.712 .0321301
679.455 .0321163
680.199 .0321014
680.941 .0320857
681.684 .0320693
682.426 .0320520
683.168 .0320341
683.910 .0320168
684.652 .0319999
685.393 .0319840
686.134 .0319693
686.875 .0319548
687.616 .0319407
688.356 .0319266
689.097 .0319112
689.837 .0318945
690.576 .0318766
691.316 .0318576
692.055 .0318378
692.794 .0318176
693.533 .0317974
694.272 .0317778
695.010 .0317592
695.748 .0317410
696.486 .0317230
697.224 .0317058
697.962 .0316881
698.699 .0316697
699.436 .0316511
700.173 .0316322
700.909 .0316133
701.646 .0315947
702.382 .0315765
703.118 .0315590
703.853 .0315423
704.589 .0315263
705.324 .0315103
706.059 .0314945
706.794 .0314780
707.529 .0314608
708.263 .0314432
708.997 .0314255
709.731 .0314072
710.465 .0313896
711.198 .0313728
711.931 .0313567
712.664 .0313414
713.397 .0313270
714.130 .0313129
714.862 .0312994
715.594 .0312860
716.326 .0312728
717.058 .0312600
717.789 .0312486
718.520 .0312379
719.251 .0312283
719.982 .0312193
720.713 .0312113
721.443 .0312032
722.173 .0311948
722.903 .0311862
723.633 .0311774
724.362 .0311687
725.091 .0311602
725.820 .0311520
726.549 .0311450
727.278 .0311384
728.006 .0311321
728.734 .0311251
729.462 .0311175
730.190 .0311091
730.917 .0310998
731.644 .0310904
732.371 .0310817
733.098 .0310740
733.825 .0310677
734.551 .0310628
735.277 .0310588
736.003 .0310549
736.728 .0310503
737.454 .0310447
738.179 .0310380
738.904 .0310302
739.629 .0310217
740.353 .0310137
741.077 .0310068
741.801 .0310009
742.525 .0309957
743.249 .0309915
743.972 .0309871
744.695 .0309820
745.418 .0309753
746.141 .0309672
746.863 .0309580
747.585 .0309478
748.307 .0309363
749.029 .0309246
749.750 .0309124
750.472 .0308997
751.193 .0308864
751.913 .0308730
752.634 .0308589
753.354 .0308439
754.074 .0308286
754.794 .0308127
755.514 .0307960
756.233 .0307788
756.952 .0307603
757.671 .0307414
758.390 .0307215
759.108 .0307005
759.826 .0306786
760.544 .0306575
761.262 .0306369
761.979 .0306166
762.697 .0305975
763.414 .0305796
764.130 .0305622
764.847 .0305455
765.563 .0305290
766.279 .0305124
766.995 .0304958
767.710 .0304791
768.426 .0304622
769.141 .0304460
769.855 .0304303
770.570 .0304155
771.284 .0304021
771.998 .0303901
772.712 .0303790
773.426 .0303687
774.139 .0303594
774.852 .0303503
775.565 .0303411
776.277 .0303316
776.990 .0303220
777.702 .0303125
778.414 .0303035
779.125 .0302950
779.836 .0302873
780.547 .0302809
781.258 .0302753
781.969 .0302703
782.679 .0302656
783.389 .0302607
784.099 .0302555
784.808 .0302497
785.517 .0302438
786.226 .0302377
786.935 .0302317
787.643 .0302263
788.352 .0302217
789.060 .0302171
789.767 .0302129
790.475 .0302086
791.182 .0302039
791.889 .0301991
792.595 .0301938
793.301 .0301879
794.008 .0301820
794.713 .0301762
795.419 .0301708
796.124 .0301656
796.829 .0301611
797.534 .0301563
798.238 .0301518
798.942 .0301472
799.646 .0301426
800.350 .0301383
801.053 .0301343
801.756 .0301307
802.459 .0301278
803.162 .0301257
803.864 .0301239
804.566 .0301229
805.267 .0301221
805.969 .0301210
806.670 .0301195
807.371 .0301175
808.071 .0301148
808.772 .0301116
809.472 .0301080
810.171 .0301036
810.871 .0300987
811.570 .0300937
812.269 .0300880
812.967 .0300827
813.666 .0300771
814.364 .0300710
815.061 .0300645
815.759 .0300579
816.456 .0300509
817.153 .0300437
817.849 .0300364
818.545 .0300288
819.241 .0300209
819.937 .0300129
820.632 .0300042
821.327 .0299953
822.022 .0299858
822.717 .0299760
823.411 .0299656
824.105 .0299546
824.798 .0299428
825.491 .0299303
826.184 .0299171
826.877 .0299030
827.569 .0298878
828.261 .0298715
828.953 .0298540
829.645 .0298356
830.336 .0298163
831.027 .0297965
831.717 .0297764
832.407 .0297564
833.097 .0297366
833.787 .0297171
834.476 .0296979
835.165 .0296791
835.854 .0296611
836.542 .0296437
837.230 .0296269
837.918 .0296107
838.605 .0295953
839.292 .0295809
839.979 .0295673
840.665 .0295550
841.352 .0295435
842.037 .0295325
842.723 .0295220
843.408 .0295112
844.093 .0294998
844.777 .0294876
845.462 .0294742
846.145 .0294594
846.829 .0294430
847.512 .0294254
848.195 .0294063
848.878 .0293865
849.560 .0293663
850.242 .0293455
850.923 .0293247
851.605 .0293040
852.286 .0292831
852.966 .0292624
853.646 .0292421
854.326 .0292221
855.006 .0292023
855.685 .0291829
856.364 .0291639
857.043 .0291455
857.721 .0291277
858.399 .0291107
859.077 .0290944
859.754 .0290792
860.431 .0290644
861.107 .0290501
861.784 .0290363
862.459 .0290227
863.135 .0290092
863.810 .0289955
864.485 .0289815
865.160 .0289680
865.834 .0289547
866.508 .0289421
867.181 .0289305
867.854 .0289199
868.527 .0289100
869.199 .0289010
869.872 .0288924
870.543 .0288843
871.215 .0288762
871.886 .0288682
872.557 .0288600
873.227 .0288518
873.897 .0288436
874.567 .0288358
875.236 .0288289
875.905 .0288230
876.573 .0288178
877.242 .0288136
877.909 .0288103
878.577 .0288075
879.244 .0288051
879.911 .0288027
880.577 .0288002
881.243 .0287976
881.909 .0287942
882.575 .0287903
883.240 .0287861
883.904 .0287820
884.569 .0287778
885.232 .0287734
885.896 .0287691
886.559 .0287647
887.222 .0287603
887.885 .0287557
888.547 .0287506
889.208 .0287453
889.870 .0287399
890.531 .0287347
891.192 .0287304
891.852 .0287273
892.512 .0287260
893.171 .0287267
893.830 .0287289
894.489 .0287323
895.148 .0287363
895.806 .0287407
896.464 .0287454
897.121 .0287501
897.778 .0287549
898.434 .0287602
899.091 .0287659
899.747 .0287727
900.402 .0287799
901.057 .0287875
901.712 .0287950
902.366 .0288014
903.020 .0288066
903.674 .0288099
904.327 .0288111
904.980 .0288111
905.633 .0288098
906.285 .0288080
906.936 .0288057
907.588 .0288030
908.239 .0288000
908.889 .0287961
909.540 .0287911
910.190 .0287840
910.839 .0287747
911.488 .0287638
912.137 .0287506
912.785 .0287357
913.433 .0287196
914.081 .0287026
914.728 .0286851
915.375 .0286672
916.021 .0286486
916.668 .0286296
917.313 .0286100
917.959 .0285899
918.604 .0285690
919.248 .0285474
919.892 .0285254
920.536 .0285028
921.180 .0284804
921.823 .0284580
922.465 .0284356
923.108 .0284134
923.750 .0283916
924.391 .0283697
925.032 .0283471
925.673 .0283244
926.313 .0283017
926.953 .0282788
927.593 .0282557
928.232 .0282319
928.871 .0282075
929.510 .0281829
930.148 .0281573
930.786 .0281308
931.423 .0281040
932.060 .0280775
932.697 .0280512
933.333 .0280252
933.969 .0279999
934.604 .0279751
935.239 .0279510
935.874 .0279272
936.508 .0279032
937.142 .0278791
937.776 .0278548
938.409 .0278305
939.042 .0278062
939.674 .0277819
940.306 .0277574
940.938 .0277329
941.569 .0277082
942.200 .0276827
942.830 .0276559
943.460 .0276278
944.090 .0275985
944.720 .0275678
945.349 .0275358
945.977 .0275024
946.606 .0274687
947.233 .0274346
947.861 .0274005
948.488 .0273666
949.115 .0273337
949.741 .0273020
950.367 .0272720
950.993 .0272441
951.618 .0272187
952.243 .0271960
952.868 .0271759
953.492 .0271582
954.115 .0271425
954.739 .0271288
955.362 .0271166
955.984 .0271055
956.607 .0270955
957.229 .0270863
957.850 .0270780
958.471 .0270696
959.092 .0270610
959.713 .0270516
960.333 .0270412
960.952 .0270295
961.572 .0270166
962.191 .0270027
962.809 .0269880
963.428 .0269726
964.045 .0269566
964.663 .0269409
965.280 .0269252
965.897 .0269101
966.513 .0268959
967.129 .0268831
967.745 .0268717
968.361 .0268619
968.976 .0268538
969.590 .0268473
970.205 .0268422
970.818 .0268385
971.432 .0268355
972.045 .0268338
972.658 .0268326
973.271 .0268315
973.883 .0268305
974.495 .0268294
975.106 .0268283
975.717 .0268272
976.328 .0268258
976.938 .0268247
977.548 .0268241
978.158 .0268242
978.768 .0268250
979.377 .0268262
979.985 .0268278
980.594 .0268293
981.202 .0268303
981.809 .0268304
982.417 .0268298
983.024 .0268283
983.631 .0268264
984.237 .0268243
984.843 .0268218
985.449 .0268188
986.054 .0268154
986.659 .0268119
987.264 .0268080
987.868 .0268041
988.472 .0268006
989.076 .0267975
989.679 .0267951
990.282 .0267934
990.885 .0267925
991.487 .0267923
992.090 .0267931
992.691 .0267942
993.293 .0267963
993.894 .0267993
994.495 .0268034
995.095 .0268084
995.696 .0268142
996.296 .0268206
996.895 .0268268
997.494 .0268325
998.093 .0268376
998.692 .0268416
999.291 .0268454
999.889 .0268487
1000.487 .0268524
1001.084 .0268570
1001.681 .0268624
1002.278 .0268690
1002.875 .0268764
1003.471 .0268844
1004.067 .0268930
1004.663 .0269022
1005.258 .0269117
1005.854 .0269206
1006.449 .0269294
1007.043 .0269384
1007.638 .0269465
1008.232 .0269541
1008.826 .0269609
1009.419 .0269669
1010.012 .0269723
1010.605 .0269769
1011.198 .0269804
1011.791 .0269833
1012.383 .0269857
1012.975 .0269868
1013.566 .0269866
1014.158 .0269858
1014.749 .0269841
1015.340 .0269824
1015.931 .0269819
1016.521 .0269823
1017.111 .0269843
1017.701 .0269886
1018.291 .0269944
1018.880 .0270012
1019.470 .0270089
1020.059 .0270164
1020.647 .0270239
1021.236 .0270311
1021.824 .0270379
1022.412 .0270446
1023.000 .0270521
1023.588 .0270597
1024.175 .0270665
1024.762 .0270729
1025.349 .0270778
1025.936 .0270803
1026.523 .0270813
1027.109 .0270798
1027.695 .0270761
1028.281 .0270707
1028.867 .0270643
1029.452 .0270572
1030.038 .0270499
1030.623 .0270423
1031.208 .0270338
1031.792 .0270247
1032.377 .0270143
1032.961 .0270023
1033.546 .0269904
1034.130 .0269789
1034.714 .0269675
1035.297 .0269576
1035.881 .0269491
1036.464 .0269412
1037.047 .0269340
1037.630 .0269267
1038.213 .0269191
1038.796 .0269108
1039.378 .0269012
1039.961 .0268908
1040.543 .0268801
1041.125 .0268702
1041.707 .0268606
1042.289 .0268515
1042.871 .0268431
1043.452 .0268339
1044.034 .0268241
1044.615 .0268126
1045.196 .0267999
1045.777 .0267863
1046.358 .0267723
1046.939 .0267584
1047.520 .0267456
1048.101 .0267344
1048.681 .0267257
1049.262 .0267189
1049.842 .0267134
1050.422 .0267083
1051.002 .0267029
1051.582 .0266960
1052.162 .0266877
1052.742 .0266782
1053.322 .0266684
1053.902 .0266580
1054.482 .0266493
1055.061 .0266416
1055.641 .0266355
1056.220 .0266298
1056.800 .0266239
1057.379 .0266176
1057.958 .0266096
1058.538 .0265983
1059.117 .0265846
1059.696 .0265687
1060.275 .0265503
1060.854 .0265300
1061.433 .0265098
1062.012 .0264897
1062.592 .0264703
1063.171 .0264518
1063.750 .0264332
1064.329 .0264146
1064.908 .0263958
1065.487 .0263747
1066.066 .0263536
1066.645 .0263330
1067.224 .0263118
1067.803 .0262912
1068.382 .0262731
1068.961 .0262568
1069.540 .0262431
1070.119 .0262322
1070.698 .0262228
1071.278 .0262140
1071.857 .0262055
1072.436 .0261956
1073.016 .0261847
1073.595 .0261746
1074.175 .0261649
1074.754 .0261552
1075.334 .0261485
1075.913 .0261421
1076.493 .0261373
1077.073 .0261337
1077.653 .0261303
1078.233 .0261257
1078.813 .0261201
1079.393 .0261130
1079.974 .0261053
1080.554 .0260985
1081.135 .0260939
1081.716 .0260918
1082.296 .0260935
1082.877 .0260979
1083.458 .0261031
1084.040 .0261073
1084.621 .0261107
1085.202 .0261106
1085.784 .0261089
1086.366 .0261039
1086.948 .0260967
1087.530 .0260877
1088.112 .0260778
1088.695 .0260676
1089.277 .0260565
1089.860 .0260448
1090.443 .0260306
1091.026 .0260125
1091.610 .0259910
1092.193 .0259660
1092.777 .0259400
1093.361 .0259150
1093.946 .0258927
1094.530 .0258733
1095.115 .0258590
1095.700 .0258491
1096.285 .0258432
1096.871 .0258418
1097.456 .0258441
1098.042 .0258487
1098.628 .0258545
1099.215 .0258607
1099.802 .0258669
1100.389 .0258736
1100.976 .0258815
1101.564 .0258890
1102.152 .0258971
1102.740 .0259039
1103.329 .0259093
1103.917 .0259146
1104.507 .0259188
1105.096 .0259198
1105.686 .0259208
1106.276 .0259207
1106.867 .0259201
1107.457 .0259191
1108.049 .0259194
1108.640 .0259217
1109.232 .0259278
1109.825 .0259381
1110.417 .0259519
1111.010 .0259695
1111.604 .0259916
1112.198 .0260161
1112.792 .0260456
1113.387 .0260768
1113.982 .0261079
1114.577 .0261417
1115.173 .0261780
1115.769 .0262125
1116.366 .0262452
1116.963 .0262777
1117.561 .0263108
1118.159 .0263416
1118.758 .0263684
1119.357 .0263901
1119.957 .0264084
1120.557 .0264232
1121.157 .0264318
1121.758 .0264371
1122.360 .0264420
1122.962 .0264421
1123.564 .0264424
1124.167 .0264452
1124.771 .0264528
1125.375 .0264651
1125.980 .0264856
1126.585 .0265128
1127.191 .0265456
1127.797 .0265814
1128.404 .0266193
1129.012 .0266577
1129.620 .0266995
1130.229 .0267384
1130.838 .0267778
1131.448 .0268205
1132.058 .0268669
1132.669 .0269143
1133.281 .0269668
1133.894 .0270209
1134.507 .0270753
1135.120 .0271262
1135.735 .0271749
1136.350 .0272183
1136.965 .0272621
1137.582 .0273043
1138.199 .0273475
1138.816 .0273970
1139.435 .0274520
1140.054 .0275147
1140.674 .0275920
1141.294 .0276797
1141.916 .0277812
1142.538 .0277822
1143.160 .0279494
1143.784 .0282247
1144.408 .0282544
1145.033 .0284208
