Measurement Sequence started on: 14-45-04-498
Integration time: 36
Scans to Average: 2 
>>>>>Begin Spectral Data<<<<<
433.946 .0379865
434.870 .0438804
435.793 .0435700
436.715 .0425173
437.635 .0427877
438.555 .0423838
439.473 .0423407
440.389 .0420720
441.305 .0418059
442.219 .0415586
443.132 .0413125
444.044 .0410879
444.954 .0408868
445.863 .0407220
446.771 .0405870
447.678 .0404524
448.584 .0403180
449.488 .0401798
450.391 .0400316
451.293 .0398698
452.194 .0397015
453.094 .0395329
453.992 .0393822
454.890 .0392514
455.786 .0391410
456.681 .0390395
457.575 .0389473
458.468 .0388485
459.360 .0387448
460.250 .0386305
461.140 .0385052
462.028 .0383735
462.915 .0382391
463.801 .0381033
464.687 .0379744
465.571 .0378482
466.454 .0377298
467.335 .0376188
468.216 .0375137
469.096 .0374079
469.975 .0373070
470.853 .0372091
471.729 .0371168
472.605 .0370304
473.479 .0369511
474.353 .0368752
475.226 .0368064
476.097 .0367399
476.968 .0366745
477.838 .0366106
478.706 .0365489
479.574 .0364871
480.441 .0364326
481.306 .0363839
482.171 .0363425
483.035 .0363098
483.898 .0362859
484.760 .0362651
485.621 .0362478
486.481 .0362314
487.340 .0362127
488.198 .0361924
489.055 .0361694
489.912 .0361423
490.767 .0361149
491.622 .0360870
492.476 .0360601
493.329 .0360346
494.180 .0360111
495.032 .0359887
495.882 .0359676
496.731 .0359464
497.580 .0359244
498.427 .0358981
499.274 .0358678
500.120 .0358334
500.965 .0357942
501.809 .0357524
502.653 .0357090
503.495 .0356664
504.337 .0356226
505.178 .0355819
506.018 .0355426
506.858 .0355003
507.696 .0354572
508.534 .0354091
509.371 .0353525
510.208 .0352885
511.043 .0352204
511.878 .0351495
512.712 .0350799
513.545 .0350149
514.377 .0349556
515.209 .0349042
516.040 .0348628
516.870 .0348285
517.699 .0348009
518.528 .0347804
519.356 .0347589
520.183 .0347379
521.010 .0347236
521.836 .0347149
522.661 .0347118
523.485 .0347126
524.309 .0347192
525.132 .0347224
525.954 .0347176
526.776 .0347100
527.597 .0346943
528.417 .0346657
529.237 .0346211
530.056 .0345566
530.874 .0344749
531.692 .0343791
532.508 .0342744
533.325 .0341632
534.140 .0340568
534.955 .0339554
535.770 .0338532
536.583 .0337570
537.397 .0336711
538.209 .0335834
539.021 .0334915
539.832 .0333946
540.643 .0332873
541.453 .0331783
542.262 .0330725
543.071 .0329739
543.879 .0328922
544.687 .0328315
545.494 .0327907
546.300 .0327665
547.106 .0327614
547.911 .0327666
548.716 .0327777
549.520 .0327949
550.323 .0328080
551.126 .0328198
551.929 .0328329
552.731 .0328454
553.532 .0328589
554.332 .0328751
555.133 .0328896
555.932 .0329026
556.731 .0329137
557.530 .0329165
558.328 .0329114
559.125 .0328980
559.922 .0328774
560.719 .0328476
561.515 .0328123
562.310 .0327723
563.105 .0327291
563.899 .0326901
564.693 .0326532
565.487 .0326225
566.280 .0325989
567.072 .0325840
567.864 .0325757
568.655 .0325696
569.446 .0325637
570.236 .0325543
571.026 .0325407
571.816 .0325234
572.605 .0325021
573.393 .0324791
574.181 .0324575
574.969 .0324374
575.756 .0324167
576.543 .0323963
577.329 .0323756
578.115 .0323518
578.900 .0323240
579.685 .0322913
580.469 .0322535
581.253 .0322127
582.036 .0321727
582.820 .0321350
583.602 .0321019
584.384 .0320740
585.166 .0320511
585.947 .0320339
586.728 .0320206
587.509 .0320084
588.289 .0319968
589.069 .0319853
589.848 .0319724
590.627 .0319568
591.405 .0319387
592.183 .0319183
592.961 .0318969
593.738 .0318747
594.515 .0318506
595.291 .0318264
596.067 .0318022
596.843 .0317770
597.618 .0317508
598.393 .0317246
599.167 .0316971
599.941 .0316697
600.715 .0316425
601.488 .0316160
602.261 .0315900
603.034 .0315653
603.806 .0315422
604.578 .0315216
605.349 .0315034
606.121 .0314875
606.891 .0314735
607.662 .0314616
608.432 .0314504
609.201 .0314391
609.971 .0314270
610.740 .0314143
611.508 .0313994
612.277 .0313828
613.045 .0313644
613.812 .0313450
614.579 .0313250
615.346 .0313052
616.113 .0312860
616.879 .0312670
617.645 .0312482
618.411 .0312286
619.176 .0312076
619.941 .0311860
620.705 .0311639
621.470 .0311420
622.233 .0311208
622.997 .0311018
623.760 .0310842
624.523 .0310682
625.286 .0310533
626.048 .0310384
626.810 .0310225
627.572 .0310047
628.333 .0309850
629.095 .0309634
629.855 .0309407
630.616 .0309178
631.376 .0308954
632.136 .0308749
632.895 .0308557
633.655 .0308379
634.414 .0308203
635.172 .0308031
635.931 .0307854
636.689 .0307673
637.447 .0307490
638.204 .0307307
638.962 .0307129
639.718 .0306965
640.475 .0306816
641.231 .0306676
641.988 .0306540
642.743 .0306410
643.499 .0306274
644.254 .0306126
645.009 .0305966
645.764 .0305795
646.518 .0305615
647.272 .0305436
648.026 .0305259
648.780 .0305088
649.533 .0304933
650.286 .0304787
651.039 .0304650
651.792 .0304518
652.544 .0304396
653.296 .0304274
654.048 .0304160
654.799 .0304053
655.550 .0303948
656.301 .0303847
657.052 .0303754
657.802 .0303664
658.552 .0303580
659.302 .0303491
660.052 .0303393
660.801 .0303284
661.550 .0303171
662.299 .0303046
663.048 .0302917
663.796 .0302790
664.544 .0302669
665.292 .0302556
666.040 .0302452
666.787 .0302354
667.534 .0302266
668.281 .0302184
669.028 .0302104
669.774 .0302022
670.521 .0301939
671.266 .0301853
672.012 .0301769
672.758 .0301688
673.503 .0301606
674.248 .0301525
674.992 .0301446
675.737 .0301367
676.481 .0301287
677.225 .0301201
677.969 .0301104
678.712 .0300997
679.455 .0300879
680.199 .0300747
680.941 .0300604
681.684 .0300457
682.426 .0300311
683.168 .0300166
683.910 .0300029
684.652 .0299895
685.393 .0299767
686.134 .0299648
686.875 .0299528
687.616 .0299407
688.356 .0299287
689.097 .0299164
689.837 .0299042
690.576 .0298923
691.316 .0298813
692.055 .0298712
692.794 .0298625
693.533 .0298551
694.272 .0298484
695.010 .0298424
695.748 .0298363
696.486 .0298294
697.224 .0298223
697.962 .0298144
698.699 .0298059
699.436 .0297974
700.173 .0297889
700.909 .0297802
701.646 .0297717
702.382 .0297630
703.118 .0297537
703.853 .0297438
704.589 .0297332
705.324 .0297216
706.059 .0297097
706.794 .0296978
707.529 .0296859
708.263 .0296750
708.997 .0296648
709.731 .0296547
710.465 .0296450
711.198 .0296354
711.931 .0296253
712.664 .0296143
713.397 .0296031
714.130 .0295911
714.862 .0295789
715.594 .0295667
716.326 .0295543
717.058 .0295423
717.789 .0295306
718.520 .0295184
719.251 .0295060
719.982 .0294931
720.713 .0294798
721.443 .0294658
722.173 .0294515
722.903 .0294373
723.633 .0294232
724.362 .0294096
725.091 .0293967
725.820 .0293840
726.549 .0293719
727.278 .0293600
728.006 .0293485
728.734 .0293369
729.462 .0293251
730.190 .0293136
730.917 .0293021
731.644 .0292907
732.371 .0292800
733.098 .0292696
733.825 .0292603
734.551 .0292514
735.277 .0292427
736.003 .0292340
736.728 .0292250
737.454 .0292160
738.179 .0292065
738.904 .0291970
739.629 .0291874
740.353 .0291777
741.077 .0291684
741.801 .0291594
742.525 .0291506
743.249 .0291421
743.972 .0291335
744.695 .0291246
745.418 .0291152
746.141 .0291049
746.863 .0290941
747.585 .0290826
748.307 .0290705
749.029 .0290576
749.750 .0290441
750.472 .0290306
751.193 .0290167
751.913 .0290028
752.634 .0289887
753.354 .0289747
754.074 .0289608
754.794 .0289467
755.514 .0289327
756.233 .0289188
756.952 .0289050
757.671 .0288913
758.390 .0288779
759.108 .0288653
759.826 .0288536
760.544 .0288431
761.262 .0288338
761.979 .0288259
762.697 .0288190
763.414 .0288131
764.130 .0288082
764.847 .0288042
765.563 .0288004
766.279 .0287968
766.995 .0287933
767.710 .0287895
768.426 .0287852
769.141 .0287802
769.855 .0287745
770.570 .0287683
771.284 .0287612
771.998 .0287533
772.712 .0287453
773.426 .0287375
774.139 .0287297
774.852 .0287220
775.565 .0287146
776.277 .0287068
776.990 .0286990
777.702 .0286910
778.414 .0286825
779.125 .0286740
779.836 .0286655
780.547 .0286575
781.258 .0286500
781.969 .0286435
782.679 .0286378
783.389 .0286329
784.099 .0286286
784.808 .0286244
785.517 .0286200
786.226 .0286151
786.935 .0286100
787.643 .0286044
788.352 .0285982
789.060 .0285915
789.767 .0285845
790.475 .0285771
791.182 .0285695
791.889 .0285619
792.595 .0285545
793.301 .0285475
794.008 .0285409
794.713 .0285345
795.419 .0285289
796.124 .0285237
796.829 .0285186
797.534 .0285137
798.238 .0285088
798.942 .0285036
799.646 .0284984
800.350 .0284931
801.053 .0284876
801.756 .0284819
802.459 .0284760
803.162 .0284696
803.864 .0284626
804.566 .0284552
805.267 .0284468
805.969 .0284378
806.670 .0284285
807.371 .0284184
808.071 .0284085
808.772 .0283986
809.472 .0283885
810.171 .0283786
810.871 .0283682
811.570 .0283573
812.269 .0283456
812.967 .0283335
813.666 .0283208
814.364 .0283079
815.061 .0282948
815.759 .0282813
816.456 .0282674
817.153 .0282533
817.849 .0282377
818.545 .0282211
819.241 .0282034
819.937 .0281843
820.632 .0281644
821.327 .0281438
822.022 .0281231
822.717 .0281028
823.411 .0280833
824.105 .0280648
824.798 .0280471
825.491 .0280303
826.184 .0280144
826.877 .0279994
827.569 .0279850
828.261 .0279711
828.953 .0279577
829.645 .0279449
830.336 .0279328
831.027 .0279213
831.717 .0279105
832.407 .0279008
833.097 .0278919
833.787 .0278829
834.476 .0278744
835.165 .0278661
835.854 .0278580
836.542 .0278499
837.230 .0278416
837.918 .0278330
838.605 .0278242
839.292 .0278155
839.979 .0278071
840.665 .0277993
841.352 .0277925
842.037 .0277864
842.723 .0277813
843.408 .0277770
844.093 .0277728
844.777 .0277686
845.462 .0277641
846.145 .0277590
846.829 .0277527
847.512 .0277452
848.195 .0277376
848.878 .0277298
849.560 .0277224
850.242 .0277155
850.923 .0277091
851.605 .0277030
852.286 .0276967
852.966 .0276896
853.646 .0276813
854.326 .0276719
855.006 .0276612
855.685 .0276491
856.364 .0276364
857.043 .0276235
857.721 .0276109
858.399 .0275987
859.077 .0275874
859.754 .0275763
860.431 .0275653
861.107 .0275546
861.784 .0275437
862.459 .0275329
863.135 .0275221
863.810 .0275115
864.485 .0275007
865.160 .0274904
865.834 .0274803
866.508 .0274708
867.181 .0274622
867.854 .0274550
868.527 .0274492
869.199 .0274443
869.872 .0274407
870.543 .0274379
871.215 .0274350
871.886 .0274325
872.557 .0274292
873.227 .0274254
873.897 .0274208
874.567 .0274156
875.236 .0274098
875.905 .0274042
876.573 .0273985
877.242 .0273924
877.909 .0273858
878.577 .0273786
879.244 .0273702
879.911 .0273602
880.577 .0273491
881.243 .0273367
881.909 .0273235
882.575 .0273099
883.240 .0272959
883.904 .0272820
884.569 .0272679
885.232 .0272538
885.896 .0272399
886.559 .0272261
887.222 .0272128
887.885 .0271998
888.547 .0271878
889.208 .0271765
889.870 .0271660
890.531 .0271564
891.192 .0271472
891.852 .0271387
892.512 .0271302
893.171 .0271217
893.830 .0271136
894.489 .0271059
895.148 .0270983
895.806 .0270911
896.464 .0270842
897.121 .0270769
897.778 .0270694
898.434 .0270619
899.091 .0270539
899.747 .0270452
900.402 .0270363
901.057 .0270267
901.712 .0270167
902.366 .0270064
903.020 .0269956
903.674 .0269849
904.327 .0269744
904.980 .0269636
905.633 .0269527
906.285 .0269421
906.936 .0269320
907.588 .0269213
908.239 .0269108
908.889 .0268999
909.540 .0268878
910.190 .0268754
910.839 .0268619
911.488 .0268479
912.137 .0268337
912.785 .0268188
913.433 .0268036
914.081 .0267883
914.728 .0267726
915.375 .0267560
916.021 .0267388
916.668 .0267208
917.313 .0267015
917.959 .0266815
918.604 .0266616
919.248 .0266418
919.892 .0266231
920.536 .0266050
921.180 .0265877
921.823 .0265715
922.465 .0265553
923.108 .0265390
923.750 .0265226
924.391 .0265060
925.032 .0264890
925.673 .0264716
926.313 .0264547
926.953 .0264385
927.593 .0264225
928.232 .0264068
928.871 .0263908
929.510 .0263745
930.148 .0263570
930.786 .0263381
931.423 .0263187
932.060 .0262987
932.697 .0262783
933.333 .0262578
933.969 .0262370
934.604 .0262166
935.239 .0261964
935.874 .0261764
936.508 .0261570
937.142 .0261385
937.776 .0261206
938.409 .0261035
939.042 .0260875
939.674 .0260725
940.306 .0260578
940.938 .0260437
941.569 .0260298
942.200 .0260164
942.830 .0260036
943.460 .0259920
944.090 .0259814
944.720 .0259721
945.349 .0259638
945.977 .0259562
946.606 .0259486
947.233 .0259411
947.861 .0259326
948.488 .0259235
949.115 .0259135
949.741 .0259036
950.367 .0258943
950.993 .0258862
951.618 .0258800
952.243 .0258753
952.868 .0258717
953.492 .0258688
954.115 .0258657
954.739 .0258623
955.362 .0258581
955.984 .0258534
956.607 .0258481
957.229 .0258435
957.850 .0258399
958.471 .0258374
959.092 .0258361
959.713 .0258362
960.333 .0258367
960.952 .0258369
961.572 .0258369
962.191 .0258358
962.809 .0258338
963.428 .0258310
964.045 .0258269
964.663 .0258221
965.280 .0258170
965.897 .0258115
966.513 .0258062
967.129 .0258015
967.745 .0257970
968.361 .0257921
968.976 .0257873
969.590 .0257821
970.205 .0257766
970.818 .0257708
971.432 .0257650
972.045 .0257592
972.658 .0257542
973.271 .0257495
973.883 .0257453
974.495 .0257417
975.106 .0257389
975.717 .0257361
976.328 .0257339
976.938 .0257318
977.548 .0257297
978.158 .0257277
978.768 .0257258
979.377 .0257234
979.985 .0257207
980.594 .0257176
981.202 .0257140
981.809 .0257102
982.417 .0257065
983.024 .0257026
983.631 .0256990
984.237 .0256957
984.843 .0256921
985.449 .0256876
986.054 .0256823
986.659 .0256759
987.264 .0256683
987.868 .0256600
988.472 .0256516
989.076 .0256435
989.679 .0256364
990.282 .0256301
990.885 .0256246
991.487 .0256192
992.090 .0256135
992.691 .0256064
993.293 .0255982
993.894 .0255892
994.495 .0255792
995.095 .0255685
995.696 .0255585
996.296 .0255494
996.895 .0255411
997.494 .0255339
998.093 .0255270
998.692 .0255198
999.291 .0255123
999.889 .0255034
1000.487 .0254931
1001.084 .0254814
1001.681 .0254688
1002.278 .0254551
1002.875 .0254409
1003.471 .0254270
1004.067 .0254130
1004.663 .0254002
1005.258 .0253889
1005.854 .0253781
1006.449 .0253683
1007.043 .0253586
1007.638 .0253484
1008.232 .0253376
1008.826 .0253262
1009.419 .0253139
1010.012 .0253012
1010.605 .0252892
1011.198 .0252780
1011.791 .0252676
1012.383 .0252591
1012.975 .0252520
1013.566 .0252454
1014.158 .0252394
1014.749 .0252331
1015.340 .0252264
1015.931 .0252192
1016.521 .0252116
1017.111 .0252043
1017.701 .0251976
1018.291 .0251922
1018.880 .0251879
1019.470 .0251848
1020.059 .0251832
1020.647 .0251819
1021.236 .0251809
1021.824 .0251800
1022.412 .0251788
1023.000 .0251771
1023.588 .0251751
1024.175 .0251724
1024.762 .0251692
1025.349 .0251652
1025.936 .0251610
1026.523 .0251565
1027.109 .0251513
1027.695 .0251459
1028.281 .0251400
1028.867 .0251341
1029.452 .0251285
1030.038 .0251232
1030.623 .0251181
1031.208 .0251132
1031.792 .0251090
1032.377 .0251047
1032.961 .0251006
1033.546 .0250967
1034.130 .0250928
1034.714 .0250896
1035.297 .0250870
1035.881 .0250847
1036.464 .0250835
1037.047 .0250840
1037.630 .0250852
1038.213 .0250869
1038.796 .0250892
1039.378 .0250914
1039.961 .0250932
1040.543 .0250942
1041.125 .0250944
1041.707 .0250937
1042.289 .0250930
1042.871 .0250916
1043.452 .0250904
1044.034 .0250896
1044.615 .0250880
1045.196 .0250863
1045.777 .0250839
1046.358 .0250809
1046.939 .0250767
1047.520 .0250718
1048.101 .0250659
1048.681 .0250601
1049.262 .0250545
1049.842 .0250496
1050.422 .0250456
1051.002 .0250429
1051.582 .0250405
1052.162 .0250388
1052.742 .0250384
1053.322 .0250382
1053.902 .0250388
1054.482 .0250407
1055.061 .0250429
1055.641 .0250469
1056.220 .0250517
1056.800 .0250577
1057.379 .0250645
1057.958 .0250719
1058.538 .0250783
1059.117 .0250833
1059.696 .0250862
1060.275 .0250874
1060.854 .0250863
1061.433 .0250842
1062.012 .0250803
1062.592 .0250763
1063.171 .0250735
1063.750 .0250720
1064.329 .0250724
1064.908 .0250751
1065.487 .0250779
1066.066 .0250823
1066.645 .0250860
1067.224 .0250900
1067.803 .0250938
1068.382 .0250984
1068.961 .0251043
1069.540 .0251119
1070.119 .0251210
1070.698 .0251323
1071.278 .0251446
1071.857 .0251584
1072.436 .0251711
1073.016 .0251829
1073.595 .0251933
1074.175 .0252018
1074.754 .0252084
1075.334 .0252136
1075.913 .0252175
1076.493 .0252220
1077.073 .0252256
1077.653 .0252302
1078.233 .0252357
1078.813 .0252415
1079.393 .0252478
1079.974 .0252540
1080.554 .0252602
1081.135 .0252662
1081.716 .0252717
1082.296 .0252764
1082.877 .0252790
1083.458 .0252797
1084.040 .0252778
1084.621 .0252736
1085.202 .0252678
1085.784 .0252593
1086.366 .0252496
1086.948 .0252377
1087.530 .0252248
1088.112 .0252104
1088.695 .0251963
1089.277 .0251828
1089.860 .0251716
1090.443 .0251618
1091.026 .0251539
1091.610 .0251488
1092.193 .0251467
1092.777 .0251468
1093.361 .0251496
1093.946 .0251515
1094.530 .0251535
1095.115 .0251556
1095.700 .0251582
1096.285 .0251609
1096.871 .0251665
1097.456 .0251736
1098.042 .0251826
1098.628 .0251923
1099.215 .0252014
1099.802 .0252086
1100.389 .0252144
1100.976 .0252170
1101.564 .0252151
1102.152 .0252108
1102.740 .0252055
1103.329 .0252002
1103.917 .0252002
1104.507 .0252022
1105.096 .0252068
1105.686 .0252143
1106.276 .0252221
1106.867 .0252293
1107.457 .0252355
1108.049 .0252399
1108.640 .0252424
1109.232 .0252431
1109.825 .0252437
1110.417 .0252422
1111.010 .0252432
1111.604 .0252457
1112.198 .0252483
1112.792 .0252527
1113.387 .0252573
1113.982 .0252626
1114.577 .0252712
1115.173 .0252823
1115.769 .0252960
1116.366 .0253108
1116.963 .0253278
1117.561 .0253445
1118.159 .0253606
1118.758 .0253747
1119.357 .0253877
1119.957 .0253973
1120.557 .0254061
1121.157 .0254142
1121.758 .0254236
1122.360 .0254371
1122.962 .0254524
1123.564 .0254718
1124.167 .0254936
1124.771 .0255176
1125.375 .0255418
1125.980 .0255618
1126.585 .0255815
1127.191 .0255950
1127.797 .0256045
1128.404 .0256132
1129.012 .0256240
1129.620 .0256404
1130.229 .0256640
1130.838 .0256967
1131.448 .0257353
1132.058 .0257782
1132.669 .0258240
1133.281 .0258672
1133.894 .0259058
1134.507 .0259359
1135.120 .0259604
1135.735 .0259826
1136.350 .0260067
1136.965 .0260332
1137.582 .0260671
1138.199 .0261085
1138.816 .0261528
1139.435 .0261978
1140.054 .0262483
1140.674 .0263023
1141.294 .0263672
1141.916 .0264263
1142.538 .0263560
1143.160 .0265870
1143.784 .0266467
1144.408 .0269128
1145.033 .0266413
