Measurement Sequence started on: 14-45-04-498
Integration time: 36
Scans to Average: 2 
>>>>>Begin Spectral Data<<<<<
433.946 .0308961
434.870 .0374622
435.793 .0359931
436.715 .0343654
437.635 .0337453
438.555 .0355949
439.473 .0360350
440.389 .0363385
441.305 .0367123
442.219 .0371063
443.132 .0374637
444.044 .0377477
444.954 .0379838
445.863 .0381837
446.771 .0383674
447.678 .0385364
448.584 .0386870
449.488 .0387912
450.391 .0388594
451.293 .0388885
452.194 .0388706
453.094 .0388234
453.992 .0387476
454.890 .0386470
455.786 .0385273
456.681 .0384076
457.575 .0382887
458.468 .0381700
459.360 .0380649
460.250 .0379727
461.140 .0378898
462.028 .0378194
462.915 .0377462
463.801 .0376722
464.687 .0376003
465.571 .0375279
466.454 .0374512
467.335 .0373770
468.216 .0373084
469.096 .0372447
469.975 .0371878
470.853 .0371423
471.729 .0370978
472.605 .0370554
473.479 .0370180
474.353 .0369801
475.226 .0369410
476.097 .0369051
476.968 .0368747
477.838 .0368509
478.706 .0368332
479.574 .0368158
480.441 .0367990
481.306 .0367823
482.171 .0367654
483.035 .0367431
483.898 .0367210
484.760 .0366985
485.621 .0366737
486.481 .0366493
487.340 .0366265
488.198 .0366035
489.055 .0365785
489.912 .0365505
490.767 .0365192
491.622 .0364820
492.476 .0364421
493.329 .0363985
494.180 .0363559
495.032 .0363128
495.882 .0362729
496.731 .0362400
497.580 .0362153
498.427 .0362001
499.274 .0361938
500.120 .0361957
500.965 .0362033
501.809 .0362130
502.653 .0362191
503.495 .0362219
504.337 .0362192
505.178 .0362022
506.018 .0361738
506.858 .0361316
507.696 .0360825
508.534 .0360246
509.371 .0359622
510.208 .0359012
511.043 .0358409
511.878 .0357825
512.712 .0357240
513.545 .0356626
514.377 .0356006
515.209 .0355308
516.040 .0354536
516.870 .0353686
517.699 .0352835
518.528 .0351990
519.356 .0351230
520.183 .0350618
521.010 .0350247
521.836 .0350062
522.661 .0350085
523.485 .0350248
524.309 .0350417
525.132 .0350482
525.954 .0350391
526.776 .0350044
527.597 .0349497
528.417 .0348733
529.237 .0347877
530.056 .0347054
530.874 .0346374
531.692 .0345760
532.508 .0345280
533.325 .0344934
534.140 .0344553
534.955 .0344032
535.770 .0343388
536.583 .0342610
537.397 .0341769
538.209 .0340955
539.021 .0340125
539.832 .0339383
540.643 .0338859
541.453 .0338435
542.262 .0338069
543.071 .0337750
543.879 .0337359
544.687 .0336861
545.494 .0336321
546.300 .0335706
547.106 .0335084
547.911 .0334548
548.716 .0334135
549.520 .0333777
550.323 .0333521
551.126 .0333284
551.929 .0332996
552.731 .0332617
553.532 .0332089
554.332 .0331341
555.133 .0330476
555.932 .0329564
556.731 .0328700
557.530 .0327883
558.328 .0327219
559.125 .0326690
559.922 .0326339
560.719 .0326090
561.515 .0325898
562.310 .0325746
563.105 .0325622
563.899 .0325520
564.693 .0325409
565.487 .0325333
566.280 .0325362
567.072 .0325463
567.864 .0325604
568.655 .0325818
569.446 .0326049
570.236 .0326261
571.026 .0326471
571.816 .0326623
572.605 .0326690
573.393 .0326696
574.181 .0326659
574.969 .0326542
575.756 .0326369
576.543 .0326177
577.329 .0325908
578.115 .0325627
578.900 .0325307
579.685 .0324924
580.469 .0324533
581.253 .0324143
582.036 .0323717
582.820 .0323292
583.602 .0322885
584.384 .0322509
585.166 .0322149
585.947 .0321816
586.728 .0321486
587.509 .0321148
588.289 .0320823
589.069 .0320482
589.848 .0320134
590.627 .0319774
591.405 .0319375
592.183 .0318956
592.961 .0318528
593.738 .0318100
594.515 .0317669
595.291 .0317262
596.067 .0316876
596.843 .0316505
597.618 .0316154
598.393 .0315821
599.167 .0315503
599.941 .0315200
600.715 .0314907
601.488 .0314620
602.261 .0314349
603.034 .0314086
603.806 .0313845
604.578 .0313639
605.349 .0313463
606.121 .0313316
606.891 .0313197
607.662 .0313103
608.432 .0313024
609.201 .0312946
609.971 .0312861
610.740 .0312757
611.508 .0312629
612.277 .0312471
613.045 .0312289
613.812 .0312092
614.579 .0311887
615.346 .0311683
616.113 .0311491
616.879 .0311311
617.645 .0311146
618.411 .0310989
619.176 .0310837
619.941 .0310677
620.705 .0310505
621.470 .0310309
622.233 .0310095
622.997 .0309865
623.760 .0309633
624.523 .0309410
625.286 .0309195
626.048 .0308992
626.810 .0308799
627.572 .0308611
628.333 .0308419
629.095 .0308214
629.855 .0307989
630.616 .0307740
631.376 .0307469
632.136 .0307184
632.895 .0306900
633.655 .0306633
634.414 .0306388
635.172 .0306161
635.931 .0305956
636.689 .0305751
637.447 .0305538
638.204 .0305318
638.962 .0305076
639.718 .0304814
640.475 .0304532
641.231 .0304235
641.988 .0303929
642.743 .0303627
643.499 .0303332
644.254 .0303046
645.009 .0302773
645.764 .0302503
646.518 .0302232
647.272 .0301967
648.026 .0301703
648.780 .0301433
649.533 .0301165
650.286 .0300895
651.039 .0300622
651.792 .0300361
652.544 .0300115
653.296 .0299888
654.048 .0299682
654.799 .0299502
655.550 .0299336
656.301 .0299175
657.052 .0299019
657.802 .0298856
658.552 .0298690
659.302 .0298519
660.052 .0298340
660.801 .0298163
661.550 .0298001
662.299 .0297847
663.048 .0297707
663.796 .0297587
664.544 .0297486
665.292 .0297391
666.040 .0297301
666.787 .0297218
667.534 .0297134
668.281 .0297054
669.028 .0296991
669.774 .0296930
670.521 .0296885
671.266 .0296849
672.012 .0296818
672.758 .0296792
673.503 .0296760
674.248 .0296711
674.992 .0296650
675.737 .0296580
676.481 .0296498
677.225 .0296400
677.969 .0296309
678.712 .0296219
679.455 .0296128
680.199 .0296036
680.941 .0295940
681.684 .0295833
682.426 .0295723
683.168 .0295596
683.910 .0295460
684.652 .0295323
685.393 .0295186
686.134 .0295054
686.875 .0294938
687.616 .0294834
688.356 .0294742
689.097 .0294657
689.837 .0294578
690.576 .0294491
691.316 .0294396
692.055 .0294290
692.794 .0294176
693.533 .0294055
694.272 .0293931
695.010 .0293804
695.748 .0293679
696.486 .0293553
697.224 .0293418
697.962 .0293276
698.699 .0293124
699.436 .0292961
700.173 .0292792
700.909 .0292617
701.646 .0292441
702.382 .0292266
703.118 .0292091
703.853 .0291924
704.589 .0291762
705.324 .0291612
706.059 .0291467
706.794 .0291329
707.529 .0291202
708.263 .0291083
708.997 .0290970
709.731 .0290862
710.465 .0290754
711.198 .0290648
711.931 .0290532
712.664 .0290412
713.397 .0290290
714.130 .0290168
714.862 .0290054
715.594 .0289941
716.326 .0289833
717.058 .0289732
717.789 .0289625
718.520 .0289511
719.251 .0289389
719.982 .0289260
720.713 .0289126
721.443 .0288989
722.173 .0288857
722.903 .0288734
723.633 .0288627
724.362 .0288534
725.091 .0288450
725.820 .0288371
726.549 .0288288
727.278 .0288194
728.006 .0288092
728.734 .0287980
729.462 .0287861
730.190 .0287748
730.917 .0287648
731.644 .0287560
732.371 .0287489
733.098 .0287435
733.825 .0287393
734.551 .0287361
735.277 .0287329
736.003 .0287292
736.728 .0287252
737.454 .0287213
738.179 .0287177
738.904 .0287152
739.629 .0287144
740.353 .0287156
741.077 .0287187
741.801 .0287239
742.525 .0287296
743.249 .0287353
743.972 .0287403
744.695 .0287441
745.418 .0287464
746.141 .0287469
746.863 .0287462
747.585 .0287446
748.307 .0287427
749.029 .0287403
749.750 .0287373
750.472 .0287342
751.193 .0287303
751.913 .0287251
752.634 .0287186
753.354 .0287100
754.074 .0286999
754.794 .0286881
755.514 .0286750
756.233 .0286608
756.952 .0286459
757.671 .0286310
758.390 .0286163
759.108 .0286013
759.826 .0285868
760.544 .0285721
761.262 .0285581
761.979 .0285437
762.697 .0285290
763.414 .0285142
764.130 .0284993
764.847 .0284847
765.563 .0284709
766.279 .0284580
766.995 .0284470
767.710 .0284368
768.426 .0284277
769.141 .0284193
769.855 .0284116
770.570 .0284045
771.284 .0283983
771.998 .0283929
772.712 .0283886
773.426 .0283846
774.139 .0283816
774.852 .0283788
775.565 .0283756
776.277 .0283717
776.990 .0283665
777.702 .0283596
778.414 .0283511
779.125 .0283412
779.836 .0283309
780.547 .0283207
781.258 .0283106
781.969 .0283005
782.679 .0282905
783.389 .0282804
784.099 .0282700
784.808 .0282594
785.517 .0282490
786.226 .0282392
786.935 .0282304
787.643 .0282233
788.352 .0282176
789.060 .0282136
789.767 .0282110
790.475 .0282092
791.182 .0282072
791.889 .0282044
792.595 .0282002
793.301 .0281945
794.008 .0281873
794.713 .0281788
795.419 .0281692
796.124 .0281591
796.829 .0281485
797.534 .0281376
798.238 .0281265
798.942 .0281154
799.646 .0281044
800.350 .0280937
801.053 .0280838
801.756 .0280742
802.459 .0280651
803.162 .0280569
803.864 .0280501
804.566 .0280446
805.267 .0280403
805.969 .0280380
806.670 .0280373
807.371 .0280376
808.071 .0280394
808.772 .0280424
809.472 .0280455
810.171 .0280490
810.871 .0280521
811.570 .0280542
812.269 .0280558
812.967 .0280567
813.666 .0280566
814.364 .0280561
815.061 .0280557
815.759 .0280551
816.456 .0280547
817.153 .0280551
817.849 .0280552
818.545 .0280555
819.241 .0280556
819.937 .0280547
820.632 .0280526
821.327 .0280496
822.022 .0280450
822.717 .0280393
823.411 .0280328
824.105 .0280259
824.798 .0280189
825.491 .0280118
826.184 .0280045
826.877 .0279971
827.569 .0279891
828.261 .0279804
828.953 .0279708
829.645 .0279606
830.336 .0279492
831.027 .0279376
831.717 .0279266
832.407 .0279165
833.097 .0279081
833.787 .0279015
834.476 .0278969
835.165 .0278938
835.854 .0278916
836.542 .0278895
837.230 .0278871
837.918 .0278846
838.605 .0278819
839.292 .0278786
839.979 .0278760
840.665 .0278740
841.352 .0278725
842.037 .0278719
842.723 .0278715
843.408 .0278703
844.093 .0278676
844.777 .0278629
845.462 .0278559
846.145 .0278465
846.829 .0278359
847.512 .0278244
848.195 .0278128
848.878 .0278017
849.560 .0277907
850.242 .0277806
850.923 .0277711
851.605 .0277604
852.286 .0277486
852.966 .0277350
853.646 .0277196
854.326 .0277028
855.006 .0276853
855.685 .0276679
856.364 .0276513
857.043 .0276361
857.721 .0276217
858.399 .0276083
859.077 .0275951
859.754 .0275815
860.431 .0275675
861.107 .0275528
861.784 .0275367
862.459 .0275202
863.135 .0275040
863.810 .0274881
864.485 .0274728
865.160 .0274587
865.834 .0274452
866.508 .0274325
867.181 .0274194
867.854 .0274055
868.527 .0273910
869.199 .0273759
869.872 .0273594
870.543 .0273425
871.215 .0273257
871.886 .0273091
872.557 .0272928
873.227 .0272771
873.897 .0272616
874.567 .0272463
875.236 .0272305
875.905 .0272143
876.573 .0271974
877.242 .0271804
877.909 .0271628
878.577 .0271455
879.244 .0271287
879.911 .0271114
880.577 .0270947
881.243 .0270787
881.909 .0270629
882.575 .0270472
883.240 .0270320
883.904 .0270180
884.569 .0270047
885.232 .0269923
885.896 .0269803
886.559 .0269691
887.222 .0269585
887.885 .0269478
888.547 .0269367
889.208 .0269262
889.870 .0269167
890.531 .0269080
891.192 .0269005
891.852 .0268943
892.512 .0268894
893.171 .0268856
893.830 .0268818
894.489 .0268776
895.148 .0268723
895.806 .0268662
896.464 .0268594
897.121 .0268530
897.778 .0268472
898.434 .0268430
899.091 .0268404
899.747 .0268395
900.402 .0268392
901.057 .0268392
901.712 .0268394
902.366 .0268390
903.020 .0268380
903.674 .0268361
904.327 .0268338
904.980 .0268324
905.633 .0268316
906.285 .0268322
906.936 .0268337
907.588 .0268364
908.239 .0268394
908.889 .0268423
909.540 .0268438
910.190 .0268445
910.839 .0268435
911.488 .0268411
912.137 .0268372
912.785 .0268324
913.433 .0268276
914.081 .0268230
914.728 .0268181
915.375 .0268135
916.021 .0268088
916.668 .0268043
917.313 .0267987
917.959 .0267926
918.604 .0267853
919.248 .0267772
919.892 .0267685
920.536 .0267595
921.180 .0267508
921.823 .0267432
922.465 .0267359
923.108 .0267295
923.750 .0267235
924.391 .0267173
925.032 .0267101
925.673 .0267021
926.313 .0266930
926.953 .0266824
927.593 .0266705
928.232 .0266581
928.871 .0266453
929.510 .0266327
930.148 .0266198
930.786 .0266072
931.423 .0265953
932.060 .0265840
932.697 .0265730
933.333 .0265626
933.969 .0265522
934.604 .0265420
935.239 .0265312
935.874 .0265201
936.508 .0265091
937.142 .0264980
937.776 .0264865
938.409 .0264749
939.042 .0264630
939.674 .0264509
940.306 .0264383
940.938 .0264256
941.569 .0264123
942.200 .0263983
942.830 .0263832
943.460 .0263671
944.090 .0263511
944.720 .0263348
945.349 .0263180
945.977 .0263020
946.606 .0262864
947.233 .0262707
947.861 .0262554
948.488 .0262401
949.115 .0262247
949.741 .0262090
950.367 .0261921
950.993 .0261746
951.618 .0261576
952.243 .0261409
952.868 .0261251
953.492 .0261104
954.115 .0260970
954.739 .0260836
955.362 .0260704
955.984 .0260569
956.607 .0260427
957.229 .0260285
957.850 .0260144
958.471 .0260000
959.092 .0259863
959.713 .0259737
960.333 .0259619
960.952 .0259515
961.572 .0259419
962.191 .0259324
962.809 .0259229
963.428 .0259128
964.045 .0259014
964.663 .0258885
965.280 .0258751
965.897 .0258608
966.513 .0258457
967.129 .0258310
967.745 .0258158
968.361 .0258013
968.976 .0257878
969.590 .0257749
970.205 .0257626
970.818 .0257512
971.432 .0257404
972.045 .0257296
972.658 .0257190
973.271 .0257084
973.883 .0256973
974.495 .0256856
975.106 .0256732
975.717 .0256602
976.328 .0256474
976.938 .0256352
977.548 .0256240
978.158 .0256141
978.768 .0256053
979.377 .0255970
979.985 .0255888
980.594 .0255800
981.202 .0255705
981.809 .0255593
982.417 .0255476
983.024 .0255353
983.631 .0255226
984.237 .0255100
984.843 .0254986
985.449 .0254877
986.054 .0254765
986.659 .0254645
987.264 .0254521
987.868 .0254383
988.472 .0254236
989.076 .0254071
989.679 .0253899
990.282 .0253721
990.885 .0253535
991.487 .0253337
992.090 .0253137
992.691 .0252934
993.293 .0252731
993.894 .0252524
994.495 .0252329
995.095 .0252140
995.696 .0251973
996.296 .0251828
996.895 .0251707
997.494 .0251611
998.093 .0251537
998.692 .0251475
999.291 .0251431
999.889 .0251390
1000.487 .0251349
1001.084 .0251313
1001.681 .0251286
1002.278 .0251264
1002.875 .0251257
1003.471 .0251263
1004.067 .0251291
1004.663 .0251335
1005.258 .0251390
1005.854 .0251439
1006.449 .0251485
1007.043 .0251524
1007.638 .0251540
1008.232 .0251541
1008.826 .0251542
1009.419 .0251536
1010.012 .0251533
1010.605 .0251538
1011.198 .0251548
1011.791 .0251562
1012.383 .0251582
1012.975 .0251588
1013.566 .0251578
1014.158 .0251554
1014.749 .0251510
1015.340 .0251454
1015.931 .0251398
1016.521 .0251352
1017.111 .0251321
1017.701 .0251309
1018.291 .0251309
1018.880 .0251313
1019.470 .0251327
1020.059 .0251346
1020.647 .0251361
1021.236 .0251376
1021.824 .0251394
1022.412 .0251418
1023.000 .0251451
1023.588 .0251495
1024.175 .0251548
1024.762 .0251610
1025.349 .0251675
1025.936 .0251737
1026.523 .0251791
1027.109 .0251835
1027.695 .0251867
1028.281 .0251890
1028.867 .0251898
1029.452 .0251892
1030.038 .0251875
1030.623 .0251861
1031.208 .0251854
1031.792 .0251851
1032.377 .0251857
1032.961 .0251867
1033.546 .0251879
1034.130 .0251890
1034.714 .0251891
1035.297 .0251891
1035.881 .0251885
1036.464 .0251883
1037.047 .0251884
1037.630 .0251888
1038.213 .0251904
1038.796 .0251936
1039.378 .0251985
1039.961 .0252041
1040.543 .0252095
1041.125 .0252152
1041.707 .0252204
1042.289 .0252259
1042.871 .0252309
1043.452 .0252365
1044.034 .0252430
1044.615 .0252500
1045.196 .0252579
1045.777 .0252659
1046.358 .0252741
1046.939 .0252823
1047.520 .0252894
1048.101 .0252959
1048.681 .0253009
1049.262 .0253055
1049.842 .0253102
1050.422 .0253154
1051.002 .0253204
1051.582 .0253249
1052.162 .0253283
1052.742 .0253312
1053.322 .0253325
1053.902 .0253326
1054.482 .0253316
1055.061 .0253296
1055.641 .0253277
1056.220 .0253249
1056.800 .0253223
1057.379 .0253221
1057.958 .0253225
1058.538 .0253248
1059.117 .0253280
1059.696 .0253325
1060.275 .0253375
1060.854 .0253425
1061.433 .0253479
1062.012 .0253525
1062.592 .0253570
1063.171 .0253618
1063.750 .0253661
1064.329 .0253725
1064.908 .0253799
1065.487 .0253879
1066.066 .0253974
1066.645 .0254068
1067.224 .0254156
1067.803 .0254229
1068.382 .0254278
1068.961 .0254296
1069.540 .0254281
1070.119 .0254246
1070.698 .0254185
1071.278 .0254127
1071.857 .0254075
1072.436 .0254051
1073.016 .0254060
1073.595 .0254087
1074.175 .0254126
1074.754 .0254169
1075.334 .0254207
1075.913 .0254217
1076.493 .0254192
1077.073 .0254149
1077.653 .0254087
1078.233 .0254024
1078.813 .0253964
1079.393 .0253922
1079.974 .0253902
1080.554 .0253909
1081.135 .0253918
1081.716 .0253930
1082.296 .0253935
1082.877 .0253929
1083.458 .0253903
1084.040 .0253847
1084.621 .0253774
1085.202 .0253682
1085.784 .0253589
1086.366 .0253495
1086.948 .0253386
1087.530 .0253302
1088.112 .0253223
1088.695 .0253162
1089.277 .0253114
1089.860 .0253086
1090.443 .0253065
1091.026 .0253045
1091.610 .0253026
1092.193 .0252999
1092.777 .0252959
1093.361 .0252939
1093.946 .0252912
1094.530 .0252894
1095.115 .0252893
1095.700 .0252909
1096.285 .0252949
1096.871 .0253014
1097.456 .0253063
1098.042 .0253110
1098.628 .0253144
1099.215 .0253159
1099.802 .0253134
1100.389 .0253107
1100.976 .0253076
1101.564 .0253040
1102.152 .0253002
1102.740 .0252950
1103.329 .0252868
1103.917 .0252771
1104.507 .0252649
1105.096 .0252494
1105.686 .0252335
1106.276 .0252173
1106.867 .0252032
1107.457 .0251933
1108.049 .0251862
1108.640 .0251795
1109.232 .0251733
1109.825 .0251677
1110.417 .0251591
1111.010 .0251479
1111.604 .0251383
1112.198 .0251309
1112.792 .0251297
1113.387 .0251342
1113.982 .0251489
1114.577 .0251732
1115.173 .0252075
1115.769 .0252465
1116.366 .0252884
1116.963 .0253304
1117.561 .0253707
1118.159 .0254100
1118.758 .0254490
1119.357 .0254864
1119.957 .0255242
1120.557 .0255638
1121.157 .0256069
1121.758 .0256505
1122.360 .0256943
1122.962 .0257335
1123.564 .0257681
1124.167 .0257955
1124.771 .0258133
1125.375 .0258257
1125.980 .0258350
1126.585 .0258431
1127.191 .0258503
1127.797 .0258617
1128.404 .0258772
1129.012 .0258968
1129.620 .0259213
1130.229 .0259446
1130.838 .0259627
1131.448 .0259745
1132.058 .0259805
1132.669 .0259803
1133.281 .0259806
1133.894 .0259843
1134.507 .0259923
1135.120 .0260109
1135.735 .0260368
1136.350 .0260687
1136.965 .0261052
1137.582 .0261433
1138.199 .0261770
1138.816 .0262061
1139.435 .0262434
1140.054 .0262800
1140.674 .0263182
1141.294 .0263677
1141.916 .0264293
1142.538 .0266394
1143.160 .0265704
1143.784 .0264845
1144.408 .0267073
1145.033 .0269639
