Measurement Sequence started on: 14-45-04-498
Integration time: 36
Scans to Average: 2 
>>>>>Begin Spectral Data<<<<<
433.946 .0413138
434.870 .0393773
435.793 .0391360
436.715 .0396328
437.635 .0401790
438.555 .0401361
439.473 .0402215
440.389 .0403586
441.305 .0404915
442.219 .0405903
443.132 .0406603
444.044 .0407239
444.954 .0407799
445.863 .0408213
446.771 .0408397
447.678 .0408393
448.584 .0408238
449.488 .0407781
450.391 .0407141
451.293 .0406288
452.194 .0405361
453.094 .0404379
453.992 .0403306
454.890 .0402258
455.786 .0401254
456.681 .0400221
457.575 .0399175
458.468 .0398088
459.360 .0396972
460.250 .0395833
461.140 .0394650
462.028 .0393561
462.915 .0392574
463.801 .0391704
464.687 .0390932
465.571 .0390256
466.454 .0389660
467.335 .0389020
468.216 .0388332
469.096 .0387604
469.975 .0386765
470.853 .0385856
471.729 .0384880
472.605 .0383888
473.479 .0382942
474.353 .0382052
475.226 .0381246
476.097 .0380562
476.968 .0379936
477.838 .0379324
478.706 .0378741
479.574 .0378211
480.441 .0377722
481.306 .0377278
482.171 .0376913
483.035 .0376594
483.898 .0376354
484.760 .0376198
485.621 .0376095
486.481 .0376052
487.340 .0376034
488.198 .0376002
489.055 .0375947
489.912 .0375821
490.767 .0375632
491.622 .0375380
492.476 .0375101
493.329 .0374771
494.180 .0374401
495.032 .0373996
495.882 .0373590
496.731 .0373194
497.580 .0372835
498.427 .0372509
499.274 .0372231
500.120 .0372027
500.965 .0371890
501.809 .0371811
502.653 .0371781
503.495 .0371764
504.337 .0371762
505.178 .0371689
506.018 .0371574
506.858 .0371386
507.696 .0371156
508.534 .0370917
509.371 .0370658
510.208 .0370429
511.043 .0370225
511.878 .0370032
512.712 .0369809
513.545 .0369557
514.377 .0369233
515.209 .0368811
516.040 .0368347
516.870 .0367848
517.699 .0367358
518.528 .0366886
519.356 .0366489
520.183 .0366140
521.010 .0365840
521.836 .0365575
522.661 .0365242
523.485 .0364901
524.309 .0364450
525.132 .0363883
525.954 .0363200
526.776 .0362452
527.597 .0361665
528.417 .0360821
529.237 .0359982
530.056 .0359159
530.874 .0358356
531.692 .0357638
532.508 .0356954
533.325 .0356373
534.140 .0355837
534.955 .0355329
535.770 .0354774
536.583 .0354211
537.397 .0353605
538.209 .0352950
539.021 .0352236
539.832 .0351510
540.643 .0350797
541.453 .0350137
542.262 .0349541
543.071 .0349081
543.879 .0348731
544.687 .0348496
545.494 .0348281
546.300 .0348117
547.106 .0347938
547.911 .0347722
548.716 .0347455
549.520 .0347117
550.323 .0346721
551.126 .0346274
551.929 .0345803
552.731 .0345376
553.532 .0344965
554.332 .0344617
555.133 .0344301
555.932 .0344029
556.731 .0343730
557.530 .0343398
558.328 .0343012
559.125 .0342598
559.922 .0342150
560.719 .0341693
561.515 .0341264
562.310 .0340926
563.105 .0340668
563.899 .0340481
564.693 .0340347
565.487 .0340238
566.280 .0340083
567.072 .0339885
567.864 .0339596
568.655 .0339228
569.446 .0338786
570.236 .0338306
571.026 .0337798
571.816 .0337272
572.605 .0336725
573.393 .0336142
574.181 .0335534
574.969 .0334884
575.756 .0334185
576.543 .0333472
577.329 .0332770
578.115 .0332097
578.900 .0331486
579.685 .0330948
580.469 .0330504
581.253 .0330121
582.036 .0329788
582.820 .0329464
583.602 .0329147
584.384 .0328824
585.166 .0328488
585.947 .0328146
586.728 .0327825
587.509 .0327515
588.289 .0327235
589.069 .0326972
589.848 .0326737
590.627 .0326508
591.405 .0326271
592.183 .0326009
592.961 .0325736
593.738 .0325439
594.515 .0325135
595.291 .0324822
596.067 .0324518
596.843 .0324224
597.618 .0323947
598.393 .0323689
599.167 .0323453
599.941 .0323241
600.715 .0323051
601.488 .0322885
602.261 .0322747
603.034 .0322630
603.806 .0322534
604.578 .0322459
605.349 .0322403
606.121 .0322346
606.891 .0322293
607.662 .0322233
608.432 .0322161
609.201 .0322076
609.971 .0321962
610.740 .0321828
611.508 .0321669
612.277 .0321491
613.045 .0321290
613.812 .0321073
614.579 .0320841
615.346 .0320587
616.113 .0320318
616.879 .0320031
617.645 .0319721
618.411 .0319392
619.176 .0319043
619.941 .0318675
620.705 .0318297
621.470 .0317920
622.233 .0317545
622.997 .0317188
623.760 .0316840
624.523 .0316506
625.286 .0316179
626.048 .0315854
626.810 .0315525
627.572 .0315188
628.333 .0314845
629.095 .0314497
629.855 .0314142
630.616 .0313796
631.376 .0313458
632.136 .0313143
632.895 .0312845
633.655 .0312566
634.414 .0312303
635.172 .0312057
635.931 .0311823
636.689 .0311604
637.447 .0311396
638.204 .0311204
638.962 .0311021
639.718 .0310848
640.475 .0310682
641.231 .0310524
641.988 .0310371
642.743 .0310226
643.499 .0310079
644.254 .0309928
645.009 .0309770
645.764 .0309608
646.518 .0309449
647.272 .0309293
648.026 .0309145
648.780 .0309004
649.533 .0308868
650.286 .0308741
651.039 .0308608
651.792 .0308473
652.544 .0308336
653.296 .0308187
654.048 .0308028
654.799 .0307865
655.550 .0307701
656.301 .0307542
657.052 .0307393
657.802 .0307260
658.552 .0307133
659.302 .0307013
660.052 .0306889
660.801 .0306758
661.550 .0306615
662.299 .0306461
663.048 .0306285
663.796 .0306098
664.544 .0305900
665.292 .0305695
666.040 .0305492
666.787 .0305297
667.534 .0305099
668.281 .0304905
669.028 .0304709
669.774 .0304508
670.521 .0304295
671.266 .0304082
672.012 .0303859
672.758 .0303637
673.503 .0303412
674.248 .0303189
674.992 .0302970
675.737 .0302759
676.481 .0302550
677.225 .0302343
677.969 .0302134
678.712 .0301919
679.455 .0301694
680.199 .0301464
680.941 .0301227
681.684 .0300990
682.426 .0300754
683.168 .0300523
683.910 .0300299
684.652 .0300080
685.393 .0299865
686.134 .0299662
686.875 .0299467
687.616 .0299282
688.356 .0299111
689.097 .0298954
689.837 .0298810
690.576 .0298683
691.316 .0298570
692.055 .0298469
692.794 .0298380
693.533 .0298299
694.272 .0298226
695.010 .0298164
695.748 .0298113
696.486 .0298067
697.224 .0298029
697.962 .0297993
698.699 .0297951
699.436 .0297897
700.173 .0297832
700.909 .0297753
701.646 .0297667
702.382 .0297581
703.118 .0297499
703.853 .0297430
704.589 .0297378
705.324 .0297348
706.059 .0297338
706.794 .0297337
707.529 .0297342
708.263 .0297347
708.997 .0297343
709.731 .0297323
710.465 .0297294
711.198 .0297252
711.931 .0297206
712.664 .0297160
713.397 .0297115
714.130 .0297071
714.862 .0297030
715.594 .0296980
716.326 .0296920
717.058 .0296852
717.789 .0296769
718.520 .0296667
719.251 .0296557
719.982 .0296435
720.713 .0296307
721.443 .0296180
722.173 .0296060
722.903 .0295942
723.633 .0295837
724.362 .0295732
725.091 .0295627
725.820 .0295518
726.549 .0295407
727.278 .0295287
728.006 .0295166
728.734 .0295040
729.462 .0294909
730.190 .0294778
730.917 .0294651
731.644 .0294522
732.371 .0294398
733.098 .0294280
733.825 .0294165
734.551 .0294048
735.277 .0293934
736.003 .0293817
736.728 .0293701
737.454 .0293587
738.179 .0293472
738.904 .0293351
739.629 .0293228
740.353 .0293103
741.077 .0292975
741.801 .0292848
742.525 .0292713
743.249 .0292575
743.972 .0292435
744.695 .0292290
745.418 .0292136
746.141 .0291979
746.863 .0291821
747.585 .0291662
748.307 .0291502
749.029 .0291344
749.750 .0291185
750.472 .0291034
751.193 .0290886
751.913 .0290746
752.634 .0290610
753.354 .0290482
754.074 .0290356
754.794 .0290232
755.514 .0290106
756.233 .0289981
756.952 .0289856
757.671 .0289736
758.390 .0289618
759.108 .0289507
759.826 .0289405
760.544 .0289317
761.262 .0289237
761.979 .0289167
762.697 .0289101
763.414 .0289039
764.130 .0288977
764.847 .0288914
765.563 .0288848
766.279 .0288782
766.995 .0288719
767.710 .0288660
768.426 .0288602
769.141 .0288552
769.855 .0288505
770.570 .0288467
771.284 .0288433
771.998 .0288404
772.712 .0288382
773.426 .0288367
774.139 .0288359
774.852 .0288356
775.565 .0288361
776.277 .0288374
776.990 .0288393
777.702 .0288420
778.414 .0288455
779.125 .0288500
779.836 .0288554
780.547 .0288621
781.258 .0288698
781.969 .0288780
782.679 .0288865
783.389 .0288948
784.099 .0289028
784.808 .0289097
785.517 .0289158
786.226 .0289208
786.935 .0289252
787.643 .0289293
788.352 .0289327
789.060 .0289360
789.767 .0289388
790.475 .0289409
791.182 .0289418
791.889 .0289415
792.595 .0289397
793.301 .0289362
794.008 .0289316
794.713 .0289261
795.419 .0289197
796.124 .0289128
796.829 .0289056
797.534 .0288987
798.238 .0288920
798.942 .0288853
799.646 .0288788
800.350 .0288724
801.053 .0288657
801.756 .0288586
802.459 .0288511
803.162 .0288429
803.864 .0288343
804.566 .0288247
805.267 .0288141
805.969 .0288026
806.670 .0287901
807.371 .0287772
808.071 .0287640
808.772 .0287506
809.472 .0287366
810.171 .0287224
810.871 .0287084
811.570 .0286935
812.269 .0286784
812.967 .0286629
813.666 .0286471
814.364 .0286308
815.061 .0286146
815.759 .0285988
816.456 .0285834
817.153 .0285685
817.849 .0285535
818.545 .0285382
819.241 .0285223
819.937 .0285056
820.632 .0284875
821.327 .0284681
822.022 .0284473
822.717 .0284253
823.411 .0284028
824.105 .0283803
824.798 .0283579
825.491 .0283360
826.184 .0283145
826.877 .0282937
827.569 .0282731
828.261 .0282528
828.953 .0282329
829.645 .0282133
830.336 .0281943
831.027 .0281758
831.717 .0281580
832.407 .0281413
833.097 .0281256
833.787 .0281108
834.476 .0280968
835.165 .0280833
835.854 .0280707
836.542 .0280585
837.230 .0280466
837.918 .0280352
838.605 .0280239
839.292 .0280128
839.979 .0280019
840.665 .0279912
841.352 .0279813
842.037 .0279719
842.723 .0279637
843.408 .0279565
844.093 .0279502
844.777 .0279448
845.462 .0279398
846.145 .0279346
846.829 .0279290
847.512 .0279224
848.195 .0279150
848.878 .0279070
849.560 .0278987
850.242 .0278905
850.923 .0278826
851.605 .0278750
852.286 .0278677
852.966 .0278605
853.646 .0278536
854.326 .0278469
855.006 .0278406
855.685 .0278345
856.364 .0278289
857.043 .0278244
857.721 .0278208
858.399 .0278182
859.077 .0278165
859.754 .0278159
860.431 .0278155
861.107 .0278155
861.784 .0278156
862.459 .0278158
863.135 .0278164
863.810 .0278171
864.485 .0278174
865.160 .0278175
865.834 .0278176
866.508 .0278174
867.181 .0278169
867.854 .0278167
868.527 .0278162
869.199 .0278158
869.872 .0278155
870.543 .0278150
871.215 .0278142
871.886 .0278133
872.557 .0278115
873.227 .0278093
873.897 .0278066
874.567 .0278031
875.236 .0277994
875.905 .0277959
876.573 .0277922
877.242 .0277882
877.909 .0277837
878.577 .0277792
879.244 .0277738
879.911 .0277679
880.577 .0277615
881.243 .0277551
881.909 .0277488
882.575 .0277425
883.240 .0277367
883.904 .0277315
884.569 .0277266
885.232 .0277219
885.896 .0277169
886.559 .0277116
887.222 .0277057
887.885 .0276992
888.547 .0276918
889.208 .0276840
889.870 .0276753
890.531 .0276660
891.192 .0276562
891.852 .0276460
892.512 .0276351
893.171 .0276239
893.830 .0276124
894.489 .0276008
895.148 .0275888
895.806 .0275770
896.464 .0275653
897.121 .0275541
897.778 .0275431
898.434 .0275325
899.091 .0275221
899.747 .0275116
900.402 .0275007
901.057 .0274897
901.712 .0274784
902.366 .0274666
903.020 .0274544
903.674 .0274418
904.327 .0274292
904.980 .0274168
905.633 .0274044
906.285 .0273925
906.936 .0273808
907.588 .0273687
908.239 .0273559
908.889 .0273422
909.540 .0273277
910.190 .0273118
910.839 .0272955
911.488 .0272789
912.137 .0272620
912.785 .0272453
913.433 .0272290
914.081 .0272130
914.728 .0271974
915.375 .0271808
916.021 .0271632
916.668 .0271440
917.313 .0271234
917.959 .0271010
918.604 .0270776
919.248 .0270543
919.892 .0270309
920.536 .0270077
921.180 .0269850
921.823 .0269627
922.465 .0269408
923.108 .0269187
923.750 .0268960
924.391 .0268726
925.032 .0268488
925.673 .0268240
926.313 .0267988
926.953 .0267736
927.593 .0267486
928.232 .0267234
928.871 .0266987
929.510 .0266742
930.148 .0266494
930.786 .0266246
931.423 .0265996
932.060 .0265744
932.697 .0265488
933.333 .0265224
933.969 .0264959
934.604 .0264695
935.239 .0264434
935.874 .0264177
936.508 .0263932
937.142 .0263703
937.776 .0263490
938.409 .0263289
939.042 .0263100
939.674 .0262921
940.306 .0262744
940.938 .0262569
941.569 .0262394
942.200 .0262222
942.830 .0262055
943.460 .0261897
944.090 .0261748
944.720 .0261605
945.349 .0261470
945.977 .0261340
946.606 .0261207
947.233 .0261068
947.861 .0260922
948.488 .0260767
949.115 .0260609
949.741 .0260448
950.367 .0260290
950.993 .0260140
951.618 .0260000
952.243 .0259869
952.868 .0259745
953.492 .0259630
954.115 .0259521
954.739 .0259421
955.362 .0259333
955.984 .0259254
956.607 .0259182
957.229 .0259124
957.850 .0259078
958.471 .0259040
959.092 .0259007
959.713 .0258974
960.333 .0258944
960.952 .0258910
961.572 .0258875
962.191 .0258842
962.809 .0258818
963.428 .0258807
964.045 .0258801
964.663 .0258800
965.280 .0258803
965.897 .0258807
966.513 .0258812
967.129 .0258819
967.745 .0258833
968.361 .0258853
968.976 .0258882
969.590 .0258923
970.205 .0258972
970.818 .0259029
971.432 .0259085
972.045 .0259139
972.658 .0259185
973.271 .0259218
973.883 .0259235
974.495 .0259243
975.106 .0259243
975.717 .0259234
976.328 .0259215
976.938 .0259187
977.548 .0259154
978.158 .0259114
978.768 .0259066
979.377 .0259013
979.985 .0258955
980.594 .0258897
981.202 .0258841
981.809 .0258791
982.417 .0258753
983.024 .0258733
983.631 .0258733
984.237 .0258749
984.843 .0258784
985.449 .0258827
986.054 .0258873
986.659 .0258921
987.264 .0258970
987.868 .0259013
988.472 .0259057
989.076 .0259107
989.679 .0259159
990.282 .0259216
990.885 .0259276
991.487 .0259334
992.090 .0259391
992.691 .0259439
993.293 .0259471
993.894 .0259483
994.495 .0259489
995.095 .0259482
995.696 .0259466
996.296 .0259453
996.895 .0259438
997.494 .0259419
998.093 .0259399
998.692 .0259374
999.291 .0259343
999.889 .0259306
1000.487 .0259260
1001.084 .0259208
1001.681 .0259151
1002.278 .0259091
1002.875 .0259029
1003.471 .0258976
1004.067 .0258937
1004.663 .0258906
1005.258 .0258881
1005.854 .0258866
1006.449 .0258855
1007.043 .0258846
1007.638 .0258828
1008.232 .0258807
1008.826 .0258779
1009.419 .0258744
1010.012 .0258703
1010.605 .0258665
1011.198 .0258624
1011.791 .0258587
1012.383 .0258548
1012.975 .0258505
1013.566 .0258454
1014.158 .0258392
1014.749 .0258323
1015.340 .0258251
1015.931 .0258175
1016.521 .0258102
1017.111 .0258037
1017.701 .0257987
1018.291 .0257943
1018.880 .0257900
1019.470 .0257856
1020.059 .0257809
1020.647 .0257760
1021.236 .0257709
1021.824 .0257659
1022.412 .0257618
1023.000 .0257592
1023.588 .0257574
1024.175 .0257567
1024.762 .0257561
1025.349 .0257553
1025.936 .0257538
1026.523 .0257513
1027.109 .0257480
1027.695 .0257444
1028.281 .0257414
1028.867 .0257391
1029.452 .0257370
1030.038 .0257350
1030.623 .0257321
1031.208 .0257281
1031.792 .0257224
1032.377 .0257146
1032.961 .0257047
1033.546 .0256938
1034.130 .0256817
1034.714 .0256691
1035.297 .0256562
1035.881 .0256428
1036.464 .0256287
1037.047 .0256138
1037.630 .0255979
1038.213 .0255820
1038.796 .0255661
1039.378 .0255511
1039.961 .0255371
1040.543 .0255242
1041.125 .0255119
1041.707 .0254999
1042.289 .0254879
1042.871 .0254762
1043.452 .0254636
1044.034 .0254514
1044.615 .0254391
1045.196 .0254276
1045.777 .0254167
1046.358 .0254069
1046.939 .0253980
1047.520 .0253891
1048.101 .0253793
1048.681 .0253685
1049.262 .0253560
1049.842 .0253432
1050.422 .0253286
1051.002 .0253137
1051.582 .0252989
1052.162 .0252847
1052.742 .0252705
1053.322 .0252570
1053.902 .0252437
1054.482 .0252303
1055.061 .0252168
1055.641 .0252033
1056.220 .0251892
1056.800 .0251747
1057.379 .0251611
1057.958 .0251481
1058.538 .0251355
1059.117 .0251239
1059.696 .0251129
1060.275 .0251036
1060.854 .0250950
1061.433 .0250871
1062.012 .0250804
1062.592 .0250748
1063.171 .0250708
1063.750 .0250667
1064.329 .0250634
1064.908 .0250601
1065.487 .0250559
1066.066 .0250517
1066.645 .0250470
1067.224 .0250418
1067.803 .0250360
1068.382 .0250301
1068.961 .0250247
1069.540 .0250199
1070.119 .0250159
1070.698 .0250136
1071.278 .0250129
1071.857 .0250139
1072.436 .0250157
1073.016 .0250179
1073.595 .0250212
1074.175 .0250253
1074.754 .0250293
1075.334 .0250349
1075.913 .0250408
1076.493 .0250480
1077.073 .0250553
1077.653 .0250634
1078.233 .0250717
1078.813 .0250798
1079.393 .0250869
1079.974 .0250928
1080.554 .0250968
1081.135 .0251001
1081.716 .0251006
1082.296 .0250995
1082.877 .0250964
1083.458 .0250915
1084.040 .0250843
1084.621 .0250755
1085.202 .0250657
1085.784 .0250550
1086.366 .0250431
1086.948 .0250313
1087.530 .0250191
1088.112 .0250074
1088.695 .0249965
1089.277 .0249871
1089.860 .0249802
1090.443 .0249770
1091.026 .0249768
1091.610 .0249795
1092.193 .0249865
1092.777 .0249965
1093.361 .0250080
1093.946 .0250201
1094.530 .0250330
1095.115 .0250454
1095.700 .0250584
1096.285 .0250719
1096.871 .0250849
1097.456 .0250987
1098.042 .0251138
1098.628 .0251285
1099.215 .0251420
1099.802 .0251533
1100.389 .0251617
1100.976 .0251656
1101.564 .0251654
1102.152 .0251595
1102.740 .0251508
1103.329 .0251417
1103.917 .0251336
1104.507 .0251270
1105.096 .0251230
1105.686 .0251215
1106.276 .0251227
1106.867 .0251255
1107.457 .0251276
1108.049 .0251277
1108.640 .0251266
1109.232 .0251241
1109.825 .0251230
1110.417 .0251227
1111.010 .0251254
1111.604 .0251334
1112.198 .0251463
1112.792 .0251639
1113.387 .0251849
1113.982 .0252092
1114.577 .0252361
1115.173 .0252637
1115.769 .0252919
1116.366 .0253188
1116.963 .0253474
1117.561 .0253780
1118.159 .0254089
1118.758 .0254417
1119.357 .0254760
1119.957 .0255095
1120.557 .0255435
1121.157 .0255760
1121.758 .0256079
1122.360 .0256404
1122.962 .0256720
1123.564 .0257031
1124.167 .0257338
1124.771 .0257649
1125.375 .0257957
1125.980 .0258252
1126.585 .0258554
1127.191 .0258834
1127.797 .0259134
1128.404 .0259466
1129.012 .0259840
1129.620 .0260282
1130.229 .0260781
1130.838 .0261311
1131.448 .0261873
1132.058 .0262443
1132.669 .0262971
1133.281 .0263473
1133.894 .0263944
1134.507 .0264373
1135.120 .0264775
1135.735 .0265179
1136.350 .0265607
1136.965 .0266058
1137.582 .0266553
1138.199 .0267051
1138.816 .0267540
1139.435 .0268028
1140.054 .0268435
1140.674 .0268850
1141.294 .0269263
1141.916 .0269621
1142.538 .0269672
1143.160 .0269213
1143.784 .0271482
1144.408 .0272357
1145.033 .0270686
