Measurement Sequence started on: 14-45-04-498
Integration time: 36
Scans to Average: 2 
>>>>>Begin Spectral Data<<<<<
433.946 .0462400
434.870 .0483775
435.793 .0458410
436.715 .0456861
437.635 .0460295
438.555 .0462368
439.473 .0461802
440.389 .0460611
441.305 .0459913
442.219 .0458724
443.132 .0457090
444.044 .0455212
444.954 .0453201
445.863 .0451289
446.771 .0449569
447.678 .0447932
448.584 .0446513
449.488 .0445247
450.391 .0444044
451.293 .0442805
452.194 .0441532
453.094 .0440133
453.992 .0438603
454.890 .0436966
455.786 .0435335
456.681 .0433640
457.575 .0432064
458.468 .0430543
459.360 .0429128
460.250 .0427840
461.140 .0426598
462.028 .0425393
462.915 .0424172
463.801 .0422874
464.687 .0421475
465.571 .0419997
466.454 .0418536
467.335 .0417066
468.216 .0415675
469.096 .0414391
469.975 .0413256
470.853 .0412255
471.729 .0411392
472.605 .0410609
473.479 .0409922
474.353 .0409252
475.226 .0408570
476.097 .0407877
476.968 .0407166
477.838 .0406467
478.706 .0405812
479.574 .0405256
480.441 .0404845
481.306 .0404546
482.171 .0404359
483.035 .0404228
483.898 .0404093
484.760 .0403907
485.621 .0403646
486.481 .0403302
487.340 .0402888
488.198 .0402445
489.055 .0401986
489.912 .0401566
490.767 .0401196
491.622 .0400864
492.476 .0400551
493.329 .0400220
494.180 .0399813
495.032 .0399299
495.882 .0398721
496.731 .0398103
497.580 .0397480
498.427 .0396925
499.274 .0396435
500.120 .0396033
500.965 .0395717
501.809 .0395460
502.653 .0395217
503.495 .0394976
504.337 .0394682
505.178 .0394304
506.018 .0393874
506.858 .0393378
507.696 .0392859
508.534 .0392318
509.371 .0391765
510.208 .0391160
511.043 .0390504
511.878 .0389800
512.712 .0389006
513.545 .0388136
514.377 .0387224
515.209 .0386281
516.040 .0385380
516.870 .0384519
517.699 .0383741
518.528 .0383061
519.356 .0382500
520.183 .0381968
521.010 .0381450
521.836 .0380932
522.661 .0380386
523.485 .0379790
524.309 .0379205
525.132 .0378621
525.954 .0378065
526.776 .0377604
527.597 .0377260
528.417 .0376943
529.237 .0376687
530.056 .0376351
530.874 .0375924
531.692 .0375397
532.508 .0374747
533.325 .0374038
534.140 .0373334
534.955 .0372717
535.770 .0372190
536.583 .0371786
537.397 .0371591
538.209 .0371537
539.021 .0371569
539.832 .0371613
540.643 .0371589
541.453 .0371483
542.262 .0371257
543.071 .0370933
543.879 .0370515
544.687 .0370022
545.494 .0369494
546.300 .0368934
547.106 .0368370
547.911 .0367882
548.716 .0367458
549.520 .0367078
550.323 .0366737
551.126 .0366388
551.929 .0366042
552.731 .0365680
553.532 .0365303
554.332 .0364908
555.133 .0364546
555.932 .0364249
556.731 .0363987
557.530 .0363827
558.328 .0363792
559.125 .0363835
559.922 .0363961
560.719 .0364107
561.515 .0364212
562.310 .0364284
563.105 .0364308
563.899 .0364266
564.693 .0364144
565.487 .0364003
566.280 .0363811
567.072 .0363627
567.864 .0363451
568.655 .0363275
569.446 .0363110
570.236 .0362955
571.026 .0362751
571.816 .0362497
572.605 .0362211
573.393 .0361891
574.181 .0361542
574.969 .0361198
575.756 .0360844
576.543 .0360496
577.329 .0360147
578.115 .0359782
578.900 .0359385
579.685 .0358971
580.469 .0358530
581.253 .0358080
582.036 .0357642
582.820 .0357226
583.602 .0356845
584.384 .0356505
585.166 .0356194
585.947 .0355890
586.728 .0355586
587.509 .0355267
588.289 .0354916
589.069 .0354554
589.848 .0354193
590.627 .0353848
591.405 .0353532
592.183 .0353252
592.961 .0353007
593.738 .0352793
594.515 .0352599
595.291 .0352406
596.067 .0352209
596.843 .0352008
597.618 .0351782
598.393 .0351550
599.167 .0351323
599.941 .0351107
600.715 .0350908
601.488 .0350730
602.261 .0350564
603.034 .0350400
603.806 .0350242
604.578 .0350073
605.349 .0349886
606.121 .0349687
606.891 .0349469
607.662 .0349231
608.432 .0348982
609.201 .0348727
609.971 .0348463
610.740 .0348203
611.508 .0347942
612.277 .0347675
613.045 .0347406
613.812 .0347138
614.579 .0346868
615.346 .0346598
616.113 .0346334
616.879 .0346071
617.645 .0345818
618.411 .0345579
619.176 .0345353
619.941 .0345141
620.705 .0344940
621.470 .0344751
622.233 .0344557
622.997 .0344361
623.760 .0344166
624.523 .0343963
625.286 .0343752
626.048 .0343533
626.810 .0343309
627.572 .0343082
628.333 .0342861
629.095 .0342641
629.855 .0342426
630.616 .0342228
631.376 .0342037
632.136 .0341852
632.895 .0341678
633.655 .0341525
634.414 .0341378
635.172 .0341245
635.931 .0341125
636.689 .0341012
637.447 .0340917
638.204 .0340829
638.962 .0340747
639.718 .0340673
640.475 .0340604
641.231 .0340530
641.988 .0340447
642.743 .0340361
643.499 .0340252
644.254 .0340126
645.009 .0339986
645.764 .0339835
646.518 .0339668
647.272 .0339495
648.026 .0339320
648.780 .0339143
649.533 .0338970
650.286 .0338801
651.039 .0338640
651.792 .0338485
652.544 .0338333
653.296 .0338181
654.048 .0338028
654.799 .0337879
655.550 .0337719
656.301 .0337553
657.052 .0337377
657.802 .0337191
658.552 .0336989
659.302 .0336780
660.052 .0336570
660.801 .0336353
661.550 .0336136
662.299 .0335921
663.048 .0335706
663.796 .0335496
664.544 .0335290
665.292 .0335090
666.040 .0334894
666.787 .0334706
667.534 .0334526
668.281 .0334358
669.028 .0334207
669.774 .0334073
670.521 .0333953
671.266 .0333843
672.012 .0333741
672.758 .0333641
673.503 .0333548
674.248 .0333458
674.992 .0333372
675.737 .0333286
676.481 .0333204
677.225 .0333123
677.969 .0333040
678.712 .0332956
679.455 .0332872
680.199 .0332784
680.941 .0332691
681.684 .0332600
682.426 .0332508
683.168 .0332421
683.910 .0332340
684.652 .0332261
685.393 .0332187
686.134 .0332115
686.875 .0332046
687.616 .0331975
688.356 .0331906
689.097 .0331833
689.837 .0331748
690.576 .0331657
691.316 .0331557
692.055 .0331445
692.794 .0331322
693.533 .0331195
694.272 .0331064
695.010 .0330935
695.748 .0330807
696.486 .0330682
697.224 .0330562
697.962 .0330445
698.699 .0330325
699.436 .0330194
700.173 .0330055
700.909 .0329903
701.646 .0329741
702.382 .0329573
703.118 .0329398
703.853 .0329227
704.589 .0329060
705.324 .0328898
706.059 .0328743
706.794 .0328588
707.529 .0328436
708.263 .0328280
708.997 .0328122
709.731 .0327955
710.465 .0327781
711.198 .0327603
711.931 .0327421
712.664 .0327237
713.397 .0327054
714.130 .0326868
714.862 .0326686
715.594 .0326507
716.326 .0326325
717.058 .0326142
717.789 .0325958
718.520 .0325767
719.251 .0325567
719.982 .0325357
720.713 .0325138
721.443 .0324911
722.173 .0324681
722.903 .0324447
723.633 .0324217
724.362 .0323994
725.091 .0323778
725.820 .0323570
726.549 .0323376
727.278 .0323194
728.006 .0323024
728.734 .0322864
729.462 .0322713
730.190 .0322572
730.917 .0322444
731.644 .0322324
732.371 .0322214
733.098 .0322119
733.825 .0322036
734.551 .0321962
735.277 .0321896
736.003 .0321834
736.728 .0321776
737.454 .0321718
738.179 .0321657
738.904 .0321589
739.629 .0321516
740.353 .0321442
741.077 .0321368
741.801 .0321294
742.525 .0321221
743.249 .0321149
743.972 .0321080
744.695 .0321012
745.418 .0320939
746.141 .0320862
746.863 .0320780
747.585 .0320688
748.307 .0320585
749.029 .0320467
749.750 .0320341
750.472 .0320208
751.193 .0320071
751.913 .0319936
752.634 .0319798
753.354 .0319665
754.074 .0319536
754.794 .0319409
755.514 .0319280
756.233 .0319147
756.952 .0319009
757.671 .0318866
758.390 .0318714
759.108 .0318560
759.826 .0318409
760.544 .0318266
761.262 .0318133
761.979 .0318009
762.697 .0317891
763.414 .0317779
764.130 .0317664
764.847 .0317545
765.563 .0317414
766.279 .0317278
766.995 .0317130
767.710 .0316972
768.426 .0316809
769.141 .0316640
769.855 .0316466
770.570 .0316288
771.284 .0316105
771.998 .0315912
772.712 .0315715
773.426 .0315512
774.139 .0315306
774.852 .0315097
775.565 .0314890
776.277 .0314685
776.990 .0314482
777.702 .0314284
778.414 .0314086
779.125 .0313893
779.836 .0313704
780.547 .0313514
781.258 .0313328
781.969 .0313145
782.679 .0312972
783.389 .0312801
784.099 .0312641
784.808 .0312486
785.517 .0312335
786.226 .0312185
786.935 .0312039
787.643 .0311892
788.352 .0311750
789.060 .0311609
789.767 .0311471
790.475 .0311337
791.182 .0311210
791.889 .0311086
792.595 .0310971
793.301 .0310859
794.008 .0310750
794.713 .0310644
795.419 .0310543
796.124 .0310442
796.829 .0310344
797.534 .0310244
798.238 .0310139
798.942 .0310029
799.646 .0309917
800.350 .0309796
801.053 .0309673
801.756 .0309544
802.459 .0309413
803.162 .0309281
803.864 .0309152
804.566 .0309025
805.267 .0308902
805.969 .0308783
806.670 .0308662
807.371 .0308545
808.071 .0308434
808.772 .0308326
809.472 .0308227
810.171 .0308135
810.871 .0308054
811.570 .0307984
812.269 .0307920
812.967 .0307858
813.666 .0307797
814.364 .0307736
815.061 .0307662
815.759 .0307584
816.456 .0307498
817.153 .0307404
817.849 .0307300
818.545 .0307187
819.241 .0307065
819.937 .0306934
820.632 .0306793
821.327 .0306640
822.022 .0306481
822.717 .0306318
823.411 .0306147
824.105 .0305977
824.798 .0305814
825.491 .0305655
826.184 .0305495
826.877 .0305343
827.569 .0305195
828.261 .0305048
828.953 .0304899
829.645 .0304748
830.336 .0304597
831.027 .0304446
831.717 .0304295
832.407 .0304149
833.097 .0304015
833.787 .0303887
834.476 .0303762
835.165 .0303641
835.854 .0303521
836.542 .0303397
837.230 .0303269
837.918 .0303137
838.605 .0303001
839.292 .0302861
839.979 .0302721
840.665 .0302590
841.352 .0302472
842.037 .0302364
842.723 .0302265
843.408 .0302174
844.093 .0302086
844.777 .0301991
845.462 .0301887
846.145 .0301770
846.829 .0301638
847.512 .0301489
848.195 .0301326
848.878 .0301154
849.560 .0300976
850.242 .0300795
850.923 .0300608
851.605 .0300414
852.286 .0300207
852.966 .0299987
853.646 .0299754
854.326 .0299509
855.006 .0299254
855.685 .0298993
856.364 .0298729
857.043 .0298469
857.721 .0298214
858.399 .0297965
859.077 .0297723
859.754 .0297489
860.431 .0297259
861.107 .0297033
861.784 .0296811
862.459 .0296599
863.135 .0296398
863.810 .0296210
864.485 .0296036
865.160 .0295874
865.834 .0295727
866.508 .0295589
867.181 .0295456
867.854 .0295328
868.527 .0295199
869.199 .0295064
869.872 .0294925
870.543 .0294783
871.215 .0294635
871.886 .0294481
872.557 .0294325
873.227 .0294163
873.897 .0293998
874.567 .0293827
875.236 .0293652
875.905 .0293473
876.573 .0293295
877.242 .0293116
877.909 .0292941
878.577 .0292780
879.244 .0292629
879.911 .0292498
880.577 .0292386
881.243 .0292292
881.909 .0292208
882.575 .0292135
883.240 .0292067
883.904 .0291997
884.569 .0291926
885.232 .0291851
885.896 .0291776
886.559 .0291704
887.222 .0291633
887.885 .0291567
888.547 .0291505
889.208 .0291447
889.870 .0291382
890.531 .0291318
891.192 .0291249
891.852 .0291181
892.512 .0291118
893.171 .0291062
893.830 .0291017
894.489 .0290988
895.148 .0290972
895.806 .0290968
896.464 .0290973
897.121 .0290979
897.778 .0290983
898.434 .0290986
899.091 .0290979
899.747 .0290968
900.402 .0290951
901.057 .0290930
901.712 .0290898
902.366 .0290854
903.020 .0290797
903.674 .0290723
904.327 .0290636
904.980 .0290536
905.633 .0290428
906.285 .0290320
906.936 .0290214
907.588 .0290113
908.239 .0290019
908.889 .0289931
909.540 .0289844
910.190 .0289757
910.839 .0289666
911.488 .0289568
912.137 .0289460
912.785 .0289343
913.433 .0289219
914.081 .0289085
914.728 .0288947
915.375 .0288801
916.021 .0288651
916.668 .0288491
917.313 .0288322
917.959 .0288147
918.604 .0287965
919.248 .0287780
919.892 .0287591
920.536 .0287400
921.180 .0287215
921.823 .0287030
922.465 .0286850
923.108 .0286677
923.750 .0286511
924.391 .0286350
925.032 .0286200
925.673 .0286058
926.313 .0285924
926.953 .0285794
927.593 .0285658
928.232 .0285513
928.871 .0285354
929.510 .0285180
930.148 .0284986
930.786 .0284778
931.423 .0284564
932.060 .0284339
932.697 .0284116
933.333 .0283889
933.969 .0283662
934.604 .0283435
935.239 .0283204
935.874 .0282967
936.508 .0282727
937.142 .0282491
937.776 .0282265
938.409 .0282050
939.042 .0281849
939.674 .0281659
940.306 .0281476
940.938 .0281294
941.569 .0281105
942.200 .0280908
942.830 .0280701
943.460 .0280485
944.090 .0280267
944.720 .0280050
945.349 .0279844
945.977 .0279651
946.606 .0279469
947.233 .0279288
947.861 .0279101
948.488 .0278898
949.115 .0278680
949.741 .0278448
950.367 .0278206
950.993 .0277963
951.618 .0277727
952.243 .0277505
952.868 .0277296
953.492 .0277102
954.115 .0276917
954.739 .0276736
955.362 .0276555
955.984 .0276361
956.607 .0276159
957.229 .0275954
957.850 .0275749
958.471 .0275548
959.092 .0275352
959.713 .0275163
960.333 .0274980
960.952 .0274807
961.572 .0274638
962.191 .0274476
962.809 .0274324
963.428 .0274175
964.045 .0274029
964.663 .0273885
965.280 .0273741
965.897 .0273596
966.513 .0273449
967.129 .0273298
967.745 .0273142
968.361 .0272989
968.976 .0272837
969.590 .0272692
970.205 .0272560
970.818 .0272438
971.432 .0272328
972.045 .0272226
972.658 .0272131
973.271 .0272031
973.883 .0271928
974.495 .0271819
975.106 .0271701
975.717 .0271579
976.328 .0271454
976.938 .0271334
977.548 .0271228
978.158 .0271137
978.768 .0271062
979.377 .0271003
979.985 .0270958
980.594 .0270923
981.202 .0270894
981.809 .0270865
982.417 .0270843
983.024 .0270827
983.631 .0270819
984.237 .0270822
984.843 .0270838
985.449 .0270870
986.054 .0270915
986.659 .0270968
987.264 .0271024
987.868 .0271075
988.472 .0271119
989.076 .0271148
989.679 .0271157
990.282 .0271148
990.885 .0271117
991.487 .0271069
992.090 .0271008
992.691 .0270936
993.293 .0270862
993.894 .0270794
994.495 .0270735
995.095 .0270684
995.696 .0270643
996.296 .0270605
996.895 .0270571
997.494 .0270539
998.093 .0270508
998.692 .0270473
999.291 .0270444
999.889 .0270425
1000.487 .0270413
1001.084 .0270419
1001.681 .0270432
1002.278 .0270451
1002.875 .0270478
1003.471 .0270501
1004.067 .0270514
1004.663 .0270522
1005.258 .0270526
1005.854 .0270521
1006.449 .0270515
1007.043 .0270510
1007.638 .0270502
1008.232 .0270508
1008.826 .0270520
1009.419 .0270531
1010.012 .0270550
1010.605 .0270576
1011.198 .0270596
1011.791 .0270621
1012.383 .0270648
1012.975 .0270675
1013.566 .0270708
1014.158 .0270753
1014.749 .0270804
1015.340 .0270872
1015.931 .0270958
1016.521 .0271052
1017.111 .0271153
1017.701 .0271259
1018.291 .0271352
1018.880 .0271437
1019.470 .0271510
1020.059 .0271565
1020.647 .0271603
1021.236 .0271633
1021.824 .0271654
1022.412 .0271669
1023.000 .0271677
1023.588 .0271680
1024.175 .0271663
1024.762 .0271625
1025.349 .0271554
1025.936 .0271455
1026.523 .0271340
1027.109 .0271207
1027.695 .0271064
1028.281 .0270925
1028.867 .0270802
1029.452 .0270698
1030.038 .0270625
1030.623 .0270579
1031.208 .0270551
1031.792 .0270542
1032.377 .0270540
1032.961 .0270538
1033.546 .0270530
1034.130 .0270516
1034.714 .0270494
1035.297 .0270465
1035.881 .0270429
1036.464 .0270388
1037.047 .0270361
1037.630 .0270349
1038.213 .0270352
1038.796 .0270364
1039.378 .0270381
1039.961 .0270396
1040.543 .0270395
1041.125 .0270374
1041.707 .0270325
1042.289 .0270257
1042.871 .0270174
1043.452 .0270082
1044.034 .0269993
1044.615 .0269906
1045.196 .0269830
1045.777 .0269756
1046.358 .0269673
1046.939 .0269572
1047.520 .0269447
1048.101 .0269293
1048.681 .0269115
1049.262 .0268920
1049.842 .0268718
1050.422 .0268528
1051.002 .0268351
1051.582 .0268193
1052.162 .0268061
1052.742 .0267946
1053.322 .0267849
1053.902 .0267757
1054.482 .0267676
1055.061 .0267599
1055.641 .0267526
1056.220 .0267467
1056.800 .0267410
1057.379 .0267370
1057.958 .0267339
1058.538 .0267312
1059.117 .0267286
1059.696 .0267243
1060.275 .0267189
1060.854 .0267116
1061.433 .0267035
1062.012 .0266936
1062.592 .0266834
1063.171 .0266738
1063.750 .0266649
1064.329 .0266567
1064.908 .0266496
1065.487 .0266432
1066.066 .0266378
1066.645 .0266328
1067.224 .0266271
1067.803 .0266206
1068.382 .0266135
1068.961 .0266059
1069.540 .0265982
1070.119 .0265902
1070.698 .0265839
1071.278 .0265780
1071.857 .0265737
1072.436 .0265699
1073.016 .0265653
1073.595 .0265608
1074.175 .0265555
1074.754 .0265490
1075.334 .0265403
1075.913 .0265301
1076.493 .0265203
1077.073 .0265103
1077.653 .0265010
1078.233 .0264923
1078.813 .0264840
1079.393 .0264760
1079.974 .0264668
1080.554 .0264548
1081.135 .0264418
1081.716 .0264266
1082.296 .0264092
1082.877 .0263904
1083.458 .0263715
1084.040 .0263538
1084.621 .0263359
1085.202 .0263196
1085.784 .0263038
1086.366 .0262869
1086.948 .0262697
1087.530 .0262523
1088.112 .0262360
1088.695 .0262213
1089.277 .0262102
1089.860 .0262037
1090.443 .0262025
1091.026 .0262049
1091.610 .0262100
1092.193 .0262168
1092.777 .0262246
1093.361 .0262319
1093.946 .0262380
1094.530 .0262455
1095.115 .0262547
1095.700 .0262648
1096.285 .0262772
1096.871 .0262909
1097.456 .0263065
1098.042 .0263209
1098.628 .0263353
1099.215 .0263472
1099.802 .0263568
1100.389 .0263637
1100.976 .0263685
1101.564 .0263738
1102.152 .0263791
1102.740 .0263860
1103.329 .0263952
1103.917 .0264053
1104.507 .0264154
1105.096 .0264246
1105.686 .0264353
1106.276 .0264448
1106.867 .0264528
1107.457 .0264590
1108.049 .0264639
1108.640 .0264680
1109.232 .0264720
1109.825 .0264770
1110.417 .0264848
1111.010 .0264959
1111.604 .0265087
1112.198 .0265254
1112.792 .0265446
1113.387 .0265660
1113.982 .0265904
1114.577 .0266173
1115.173 .0266473
1115.769 .0266761
1116.366 .0267056
1116.963 .0267353
1117.561 .0267645
1118.159 .0267927
1118.758 .0268187
1119.357 .0268434
1119.957 .0268659
1120.557 .0268851
1121.157 .0269015
1121.758 .0269164
1122.360 .0269306
1122.962 .0269420
1123.564 .0269520
1124.167 .0269607
1124.771 .0269681
1125.375 .0269745
1125.980 .0269822
1126.585 .0269901
1127.191 .0269997
1127.797 .0270098
1128.404 .0270205
1129.012 .0270310
1129.620 .0270421
1130.229 .0270561
1130.838 .0270755
1131.448 .0271013
1132.058 .0271346
1132.669 .0271769
1133.281 .0272290
1133.894 .0272873
1134.507 .0273485
1135.120 .0274113
1135.735 .0274706
1136.350 .0275271
1136.965 .0275818
1137.582 .0276364
1138.199 .0276986
1138.816 .0277729
1139.435 .0278503
1140.054 .0279327
1140.674 .0280122
1141.294 .0280978
1141.916 .0282036
1142.538 .0282114
1143.160 .0282632
1143.784 .0282055
1144.408 .0285722
1145.033 .0293192
