Measurement Sequence started on: 14-45-04-498
Integration time: 36
Scans to Average: 2 
>>>>>Begin Spectral Data<<<<<
433.946 .0381632
434.870 .0444444
435.793 .0428672
436.715 .0418162
437.635 .0408413
438.555 .0411453
439.473 .0409486
440.389 .0405809
441.305 .0402891
442.219 .0400432
443.132 .0398412
444.044 .0396646
444.954 .0395195
445.863 .0394175
446.771 .0393507
447.678 .0392925
448.584 .0392391
449.488 .0391717
450.391 .0390750
451.293 .0389600
452.194 .0388228
453.094 .0386714
453.992 .0385183
454.890 .0383700
455.786 .0382246
456.681 .0380829
457.575 .0379562
458.468 .0378323
459.360 .0377056
460.250 .0375799
461.140 .0374492
462.028 .0373176
462.915 .0371868
463.801 .0370552
464.687 .0369345
465.571 .0368296
466.454 .0367413
467.335 .0366673
468.216 .0366122
469.096 .0365706
469.975 .0365414
470.853 .0365221
471.729 .0365098
472.605 .0364937
473.479 .0364759
474.353 .0364529
475.226 .0364227
476.097 .0363840
476.968 .0363416
477.838 .0362953
478.706 .0362507
479.574 .0362080
480.441 .0361703
481.306 .0361365
482.171 .0361083
483.035 .0360788
483.898 .0360474
484.760 .0360114
485.621 .0359724
486.481 .0359271
487.340 .0358815
488.198 .0358364
489.055 .0357957
489.912 .0357607
490.767 .0357346
491.622 .0357165
492.476 .0357067
493.329 .0357022
494.180 .0357005
495.032 .0356964
495.882 .0356921
496.731 .0356838
497.580 .0356730
498.427 .0356580
499.274 .0356388
500.120 .0356158
500.965 .0355901
501.809 .0355609
502.653 .0355267
503.495 .0354872
504.337 .0354431
505.178 .0353921
506.018 .0353355
506.858 .0352713
507.696 .0352036
508.534 .0351303
509.371 .0350536
510.208 .0349711
511.043 .0348856
511.878 .0347994
512.712 .0347137
513.545 .0346307
514.377 .0345521
515.209 .0344793
516.040 .0344162
516.870 .0343627
517.699 .0343165
518.528 .0342744
519.356 .0342390
520.183 .0341992
521.010 .0341583
521.836 .0341124
522.661 .0340615
523.485 .0340062
524.309 .0339527
525.132 .0339025
525.954 .0338564
526.776 .0338224
527.597 .0337947
528.417 .0337679
529.237 .0337448
530.056 .0337132
530.874 .0336700
531.692 .0336213
532.508 .0335648
533.325 .0335001
534.140 .0334368
534.955 .0333765
535.770 .0333173
536.583 .0332686
537.397 .0332284
538.209 .0331934
539.021 .0331621
539.832 .0331348
540.643 .0330973
541.453 .0330629
542.262 .0330256
543.071 .0329820
543.879 .0329402
544.687 .0329048
545.494 .0328700
546.300 .0328465
547.106 .0328344
547.911 .0328280
548.716 .0328297
549.520 .0328331
550.323 .0328297
551.126 .0328264
551.929 .0328190
552.731 .0328044
553.532 .0327824
554.332 .0327622
555.133 .0327373
555.932 .0327124
556.731 .0326945
557.530 .0326783
558.328 .0326686
559.125 .0326649
559.922 .0326617
560.719 .0326612
561.515 .0326599
562.310 .0326529
563.105 .0326388
563.899 .0326196
564.693 .0325922
565.487 .0325561
566.280 .0325178
567.072 .0324796
567.864 .0324378
568.655 .0323962
569.446 .0323542
570.236 .0323103
571.026 .0322652
571.816 .0322160
572.605 .0321655
573.393 .0321166
574.181 .0320699
574.969 .0320275
575.756 .0319907
576.543 .0319609
577.329 .0319354
578.115 .0319110
578.900 .0318884
579.685 .0318626
580.469 .0318344
581.253 .0318053
582.036 .0317740
582.820 .0317435
583.602 .0317136
584.384 .0316856
585.166 .0316590
585.947 .0316327
586.728 .0316056
587.509 .0315765
588.289 .0315465
589.069 .0315162
589.848 .0314867
590.627 .0314593
591.405 .0314338
592.183 .0314109
592.961 .0313910
593.738 .0313730
594.515 .0313551
595.291 .0313379
596.067 .0313200
596.843 .0313018
597.618 .0312821
598.393 .0312630
599.167 .0312449
599.941 .0312283
600.715 .0312133
601.488 .0311998
602.261 .0311873
603.034 .0311752
603.806 .0311628
604.578 .0311503
605.349 .0311361
606.121 .0311210
606.891 .0311041
607.662 .0310871
608.432 .0310695
609.201 .0310521
609.971 .0310344
610.740 .0310172
611.508 .0309994
612.277 .0309810
613.045 .0309618
613.812 .0309419
614.579 .0309207
615.346 .0308989
616.113 .0308765
616.879 .0308541
617.645 .0308323
618.411 .0308117
619.176 .0307923
619.941 .0307745
620.705 .0307576
621.470 .0307415
622.233 .0307258
622.997 .0307106
623.760 .0306953
624.523 .0306797
625.286 .0306637
626.048 .0306471
626.810 .0306298
627.572 .0306113
628.333 .0305923
629.095 .0305721
629.855 .0305508
630.616 .0305285
631.376 .0305057
632.136 .0304824
632.895 .0304599
633.655 .0304385
634.414 .0304180
635.172 .0303987
635.931 .0303803
636.689 .0303623
637.447 .0303456
638.204 .0303296
638.962 .0303145
639.718 .0303006
640.475 .0302883
641.231 .0302764
641.988 .0302649
642.743 .0302539
643.499 .0302424
644.254 .0302299
645.009 .0302164
645.764 .0302014
646.518 .0301857
647.272 .0301700
648.026 .0301546
648.780 .0301396
649.533 .0301257
650.286 .0301124
651.039 .0300986
651.792 .0300847
652.544 .0300701
653.296 .0300545
654.048 .0300383
654.799 .0300222
655.550 .0300058
656.301 .0299896
657.052 .0299742
657.802 .0299596
658.552 .0299455
659.302 .0299316
660.052 .0299175
660.801 .0299034
661.550 .0298893
662.299 .0298752
663.048 .0298610
663.796 .0298479
664.544 .0298349
665.292 .0298221
666.040 .0298092
666.787 .0297970
667.534 .0297852
668.281 .0297737
669.028 .0297633
669.774 .0297536
670.521 .0297446
671.266 .0297363
672.012 .0297284
672.758 .0297208
673.503 .0297125
674.248 .0297033
674.992 .0296927
675.737 .0296813
676.481 .0296688
677.225 .0296559
677.969 .0296429
678.712 .0296303
679.455 .0296181
680.199 .0296067
680.941 .0295961
681.684 .0295863
682.426 .0295769
683.168 .0295677
683.910 .0295582
684.652 .0295481
685.393 .0295371
686.134 .0295261
686.875 .0295148
687.616 .0295038
688.356 .0294931
689.097 .0294830
689.837 .0294728
690.576 .0294633
691.316 .0294538
692.055 .0294445
692.794 .0294347
693.533 .0294248
694.272 .0294141
695.010 .0294033
695.748 .0293918
696.486 .0293796
697.224 .0293672
697.962 .0293547
698.699 .0293415
699.436 .0293284
700.173 .0293157
700.909 .0293027
701.646 .0292900
702.382 .0292779
703.118 .0292657
703.853 .0292536
704.589 .0292415
705.324 .0292294
706.059 .0292172
706.794 .0292047
707.529 .0291921
708.263 .0291795
708.997 .0291673
709.731 .0291547
710.465 .0291422
711.198 .0291301
711.931 .0291180
712.664 .0291054
713.397 .0290928
714.130 .0290797
714.862 .0290662
715.594 .0290520
716.326 .0290375
717.058 .0290231
717.789 .0290089
718.520 .0289944
719.251 .0289808
719.982 .0289675
720.713 .0289547
721.443 .0289420
722.173 .0289297
722.903 .0289172
723.633 .0289048
724.362 .0288919
725.091 .0288790
725.820 .0288664
726.549 .0288543
727.278 .0288425
728.006 .0288315
728.734 .0288207
729.462 .0288091
730.190 .0287969
730.917 .0287842
731.644 .0287705
732.371 .0287565
733.098 .0287425
733.825 .0287288
734.551 .0287164
735.277 .0287049
736.003 .0286941
736.728 .0286842
737.454 .0286749
738.179 .0286655
738.904 .0286556
739.629 .0286457
740.353 .0286355
741.077 .0286258
741.801 .0286166
742.525 .0286077
743.249 .0285994
743.972 .0285913
744.695 .0285833
745.418 .0285750
746.141 .0285665
746.863 .0285575
747.585 .0285483
748.307 .0285390
749.029 .0285294
749.750 .0285198
750.472 .0285102
751.193 .0285009
751.913 .0284913
752.634 .0284815
753.354 .0284714
754.074 .0284612
754.794 .0284517
755.514 .0284428
756.233 .0284350
756.952 .0284277
757.671 .0284213
758.390 .0284151
759.108 .0284087
759.826 .0284023
760.544 .0283954
761.262 .0283883
761.979 .0283806
762.697 .0283726
763.414 .0283644
764.130 .0283564
764.847 .0283490
765.563 .0283418
766.279 .0283350
766.995 .0283281
767.710 .0283206
768.426 .0283127
769.141 .0283042
769.855 .0282949
770.570 .0282846
771.284 .0282734
771.998 .0282614
772.712 .0282492
773.426 .0282368
774.139 .0282249
774.852 .0282134
775.565 .0282024
776.277 .0281917
776.990 .0281815
777.702 .0281716
778.414 .0281618
779.125 .0281524
779.836 .0281430
780.547 .0281336
781.258 .0281245
781.969 .0281155
782.679 .0281071
783.389 .0280989
784.099 .0280912
784.808 .0280834
785.517 .0280762
786.226 .0280690
786.935 .0280620
787.643 .0280550
788.352 .0280484
789.060 .0280416
789.767 .0280342
790.475 .0280259
791.182 .0280160
791.889 .0280047
792.595 .0279925
793.301 .0279791
794.008 .0279655
794.713 .0279519
795.419 .0279391
796.124 .0279268
796.829 .0279155
797.534 .0279047
798.238 .0278941
798.942 .0278835
799.646 .0278727
800.350 .0278610
801.053 .0278492
801.756 .0278375
802.459 .0278267
803.162 .0278172
803.864 .0278091
804.566 .0278021
805.267 .0277962
805.969 .0277907
806.670 .0277852
807.371 .0277797
808.071 .0277743
808.772 .0277689
809.472 .0277630
810.171 .0277570
810.871 .0277514
811.570 .0277460
812.269 .0277407
812.967 .0277351
813.666 .0277290
814.364 .0277222
815.061 .0277145
815.759 .0277065
816.456 .0276985
817.153 .0276908
817.849 .0276831
818.545 .0276753
819.241 .0276673
819.937 .0276588
820.632 .0276497
821.327 .0276397
822.022 .0276292
822.717 .0276182
823.411 .0276071
824.105 .0275969
824.798 .0275880
825.491 .0275797
826.184 .0275724
826.877 .0275660
827.569 .0275595
828.261 .0275522
828.953 .0275440
829.645 .0275345
830.336 .0275242
831.027 .0275136
831.717 .0275026
832.407 .0274920
833.097 .0274823
833.787 .0274725
834.476 .0274627
835.165 .0274530
835.854 .0274426
836.542 .0274320
837.230 .0274213
837.918 .0274106
838.605 .0273997
839.292 .0273895
839.979 .0273801
840.665 .0273721
841.352 .0273650
842.037 .0273583
842.723 .0273516
843.408 .0273449
844.093 .0273376
844.777 .0273295
845.462 .0273213
846.145 .0273123
846.829 .0273027
847.512 .0272926
848.195 .0272819
848.878 .0272713
849.560 .0272606
850.242 .0272497
850.923 .0272383
851.605 .0272262
852.286 .0272130
852.966 .0271993
853.646 .0271854
854.326 .0271711
855.006 .0271570
855.685 .0271429
856.364 .0271292
857.043 .0271157
857.721 .0271023
858.399 .0270890
859.077 .0270752
859.754 .0270604
860.431 .0270443
861.107 .0270272
861.784 .0270092
862.459 .0269908
863.135 .0269725
863.810 .0269542
864.485 .0269365
865.160 .0269194
865.834 .0269027
866.508 .0268867
867.181 .0268712
867.854 .0268560
868.527 .0268409
869.199 .0268262
869.872 .0268117
870.543 .0267982
871.215 .0267856
871.886 .0267738
872.557 .0267626
873.227 .0267520
873.897 .0267416
874.567 .0267313
875.236 .0267212
875.905 .0267109
876.573 .0267007
877.242 .0266908
877.909 .0266810
878.577 .0266716
879.244 .0266625
879.911 .0266534
880.577 .0266442
881.243 .0266348
881.909 .0266246
882.575 .0266137
883.240 .0266026
883.904 .0265911
884.569 .0265795
885.232 .0265677
885.896 .0265562
886.559 .0265451
887.222 .0265350
887.885 .0265256
888.547 .0265173
889.208 .0265104
889.870 .0265046
890.531 .0264997
891.192 .0264957
891.852 .0264923
892.512 .0264889
893.171 .0264852
893.830 .0264816
894.489 .0264775
895.148 .0264736
895.806 .0264697
896.464 .0264661
897.121 .0264627
897.778 .0264592
898.434 .0264550
899.091 .0264503
899.747 .0264446
900.402 .0264377
901.057 .0264295
901.712 .0264210
902.366 .0264122
903.020 .0264045
903.674 .0263983
904.327 .0263943
904.980 .0263924
905.633 .0263925
906.285 .0263936
906.936 .0263955
907.588 .0263976
908.239 .0263990
908.889 .0263997
909.540 .0263995
910.190 .0263982
910.839 .0263965
911.488 .0263943
912.137 .0263920
912.785 .0263893
913.433 .0263863
914.081 .0263824
914.728 .0263775
915.375 .0263713
916.021 .0263632
916.668 .0263536
917.313 .0263428
917.959 .0263306
918.604 .0263180
919.248 .0263054
919.892 .0262929
920.536 .0262810
921.180 .0262697
921.823 .0262588
922.465 .0262481
923.108 .0262371
923.750 .0262257
924.391 .0262134
925.032 .0262006
925.673 .0261870
926.313 .0261730
926.953 .0261588
927.593 .0261438
928.232 .0261283
928.871 .0261124
929.510 .0260958
930.148 .0260783
930.786 .0260600
931.423 .0260411
932.060 .0260216
932.697 .0260015
933.333 .0259810
933.969 .0259600
934.604 .0259389
935.239 .0259174
935.874 .0258951
936.508 .0258728
937.142 .0258507
937.776 .0258285
938.409 .0258069
939.042 .0257857
939.674 .0257655
940.306 .0257457
940.938 .0257265
941.569 .0257079
942.200 .0256889
942.830 .0256700
943.460 .0256507
944.090 .0256311
944.720 .0256113
945.349 .0255916
945.977 .0255723
946.606 .0255533
947.233 .0255347
947.861 .0255163
948.488 .0254977
949.115 .0254791
949.741 .0254600
950.367 .0254400
950.993 .0254194
951.618 .0253986
952.243 .0253775
952.868 .0253568
953.492 .0253366
954.115 .0253170
954.739 .0252983
955.362 .0252805
955.984 .0252634
956.607 .0252469
957.229 .0252314
957.850 .0252164
958.471 .0252017
959.092 .0251876
959.713 .0251737
960.333 .0251603
960.952 .0251482
961.572 .0251370
962.191 .0251270
962.809 .0251184
963.428 .0251110
964.045 .0251038
964.663 .0250967
965.280 .0250891
965.897 .0250806
966.513 .0250712
967.129 .0250612
967.745 .0250504
968.361 .0250395
968.976 .0250286
969.590 .0250177
970.205 .0250069
970.818 .0249965
971.432 .0249857
972.045 .0249747
972.658 .0249634
973.271 .0249517
973.883 .0249398
974.495 .0249279
975.106 .0249160
975.717 .0249044
976.328 .0248932
976.938 .0248828
977.548 .0248732
978.158 .0248650
978.768 .0248581
979.377 .0248523
979.985 .0248478
980.594 .0248442
981.202 .0248411
981.809 .0248386
982.417 .0248364
983.024 .0248348
983.631 .0248336
984.237 .0248329
984.843 .0248333
985.449 .0248345
986.054 .0248363
986.659 .0248386
987.264 .0248409
987.868 .0248430
988.472 .0248440
989.076 .0248440
989.679 .0248430
990.282 .0248410
990.885 .0248385
991.487 .0248360
992.090 .0248338
992.691 .0248322
993.293 .0248311
993.894 .0248305
994.495 .0248304
995.095 .0248303
995.696 .0248301
996.296 .0248298
996.895 .0248299
997.494 .0248302
998.093 .0248306
998.692 .0248316
999.291 .0248329
999.889 .0248342
1000.487 .0248352
1001.084 .0248359
1001.681 .0248356
1002.278 .0248348
1002.875 .0248342
1003.471 .0248335
1004.067 .0248336
1004.663 .0248347
1005.258 .0248367
1005.854 .0248391
1006.449 .0248419
1007.043 .0248449
1007.638 .0248472
1008.232 .0248498
1008.826 .0248527
1009.419 .0248559
1010.012 .0248611
1010.605 .0248679
1011.198 .0248760
1011.791 .0248857
1012.383 .0248960
1012.975 .0249054
1013.566 .0249136
1014.158 .0249206
1014.749 .0249262
1015.340 .0249308
1015.931 .0249352
1016.521 .0249388
1017.111 .0249426
1017.701 .0249465
1018.291 .0249494
1018.880 .0249506
1019.470 .0249511
1020.059 .0249494
1020.647 .0249467
1021.236 .0249432
1021.824 .0249395
1022.412 .0249361
1023.000 .0249340
1023.588 .0249329
1024.175 .0249325
1024.762 .0249323
1025.349 .0249324
1025.936 .0249323
1026.523 .0249329
1027.109 .0249336
1027.695 .0249346
1028.281 .0249360
1028.867 .0249382
1029.452 .0249399
1030.038 .0249409
1030.623 .0249415
1031.208 .0249412
1031.792 .0249409
1032.377 .0249399
1032.961 .0249385
1033.546 .0249370
1034.130 .0249357
1034.714 .0249347
1035.297 .0249330
1035.881 .0249305
1036.464 .0249272
1037.047 .0249227
1037.630 .0249171
1038.213 .0249108
1038.796 .0249047
1039.378 .0248997
1039.961 .0248961
1040.543 .0248931
1041.125 .0248910
1041.707 .0248890
1042.289 .0248873
1042.871 .0248844
1043.452 .0248810
1044.034 .0248765
1044.615 .0248706
1045.196 .0248648
1045.777 .0248595
1046.358 .0248544
1046.939 .0248506
1047.520 .0248482
1048.101 .0248471
1048.681 .0248459
1049.262 .0248448
1049.842 .0248427
1050.422 .0248401
1051.002 .0248363
1051.582 .0248305
1052.162 .0248235
1052.742 .0248165
1053.322 .0248082
1053.902 .0247987
1054.482 .0247897
1055.061 .0247811
1055.641 .0247716
1056.220 .0247618
1056.800 .0247506
1057.379 .0247388
1057.958 .0247261
1058.538 .0247129
1059.117 .0246996
1059.696 .0246870
1060.275 .0246751
1060.854 .0246634
1061.433 .0246525
1062.012 .0246421
1062.592 .0246318
1063.171 .0246223
1063.750 .0246126
1064.329 .0246026
1064.908 .0245909
1065.487 .0245783
1066.066 .0245651
1066.645 .0245511
1067.224 .0245360
1067.803 .0245199
1068.382 .0245032
1068.961 .0244863
1069.540 .0244698
1070.119 .0244540
1070.698 .0244400
1071.278 .0244280
1071.857 .0244167
1072.436 .0244061
1073.016 .0243955
1073.595 .0243863
1074.175 .0243778
1074.754 .0243699
1075.334 .0243627
1075.913 .0243564
1076.493 .0243521
1077.073 .0243490
1077.653 .0243473
1078.233 .0243476
1078.813 .0243482
1079.393 .0243488
1079.974 .0243481
1080.554 .0243461
1081.135 .0243426
1081.716 .0243380
1082.296 .0243317
1082.877 .0243247
1083.458 .0243170
1084.040 .0243085
1084.621 .0242995
1085.202 .0242908
1085.784 .0242831
1086.366 .0242758
1086.948 .0242703
1087.530 .0242667
1088.112 .0242643
1088.695 .0242645
1089.277 .0242662
1089.860 .0242689
1090.443 .0242715
1091.026 .0242735
1091.610 .0242738
1092.193 .0242723
1092.777 .0242698
1093.361 .0242659
1093.946 .0242619
1094.530 .0242578
1095.115 .0242537
1095.700 .0242479
1096.285 .0242417
1096.871 .0242342
1097.456 .0242251
1098.042 .0242160
1098.628 .0242072
1099.215 .0241993
1099.802 .0241944
1100.389 .0241919
1100.976 .0241922
1101.564 .0241956
1102.152 .0242013
1102.740 .0242075
1103.329 .0242159
1103.917 .0242258
1104.507 .0242369
1105.096 .0242493
1105.686 .0242659
1106.276 .0242825
1106.867 .0243000
1107.457 .0243177
1108.049 .0243322
1108.640 .0243449
1109.232 .0243557
1109.825 .0243648
1110.417 .0243752
1111.010 .0243875
1111.604 .0244023
1112.198 .0244205
1112.792 .0244444
1113.387 .0244706
1113.982 .0244973
1114.577 .0245258
1115.173 .0245550
1115.769 .0245822
1116.366 .0246100
1116.963 .0246376
1117.561 .0246672
1118.159 .0246991
1118.758 .0247306
1119.357 .0247629
1119.957 .0247936
1120.557 .0248203
1121.157 .0248413
1121.758 .0248558
1122.360 .0248670
1122.962 .0248716
1123.564 .0248743
1124.167 .0248767
1124.771 .0248803
1125.375 .0248850
1125.980 .0248913
1126.585 .0248983
1127.191 .0249036
1127.797 .0249067
1128.404 .0249068
1129.012 .0249050
1129.620 .0249037
1130.229 .0249043
1130.838 .0249111
1131.448 .0249239
1132.058 .0249450
1132.669 .0249685
1133.281 .0249978
1133.894 .0250274
1134.507 .0250559
1135.120 .0250821
1135.735 .0251055
1136.350 .0251282
1136.965 .0251540
1137.582 .0251845
1138.199 .0252218
1138.816 .0252654
1139.435 .0253151
1140.054 .0253710
1140.674 .0254296
1141.294 .0254853
1141.916 .0255542
1142.538 .0255299
1143.160 .0257384
1143.784 .0257288
1144.408 .0256980
1145.033 .0261362
