Measurement Sequence started on: 14-45-04-498
Integration time: 36
Scans to Average: 2 
>>>>>Begin Spectral Data<<<<<
433.946 .0672066
434.870 .0606938
435.793 .0560895
436.715 .0521551
437.635 .0497328
438.555 .0508941
439.473 .0494033
440.389 .0483874
441.305 .0476912
442.219 .0472080
443.132 .0468544
444.044 .0465830
444.954 .0463921
445.863 .0462577
446.771 .0461856
447.678 .0461462
448.584 .0461163
449.488 .0460868
450.391 .0460419
451.293 .0459750
452.194 .0459010
453.094 .0458238
453.992 .0457409
454.890 .0456685
455.786 .0456161
456.681 .0455746
457.575 .0455414
458.468 .0455002
459.360 .0454523
460.250 .0453928
461.140 .0453106
462.028 .0452123
462.915 .0451031
463.801 .0449876
464.687 .0448676
465.571 .0447498
466.454 .0446413
467.335 .0445356
468.216 .0444355
469.096 .0443361
469.975 .0442382
470.853 .0441377
471.729 .0440308
472.605 .0439185
473.479 .0438124
474.353 .0437079
475.226 .0436079
476.097 .0435158
476.968 .0434308
477.838 .0433496
478.706 .0432730
479.574 .0432037
480.441 .0431414
481.306 .0430846
482.171 .0430369
483.035 .0429929
483.898 .0429564
484.760 .0429212
485.621 .0428877
486.481 .0428542
487.340 .0428207
488.198 .0427810
489.055 .0427322
489.912 .0426756
490.767 .0426148
491.622 .0425477
492.476 .0424795
493.329 .0424115
494.180 .0423438
495.032 .0422764
495.882 .0422116
496.731 .0421489
497.580 .0420884
498.427 .0420288
499.274 .0419670
500.120 .0419037
500.965 .0418435
501.809 .0417844
502.653 .0417332
503.495 .0416967
504.337 .0416721
505.178 .0416590
506.018 .0416602
506.858 .0416684
507.696 .0416806
508.534 .0416903
509.371 .0416881
510.208 .0416720
511.043 .0416420
511.878 .0416012
512.712 .0415530
513.545 .0415065
514.377 .0414609
515.209 .0414121
516.040 .0413685
516.870 .0413205
517.699 .0412671
518.528 .0412088
519.356 .0411460
520.183 .0410773
521.010 .0410054
521.836 .0409346
522.661 .0408737
523.485 .0408265
524.309 .0407885
525.132 .0407494
525.954 .0407094
526.776 .0406634
527.597 .0406092
528.417 .0405387
529.237 .0404573
530.056 .0403658
530.874 .0402752
531.692 .0401817
532.508 .0400944
533.325 .0400142
534.140 .0399364
534.955 .0398626
535.770 .0397878
536.583 .0397081
537.397 .0396313
538.209 .0395598
539.021 .0394994
539.832 .0394386
540.643 .0393869
541.453 .0393366
542.262 .0392930
543.071 .0392564
543.879 .0392121
544.687 .0391671
545.494 .0391272
546.300 .0390903
547.106 .0390576
547.911 .0390283
548.716 .0390116
549.520 .0389976
550.323 .0389829
551.126 .0389627
551.929 .0389351
552.731 .0389016
553.532 .0388634
554.332 .0388177
555.133 .0387706
555.932 .0387270
556.731 .0386884
557.530 .0386626
558.328 .0386454
559.125 .0386374
559.922 .0386327
560.719 .0386258
561.515 .0386152
562.310 .0385909
563.105 .0385564
563.899 .0385088
564.693 .0384476
565.487 .0383751
566.280 .0382938
567.072 .0382137
567.864 .0381341
568.655 .0380562
569.446 .0379800
570.236 .0379081
571.026 .0378376
571.816 .0377650
572.605 .0376923
573.393 .0376217
574.181 .0375570
574.969 .0374974
575.756 .0374447
576.543 .0373999
577.329 .0373632
578.115 .0373309
578.900 .0372987
579.685 .0372645
580.469 .0372265
581.253 .0371832
582.036 .0371352
582.820 .0370838
583.602 .0370299
584.384 .0369756
585.166 .0369223
585.947 .0368692
586.728 .0368168
587.509 .0367648
588.289 .0367151
589.069 .0366654
589.848 .0366171
590.627 .0365696
591.405 .0365242
592.183 .0364824
592.961 .0364446
593.738 .0364087
594.515 .0363745
595.291 .0363401
596.067 .0363045
596.843 .0362677
597.618 .0362291
598.393 .0361895
599.167 .0361502
599.941 .0361129
600.715 .0360764
601.488 .0360407
602.261 .0360080
603.034 .0359755
603.806 .0359437
604.578 .0359112
605.349 .0358783
606.121 .0358444
606.891 .0358108
607.662 .0357776
608.432 .0357458
609.201 .0357160
609.971 .0356880
610.740 .0356617
611.508 .0356366
612.277 .0356123
613.045 .0355883
613.812 .0355654
614.579 .0355434
615.346 .0355211
616.113 .0354999
616.879 .0354788
617.645 .0354587
618.411 .0354386
619.176 .0354185
619.941 .0353979
620.705 .0353764
621.470 .0353541
622.233 .0353309
622.997 .0353075
623.760 .0352836
624.523 .0352601
625.286 .0352357
626.048 .0352103
626.810 .0351839
627.572 .0351556
628.333 .0351264
629.095 .0350961
629.855 .0350648
630.616 .0350334
631.376 .0350025
632.136 .0349725
632.895 .0349431
633.655 .0349154
634.414 .0348887
635.172 .0348621
635.931 .0348351
636.689 .0348074
637.447 .0347779
638.204 .0347480
638.962 .0347164
639.718 .0346834
640.475 .0346500
641.231 .0346157
641.988 .0345808
642.743 .0345459
643.499 .0345107
644.254 .0344755
645.009 .0344405
645.764 .0344069
646.518 .0343737
647.272 .0343419
648.026 .0343121
648.780 .0342829
649.533 .0342550
650.286 .0342283
651.039 .0342019
651.792 .0341769
652.544 .0341529
653.296 .0341296
654.048 .0341074
654.799 .0340862
655.550 .0340654
656.301 .0340441
657.052 .0340225
657.802 .0339998
658.552 .0339760
659.302 .0339516
660.052 .0339267
660.801 .0339018
661.550 .0338777
662.299 .0338545
663.048 .0338322
663.796 .0338105
664.544 .0337889
665.292 .0337665
666.040 .0337433
666.787 .0337192
667.534 .0336947
668.281 .0336700
669.028 .0336466
669.774 .0336242
670.521 .0336034
671.266 .0335841
672.012 .0335660
672.758 .0335484
673.503 .0335307
674.248 .0335122
674.992 .0334928
675.737 .0334725
676.481 .0334522
677.225 .0334312
677.969 .0334107
678.712 .0333908
679.455 .0333714
680.199 .0333521
680.941 .0333326
681.684 .0333127
682.426 .0332918
683.168 .0332693
683.910 .0332451
684.652 .0332194
685.393 .0331930
686.134 .0331659
686.875 .0331390
687.616 .0331129
688.356 .0330883
689.097 .0330649
689.837 .0330430
690.576 .0330224
691.316 .0330027
692.055 .0329838
692.794 .0329650
693.533 .0329464
694.272 .0329278
695.010 .0329091
695.748 .0328907
696.486 .0328722
697.224 .0328543
697.962 .0328363
698.699 .0328185
699.436 .0328011
700.173 .0327836
700.909 .0327659
701.646 .0327482
702.382 .0327314
703.118 .0327145
703.853 .0326982
704.589 .0326821
705.324 .0326665
706.059 .0326517
706.794 .0326380
707.529 .0326254
708.263 .0326143
708.997 .0326056
709.731 .0325984
710.465 .0325930
711.198 .0325892
711.931 .0325857
712.664 .0325823
713.397 .0325784
714.130 .0325730
714.862 .0325653
715.594 .0325562
716.326 .0325454
717.058 .0325332
717.789 .0325207
718.520 .0325075
719.251 .0324937
719.982 .0324792
720.713 .0324638
721.443 .0324465
722.173 .0324275
722.903 .0324074
723.633 .0323855
724.362 .0323629
725.091 .0323400
725.820 .0323172
726.549 .0322959
727.278 .0322764
728.006 .0322584
728.734 .0322421
729.462 .0322270
730.190 .0322128
730.917 .0321986
731.644 .0321848
732.371 .0321713
733.098 .0321578
733.825 .0321445
734.551 .0321315
735.277 .0321186
736.003 .0321060
736.728 .0320939
737.454 .0320818
738.179 .0320695
738.904 .0320562
739.629 .0320419
740.353 .0320266
741.077 .0320104
741.801 .0319943
742.525 .0319777
743.249 .0319624
743.972 .0319471
744.695 .0319323
745.418 .0319178
746.141 .0319038
746.863 .0318898
747.585 .0318748
748.307 .0318595
749.029 .0318439
749.750 .0318280
750.472 .0318125
751.193 .0317971
751.913 .0317821
752.634 .0317672
753.354 .0317523
754.074 .0317363
754.794 .0317194
755.514 .0317017
756.233 .0316831
756.952 .0316640
757.671 .0316457
758.390 .0316280
759.108 .0316120
759.826 .0315984
760.544 .0315863
761.262 .0315754
761.979 .0315654
762.697 .0315560
763.414 .0315464
764.130 .0315373
764.847 .0315289
765.563 .0315219
766.279 .0315169
766.995 .0315145
767.710 .0315141
768.426 .0315161
769.141 .0315200
769.855 .0315247
770.570 .0315293
771.284 .0315335
771.998 .0315365
772.712 .0315389
773.426 .0315401
774.139 .0315410
774.852 .0315410
775.565 .0315417
776.277 .0315423
776.990 .0315427
777.702 .0315424
778.414 .0315412
779.125 .0315387
779.836 .0315348
780.547 .0315296
781.258 .0315239
781.969 .0315176
782.679 .0315112
783.389 .0315038
784.099 .0314965
784.808 .0314888
785.517 .0314814
786.226 .0314734
786.935 .0314660
787.643 .0314585
788.352 .0314513
789.060 .0314439
789.767 .0314366
790.475 .0314285
791.182 .0314193
791.889 .0314085
792.595 .0313968
793.301 .0313832
794.008 .0313689
794.713 .0313538
795.419 .0313390
796.124 .0313236
796.829 .0313084
797.534 .0312927
798.238 .0312771
798.942 .0312616
799.646 .0312456
800.350 .0312293
801.053 .0312133
801.756 .0311971
802.459 .0311814
803.162 .0311662
803.864 .0311518
804.566 .0311374
805.267 .0311231
805.969 .0311082
806.670 .0310928
807.371 .0310769
808.071 .0310610
808.772 .0310446
809.472 .0310275
810.171 .0310098
810.871 .0309914
811.570 .0309726
812.269 .0309527
812.967 .0309319
813.666 .0309105
814.364 .0308892
815.061 .0308679
815.759 .0308475
816.456 .0308283
817.153 .0308103
817.849 .0307934
818.545 .0307771
819.241 .0307618
819.937 .0307475
820.632 .0307346
821.327 .0307230
822.022 .0307124
822.717 .0307030
823.411 .0306947
824.105 .0306871
824.798 .0306799
825.491 .0306725
826.184 .0306644
826.877 .0306557
827.569 .0306458
828.261 .0306348
828.953 .0306240
829.645 .0306130
830.336 .0306026
831.027 .0305925
831.717 .0305832
832.407 .0305736
833.097 .0305645
833.787 .0305555
834.476 .0305460
835.165 .0305362
835.854 .0305270
836.542 .0305183
837.230 .0305112
837.918 .0305056
838.605 .0305010
839.292 .0304978
839.979 .0304963
840.665 .0304945
841.352 .0304937
842.037 .0304933
842.723 .0304930
843.408 .0304920
844.093 .0304915
844.777 .0304905
845.462 .0304894
846.145 .0304886
846.829 .0304876
847.512 .0304860
848.195 .0304845
848.878 .0304821
849.560 .0304794
850.242 .0304775
850.923 .0304749
851.605 .0304714
852.286 .0304676
852.966 .0304626
853.646 .0304562
854.326 .0304489
855.006 .0304407
855.685 .0304313
856.364 .0304210
857.043 .0304097
857.721 .0303973
858.399 .0303843
859.077 .0303708
859.754 .0303564
860.431 .0303417
861.107 .0303261
861.784 .0303090
862.459 .0302919
863.135 .0302747
863.810 .0302568
864.485 .0302382
865.160 .0302194
865.834 .0302005
866.508 .0301811
867.181 .0301614
867.854 .0301418
868.527 .0301228
869.199 .0301045
869.872 .0300859
870.543 .0300678
871.215 .0300497
871.886 .0300316
872.557 .0300131
873.227 .0299941
873.897 .0299747
874.567 .0299539
875.236 .0299322
875.905 .0299100
876.573 .0298871
877.242 .0298638
877.909 .0298409
878.577 .0298187
879.244 .0297973
879.911 .0297774
880.577 .0297590
881.243 .0297423
881.909 .0297270
882.575 .0297119
883.240 .0296969
883.904 .0296815
884.569 .0296656
885.232 .0296486
885.896 .0296316
886.559 .0296146
887.222 .0295978
887.885 .0295817
888.547 .0295659
889.208 .0295506
889.870 .0295354
890.531 .0295196
891.192 .0295027
891.852 .0294849
892.512 .0294661
893.171 .0294469
893.830 .0294282
894.489 .0294103
895.148 .0293944
895.806 .0293814
896.464 .0293710
897.121 .0293629
897.778 .0293571
898.434 .0293534
899.091 .0293505
899.747 .0293478
900.402 .0293448
901.057 .0293413
901.712 .0293379
902.366 .0293339
903.020 .0293295
903.674 .0293256
904.327 .0293221
904.980 .0293188
905.633 .0293154
906.285 .0293118
906.936 .0293079
907.588 .0293034
908.239 .0292983
908.889 .0292926
909.540 .0292860
910.190 .0292793
910.839 .0292729
911.488 .0292673
912.137 .0292622
912.785 .0292574
913.433 .0292525
914.081 .0292472
914.728 .0292405
915.375 .0292326
916.021 .0292227
916.668 .0292120
917.313 .0292005
917.959 .0291877
918.604 .0291744
919.248 .0291618
919.892 .0291495
920.536 .0291379
921.180 .0291272
921.823 .0291174
922.465 .0291080
923.108 .0291004
923.750 .0290935
924.391 .0290877
925.032 .0290824
925.673 .0290777
926.313 .0290728
926.953 .0290685
927.593 .0290636
928.232 .0290577
928.871 .0290515
929.510 .0290455
930.148 .0290377
930.786 .0290292
931.423 .0290195
932.060 .0290091
932.697 .0289970
933.333 .0289835
933.969 .0289683
934.604 .0289520
935.239 .0289347
935.874 .0289164
936.508 .0288973
937.142 .0288786
937.776 .0288602
938.409 .0288423
939.042 .0288253
939.674 .0288091
940.306 .0287929
940.938 .0287775
941.569 .0287627
942.200 .0287484
942.830 .0287335
943.460 .0287188
944.090 .0287037
944.720 .0286877
945.349 .0286711
945.977 .0286537
946.606 .0286362
947.233 .0286193
947.861 .0286020
948.488 .0285844
949.115 .0285670
949.741 .0285496
950.367 .0285314
950.993 .0285129
951.618 .0284939
952.243 .0284748
952.868 .0284558
953.492 .0284380
954.115 .0284213
954.739 .0284067
955.362 .0283938
955.984 .0283820
956.607 .0283713
957.229 .0283616
957.850 .0283521
958.471 .0283427
959.092 .0283333
959.713 .0283235
960.333 .0283127
960.952 .0283015
961.572 .0282891
962.191 .0282758
962.809 .0282611
963.428 .0282452
964.045 .0282276
964.663 .0282088
965.280 .0281889
965.897 .0281681
966.513 .0281470
967.129 .0281263
967.745 .0281053
968.361 .0280841
968.976 .0280630
969.590 .0280418
970.205 .0280203
970.818 .0279992
971.432 .0279792
972.045 .0279610
972.658 .0279449
973.271 .0279307
973.883 .0279185
974.495 .0279073
975.106 .0278965
975.717 .0278844
976.328 .0278706
976.938 .0278545
977.548 .0278363
978.158 .0278167
978.768 .0277960
979.377 .0277752
979.985 .0277548
980.594 .0277350
981.202 .0277159
981.809 .0276965
982.417 .0276773
983.024 .0276573
983.631 .0276371
984.237 .0276154
984.843 .0275931
985.449 .0275705
986.054 .0275477
986.659 .0275258
987.264 .0275056
987.868 .0274879
988.472 .0274729
989.076 .0274605
989.679 .0274509
990.282 .0274432
990.885 .0274371
991.487 .0274309
992.090 .0274254
992.691 .0274196
993.293 .0274140
993.894 .0274087
994.495 .0274049
995.095 .0274028
995.696 .0274025
996.296 .0274037
996.895 .0274053
997.494 .0274073
998.093 .0274084
998.692 .0274081
999.291 .0274066
999.889 .0274028
1000.487 .0273972
1001.084 .0273897
1001.681 .0273809
1002.278 .0273697
1002.875 .0273568
1003.471 .0273428
1004.067 .0273278
1004.663 .0273133
1005.258 .0272989
1005.854 .0272854
1006.449 .0272746
1007.043 .0272658
1007.638 .0272586
1008.232 .0272540
1008.826 .0272519
1009.419 .0272512
1010.012 .0272530
1010.605 .0272569
1011.198 .0272629
1011.791 .0272714
1012.383 .0272821
1012.975 .0272938
1013.566 .0273063
1014.158 .0273189
1014.749 .0273296
1015.340 .0273394
1015.931 .0273483
1016.521 .0273545
1017.111 .0273595
1017.701 .0273636
1018.291 .0273669
1018.880 .0273698
1019.470 .0273733
1020.059 .0273775
1020.647 .0273820
1021.236 .0273871
1021.824 .0273924
1022.412 .0273982
1023.000 .0274051
1023.588 .0274132
1024.175 .0274230
1024.762 .0274342
1025.349 .0274467
1025.936 .0274599
1026.523 .0274743
1027.109 .0274896
1027.695 .0275046
1028.281 .0275188
1028.867 .0275317
1029.452 .0275436
1030.038 .0275540
1030.623 .0275640
1031.208 .0275735
1031.792 .0275827
1032.377 .0275918
1032.961 .0276006
1033.546 .0276085
1034.130 .0276162
1034.714 .0276244
1035.297 .0276325
1035.881 .0276403
1036.464 .0276488
1037.047 .0276578
1037.630 .0276676
1038.213 .0276779
1038.796 .0276879
1039.378 .0276973
1039.961 .0277049
1040.543 .0277095
1041.125 .0277107
1041.707 .0277102
1042.289 .0277086
1042.871 .0277057
1043.452 .0277031
1044.034 .0277010
1044.615 .0276982
1045.196 .0276954
1045.777 .0276917
1046.358 .0276868
1046.939 .0276796
1047.520 .0276707
1048.101 .0276600
1048.681 .0276482
1049.262 .0276360
1049.842 .0276238
1050.422 .0276128
1051.002 .0276041
1051.582 .0275958
1052.162 .0275884
1052.742 .0275820
1053.322 .0275752
1053.902 .0275668
1054.482 .0275573
1055.061 .0275467
1055.641 .0275357
1056.220 .0275238
1056.800 .0275113
1057.379 .0274994
1057.958 .0274884
1058.538 .0274781
1059.117 .0274676
1059.696 .0274575
1060.275 .0274463
1060.854 .0274345
1061.433 .0274226
1062.012 .0274100
1062.592 .0273973
1063.171 .0273859
1063.750 .0273755
1064.329 .0273657
1064.908 .0273556
1065.487 .0273444
1066.066 .0273332
1066.645 .0273222
1067.224 .0273094
1067.803 .0272960
1068.382 .0272840
1068.961 .0272745
1069.540 .0272667
1070.119 .0272626
1070.698 .0272612
1071.278 .0272625
1071.857 .0272645
1072.436 .0272649
1073.016 .0272636
1073.595 .0272612
1074.175 .0272580
1074.754 .0272563
1075.334 .0272570
1075.913 .0272605
1076.493 .0272667
1077.073 .0272758
1077.653 .0272844
1078.233 .0272917
1078.813 .0272949
1079.393 .0272953
1079.974 .0272928
1080.554 .0272864
1081.135 .0272774
1081.716 .0272688
1082.296 .0272624
1082.877 .0272568
1083.458 .0272505
1084.040 .0272425
1084.621 .0272320
1085.202 .0272171
1085.784 .0271993
1086.366 .0271792
1086.948 .0271605
1087.530 .0271441
1088.112 .0271296
1088.695 .0271190
1089.277 .0271098
1089.860 .0271012
1090.443 .0270932
1091.026 .0270802
1091.610 .0270638
1092.193 .0270428
1092.777 .0270209
1093.361 .0270009
1093.946 .0269833
1094.530 .0269691
1095.115 .0269591
1095.700 .0269524
1096.285 .0269466
1096.871 .0269382
1097.456 .0269296
1098.042 .0269183
1098.628 .0269045
1099.215 .0268896
1099.802 .0268746
1100.389 .0268629
1100.976 .0268552
1101.564 .0268518
1102.152 .0268531
1102.740 .0268556
1103.329 .0268573
1103.917 .0268568
1104.507 .0268527
1105.096 .0268440
1105.686 .0268296
1106.276 .0268127
1106.867 .0267960
1107.457 .0267813
1108.049 .0267703
1108.640 .0267645
1109.232 .0267660
1109.825 .0267730
1110.417 .0267815
1111.010 .0267940
1111.604 .0268065
1112.198 .0268209
1112.792 .0268358
1113.387 .0268514
1113.982 .0268717
1114.577 .0268953
1115.173 .0269240
1115.769 .0269557
1116.366 .0269903
1116.963 .0270275
1117.561 .0270610
1118.159 .0270946
1118.758 .0271250
1119.357 .0271524
1119.957 .0271785
1120.557 .0272052
1121.157 .0272333
1121.758 .0272660
1122.360 .0273004
1122.962 .0273347
1123.564 .0273694
1124.167 .0274011
1124.771 .0274267
1125.375 .0274487
1125.980 .0274675
1126.585 .0274863
1127.191 .0275047
1127.797 .0275316
1128.404 .0275644
1129.012 .0276053
1129.620 .0276524
1130.229 .0277015
1130.838 .0277492
1131.448 .0277942
1132.058 .0278324
1132.669 .0278649
1133.281 .0278963
1133.894 .0279297
1134.507 .0279656
1135.120 .0280146
1135.735 .0280732
1136.350 .0281400
1136.965 .0282097
1137.582 .0282827
1138.199 .0283469
1138.816 .0284041
1139.435 .0284550
1140.054 .0284928
1140.674 .0285296
1141.294 .0285746
1141.916 .0285910
1142.538 .0286985
1143.160 .0286040
1143.784 .0287788
1144.408 .0290471
1145.033 .0281647
