Measurement Sequence started on: 14-45-04-498
Integration time: 36
Scans to Average: 2 
>>>>>Begin Spectral Data<<<<<
433.946 .0403820
434.870 .0426110
435.793 .0380850
436.715 .0390138
437.635 .0390156
438.555 .0393568
439.473 .0392857
440.389 .0392091
441.305 .0392711
442.219 .0392911
443.132 .0393102
444.044 .0393241
444.954 .0393378
445.863 .0393503
446.771 .0393513
447.678 .0393413
448.584 .0393247
449.488 .0392882
450.391 .0392374
451.293 .0391800
452.194 .0391238
453.094 .0390655
453.992 .0390053
454.890 .0389356
455.786 .0388605
456.681 .0387778
457.575 .0386888
458.468 .0385911
459.360 .0384949
460.250 .0383959
461.140 .0382927
462.028 .0381960
462.915 .0380970
463.801 .0379942
464.687 .0378905
465.571 .0377883
466.454 .0376876
467.335 .0375899
468.216 .0375017
469.096 .0374226
469.975 .0373547
470.853 .0372952
471.729 .0372366
472.605 .0371816
473.479 .0371300
474.353 .0370737
475.226 .0370183
476.097 .0369689
476.968 .0369201
477.838 .0368748
478.706 .0368377
479.574 .0368066
480.441 .0367774
481.306 .0367489
482.171 .0367188
483.035 .0366821
483.898 .0366420
484.760 .0365973
485.621 .0365493
486.481 .0365030
487.340 .0364555
488.198 .0364040
489.055 .0363539
489.912 .0363016
490.767 .0362444
491.622 .0361846
492.476 .0361242
493.329 .0360595
494.180 .0359919
495.032 .0359263
495.882 .0358643
496.731 .0358065
497.580 .0357563
498.427 .0357097
499.274 .0356682
500.120 .0356301
500.965 .0355956
501.809 .0355650
502.653 .0355403
503.495 .0355184
504.337 .0354985
505.178 .0354805
506.018 .0354656
506.858 .0354489
507.696 .0354334
508.534 .0354181
509.371 .0354012
510.208 .0353794
511.043 .0353575
511.878 .0353316
512.712 .0353069
513.545 .0352809
514.377 .0352583
515.209 .0352342
516.040 .0352089
516.870 .0351848
517.699 .0351609
518.528 .0351360
519.356 .0351140
520.183 .0350892
521.010 .0350705
521.836 .0350500
522.661 .0350271
523.485 .0349987
524.309 .0349655
525.132 .0349190
525.954 .0348639
526.776 .0347987
527.597 .0347290
528.417 .0346490
529.237 .0345693
530.056 .0344905
530.874 .0344172
531.692 .0343486
532.508 .0342855
533.325 .0342267
534.140 .0341759
534.955 .0341222
535.770 .0340743
536.583 .0340317
537.397 .0339955
538.209 .0339627
539.021 .0339399
539.832 .0339198
540.643 .0339018
541.453 .0338817
542.262 .0338586
543.071 .0338251
543.879 .0337798
544.687 .0337166
545.494 .0336402
546.300 .0335590
547.106 .0334713
547.911 .0333837
548.716 .0333075
549.520 .0332416
550.323 .0331838
551.126 .0331372
551.929 .0331000
552.731 .0330663
553.532 .0330366
554.332 .0330084
555.133 .0329810
555.932 .0329611
556.731 .0329454
557.530 .0329411
558.328 .0329506
559.125 .0329723
559.922 .0330005
560.719 .0330327
561.515 .0330615
562.310 .0330824
563.105 .0330904
563.899 .0330873
564.693 .0330708
565.487 .0330496
566.280 .0330232
567.072 .0329966
567.864 .0329721
568.655 .0329470
569.446 .0329214
570.236 .0328954
571.026 .0328640
571.816 .0328268
572.605 .0327841
573.393 .0327389
574.181 .0326916
574.969 .0326479
575.756 .0326047
576.543 .0325654
577.329 .0325302
578.115 .0324974
578.900 .0324637
579.685 .0324276
580.469 .0323900
581.253 .0323500
582.036 .0323092
582.820 .0322668
583.602 .0322245
584.384 .0321849
585.166 .0321468
585.947 .0321105
586.728 .0320758
587.509 .0320435
588.289 .0320116
589.069 .0319810
589.848 .0319518
590.627 .0319230
591.405 .0318951
592.183 .0318685
592.961 .0318435
593.738 .0318192
594.515 .0317952
595.291 .0317713
596.067 .0317487
596.843 .0317275
597.618 .0317071
598.393 .0316870
599.167 .0316681
599.941 .0316486
600.715 .0316279
601.488 .0316069
602.261 .0315851
603.034 .0315626
603.806 .0315415
604.578 .0315213
605.349 .0315031
606.121 .0314876
606.891 .0314753
607.662 .0314652
608.432 .0314571
609.201 .0314500
609.971 .0314423
610.740 .0314340
611.508 .0314253
612.277 .0314150
613.045 .0314043
613.812 .0313938
614.579 .0313825
615.346 .0313715
616.113 .0313609
616.879 .0313502
617.645 .0313395
618.411 .0313288
619.176 .0313175
619.941 .0313050
620.705 .0312915
621.470 .0312767
622.233 .0312600
622.997 .0312427
623.760 .0312241
624.523 .0312045
625.286 .0311846
626.048 .0311644
626.810 .0311436
627.572 .0311223
628.333 .0311006
629.095 .0310779
629.855 .0310538
630.616 .0310289
631.376 .0310028
632.136 .0309761
632.895 .0309492
633.655 .0309226
634.414 .0308970
635.172 .0308727
635.931 .0308496
636.689 .0308277
637.447 .0308070
638.204 .0307873
638.962 .0307680
639.718 .0307491
640.475 .0307310
641.231 .0307131
641.988 .0306952
642.743 .0306779
643.499 .0306612
644.254 .0306443
645.009 .0306280
645.764 .0306122
646.518 .0305970
647.272 .0305823
648.026 .0305683
648.780 .0305548
649.533 .0305421
650.286 .0305302
651.039 .0305180
651.792 .0305059
652.544 .0304945
653.296 .0304823
654.048 .0304707
654.799 .0304593
655.550 .0304482
656.301 .0304370
657.052 .0304261
657.802 .0304148
658.552 .0304026
659.302 .0303899
660.052 .0303767
660.801 .0303629
661.550 .0303491
662.299 .0303354
663.048 .0303220
663.796 .0303099
664.544 .0302988
665.292 .0302881
666.040 .0302788
666.787 .0302699
667.534 .0302614
668.281 .0302526
669.028 .0302434
669.774 .0302339
670.521 .0302233
671.266 .0302124
672.012 .0302010
672.758 .0301896
673.503 .0301781
674.248 .0301663
674.992 .0301546
675.737 .0301425
676.481 .0301298
677.225 .0301163
677.969 .0301019
678.712 .0300866
679.455 .0300709
680.199 .0300551
680.941 .0300397
681.684 .0300254
682.426 .0300118
683.168 .0299998
683.910 .0299885
684.652 .0299776
685.393 .0299666
686.134 .0299555
686.875 .0299446
687.616 .0299329
688.356 .0299214
689.097 .0299104
689.837 .0298998
690.576 .0298895
691.316 .0298795
692.055 .0298696
692.794 .0298597
693.533 .0298492
694.272 .0298379
695.010 .0298258
695.748 .0298138
696.486 .0298018
697.224 .0297902
697.962 .0297791
698.699 .0297688
699.436 .0297583
700.173 .0297479
700.909 .0297369
701.646 .0297253
702.382 .0297127
703.118 .0296995
703.853 .0296860
704.589 .0296723
705.324 .0296590
706.059 .0296472
706.794 .0296363
707.529 .0296271
708.263 .0296187
708.997 .0296112
709.731 .0296039
710.465 .0295969
711.198 .0295892
711.931 .0295812
712.664 .0295731
713.397 .0295644
714.130 .0295548
714.862 .0295457
715.594 .0295368
716.326 .0295281
717.058 .0295195
717.789 .0295108
718.520 .0295011
719.251 .0294909
719.982 .0294795
720.713 .0294668
721.443 .0294528
722.173 .0294381
722.903 .0294221
723.633 .0294058
724.362 .0293897
725.091 .0293732
725.820 .0293572
726.549 .0293416
727.278 .0293258
728.006 .0293095
728.734 .0292932
729.462 .0292766
730.190 .0292597
730.917 .0292430
731.644 .0292264
732.371 .0292105
733.098 .0291963
733.825 .0291834
734.551 .0291719
735.277 .0291620
736.003 .0291533
736.728 .0291447
737.454 .0291367
738.179 .0291287
738.904 .0291207
739.629 .0291132
740.353 .0291063
741.077 .0291000
741.801 .0290946
742.525 .0290900
743.249 .0290863
743.972 .0290827
744.695 .0290790
745.418 .0290737
746.141 .0290669
746.863 .0290583
747.585 .0290477
748.307 .0290349
749.029 .0290210
749.750 .0290058
750.472 .0289901
751.193 .0289742
751.913 .0289588
752.634 .0289435
753.354 .0289282
754.074 .0289128
754.794 .0288969
755.514 .0288799
756.233 .0288624
756.952 .0288440
757.671 .0288256
758.390 .0288072
759.108 .0287895
759.826 .0287730
760.544 .0287583
761.262 .0287456
761.979 .0287347
762.697 .0287257
763.414 .0287182
764.130 .0287114
764.847 .0287050
765.563 .0286993
766.279 .0286936
766.995 .0286878
767.710 .0286819
768.426 .0286756
769.141 .0286695
769.855 .0286628
770.570 .0286555
771.284 .0286478
771.998 .0286395
772.712 .0286307
773.426 .0286211
774.139 .0286111
774.852 .0286007
775.565 .0285900
776.277 .0285793
776.990 .0285688
777.702 .0285589
778.414 .0285500
779.125 .0285423
779.836 .0285360
780.547 .0285313
781.258 .0285276
781.969 .0285251
782.679 .0285237
783.389 .0285226
784.099 .0285217
784.808 .0285210
785.517 .0285209
786.226 .0285209
786.935 .0285207
787.643 .0285207
788.352 .0285201
789.060 .0285188
789.767 .0285167
790.475 .0285128
791.182 .0285076
791.889 .0285012
792.595 .0284936
793.301 .0284853
794.008 .0284769
794.713 .0284688
795.419 .0284613
796.124 .0284545
796.829 .0284482
797.534 .0284416
798.238 .0284353
798.942 .0284288
799.646 .0284217
800.350 .0284144
801.053 .0284069
801.756 .0283987
802.459 .0283899
803.162 .0283806
803.864 .0283710
804.566 .0283607
805.267 .0283498
805.969 .0283383
806.670 .0283264
807.371 .0283150
808.071 .0283039
808.772 .0282933
809.472 .0282833
810.171 .0282732
810.871 .0282627
811.570 .0282520
812.269 .0282412
812.967 .0282300
813.666 .0282187
814.364 .0282077
815.061 .0281970
815.759 .0281869
816.456 .0281778
817.153 .0281693
817.849 .0281606
818.545 .0281512
819.241 .0281405
819.937 .0281283
820.632 .0281144
821.327 .0280989
822.022 .0280821
822.717 .0280646
823.411 .0280466
824.105 .0280285
824.798 .0280105
825.491 .0279928
826.184 .0279750
826.877 .0279573
827.569 .0279389
828.261 .0279202
828.953 .0279012
829.645 .0278823
830.336 .0278634
831.027 .0278448
831.717 .0278266
832.407 .0278092
833.097 .0277923
833.787 .0277761
834.476 .0277606
835.165 .0277459
835.854 .0277321
836.542 .0277194
837.230 .0277077
837.918 .0276972
838.605 .0276879
839.292 .0276797
839.979 .0276720
840.665 .0276647
841.352 .0276576
842.037 .0276503
842.723 .0276431
843.408 .0276360
844.093 .0276290
844.777 .0276226
845.462 .0276167
846.145 .0276114
846.829 .0276059
847.512 .0276007
848.195 .0275949
848.878 .0275886
849.560 .0275815
850.242 .0275732
850.923 .0275641
851.605 .0275548
852.286 .0275451
852.966 .0275355
853.646 .0275262
854.326 .0275176
855.006 .0275094
855.685 .0275017
856.364 .0274944
857.043 .0274873
857.721 .0274800
858.399 .0274723
859.077 .0274636
859.754 .0274542
860.431 .0274434
861.107 .0274321
861.784 .0274202
862.459 .0274082
863.135 .0273964
863.810 .0273849
864.485 .0273740
865.160 .0273644
865.834 .0273553
866.508 .0273470
867.181 .0273391
867.854 .0273317
868.527 .0273243
869.199 .0273172
869.872 .0273106
870.543 .0273045
871.215 .0272990
871.886 .0272947
872.557 .0272906
873.227 .0272876
873.897 .0272851
874.567 .0272828
875.236 .0272803
875.905 .0272774
876.573 .0272734
877.242 .0272683
877.909 .0272620
878.577 .0272546
879.244 .0272457
879.911 .0272363
880.577 .0272265
881.243 .0272160
881.909 .0272058
882.575 .0271960
883.240 .0271864
883.904 .0271777
884.569 .0271695
885.232 .0271616
885.896 .0271539
886.559 .0271467
887.222 .0271392
887.885 .0271315
888.547 .0271238
889.208 .0271159
889.870 .0271078
890.531 .0271000
891.192 .0270924
891.852 .0270849
892.512 .0270779
893.171 .0270714
893.830 .0270645
894.489 .0270577
895.148 .0270504
895.806 .0270418
896.464 .0270322
897.121 .0270216
897.778 .0270103
898.434 .0269984
899.091 .0269867
899.747 .0269748
900.402 .0269630
901.057 .0269516
901.712 .0269397
902.366 .0269271
903.020 .0269142
903.674 .0269003
904.327 .0268855
904.980 .0268704
905.633 .0268554
906.285 .0268406
906.936 .0268270
907.588 .0268141
908.239 .0268018
908.889 .0267900
909.540 .0267784
910.190 .0267662
910.839 .0267532
911.488 .0267396
912.137 .0267249
912.785 .0267099
913.433 .0266949
914.081 .0266797
914.728 .0266652
915.375 .0266514
916.021 .0266377
916.668 .0266237
917.313 .0266094
917.959 .0265941
918.604 .0265777
919.248 .0265606
919.892 .0265427
920.536 .0265246
921.180 .0265071
921.823 .0264903
922.465 .0264743
923.108 .0264589
923.750 .0264431
924.391 .0264267
925.032 .0264092
925.673 .0263903
926.313 .0263698
926.953 .0263487
927.593 .0263268
928.232 .0263044
928.871 .0262826
929.510 .0262615
930.148 .0262408
930.786 .0262210
931.423 .0262014
932.060 .0261823
932.697 .0261632
933.333 .0261448
933.969 .0261267
934.604 .0261098
935.239 .0260937
935.874 .0260784
936.508 .0260642
937.142 .0260513
937.776 .0260386
938.409 .0260269
939.042 .0260158
939.674 .0260049
940.306 .0259939
940.938 .0259826
941.569 .0259708
942.200 .0259586
942.830 .0259453
943.460 .0259315
944.090 .0259169
944.720 .0259023
945.349 .0258878
945.977 .0258742
946.606 .0258618
947.233 .0258503
947.861 .0258398
948.488 .0258297
949.115 .0258193
949.741 .0258089
950.367 .0257981
950.993 .0257872
951.618 .0257765
952.243 .0257664
952.868 .0257569
953.492 .0257486
954.115 .0257412
954.739 .0257344
955.362 .0257283
955.984 .0257223
956.607 .0257160
957.229 .0257096
957.850 .0257034
958.471 .0256970
959.092 .0256909
959.713 .0256855
960.333 .0256802
960.952 .0256749
961.572 .0256700
962.191 .0256651
962.809 .0256605
963.428 .0256563
964.045 .0256522
964.663 .0256485
965.280 .0256452
965.897 .0256419
966.513 .0256388
967.129 .0256361
967.745 .0256336
968.361 .0256310
968.976 .0256283
969.590 .0256263
970.205 .0256244
970.818 .0256233
971.432 .0256230
972.045 .0256235
972.658 .0256247
973.271 .0256260
973.883 .0256271
974.495 .0256277
975.106 .0256273
975.717 .0256262
976.328 .0256242
976.938 .0256214
977.548 .0256179
978.158 .0256145
978.768 .0256112
979.377 .0256082
979.985 .0256048
980.594 .0256012
981.202 .0255973
981.809 .0255926
982.417 .0255872
983.024 .0255818
983.631 .0255771
984.237 .0255732
984.843 .0255702
985.449 .0255680
986.054 .0255664
986.659 .0255656
987.264 .0255648
987.868 .0255638
988.472 .0255627
989.076 .0255616
989.679 .0255604
990.282 .0255594
990.885 .0255585
991.487 .0255573
992.090 .0255563
992.691 .0255548
993.293 .0255522
993.894 .0255482
994.495 .0255434
995.095 .0255377
995.696 .0255318
996.296 .0255254
996.895 .0255190
997.494 .0255129
998.093 .0255070
998.692 .0255005
999.291 .0254927
999.889 .0254836
1000.487 .0254730
1001.084 .0254604
1001.681 .0254463
1002.278 .0254307
1002.875 .0254153
1003.471 .0253998
1004.067 .0253853
1004.663 .0253718
1005.258 .0253588
1005.854 .0253463
1006.449 .0253343
1007.043 .0253218
1007.638 .0253090
1008.232 .0252957
1008.826 .0252825
1009.419 .0252700
1010.012 .0252590
1010.605 .0252490
1011.198 .0252407
1011.791 .0252342
1012.383 .0252292
1012.975 .0252244
1013.566 .0252206
1014.158 .0252166
1014.749 .0252126
1015.340 .0252092
1015.931 .0252055
1016.521 .0252017
1017.111 .0251984
1017.701 .0251954
1018.291 .0251927
1018.880 .0251898
1019.470 .0251870
1020.059 .0251838
1020.647 .0251809
1021.236 .0251776
1021.824 .0251737
1022.412 .0251698
1023.000 .0251654
1023.588 .0251595
1024.175 .0251524
1024.762 .0251440
1025.349 .0251343
1025.936 .0251243
1026.523 .0251136
1027.109 .0251027
1027.695 .0250919
1028.281 .0250813
1028.867 .0250705
1029.452 .0250591
1030.038 .0250474
1030.623 .0250345
1031.208 .0250211
1031.792 .0250074
1032.377 .0249935
1032.961 .0249807
1033.546 .0249697
1034.130 .0249607
1034.714 .0249534
1035.297 .0249483
1035.881 .0249444
1036.464 .0249417
1037.047 .0249399
1037.630 .0249385
1038.213 .0249380
1038.796 .0249397
1039.378 .0249435
1039.961 .0249494
1040.543 .0249567
1041.125 .0249656
1041.707 .0249747
1042.289 .0249831
1042.871 .0249897
1043.452 .0249944
1044.034 .0249972
1044.615 .0249977
1045.196 .0249959
1045.777 .0249924
1046.358 .0249877
1046.939 .0249821
1047.520 .0249748
1048.101 .0249651
1048.681 .0249531
1049.262 .0249391
1049.842 .0249239
1050.422 .0249093
1051.002 .0248956
1051.582 .0248841
1052.162 .0248761
1052.742 .0248713
1053.322 .0248696
1053.902 .0248705
1054.482 .0248732
1055.061 .0248767
1055.641 .0248810
1056.220 .0248858
1056.800 .0248910
1057.379 .0248982
1057.958 .0249073
1058.538 .0249179
1059.117 .0249297
1059.696 .0249411
1060.275 .0249520
1060.854 .0249614
1061.433 .0249699
1062.012 .0249767
1062.592 .0249840
1063.171 .0249913
1063.750 .0249992
1064.329 .0250082
1064.908 .0250175
1065.487 .0250259
1066.066 .0250337
1066.645 .0250398
1067.224 .0250443
1067.803 .0250469
1068.382 .0250488
1068.961 .0250505
1069.540 .0250531
1070.119 .0250557
1070.698 .0250598
1071.278 .0250646
1071.857 .0250697
1072.436 .0250735
1073.016 .0250754
1073.595 .0250763
1074.175 .0250768
1074.754 .0250782
1075.334 .0250804
1075.913 .0250844
1076.493 .0250916
1077.073 .0250985
1077.653 .0251063
1078.233 .0251137
1078.813 .0251186
1079.393 .0251205
1079.974 .0251195
1080.554 .0251153
1081.135 .0251089
1081.716 .0251024
1082.296 .0250959
1082.877 .0250900
1083.458 .0250847
1084.040 .0250786
1084.621 .0250701
1085.202 .0250609
1085.784 .0250507
1086.366 .0250376
1086.948 .0250257
1087.530 .0250159
1088.112 .0250085
1088.695 .0250052
1089.277 .0250066
1089.860 .0250125
1090.443 .0250203
1091.026 .0250285
1091.610 .0250351
1092.193 .0250394
1092.777 .0250427
1093.361 .0250441
1093.946 .0250448
1094.530 .0250472
1095.115 .0250513
1095.700 .0250557
1096.285 .0250618
1096.871 .0250689
1097.456 .0250758
1098.042 .0250805
1098.628 .0250829
1099.215 .0250837
1099.802 .0250822
1100.389 .0250801
1100.976 .0250778
1101.564 .0250750
1102.152 .0250724
1102.740 .0250687
1103.329 .0250634
1103.917 .0250569
1104.507 .0250494
1105.096 .0250408
1105.686 .0250308
1106.276 .0250212
1106.867 .0250116
1107.457 .0250025
1108.049 .0249960
1108.640 .0249917
1109.232 .0249899
1109.825 .0249906
1110.417 .0249920
1111.010 .0249940
1111.604 .0249970
1112.198 .0250016
1112.792 .0250069
1113.387 .0250142
1113.982 .0250244
1114.577 .0250376
1115.173 .0250543
1115.769 .0250759
1116.366 .0251007
1116.963 .0251288
1117.561 .0251562
1118.159 .0251829
1118.758 .0252080
1119.357 .0252297
1119.957 .0252501
1120.557 .0252718
1121.157 .0252958
1121.758 .0253221
1122.360 .0253516
1122.962 .0253841
1123.564 .0254179
1124.167 .0254520
1124.771 .0254829
1125.375 .0255115
1125.980 .0255383
1126.585 .0255619
1127.191 .0255822
1127.797 .0256051
1128.404 .0256303
1129.012 .0256561
1129.620 .0256849
1130.229 .0257150
1130.838 .0257467
1131.448 .0257786
1132.058 .0258083
1132.669 .0258348
1133.281 .0258561
1133.894 .0258715
1134.507 .0258778
1135.120 .0258779
1135.735 .0258706
1136.350 .0258603
1136.965 .0258505
1137.582 .0258444
1138.199 .0258404
1138.816 .0258433
1139.435 .0258467
1140.054 .0258511
1140.674 .0258631
1141.294 .0258865
1141.916 .0259377
1142.538 .0257700
1143.160 .0258065
1143.784 .0260855
1144.408 .0263300
1145.033 .0268438
