Measurement Sequence started on: 14-45-04-498
Integration time: 36
Scans to Average: 2 
>>>>>Begin Spectral Data<<<<<
433.946 .0509473
434.870 .0441333
435.793 .0419530
436.715 .0423320
437.635 .0413532
438.555 .0418291
439.473 .0412417
440.389 .0409297
441.305 .0406973
442.219 .0404673
443.132 .0402785
444.044 .0400985
444.954 .0399494
445.863 .0398171
446.771 .0397007
447.678 .0395888
448.584 .0394748
449.488 .0393569
450.391 .0392402
451.293 .0391236
452.194 .0390102
453.094 .0389014
453.992 .0387948
454.890 .0386910
455.786 .0385958
456.681 .0385037
457.575 .0384200
458.468 .0383369
459.360 .0382590
460.250 .0381884
461.140 .0381189
462.028 .0380566
462.915 .0379992
463.801 .0379451
464.687 .0378918
465.571 .0378419
466.454 .0377920
467.335 .0377454
468.216 .0377047
469.096 .0376715
469.975 .0376460
470.853 .0376287
471.729 .0376142
472.605 .0376006
473.479 .0375877
474.353 .0375696
475.226 .0375425
476.097 .0375111
476.968 .0374717
477.838 .0374300
478.706 .0373896
479.574 .0373576
480.441 .0373324
481.306 .0373168
482.171 .0373099
483.035 .0373056
483.898 .0373006
484.760 .0372911
485.621 .0372749
486.481 .0372529
487.340 .0372285
488.198 .0372044
489.055 .0371832
489.912 .0371684
490.767 .0371589
491.622 .0371541
492.476 .0371496
493.329 .0371437
494.180 .0371323
495.032 .0371184
495.882 .0371010
496.731 .0370775
497.580 .0370543
498.427 .0370327
499.274 .0370115
500.120 .0369905
500.965 .0369701
501.809 .0369477
502.653 .0369208
503.495 .0368917
504.337 .0368603
505.178 .0368297
506.018 .0368007
506.858 .0367705
507.696 .0367445
508.534 .0367175
509.371 .0366855
510.208 .0366492
511.043 .0366126
511.878 .0365705
512.712 .0365249
513.545 .0364766
514.377 .0364286
515.209 .0363781
516.040 .0363311
516.870 .0362796
517.699 .0362238
518.528 .0361627
519.356 .0360925
520.183 .0360124
521.010 .0359315
521.836 .0358415
522.661 .0357512
523.485 .0356569
524.309 .0355585
525.132 .0354496
525.954 .0353418
526.776 .0352323
527.597 .0351250
528.417 .0350290
529.237 .0349534
530.056 .0348890
530.874 .0348461
531.692 .0348218
532.508 .0348111
533.325 .0348103
534.140 .0348162
534.955 .0348183
535.770 .0348248
536.583 .0348305
537.397 .0348363
538.209 .0348447
539.021 .0348594
539.832 .0348649
540.643 .0348587
541.453 .0348450
542.262 .0348155
543.071 .0347682
543.879 .0347097
544.687 .0346449
545.494 .0345736
546.300 .0345022
547.106 .0344317
547.911 .0343655
548.716 .0343093
549.520 .0342532
550.323 .0341958
551.126 .0341418
551.929 .0340901
552.731 .0340395
553.532 .0339896
554.332 .0339488
555.133 .0339134
555.932 .0338824
556.731 .0338520
557.530 .0338203
558.328 .0337854
559.125 .0337490
559.922 .0337076
560.719 .0336616
561.515 .0336167
562.310 .0335746
563.105 .0335353
563.899 .0335007
564.693 .0334692
565.487 .0334396
566.280 .0334086
567.072 .0333790
567.864 .0333447
568.655 .0333076
569.446 .0332707
570.236 .0332317
571.026 .0331915
571.816 .0331506
572.605 .0331081
573.393 .0330668
574.181 .0330261
574.969 .0329855
575.756 .0329436
576.543 .0329050
577.329 .0328697
578.115 .0328364
578.900 .0328057
579.685 .0327777
580.469 .0327511
581.253 .0327255
582.036 .0326994
582.820 .0326708
583.602 .0326417
584.384 .0326123
585.166 .0325816
585.947 .0325511
586.728 .0325208
587.509 .0324907
588.289 .0324615
589.069 .0324316
589.848 .0324011
590.627 .0323686
591.405 .0323352
592.183 .0323009
592.961 .0322676
593.738 .0322356
594.515 .0322048
595.291 .0321754
596.067 .0321487
596.843 .0321232
597.618 .0320988
598.393 .0320743
599.167 .0320502
599.941 .0320249
600.715 .0319986
601.488 .0319707
602.261 .0319418
603.034 .0319119
603.806 .0318824
604.578 .0318530
605.349 .0318248
606.121 .0317973
606.891 .0317712
607.662 .0317461
608.432 .0317223
609.201 .0316986
609.971 .0316755
610.740 .0316527
611.508 .0316313
612.277 .0316107
613.045 .0315921
613.812 .0315756
614.579 .0315617
615.346 .0315495
616.113 .0315388
616.879 .0315288
617.645 .0315193
618.411 .0315092
619.176 .0314983
619.941 .0314861
620.705 .0314725
621.470 .0314579
622.233 .0314428
622.997 .0314271
623.760 .0314112
624.523 .0313949
625.286 .0313779
626.048 .0313599
626.810 .0313409
627.572 .0313202
628.333 .0312988
629.095 .0312767
629.855 .0312538
630.616 .0312308
631.376 .0312084
632.136 .0311862
632.895 .0311647
633.655 .0311445
634.414 .0311245
635.172 .0311044
635.931 .0310843
636.689 .0310637
637.447 .0310427
638.204 .0310216
638.962 .0309996
639.718 .0309764
640.475 .0309526
641.231 .0309279
641.988 .0309011
642.743 .0308733
643.499 .0308440
644.254 .0308126
645.009 .0307802
645.764 .0307467
646.518 .0307126
647.272 .0306793
648.026 .0306471
648.780 .0306157
649.533 .0305856
650.286 .0305573
651.039 .0305295
651.792 .0305027
652.544 .0304774
653.296 .0304527
654.048 .0304294
654.799 .0304082
655.550 .0303882
656.301 .0303698
657.052 .0303528
657.802 .0303365
658.552 .0303210
659.302 .0303058
660.052 .0302900
660.801 .0302735
661.550 .0302572
662.299 .0302407
663.048 .0302239
663.796 .0302077
664.544 .0301922
665.292 .0301772
666.040 .0301622
666.787 .0301471
667.534 .0301317
668.281 .0301162
669.028 .0301004
669.774 .0300847
670.521 .0300698
671.266 .0300560
672.012 .0300438
672.758 .0300332
673.503 .0300244
674.248 .0300166
674.992 .0300095
675.737 .0300028
676.481 .0299962
677.225 .0299895
677.969 .0299832
678.712 .0299776
679.455 .0299729
680.199 .0299692
680.941 .0299661
681.684 .0299636
682.426 .0299611
683.168 .0299579
683.910 .0299537
684.652 .0299477
685.393 .0299407
686.134 .0299321
686.875 .0299224
687.616 .0299117
688.356 .0299003
689.097 .0298884
689.837 .0298759
690.576 .0298629
691.316 .0298491
692.055 .0298348
692.794 .0298199
693.533 .0298046
694.272 .0297889
695.010 .0297733
695.748 .0297582
696.486 .0297431
697.224 .0297283
697.962 .0297136
698.699 .0296993
699.436 .0296851
700.173 .0296710
700.909 .0296567
701.646 .0296424
702.382 .0296278
703.118 .0296129
703.853 .0295979
704.589 .0295829
705.324 .0295678
706.059 .0295529
706.794 .0295377
707.529 .0295227
708.263 .0295075
708.997 .0294924
709.731 .0294767
710.465 .0294609
711.198 .0294450
711.931 .0294293
712.664 .0294144
713.397 .0294005
714.130 .0293878
714.862 .0293767
715.594 .0293667
716.326 .0293576
717.058 .0293485
717.789 .0293397
718.520 .0293301
719.251 .0293200
719.982 .0293092
720.713 .0292978
721.443 .0292863
722.173 .0292748
722.903 .0292633
723.633 .0292524
724.362 .0292416
725.091 .0292306
725.820 .0292193
726.549 .0292071
727.278 .0291942
728.006 .0291804
728.734 .0291659
729.462 .0291513
730.190 .0291370
730.917 .0291240
731.644 .0291126
732.371 .0291038
733.098 .0290978
733.825 .0290938
734.551 .0290920
735.277 .0290914
736.003 .0290915
736.728 .0290915
737.454 .0290912
738.179 .0290910
738.904 .0290911
739.629 .0290913
740.353 .0290928
741.077 .0290953
741.801 .0290993
742.525 .0291035
743.249 .0291077
743.972 .0291113
744.695 .0291134
745.418 .0291136
746.141 .0291120
746.863 .0291090
747.585 .0291053
748.307 .0291008
749.029 .0290964
749.750 .0290917
750.472 .0290869
751.193 .0290818
751.913 .0290764
752.634 .0290706
753.354 .0290643
754.074 .0290575
754.794 .0290508
755.514 .0290439
756.233 .0290371
756.952 .0290301
757.671 .0290230
758.390 .0290156
759.108 .0290077
759.826 .0289992
760.544 .0289907
761.262 .0289823
761.979 .0289744
762.697 .0289666
763.414 .0289589
764.130 .0289509
764.847 .0289424
765.563 .0289330
766.279 .0289230
766.995 .0289125
767.710 .0289017
768.426 .0288908
769.141 .0288802
769.855 .0288700
770.570 .0288608
771.284 .0288524
771.998 .0288450
772.712 .0288379
773.426 .0288311
774.139 .0288245
774.852 .0288179
775.565 .0288115
776.277 .0288048
776.990 .0287979
777.702 .0287904
778.414 .0287818
779.125 .0287727
779.836 .0287626
780.547 .0287519
781.258 .0287407
781.969 .0287290
782.679 .0287172
783.389 .0287050
784.099 .0286926
784.808 .0286800
785.517 .0286678
786.226 .0286557
786.935 .0286437
787.643 .0286321
788.352 .0286212
789.060 .0286105
789.767 .0286005
790.475 .0285910
791.182 .0285813
791.889 .0285715
792.595 .0285612
793.301 .0285503
794.008 .0285391
794.713 .0285276
795.419 .0285157
796.124 .0285039
796.829 .0284920
797.534 .0284796
798.238 .0284668
798.942 .0284544
799.646 .0284420
800.350 .0284300
801.053 .0284189
801.756 .0284089
802.459 .0284004
803.162 .0283937
803.864 .0283887
804.566 .0283854
805.267 .0283830
805.969 .0283815
806.670 .0283803
807.371 .0283795
808.071 .0283793
808.772 .0283794
809.472 .0283795
810.171 .0283798
810.871 .0283797
811.570 .0283790
812.269 .0283777
812.967 .0283754
813.666 .0283719
814.364 .0283673
815.061 .0283618
815.759 .0283556
816.456 .0283493
817.153 .0283431
817.849 .0283368
818.545 .0283304
819.241 .0283240
819.937 .0283173
820.632 .0283108
821.327 .0283039
822.022 .0282972
822.717 .0282908
823.411 .0282851
824.105 .0282796
824.798 .0282748
825.491 .0282704
826.184 .0282664
826.877 .0282623
827.569 .0282579
828.261 .0282530
828.953 .0282476
829.645 .0282418
830.336 .0282362
831.027 .0282308
831.717 .0282260
832.407 .0282217
833.097 .0282186
833.787 .0282162
834.476 .0282145
835.165 .0282137
835.854 .0282139
836.542 .0282147
837.230 .0282162
837.918 .0282176
838.605 .0282193
839.292 .0282214
839.979 .0282235
840.665 .0282254
841.352 .0282277
842.037 .0282293
842.723 .0282303
843.408 .0282303
844.093 .0282289
844.777 .0282258
845.462 .0282210
846.145 .0282142
846.829 .0282050
847.512 .0281942
848.195 .0281822
848.878 .0281692
849.560 .0281563
850.242 .0281428
850.923 .0281294
851.605 .0281159
852.286 .0281022
852.966 .0280879
853.646 .0280734
854.326 .0280586
855.006 .0280435
855.685 .0280283
856.364 .0280133
857.043 .0279989
857.721 .0279855
858.399 .0279729
859.077 .0279608
859.754 .0279488
860.431 .0279370
861.107 .0279246
861.784 .0279119
862.459 .0278982
863.135 .0278840
863.810 .0278694
864.485 .0278540
865.160 .0278379
865.834 .0278220
866.508 .0278062
867.181 .0277905
867.854 .0277750
868.527 .0277596
869.199 .0277440
869.872 .0277283
870.543 .0277125
871.215 .0276962
871.886 .0276795
872.557 .0276627
873.227 .0276455
873.897 .0276284
874.567 .0276119
875.236 .0275958
875.905 .0275805
876.573 .0275658
877.242 .0275512
877.909 .0275360
878.577 .0275210
879.244 .0275051
879.911 .0274883
880.577 .0274709
881.243 .0274527
881.909 .0274337
882.575 .0274145
883.240 .0273951
883.904 .0273756
884.569 .0273560
885.232 .0273363
885.896 .0273160
886.559 .0272955
887.222 .0272747
887.885 .0272536
888.547 .0272329
889.208 .0272127
889.870 .0271928
890.531 .0271744
891.192 .0271576
891.852 .0271427
892.512 .0271297
893.171 .0271187
893.830 .0271093
894.489 .0271011
895.148 .0270938
895.806 .0270875
896.464 .0270820
897.121 .0270775
897.778 .0270738
898.434 .0270713
899.091 .0270699
899.747 .0270695
900.402 .0270697
901.057 .0270706
901.712 .0270713
902.366 .0270715
903.020 .0270707
903.674 .0270694
904.327 .0270672
904.980 .0270646
905.633 .0270616
906.285 .0270589
906.936 .0270563
907.588 .0270541
908.239 .0270516
908.889 .0270493
909.540 .0270463
910.190 .0270428
910.839 .0270383
911.488 .0270327
912.137 .0270262
912.785 .0270185
913.433 .0270098
914.081 .0270003
914.728 .0269899
915.375 .0269791
916.021 .0269679
916.668 .0269570
917.313 .0269461
917.959 .0269358
918.604 .0269259
919.248 .0269168
919.892 .0269083
920.536 .0269002
921.180 .0268925
921.823 .0268854
922.465 .0268789
923.108 .0268730
923.750 .0268682
924.391 .0268639
925.032 .0268600
925.673 .0268564
926.313 .0268528
926.953 .0268488
927.593 .0268439
928.232 .0268381
928.871 .0268312
929.510 .0268233
930.148 .0268145
930.786 .0268049
931.423 .0267951
932.060 .0267850
932.697 .0267742
933.333 .0267626
933.969 .0267501
934.604 .0267363
935.239 .0267216
935.874 .0267063
936.508 .0266909
937.142 .0266755
937.776 .0266609
938.409 .0266473
939.042 .0266343
939.674 .0266220
940.306 .0266099
940.938 .0265980
941.569 .0265861
942.200 .0265740
942.830 .0265620
943.460 .0265504
944.090 .0265392
944.720 .0265284
945.349 .0265178
945.977 .0265075
946.606 .0264974
947.233 .0264873
947.861 .0264772
948.488 .0264668
949.115 .0264563
949.741 .0264457
950.367 .0264348
950.993 .0264239
951.618 .0264125
952.243 .0264008
952.868 .0263889
953.492 .0263764
954.115 .0263641
954.739 .0263521
955.362 .0263412
955.984 .0263312
956.607 .0263221
957.229 .0263143
957.850 .0263069
958.471 .0262995
959.092 .0262917
959.713 .0262826
960.333 .0262724
960.952 .0262619
961.572 .0262512
962.191 .0262410
962.809 .0262321
963.428 .0262245
964.045 .0262182
964.663 .0262127
965.280 .0262073
965.897 .0262010
966.513 .0261939
967.129 .0261857
967.745 .0261756
968.361 .0261649
968.976 .0261538
969.590 .0261431
970.205 .0261334
970.818 .0261250
971.432 .0261176
972.045 .0261110
972.658 .0261051
973.271 .0260985
973.883 .0260907
974.495 .0260818
975.106 .0260712
975.717 .0260598
976.328 .0260473
976.938 .0260345
977.548 .0260218
978.158 .0260097
978.768 .0259980
979.377 .0259864
979.985 .0259743
980.594 .0259617
981.202 .0259480
981.809 .0259327
982.417 .0259159
983.024 .0258978
983.631 .0258789
984.237 .0258598
984.843 .0258404
985.449 .0258209
986.054 .0258016
986.659 .0257828
987.264 .0257640
987.868 .0257455
988.472 .0257274
989.076 .0257096
989.679 .0256921
990.282 .0256748
990.885 .0256575
991.487 .0256410
992.090 .0256255
992.691 .0256107
993.293 .0255969
993.894 .0255842
994.495 .0255728
995.095 .0255625
995.696 .0255529
996.296 .0255434
996.895 .0255337
997.494 .0255241
998.093 .0255140
998.692 .0255036
999.291 .0254940
999.889 .0254851
1000.487 .0254773
1001.084 .0254706
1001.681 .0254640
1002.278 .0254573
1002.875 .0254509
1003.471 .0254439
1004.067 .0254359
1004.663 .0254268
1005.258 .0254170
1005.854 .0254071
1006.449 .0253979
1007.043 .0253892
1007.638 .0253808
1008.232 .0253735
1008.826 .0253667
1009.419 .0253596
1010.012 .0253524
1010.605 .0253453
1011.198 .0253381
1011.791 .0253308
1012.383 .0253238
1012.975 .0253169
1013.566 .0253107
1014.158 .0253052
1014.749 .0253004
1015.340 .0252962
1015.931 .0252924
1016.521 .0252892
1017.111 .0252866
1017.701 .0252848
1018.291 .0252833
1018.880 .0252823
1019.470 .0252814
1020.059 .0252807
1020.647 .0252797
1021.236 .0252783
1021.824 .0252769
1022.412 .0252755
1023.000 .0252736
1023.588 .0252714
1024.175 .0252691
1024.762 .0252666
1025.349 .0252638
1025.936 .0252609
1026.523 .0252580
1027.109 .0252551
1027.695 .0252528
1028.281 .0252514
1028.867 .0252509
1029.452 .0252519
1030.038 .0252541
1030.623 .0252569
1031.208 .0252607
1031.792 .0252651
1032.377 .0252700
1032.961 .0252752
1033.546 .0252806
1034.130 .0252863
1034.714 .0252926
1035.297 .0253001
1035.881 .0253081
1036.464 .0253160
1037.047 .0253248
1037.630 .0253329
1038.213 .0253404
1038.796 .0253469
1039.378 .0253521
1039.961 .0253560
1040.543 .0253587
1041.125 .0253606
1041.707 .0253616
1042.289 .0253627
1042.871 .0253640
1043.452 .0253653
1044.034 .0253666
1044.615 .0253674
1045.196 .0253675
1045.777 .0253672
1046.358 .0253663
1046.939 .0253639
1047.520 .0253610
1048.101 .0253579
1048.681 .0253548
1049.262 .0253517
1049.842 .0253491
1050.422 .0253477
1051.002 .0253477
1051.582 .0253484
1052.162 .0253494
1052.742 .0253517
1053.322 .0253550
1053.902 .0253589
1054.482 .0253639
1055.061 .0253702
1055.641 .0253782
1056.220 .0253875
1056.800 .0253980
1057.379 .0254088
1057.958 .0254197
1058.538 .0254302
1059.117 .0254396
1059.696 .0254478
1060.275 .0254553
1060.854 .0254611
1061.433 .0254666
1062.012 .0254721
1062.592 .0254770
1063.171 .0254823
1063.750 .0254877
1064.329 .0254935
1064.908 .0254982
1065.487 .0255019
1066.066 .0255046
1066.645 .0255061
1067.224 .0255081
1067.803 .0255097
1068.382 .0255111
1068.961 .0255143
1069.540 .0255184
1070.119 .0255233
1070.698 .0255290
1071.278 .0255365
1071.857 .0255434
1072.436 .0255498
1073.016 .0255557
1073.595 .0255616
1074.175 .0255676
1074.754 .0255752
1075.334 .0255821
1075.913 .0255901
1076.493 .0255984
1077.073 .0256052
1077.653 .0256113
1078.233 .0256174
1078.813 .0256213
1079.393 .0256235
1079.974 .0256237
1080.554 .0256228
1081.135 .0256205
1081.716 .0256193
1082.296 .0256186
1082.877 .0256188
1083.458 .0256189
1084.040 .0256182
1084.621 .0256163
1085.202 .0256140
1085.784 .0256104
1086.366 .0256070
1086.948 .0256048
1087.530 .0256031
1088.112 .0256028
1088.695 .0256043
1089.277 .0256079
1089.860 .0256140
1090.443 .0256202
1091.026 .0256266
1091.610 .0256331
1092.193 .0256405
1092.777 .0256469
1093.361 .0256534
1093.946 .0256605
1094.530 .0256671
1095.115 .0256741
1095.700 .0256804
1096.285 .0256860
1096.871 .0256908
1097.456 .0256965
1098.042 .0257006
1098.628 .0257044
1099.215 .0257081
1099.802 .0257099
1100.389 .0257108
1100.976 .0257104
1101.564 .0257072
1102.152 .0257010
1102.740 .0256928
1103.329 .0256832
1103.917 .0256695
1104.507 .0256540
1105.096 .0256356
1105.686 .0256174
1106.276 .0256006
1106.867 .0255868
1107.457 .0255753
1108.049 .0255675
1108.640 .0255627
1109.232 .0255606
1109.825 .0255609
1110.417 .0255634
1111.010 .0255671
1111.604 .0255736
1112.198 .0255819
1112.792 .0255907
1113.387 .0255997
1113.982 .0256122
1114.577 .0256278
1115.173 .0256443
1115.769 .0256570
1116.366 .0256673
1116.963 .0256744
1117.561 .0256779
1118.159 .0256781
1118.758 .0256763
1119.357 .0256732
1119.957 .0256687
1120.557 .0256638
1121.157 .0256570
1121.758 .0256492
1122.360 .0256417
1122.962 .0256347
1123.564 .0256285
1124.167 .0256253
1124.771 .0256230
1125.375 .0256248
1125.980 .0256328
1126.585 .0256443
1127.191 .0256557
1127.797 .0256697
1128.404 .0256844
1129.012 .0257017
1129.620 .0257215
1130.229 .0257477
1130.838 .0257786
1131.448 .0258170
1132.058 .0258584
1132.669 .0258996
1133.281 .0259417
1133.894 .0259838
1134.507 .0260209
1135.120 .0260561
1135.735 .0260904
1136.350 .0261267
1136.965 .0261667
1137.582 .0262128
1138.199 .0262645
1138.816 .0263161
1139.435 .0263664
1140.054 .0264129
1140.674 .0264516
1141.294 .0264905
1141.916 .0265273
1142.538 .0264710
1143.160 .0265572
1143.784 .0265443
1144.408 .0267473
1145.033 .0268197
