Measurement Sequence started on: 14-45-04-498
Integration time: 36
Scans to Average: 2 
>>>>>Begin Spectral Data<<<<<
433.946 .0518641
434.870 .0453374
435.793 .0400299
436.715 .0411796
437.635 .0418042
438.555 .0413976
439.473 .0406961
440.389 .0402680
441.305 .0399754
442.219 .0396255
443.132 .0392834
444.044 .0389681
444.954 .0387114
445.863 .0384864
446.771 .0382833
447.678 .0381044
448.584 .0379489
449.488 .0378180
450.391 .0376973
451.293 .0375903
452.194 .0375113
453.094 .0374374
453.992 .0373892
454.890 .0373625
455.786 .0373584
456.681 .0373717
457.575 .0373945
458.468 .0374167
459.360 .0374376
460.250 .0374518
461.140 .0374485
462.028 .0374250
462.915 .0373883
463.801 .0373356
464.687 .0372666
465.571 .0371855
466.454 .0370986
467.335 .0370063
468.216 .0369136
469.096 .0368136
469.975 .0367131
470.853 .0366127
471.729 .0365105
472.605 .0364097
473.479 .0363112
474.353 .0362157
475.226 .0361259
476.097 .0360430
476.968 .0359682
477.838 .0359026
478.706 .0358490
479.574 .0358061
480.441 .0357766
481.306 .0357550
482.171 .0357395
483.035 .0357287
483.898 .0357223
484.760 .0357171
485.621 .0357129
486.481 .0357094
487.340 .0357076
488.198 .0357062
489.055 .0357036
489.912 .0356956
490.767 .0356862
491.622 .0356723
492.476 .0356536
493.329 .0356317
494.180 .0356099
495.032 .0355869
495.882 .0355660
496.731 .0355443
497.580 .0355225
498.427 .0355002
499.274 .0354750
500.120 .0354443
500.965 .0354125
501.809 .0353784
502.653 .0353420
503.495 .0353064
504.337 .0352744
505.178 .0352391
506.018 .0352042
506.858 .0351663
507.696 .0351258
508.534 .0350807
509.371 .0350332
510.208 .0349817
511.043 .0349293
511.878 .0348766
512.712 .0348205
513.545 .0347634
514.377 .0347091
515.209 .0346518
516.040 .0345970
516.870 .0345445
517.699 .0344973
518.528 .0344548
519.356 .0344210
520.183 .0343954
521.010 .0343778
521.836 .0343660
522.661 .0343573
523.485 .0343453
524.309 .0343288
525.132 .0343024
525.954 .0342670
526.776 .0342212
527.597 .0341720
528.417 .0341186
529.237 .0340673
530.056 .0340133
530.874 .0339611
531.692 .0339067
532.508 .0338505
533.325 .0337917
534.140 .0337266
534.955 .0336550
535.770 .0335814
536.583 .0335055
537.397 .0334349
538.209 .0333689
539.021 .0333165
539.832 .0332680
540.643 .0332256
541.453 .0331820
542.262 .0331369
543.071 .0330905
543.879 .0330413
544.687 .0329926
545.494 .0329462
546.300 .0329047
547.106 .0328721
547.911 .0328465
548.716 .0328307
549.520 .0328166
550.323 .0328044
551.126 .0327889
551.929 .0327723
552.731 .0327544
553.532 .0327375
554.332 .0327251
555.133 .0327196
555.932 .0327187
556.731 .0327205
557.530 .0327257
558.328 .0327314
559.125 .0327320
559.922 .0327256
560.719 .0327117
561.515 .0326886
562.310 .0326558
563.105 .0326180
563.899 .0325755
564.693 .0325310
565.487 .0324842
566.280 .0324332
567.072 .0323824
567.864 .0323288
568.655 .0322698
569.446 .0322061
570.236 .0321404
571.026 .0320724
571.816 .0320025
572.605 .0319355
573.393 .0318745
574.181 .0318210
574.969 .0317748
575.756 .0317350
576.543 .0317013
577.329 .0316727
578.115 .0316458
578.900 .0316203
579.685 .0315945
580.469 .0315695
581.253 .0315453
582.036 .0315225
582.820 .0315022
583.602 .0314863
584.384 .0314727
585.166 .0314612
585.947 .0314508
586.728 .0314399
587.509 .0314273
588.289 .0314145
589.069 .0314014
589.848 .0313879
590.627 .0313740
591.405 .0313608
592.183 .0313468
592.961 .0313338
593.738 .0313198
594.515 .0313049
595.291 .0312888
596.067 .0312720
596.843 .0312529
597.618 .0312317
598.393 .0312106
599.167 .0311891
599.941 .0311668
600.715 .0311439
601.488 .0311208
602.261 .0310979
603.034 .0310742
603.806 .0310507
604.578 .0310267
605.349 .0310042
606.121 .0309824
606.891 .0309611
607.662 .0309409
608.432 .0309223
609.201 .0309040
609.971 .0308850
610.740 .0308665
611.508 .0308468
612.277 .0308261
613.045 .0308049
613.812 .0307840
614.579 .0307635
615.346 .0307432
616.113 .0307242
616.879 .0307060
617.645 .0306888
618.411 .0306715
619.176 .0306538
619.941 .0306359
620.705 .0306173
621.470 .0305981
622.233 .0305782
622.997 .0305589
623.760 .0305398
624.523 .0305208
625.286 .0305022
626.048 .0304837
626.810 .0304647
627.572 .0304442
628.333 .0304226
629.095 .0303993
629.855 .0303739
630.616 .0303474
631.376 .0303203
632.136 .0302942
632.895 .0302698
633.655 .0302473
634.414 .0302274
635.172 .0302100
635.931 .0301949
636.689 .0301813
637.447 .0301691
638.204 .0301575
638.962 .0301458
639.718 .0301341
640.475 .0301224
641.231 .0301107
641.988 .0300991
642.743 .0300884
643.499 .0300776
644.254 .0300668
645.009 .0300550
645.764 .0300425
646.518 .0300295
647.272 .0300158
648.026 .0300013
648.780 .0299862
649.533 .0299709
650.286 .0299556
651.039 .0299395
651.792 .0299235
652.544 .0299076
653.296 .0298915
654.048 .0298752
654.799 .0298591
655.550 .0298428
656.301 .0298272
657.052 .0298119
657.802 .0297968
658.552 .0297817
659.302 .0297661
660.052 .0297499
660.801 .0297328
661.550 .0297154
662.299 .0296971
663.048 .0296785
663.796 .0296605
664.544 .0296424
665.292 .0296247
666.040 .0296073
666.787 .0295906
667.534 .0295744
668.281 .0295584
669.028 .0295421
669.774 .0295260
670.521 .0295101
671.266 .0294939
672.012 .0294779
672.758 .0294622
673.503 .0294465
674.248 .0294305
674.992 .0294143
675.737 .0293979
676.481 .0293813
677.225 .0293648
677.969 .0293480
678.712 .0293318
679.455 .0293157
680.199 .0293000
680.941 .0292851
681.684 .0292705
682.426 .0292562
683.168 .0292418
683.910 .0292280
684.652 .0292141
685.393 .0292004
686.134 .0291874
686.875 .0291749
687.616 .0291633
688.356 .0291526
689.097 .0291429
689.837 .0291342
690.576 .0291260
691.316 .0291175
692.055 .0291083
692.794 .0290983
693.533 .0290872
694.272 .0290757
695.010 .0290643
695.748 .0290531
696.486 .0290425
697.224 .0290330
697.962 .0290243
698.699 .0290160
699.436 .0290079
700.173 .0289992
700.909 .0289896
701.646 .0289789
702.382 .0289673
703.118 .0289553
703.853 .0289440
704.589 .0289333
705.324 .0289234
706.059 .0289151
706.794 .0289072
707.529 .0288999
708.263 .0288926
708.997 .0288847
709.731 .0288757
710.465 .0288656
711.198 .0288549
711.931 .0288434
712.664 .0288322
713.397 .0288214
714.130 .0288105
714.862 .0288003
715.594 .0287900
716.326 .0287792
717.058 .0287685
717.789 .0287572
718.520 .0287446
719.251 .0287315
719.982 .0287176
720.713 .0287031
721.443 .0286883
722.173 .0286728
722.903 .0286566
723.633 .0286399
724.362 .0286226
725.091 .0286049
725.820 .0285874
726.549 .0285705
727.278 .0285541
728.006 .0285387
728.734 .0285235
729.462 .0285087
730.190 .0284948
730.917 .0284809
731.644 .0284667
732.371 .0284523
733.098 .0284379
733.825 .0284235
734.551 .0284096
735.277 .0283961
736.003 .0283827
736.728 .0283700
737.454 .0283572
738.179 .0283440
738.904 .0283302
739.629 .0283160
740.353 .0283012
741.077 .0282864
741.801 .0282718
742.525 .0282574
743.249 .0282441
743.972 .0282320
744.695 .0282210
745.418 .0282109
746.141 .0282010
746.863 .0281920
747.585 .0281831
748.307 .0281747
749.029 .0281663
749.750 .0281585
750.472 .0281513
751.193 .0281443
751.913 .0281376
752.634 .0281309
753.354 .0281244
754.074 .0281179
754.794 .0281109
755.514 .0281040
756.233 .0280973
756.952 .0280906
757.671 .0280844
758.390 .0280789
759.108 .0280735
759.826 .0280686
760.544 .0280638
761.262 .0280591
761.979 .0280545
762.697 .0280499
763.414 .0280456
764.130 .0280414
764.847 .0280378
765.563 .0280343
766.279 .0280311
766.995 .0280285
767.710 .0280251
768.426 .0280211
769.141 .0280165
769.855 .0280110
770.570 .0280048
771.284 .0279985
771.998 .0279926
772.712 .0279873
773.426 .0279828
774.139 .0279785
774.852 .0279743
775.565 .0279704
776.277 .0279663
776.990 .0279614
777.702 .0279565
778.414 .0279516
779.125 .0279464
779.836 .0279415
780.547 .0279367
781.258 .0279316
781.969 .0279261
782.679 .0279199
783.389 .0279128
784.099 .0279049
784.808 .0278963
785.517 .0278877
786.226 .0278789
786.935 .0278707
787.643 .0278626
788.352 .0278551
789.060 .0278476
789.767 .0278400
790.475 .0278315
791.182 .0278220
791.889 .0278120
792.595 .0278012
793.301 .0277899
794.008 .0277787
794.713 .0277677
795.419 .0277567
796.124 .0277456
796.829 .0277343
797.534 .0277223
798.238 .0277096
798.942 .0276962
799.646 .0276818
800.350 .0276667
801.053 .0276514
801.756 .0276360
802.459 .0276206
803.162 .0276057
803.864 .0275906
804.566 .0275757
805.267 .0275612
805.969 .0275465
806.670 .0275318
807.371 .0275176
808.071 .0275041
808.772 .0274911
809.472 .0274789
810.171 .0274678
810.871 .0274573
811.570 .0274474
812.269 .0274376
812.967 .0274276
813.666 .0274169
814.364 .0274055
815.061 .0273933
815.759 .0273806
816.456 .0273680
817.153 .0273551
817.849 .0273425
818.545 .0273303
819.241 .0273183
819.937 .0273062
820.632 .0272940
821.327 .0272817
822.022 .0272691
822.717 .0272557
823.411 .0272418
824.105 .0272276
824.798 .0272136
825.491 .0271997
826.184 .0271862
826.877 .0271735
827.569 .0271620
828.261 .0271514
828.953 .0271418
829.645 .0271332
830.336 .0271253
831.027 .0271179
831.717 .0271109
832.407 .0271044
833.097 .0270983
833.787 .0270925
834.476 .0270877
835.165 .0270838
835.854 .0270809
836.542 .0270791
837.230 .0270781
837.918 .0270779
838.605 .0270782
839.292 .0270788
839.979 .0270794
840.665 .0270802
841.352 .0270806
842.037 .0270802
842.723 .0270789
843.408 .0270769
844.093 .0270738
844.777 .0270702
845.462 .0270658
846.145 .0270609
846.829 .0270557
847.512 .0270501
848.195 .0270440
848.878 .0270381
849.560 .0270319
850.242 .0270252
850.923 .0270184
851.605 .0270111
852.286 .0270031
852.966 .0269949
853.646 .0269866
854.326 .0269782
855.006 .0269700
855.685 .0269619
856.364 .0269535
857.043 .0269455
857.721 .0269376
858.399 .0269297
859.077 .0269217
859.754 .0269136
860.431 .0269049
861.107 .0268957
861.784 .0268863
862.459 .0268765
863.135 .0268667
863.810 .0268570
864.485 .0268472
865.160 .0268379
865.834 .0268296
866.508 .0268218
867.181 .0268146
867.854 .0268079
868.527 .0268011
869.199 .0267938
869.872 .0267856
870.543 .0267764
871.215 .0267663
871.886 .0267555
872.557 .0267440
873.227 .0267317
873.897 .0267194
874.567 .0267068
875.236 .0266941
875.905 .0266815
876.573 .0266684
877.242 .0266545
877.909 .0266394
878.577 .0266234
879.244 .0266056
879.911 .0265863
880.577 .0265659
881.243 .0265448
881.909 .0265235
882.575 .0265026
883.240 .0264821
883.904 .0264626
884.569 .0264440
885.232 .0264257
885.896 .0264075
886.559 .0263897
887.222 .0263721
887.885 .0263547
888.547 .0263380
889.208 .0263221
889.870 .0263074
890.531 .0262943
891.192 .0262823
891.852 .0262717
892.512 .0262623
893.171 .0262534
893.830 .0262450
894.489 .0262370
895.148 .0262290
895.806 .0262209
896.464 .0262132
897.121 .0262055
897.778 .0261978
898.434 .0261905
899.091 .0261833
899.747 .0261761
900.402 .0261693
901.057 .0261622
901.712 .0261548
902.366 .0261471
903.020 .0261390
903.674 .0261303
904.327 .0261216
904.980 .0261125
905.633 .0261031
906.285 .0260938
906.936 .0260847
907.588 .0260753
908.239 .0260661
908.889 .0260569
909.540 .0260472
910.190 .0260372
910.839 .0260270
911.488 .0260168
912.137 .0260069
912.785 .0259972
913.433 .0259881
914.081 .0259795
914.728 .0259717
915.375 .0259636
916.021 .0259556
916.668 .0259476
917.313 .0259393
917.959 .0259305
918.604 .0259216
919.248 .0259121
919.892 .0259025
920.536 .0258926
921.180 .0258829
921.823 .0258728
922.465 .0258619
923.108 .0258503
923.750 .0258381
924.391 .0258249
925.032 .0258112
925.673 .0257969
926.313 .0257828
926.953 .0257689
927.593 .0257551
928.232 .0257416
928.871 .0257291
929.510 .0257175
930.148 .0257064
930.786 .0256955
931.423 .0256853
932.060 .0256755
932.697 .0256662
933.333 .0256577
933.969 .0256497
934.604 .0256424
935.239 .0256355
935.874 .0256286
936.508 .0256219
937.142 .0256153
937.776 .0256086
938.409 .0256018
939.042 .0255951
939.674 .0255880
940.306 .0255805
940.938 .0255730
941.569 .0255651
942.200 .0255563
942.830 .0255469
943.460 .0255364
944.090 .0255247
944.720 .0255124
945.349 .0254996
945.977 .0254868
946.606 .0254743
947.233 .0254619
947.861 .0254492
948.488 .0254364
949.115 .0254233
949.741 .0254094
950.367 .0253949
950.993 .0253800
951.618 .0253647
952.243 .0253499
952.868 .0253357
953.492 .0253220
954.115 .0253090
954.739 .0252967
955.362 .0252845
955.984 .0252723
956.607 .0252598
957.229 .0252470
957.850 .0252344
958.471 .0252223
959.092 .0252105
959.713 .0251994
960.333 .0251887
960.952 .0251782
961.572 .0251673
962.191 .0251557
962.809 .0251435
963.428 .0251310
964.045 .0251183
964.663 .0251055
965.280 .0250930
965.897 .0250814
966.513 .0250709
967.129 .0250619
967.745 .0250537
968.361 .0250465
968.976 .0250397
969.590 .0250329
970.205 .0250258
970.818 .0250183
971.432 .0250106
972.045 .0250030
972.658 .0249956
973.271 .0249880
973.883 .0249808
974.495 .0249733
975.106 .0249649
975.717 .0249558
976.328 .0249451
976.938 .0249326
977.548 .0249187
978.158 .0249036
978.768 .0248876
979.377 .0248718
979.985 .0248569
980.594 .0248427
981.202 .0248302
981.809 .0248185
982.417 .0248077
983.024 .0247978
983.631 .0247882
984.237 .0247783
984.843 .0247680
985.449 .0247576
986.054 .0247469
986.659 .0247360
987.264 .0247255
987.868 .0247151
988.472 .0247057
989.076 .0246965
989.679 .0246873
990.282 .0246781
990.885 .0246685
991.487 .0246580
992.090 .0246468
992.691 .0246352
993.293 .0246234
993.894 .0246119
994.495 .0246015
995.095 .0245920
995.696 .0245835
996.296 .0245760
996.895 .0245696
997.494 .0245644
998.093 .0245595
998.692 .0245549
999.291 .0245507
999.889 .0245464
1000.487 .0245415
1001.084 .0245361
1001.681 .0245301
1002.278 .0245238
1002.875 .0245167
1003.471 .0245093
1004.067 .0245021
1004.663 .0244952
1005.258 .0244889
1005.854 .0244830
1006.449 .0244780
1007.043 .0244731
1007.638 .0244676
1008.232 .0244623
1008.826 .0244567
1009.419 .0244511
1010.012 .0244459
1010.605 .0244413
1011.198 .0244380
1011.791 .0244359
1012.383 .0244349
1012.975 .0244349
1013.566 .0244351
1014.158 .0244352
1014.749 .0244344
1015.340 .0244326
1015.931 .0244306
1016.521 .0244281
1017.111 .0244259
1017.701 .0244245
1018.291 .0244245
1018.880 .0244252
1019.470 .0244264
1020.059 .0244280
1020.647 .0244295
1021.236 .0244310
1021.824 .0244325
1022.412 .0244343
1023.000 .0244364
1023.588 .0244390
1024.175 .0244420
1024.762 .0244447
1025.349 .0244477
1025.936 .0244503
1026.523 .0244523
1027.109 .0244539
1027.695 .0244546
1028.281 .0244544
1028.867 .0244535
1029.452 .0244527
1030.038 .0244517
1030.623 .0244511
1031.208 .0244509
1031.792 .0244518
1032.377 .0244538
1032.961 .0244569
1033.546 .0244614
1034.130 .0244668
1034.714 .0244732
1035.297 .0244801
1035.881 .0244873
1036.464 .0244947
1037.047 .0245023
1037.630 .0245104
1038.213 .0245188
1038.796 .0245277
1039.378 .0245374
1039.961 .0245471
1040.543 .0245568
1041.125 .0245659
1041.707 .0245735
1042.289 .0245795
1042.871 .0245848
1043.452 .0245886
1044.034 .0245928
1044.615 .0245974
1045.196 .0246034
1045.777 .0246101
1046.358 .0246177
1046.939 .0246251
1047.520 .0246320
1048.101 .0246375
1048.681 .0246417
1049.262 .0246446
1049.842 .0246471
1050.422 .0246494
1051.002 .0246527
1051.582 .0246558
1052.162 .0246591
1052.742 .0246620
1053.322 .0246640
1053.902 .0246634
1054.482 .0246617
1055.061 .0246590
1055.641 .0246565
1056.220 .0246547
1056.800 .0246544
1057.379 .0246556
1057.958 .0246592
1058.538 .0246637
1059.117 .0246677
1059.696 .0246719
1060.275 .0246761
1060.854 .0246790
1061.433 .0246824
1062.012 .0246873
1062.592 .0246939
1063.171 .0247030
1063.750 .0247143
1064.329 .0247257
1064.908 .0247363
1065.487 .0247435
1066.066 .0247468
1066.645 .0247459
1067.224 .0247416
1067.803 .0247339
1068.382 .0247253
1068.961 .0247179
1069.540 .0247109
1070.119 .0247048
1070.698 .0247002
1071.278 .0246951
1071.857 .0246883
1072.436 .0246790
1073.016 .0246673
1073.595 .0246539
1074.175 .0246400
1074.754 .0246261
1075.334 .0246137
1075.913 .0246034
1076.493 .0245957
1077.073 .0245895
1077.653 .0245848
1078.233 .0245807
1078.813 .0245764
1079.393 .0245724
1079.974 .0245683
1080.554 .0245638
1081.135 .0245603
1081.716 .0245587
1082.296 .0245576
1082.877 .0245571
1083.458 .0245571
1084.040 .0245569
1084.621 .0245561
1085.202 .0245539
1085.784 .0245503
1086.366 .0245462
1086.948 .0245422
1087.530 .0245384
1088.112 .0245364
1088.695 .0245353
1089.277 .0245344
1089.860 .0245336
1090.443 .0245319
1091.026 .0245288
1091.610 .0245234
1092.193 .0245171
1092.777 .0245102
1093.361 .0245035
1093.946 .0244979
1094.530 .0244929
1095.115 .0244904
1095.700 .0244894
1096.285 .0244898
1096.871 .0244892
1097.456 .0244877
1098.042 .0244836
1098.628 .0244767
1099.215 .0244674
1099.802 .0244560
1100.389 .0244430
1100.976 .0244293
1101.564 .0244159
1102.152 .0244014
1102.740 .0243862
1103.329 .0243704
1103.917 .0243527
1104.507 .0243339
1105.096 .0243128
1105.686 .0242907
1106.276 .0242671
1106.867 .0242465
1107.457 .0242273
1108.049 .0242121
1108.640 .0242019
1109.232 .0241966
1109.825 .0241973
1110.417 .0242022
1111.010 .0242104
1111.604 .0242198
1112.198 .0242314
1112.792 .0242442
1113.387 .0242582
1113.982 .0242763
1114.577 .0242985
1115.173 .0243261
1115.769 .0243576
1116.366 .0243915
1116.963 .0244258
1117.561 .0244594
1118.159 .0244900
1118.758 .0245158
1119.357 .0245393
1119.957 .0245562
1120.557 .0245694
1121.157 .0245794
1121.758 .0245877
1122.360 .0245955
1122.962 .0246010
1123.564 .0246040
1124.167 .0246026
1124.771 .0245977
1125.375 .0245896
1125.980 .0245811
1126.585 .0245742
1127.191 .0245694
1127.797 .0245703
1128.404 .0245767
1129.012 .0245896
1129.620 .0246081
1130.229 .0246331
1130.838 .0246642
1131.448 .0246976
1132.058 .0247313
1132.669 .0247649
1133.281 .0248024
1133.894 .0248410
1134.507 .0248826
1135.120 .0249277
1135.735 .0249754
1136.350 .0250254
1136.965 .0250762
1137.582 .0251263
1138.199 .0251759
1138.816 .0252208
1139.435 .0252595
1140.054 .0252942
1140.674 .0253249
1141.294 .0253499
1141.916 .0253828
1142.538 .0253576
1143.160 .0254956
1143.784 .0254807
1144.408 .0254534
1145.033 .0257225
