Measurement Sequence started on: 14-45-04-498
Integration time: 36
Scans to Average: 2 
>>>>>Begin Spectral Data<<<<<
433.946 .0433496
434.870 .0500384
435.793 .0477565
436.715 .0502166
437.635 .0498795
438.555 .0494472
439.473 .0496082
440.389 .0494810
441.305 .0493549
442.219 .0491179
443.132 .0488840
444.044 .0486481
444.954 .0484449
445.863 .0482719
446.771 .0481167
447.678 .0479767
448.584 .0478714
449.488 .0477726
450.391 .0476782
451.293 .0475868
452.194 .0475037
453.094 .0474174
453.992 .0473327
454.890 .0472508
455.786 .0471748
456.681 .0471033
457.575 .0470318
458.468 .0469563
459.360 .0468753
460.250 .0467905
461.140 .0466998
462.028 .0466036
462.915 .0465056
463.801 .0464003
464.687 .0462966
465.571 .0461937
466.454 .0460883
467.335 .0459791
468.216 .0458664
469.096 .0457537
469.975 .0456412
470.853 .0455317
471.729 .0454279
472.605 .0453321
473.479 .0452473
474.353 .0451691
475.226 .0450931
476.097 .0450206
476.968 .0449508
477.838 .0448808
478.706 .0448123
479.574 .0447476
480.441 .0446919
481.306 .0446442
482.171 .0446062
483.035 .0445740
483.898 .0445488
484.760 .0445282
485.621 .0445098
486.481 .0444911
487.340 .0444757
488.198 .0444623
489.055 .0444508
489.912 .0444433
490.767 .0444411
491.622 .0444372
492.476 .0444358
493.329 .0444311
494.180 .0444221
495.032 .0444038
495.882 .0443825
496.731 .0443562
497.580 .0443291
498.427 .0442979
499.274 .0442643
500.120 .0442284
500.965 .0441924
501.809 .0441469
502.653 .0440928
503.495 .0440329
504.337 .0439675
505.178 .0438920
506.018 .0438169
506.858 .0437383
507.696 .0436666
508.534 .0435960
509.371 .0435316
510.208 .0434682
511.043 .0434106
511.878 .0433577
512.712 .0433072
513.545 .0432580
514.377 .0432124
515.209 .0431694
516.040 .0431395
516.870 .0431125
517.699 .0430931
518.528 .0430737
519.356 .0430582
520.183 .0430367
521.010 .0430104
521.836 .0429740
522.661 .0429347
523.485 .0428895
524.309 .0428390
525.132 .0427803
525.954 .0427206
526.776 .0426564
527.597 .0425887
528.417 .0425147
529.237 .0424299
530.056 .0423335
530.874 .0422389
531.692 .0421390
532.508 .0420425
533.325 .0419485
534.140 .0418646
534.955 .0417887
535.770 .0417189
536.583 .0416553
537.397 .0416004
538.209 .0415557
539.021 .0415160
539.832 .0414791
540.643 .0414516
541.453 .0414323
542.262 .0414257
543.071 .0414252
543.879 .0414296
544.687 .0414351
545.494 .0414406
546.300 .0414395
547.106 .0414342
547.911 .0414234
548.716 .0414082
549.520 .0413914
550.323 .0413716
551.126 .0413455
551.929 .0413181
552.731 .0412855
553.532 .0412482
554.332 .0412050
555.133 .0411599
555.932 .0411118
556.731 .0410678
557.530 .0410295
558.328 .0409994
559.125 .0409787
559.922 .0409709
560.719 .0409672
561.515 .0409684
562.310 .0409732
563.105 .0409772
563.899 .0409807
564.693 .0409870
565.487 .0409890
566.280 .0409913
567.072 .0409916
567.864 .0409880
568.655 .0409755
569.446 .0409589
570.236 .0409303
571.026 .0408885
571.816 .0408379
572.605 .0407790
573.393 .0407133
574.181 .0406489
574.969 .0405859
575.756 .0405252
576.543 .0404670
577.329 .0404109
578.115 .0403528
578.900 .0402968
579.685 .0402393
580.469 .0401815
581.253 .0401273
582.036 .0400773
582.820 .0400277
583.602 .0399820
584.384 .0399408
585.166 .0399002
585.947 .0398594
586.728 .0398178
587.509 .0397754
588.289 .0397323
589.069 .0396898
589.848 .0396492
590.627 .0396102
591.405 .0395758
592.183 .0395428
592.961 .0395123
593.738 .0394839
594.515 .0394547
595.291 .0394254
596.067 .0393974
596.843 .0393702
597.618 .0393429
598.393 .0393174
599.167 .0392940
599.941 .0392714
600.715 .0392491
601.488 .0392263
602.261 .0392018
603.034 .0391748
603.806 .0391460
604.578 .0391141
605.349 .0390820
606.121 .0390497
606.891 .0390170
607.662 .0389857
608.432 .0389550
609.201 .0389248
609.971 .0388942
610.740 .0388640
611.508 .0388329
612.277 .0388009
613.045 .0387694
613.812 .0387377
614.579 .0387062
615.346 .0386755
616.113 .0386455
616.879 .0386161
617.645 .0385873
618.411 .0385588
619.176 .0385308
619.941 .0385039
620.705 .0384774
621.470 .0384517
622.233 .0384268
622.997 .0384028
623.760 .0383787
624.523 .0383542
625.286 .0383289
626.048 .0383024
626.810 .0382746
627.572 .0382454
628.333 .0382156
629.095 .0381859
629.855 .0381561
630.616 .0381271
631.376 .0380993
632.136 .0380730
632.895 .0380474
633.655 .0380231
634.414 .0379998
635.172 .0379769
635.931 .0379542
636.689 .0379316
637.447 .0379086
638.204 .0378858
638.962 .0378627
639.718 .0378396
640.475 .0378167
641.231 .0377938
641.988 .0377705
642.743 .0377474
643.499 .0377245
644.254 .0377008
645.009 .0376757
645.764 .0376498
646.518 .0376226
647.272 .0375943
648.026 .0375656
648.780 .0375367
649.533 .0375086
650.286 .0374818
651.039 .0374558
651.792 .0374308
652.544 .0374072
653.296 .0373849
654.048 .0373633
654.799 .0373425
655.550 .0373219
656.301 .0373013
657.052 .0372811
657.802 .0372612
658.552 .0372409
659.302 .0372207
660.052 .0372003
660.801 .0371790
661.550 .0371573
662.299 .0371354
663.048 .0371133
663.796 .0370921
664.544 .0370711
665.292 .0370500
666.040 .0370295
666.787 .0370094
667.534 .0369893
668.281 .0369695
669.028 .0369498
669.774 .0369296
670.521 .0369096
671.266 .0368900
672.012 .0368707
672.758 .0368527
673.503 .0368354
674.248 .0368183
674.992 .0368013
675.737 .0367844
676.481 .0367674
677.225 .0367502
677.969 .0367336
678.712 .0367172
679.455 .0367017
680.199 .0366874
680.941 .0366737
681.684 .0366610
682.426 .0366481
683.168 .0366348
683.910 .0366203
684.652 .0366044
685.393 .0365869
686.134 .0365684
686.875 .0365498
687.616 .0365314
688.356 .0365135
689.097 .0364966
689.837 .0364805
690.576 .0364648
691.316 .0364491
692.055 .0364329
692.794 .0364155
693.533 .0363978
694.272 .0363797
695.010 .0363625
695.748 .0363463
696.486 .0363316
697.224 .0363186
697.962 .0363071
698.699 .0362964
699.436 .0362858
700.173 .0362750
700.909 .0362637
701.646 .0362510
702.382 .0362376
703.118 .0362229
703.853 .0362076
704.589 .0361915
705.324 .0361750
706.059 .0361578
706.794 .0361396
707.529 .0361208
708.263 .0361013
708.997 .0360819
709.731 .0360622
710.465 .0360424
711.198 .0360228
711.931 .0360031
712.664 .0359831
713.397 .0359627
714.130 .0359418
714.862 .0359204
715.594 .0358984
716.326 .0358762
717.058 .0358543
717.789 .0358332
718.520 .0358127
719.251 .0357933
719.982 .0357745
720.713 .0357559
721.443 .0357364
722.173 .0357163
722.903 .0356951
723.633 .0356728
724.362 .0356498
725.091 .0356263
725.820 .0356028
726.549 .0355799
727.278 .0355576
728.006 .0355363
728.734 .0355156
729.462 .0354959
730.190 .0354766
730.917 .0354577
731.644 .0354392
732.371 .0354212
733.098 .0354034
733.825 .0353864
734.551 .0353697
735.277 .0353535
736.003 .0353379
736.728 .0353231
737.454 .0353096
738.179 .0352970
738.904 .0352852
739.629 .0352737
740.353 .0352626
741.077 .0352518
741.801 .0352403
742.525 .0352284
743.249 .0352159
743.972 .0352030
744.695 .0351895
745.418 .0351757
746.141 .0351622
746.863 .0351495
747.585 .0351373
748.307 .0351253
749.029 .0351133
749.750 .0351009
750.472 .0350880
751.193 .0350742
751.913 .0350597
752.634 .0350443
753.354 .0350279
754.074 .0350113
754.794 .0349943
755.514 .0349772
756.233 .0349600
756.952 .0349429
757.671 .0349259
758.390 .0349088
759.108 .0348914
759.826 .0348739
760.544 .0348576
761.262 .0348420
761.979 .0348274
762.697 .0348144
763.414 .0348025
764.130 .0347922
764.847 .0347831
765.563 .0347749
766.279 .0347667
766.995 .0347585
767.710 .0347494
768.426 .0347392
769.141 .0347285
769.855 .0347167
770.570 .0347039
771.284 .0346911
771.998 .0346777
772.712 .0346635
773.426 .0346489
774.139 .0346341
774.852 .0346182
775.565 .0346021
776.277 .0345853
776.990 .0345679
777.702 .0345504
778.414 .0345334
779.125 .0345169
779.836 .0345017
780.547 .0344881
781.258 .0344757
781.969 .0344647
782.679 .0344552
783.389 .0344456
784.099 .0344358
784.808 .0344252
785.517 .0344135
786.226 .0343999
786.935 .0343851
787.643 .0343690
788.352 .0343522
789.060 .0343354
789.767 .0343187
790.475 .0343019
791.182 .0342852
791.889 .0342684
792.595 .0342514
793.301 .0342340
794.008 .0342160
794.713 .0341975
795.419 .0341791
796.124 .0341612
796.829 .0341438
797.534 .0341271
798.238 .0341112
798.942 .0340962
799.646 .0340816
800.350 .0340674
801.053 .0340531
801.756 .0340387
802.459 .0340244
803.162 .0340099
803.864 .0339949
804.566 .0339794
805.267 .0339636
805.969 .0339473
806.670 .0339304
807.371 .0339135
808.071 .0338965
808.772 .0338802
809.472 .0338646
810.171 .0338498
810.871 .0338358
811.570 .0338226
812.269 .0338099
812.967 .0337971
813.666 .0337840
814.364 .0337707
815.061 .0337572
815.759 .0337441
816.456 .0337312
817.153 .0337184
817.849 .0337057
818.545 .0336931
819.241 .0336802
819.937 .0336670
820.632 .0336535
821.327 .0336394
822.022 .0336247
822.717 .0336098
823.411 .0335950
824.105 .0335807
824.798 .0335672
825.491 .0335541
826.184 .0335413
826.877 .0335290
827.569 .0335169
828.261 .0335050
828.953 .0334932
829.645 .0334815
830.336 .0334694
831.027 .0334571
831.717 .0334446
832.407 .0334320
833.097 .0334192
833.787 .0334066
834.476 .0333939
835.165 .0333815
835.854 .0333691
836.542 .0333573
837.230 .0333460
837.918 .0333353
838.605 .0333246
839.292 .0333136
839.979 .0333023
840.665 .0332907
841.352 .0332788
842.037 .0332670
842.723 .0332554
843.408 .0332442
844.093 .0332334
844.777 .0332227
845.462 .0332119
846.145 .0332006
846.829 .0331883
847.512 .0331749
848.195 .0331603
848.878 .0331447
849.560 .0331280
850.242 .0331112
850.923 .0330941
851.605 .0330766
852.286 .0330587
852.966 .0330405
853.646 .0330220
854.326 .0330036
855.006 .0329852
855.685 .0329666
856.364 .0329481
857.043 .0329299
857.721 .0329116
858.399 .0328932
859.077 .0328746
859.754 .0328552
860.431 .0328353
861.107 .0328151
861.784 .0327947
862.459 .0327745
863.135 .0327547
863.810 .0327358
864.485 .0327178
865.160 .0327003
865.834 .0326833
866.508 .0326660
867.181 .0326490
867.854 .0326316
868.527 .0326136
869.199 .0325957
869.872 .0325784
870.543 .0325622
871.215 .0325464
871.886 .0325312
872.557 .0325165
873.227 .0325015
873.897 .0324860
874.567 .0324698
875.236 .0324528
875.905 .0324351
876.573 .0324171
877.242 .0323989
877.909 .0323813
878.577 .0323644
879.244 .0323480
879.911 .0323322
880.577 .0323166
881.243 .0323003
881.909 .0322830
882.575 .0322655
883.240 .0322475
883.904 .0322287
884.569 .0322100
885.232 .0321916
885.896 .0321738
886.559 .0321568
887.222 .0321403
887.885 .0321248
888.547 .0321096
889.208 .0320947
889.870 .0320795
890.531 .0320643
891.192 .0320497
891.852 .0320358
892.512 .0320225
893.171 .0320105
893.830 .0320001
894.489 .0319907
895.148 .0319827
895.806 .0319758
896.464 .0319698
897.121 .0319645
897.778 .0319596
898.434 .0319543
899.091 .0319482
899.747 .0319416
900.402 .0319341
901.057 .0319258
901.712 .0319173
902.366 .0319077
903.020 .0318978
903.674 .0318880
904.327 .0318786
904.980 .0318692
905.633 .0318604
906.285 .0318517
906.936 .0318430
907.588 .0318338
908.239 .0318243
908.889 .0318145
909.540 .0318048
910.190 .0317953
910.839 .0317861
911.488 .0317778
912.137 .0317702
912.785 .0317627
913.433 .0317557
914.081 .0317486
914.728 .0317412
915.375 .0317324
916.021 .0317230
916.668 .0317125
917.313 .0317009
917.959 .0316881
918.604 .0316746
919.248 .0316603
919.892 .0316453
920.536 .0316295
921.180 .0316135
921.823 .0315974
922.465 .0315812
923.108 .0315650
923.750 .0315490
924.391 .0315328
925.032 .0315163
925.673 .0314995
926.313 .0314825
926.953 .0314653
927.593 .0314479
928.232 .0314301
928.871 .0314129
929.510 .0313959
930.148 .0313789
930.786 .0313620
931.423 .0313457
932.060 .0313289
932.697 .0313116
933.333 .0312936
933.969 .0312741
934.604 .0312537
935.239 .0312325
935.874 .0312104
936.508 .0311882
937.142 .0311662
937.776 .0311444
938.409 .0311234
939.042 .0311031
939.674 .0310828
940.306 .0310623
940.938 .0310419
941.569 .0310209
942.200 .0309994
942.830 .0309777
943.460 .0309560
944.090 .0309341
944.720 .0309123
945.349 .0308903
945.977 .0308682
946.606 .0308460
947.233 .0308235
947.861 .0308004
948.488 .0307768
949.115 .0307530
949.741 .0307290
950.367 .0307049
950.993 .0306811
951.618 .0306575
952.243 .0306346
952.868 .0306122
953.492 .0305906
954.115 .0305698
954.739 .0305500
955.362 .0305315
955.984 .0305138
956.607 .0304967
957.229 .0304801
957.850 .0304638
958.471 .0304474
959.092 .0304304
959.713 .0304127
960.333 .0303944
960.952 .0303762
961.572 .0303583
962.191 .0303407
962.809 .0303238
963.428 .0303076
964.045 .0302917
964.663 .0302760
965.280 .0302603
965.897 .0302444
966.513 .0302288
967.129 .0302135
967.745 .0301985
968.361 .0301838
968.976 .0301701
969.590 .0301570
970.205 .0301444
970.818 .0301323
971.432 .0301202
972.045 .0301082
972.658 .0300967
973.271 .0300843
973.883 .0300714
974.495 .0300577
975.106 .0300430
975.717 .0300270
976.328 .0300100
976.938 .0299922
977.548 .0299746
978.158 .0299574
978.768 .0299410
979.377 .0299253
979.985 .0299110
980.594 .0298972
981.202 .0298839
981.809 .0298710
982.417 .0298583
983.024 .0298459
983.631 .0298345
984.237 .0298241
984.843 .0298154
985.449 .0298082
986.054 .0298025
986.659 .0297983
987.264 .0297950
987.868 .0297921
988.472 .0297898
989.076 .0297883
989.679 .0297870
990.282 .0297858
990.885 .0297846
991.487 .0297834
992.090 .0297812
992.691 .0297781
993.293 .0297739
993.894 .0297694
994.495 .0297639
995.095 .0297576
995.696 .0297511
996.296 .0297448
996.895 .0297387
997.494 .0297331
998.093 .0297272
998.692 .0297212
999.291 .0297148
999.889 .0297082
1000.487 .0297010
1001.084 .0296943
1001.681 .0296879
1002.278 .0296818
1002.875 .0296767
1003.471 .0296727
1004.067 .0296696
1004.663 .0296688
1005.258 .0296688
1005.854 .0296695
1006.449 .0296708
1007.043 .0296717
1007.638 .0296720
1008.232 .0296717
1008.826 .0296708
1009.419 .0296689
1010.012 .0296663
1010.605 .0296632
1011.198 .0296595
1011.791 .0296562
1012.383 .0296531
1012.975 .0296506
1013.566 .0296490
1014.158 .0296482
1014.749 .0296477
1015.340 .0296481
1015.931 .0296500
1016.521 .0296523
1017.111 .0296560
1017.701 .0296602
1018.291 .0296652
1018.880 .0296707
1019.470 .0296761
1020.059 .0296814
1020.647 .0296869
1021.236 .0296926
1021.824 .0296981
1022.412 .0297040
1023.000 .0297106
1023.588 .0297172
1024.175 .0297233
1024.762 .0297285
1025.349 .0297320
1025.936 .0297334
1026.523 .0297326
1027.109 .0297293
1027.695 .0297246
1028.281 .0297191
1028.867 .0297132
1029.452 .0297085
1030.038 .0297043
1030.623 .0297009
1031.208 .0296978
1031.792 .0296943
1032.377 .0296899
1032.961 .0296837
1033.546 .0296759
1034.130 .0296669
1034.714 .0296575
1035.297 .0296480
1035.881 .0296387
1036.464 .0296308
1037.047 .0296243
1037.630 .0296190
1038.213 .0296154
1038.796 .0296121
1039.378 .0296095
1039.961 .0296083
1040.543 .0296072
1041.125 .0296065
1041.707 .0296068
1042.289 .0296077
1042.871 .0296093
1043.452 .0296113
1044.034 .0296129
1044.615 .0296130
1045.196 .0296129
1045.777 .0296110
1046.358 .0296072
1046.939 .0296025
1047.520 .0295967
1048.101 .0295901
1048.681 .0295841
1049.262 .0295784
1049.842 .0295726
1050.422 .0295668
1051.002 .0295612
1051.582 .0295544
1052.162 .0295461
1052.742 .0295361
1053.322 .0295243
1053.902 .0295111
1054.482 .0294969
1055.061 .0294809
1055.641 .0294644
1056.220 .0294480
1056.800 .0294315
1057.379 .0294144
1057.958 .0293970
1058.538 .0293791
1059.117 .0293606
1059.696 .0293420
1060.275 .0293230
1060.854 .0293038
1061.433 .0292855
1062.012 .0292686
1062.592 .0292532
1063.171 .0292399
1063.750 .0292298
1064.329 .0292223
1064.908 .0292172
1065.487 .0292135
1066.066 .0292106
1066.645 .0292085
1067.224 .0292074
1067.803 .0292056
1068.382 .0292039
1068.961 .0292027
1069.540 .0292009
1070.119 .0291984
1070.698 .0291955
1071.278 .0291916
1071.857 .0291855
1072.436 .0291776
1073.016 .0291673
1073.595 .0291540
1074.175 .0291401
1074.754 .0291250
1075.334 .0291097
1075.913 .0290954
1076.493 .0290824
1077.073 .0290700
1077.653 .0290583
1078.233 .0290471
1078.813 .0290348
1079.393 .0290219
1079.974 .0290089
1080.554 .0289949
1081.135 .0289814
1081.716 .0289684
1082.296 .0289583
1082.877 .0289497
1083.458 .0289432
1084.040 .0289374
1084.621 .0289318
1085.202 .0289259
1085.784 .0289184
1086.366 .0289072
1086.948 .0288929
1087.530 .0288769
1088.112 .0288591
1088.695 .0288393
1089.277 .0288213
1089.860 .0288046
1090.443 .0287899
1091.026 .0287765
1091.610 .0287666
1092.193 .0287575
1092.777 .0287512
1093.361 .0287461
1093.946 .0287415
1094.530 .0287381
1095.115 .0287369
1095.700 .0287376
1096.285 .0287419
1096.871 .0287506
1097.456 .0287625
1098.042 .0287766
1098.628 .0287947
1099.215 .0288114
1099.802 .0288271
1100.389 .0288400
1100.976 .0288502
1101.564 .0288555
1102.152 .0288582
1102.740 .0288592
1103.329 .0288608
1103.917 .0288636
1104.507 .0288682
1105.096 .0288736
1105.686 .0288804
1106.276 .0288858
1106.867 .0288892
1107.457 .0288901
1108.049 .0288899
1108.640 .0288876
1109.232 .0288864
1109.825 .0288855
1110.417 .0288878
1111.010 .0288931
1111.604 .0289037
1112.198 .0289171
1112.792 .0289333
1113.387 .0289499
1113.982 .0289671
1114.577 .0289853
1115.173 .0290042
1115.769 .0290240
1116.366 .0290460
1116.963 .0290703
1117.561 .0290992
1118.159 .0291286
1118.758 .0291609
1119.357 .0291931
1119.957 .0292257
1120.557 .0292568
1121.157 .0292851
1121.758 .0293080
1122.360 .0293292
1122.962 .0293438
1123.564 .0293548
1124.167 .0293602
1124.771 .0293627
1125.375 .0293623
1125.980 .0293626
1126.585 .0293644
1127.191 .0293688
1127.797 .0293749
1128.404 .0293878
1129.012 .0294007
1129.620 .0294190
1130.229 .0294402
1130.838 .0294649
1131.448 .0294906
1132.058 .0295222
1132.669 .0295559
1133.281 .0295981
1133.894 .0296455
1134.507 .0297026
1135.120 .0297662
1135.735 .0298372
1136.350 .0299118
1136.965 .0299877
1137.582 .0300637
1138.199 .0301385
1138.816 .0302061
1139.435 .0302727
1140.054 .0303418
1140.674 .0304150
1141.294 .0304967
1141.916 .0305776
1142.538 .0306197
1143.160 .0308625
1143.784 .0308760
1144.408 .0310502
1145.033 .0308904
