Measurement Sequence started on: 14-45-04-498
Integration time: 36
Scans to Average: 2 
>>>>>Begin Spectral Data<<<<<
433.946 .0570982
434.870 .0546818
435.793 .0530761
436.715 .0514391
437.635 .0497394
438.555 .0501411
439.473 .0494155
440.389 .0489019
441.305 .0485425
442.219 .0482946
443.132 .0481300
444.044 .0479871
444.954 .0478544
445.863 .0477510
446.771 .0476410
447.678 .0475419
448.584 .0474636
449.488 .0473941
450.391 .0473454
451.293 .0473040
452.194 .0472696
453.094 .0472251
453.992 .0471753
454.890 .0471062
455.786 .0470197
456.681 .0469216
457.575 .0468118
458.468 .0466937
459.360 .0465733
460.250 .0464561
461.140 .0463463
462.028 .0462425
462.915 .0461444
463.801 .0460484
464.687 .0459528
465.571 .0458513
466.454 .0457476
467.335 .0456407
468.216 .0455343
469.096 .0454305
469.975 .0453337
470.853 .0452453
471.729 .0451629
472.605 .0450873
473.479 .0450125
474.353 .0449368
475.226 .0448603
476.097 .0447801
476.968 .0446969
477.838 .0446136
478.706 .0445324
479.574 .0444552
480.441 .0443873
481.306 .0443280
482.171 .0442766
483.035 .0442334
483.898 .0441994
484.760 .0441713
485.621 .0441491
486.481 .0441337
487.340 .0441192
488.198 .0441125
489.055 .0441104
489.912 .0441101
490.767 .0441119
491.622 .0441159
492.476 .0441197
493.329 .0441205
494.180 .0441166
495.032 .0441087
495.882 .0440942
496.731 .0440768
497.580 .0440515
498.427 .0440209
499.274 .0439855
500.120 .0439478
500.965 .0439058
501.809 .0438650
502.653 .0438168
503.495 .0437654
504.337 .0437065
505.178 .0436393
506.018 .0435628
506.858 .0434767
507.696 .0433850
508.534 .0432930
509.371 .0432005
510.208 .0431138
511.043 .0430304
511.878 .0429590
512.712 .0428922
513.545 .0428283
514.377 .0427670
515.209 .0427065
516.040 .0426467
516.870 .0425968
517.699 .0425581
518.528 .0425342
519.356 .0425369
520.183 .0425592
521.010 .0425969
521.836 .0426467
522.661 .0426989
523.485 .0427438
524.309 .0427746
525.132 .0427911
525.954 .0427840
526.776 .0427605
527.597 .0427290
528.417 .0426789
529.237 .0426235
530.056 .0425652
530.874 .0424980
531.692 .0424233
532.508 .0423437
533.325 .0422549
534.140 .0421607
534.955 .0420646
535.770 .0419676
536.583 .0418698
537.397 .0417855
538.209 .0417170
539.021 .0416577
539.832 .0416122
540.643 .0415759
541.453 .0415393
542.262 .0415044
543.071 .0414603
543.879 .0414078
544.687 .0413479
545.494 .0412903
546.300 .0412323
547.106 .0411743
547.911 .0411282
548.716 .0410935
549.520 .0410626
550.323 .0410355
551.126 .0410029
551.929 .0409674
552.731 .0409280
553.532 .0408843
554.332 .0408358
555.133 .0407885
555.932 .0407474
556.731 .0407065
557.530 .0406710
558.328 .0406450
559.125 .0406200
559.922 .0406011
560.719 .0405864
561.515 .0405755
562.310 .0405671
563.105 .0405642
563.899 .0405664
564.693 .0405728
565.487 .0405797
566.280 .0405839
567.072 .0405826
567.864 .0405751
568.655 .0405548
569.446 .0405239
570.236 .0404863
571.026 .0404419
571.816 .0403902
572.605 .0403370
573.393 .0402805
574.181 .0402246
574.969 .0401653
575.756 .0401043
576.543 .0400431
577.329 .0399826
578.115 .0399193
578.900 .0398574
579.685 .0397980
580.469 .0397425
581.253 .0396901
582.036 .0396429
582.820 .0395973
583.602 .0395546
584.384 .0395130
585.166 .0394711
585.947 .0394285
586.728 .0393875
587.509 .0393445
588.289 .0393032
589.069 .0392620
589.848 .0392219
590.627 .0391833
591.405 .0391482
592.183 .0391148
592.961 .0390849
593.738 .0390585
594.515 .0390339
595.291 .0390115
596.067 .0389933
596.843 .0389769
597.618 .0389624
598.393 .0389495
599.167 .0389365
599.941 .0389216
600.715 .0389060
601.488 .0388883
602.261 .0388695
603.034 .0388503
603.806 .0388307
604.578 .0388105
605.349 .0387912
606.121 .0387722
606.891 .0387527
607.662 .0387337
608.432 .0387137
609.201 .0386919
609.971 .0386689
610.740 .0386449
611.508 .0386207
612.277 .0385969
613.045 .0385750
613.812 .0385549
614.579 .0385367
615.346 .0385205
616.113 .0385051
616.879 .0384912
617.645 .0384777
618.411 .0384631
619.176 .0384475
619.941 .0384308
620.705 .0384127
621.470 .0383937
622.233 .0383740
622.997 .0383542
623.760 .0383337
624.523 .0383123
625.286 .0382897
626.048 .0382658
626.810 .0382401
627.572 .0382124
628.333 .0381827
629.095 .0381514
629.855 .0381175
630.616 .0380833
631.376 .0380491
632.136 .0380153
632.895 .0379823
633.655 .0379509
634.414 .0379213
635.172 .0378936
635.931 .0378673
636.689 .0378425
637.447 .0378191
638.204 .0377970
638.962 .0377753
639.718 .0377549
640.475 .0377353
641.231 .0377161
641.988 .0376967
642.743 .0376775
643.499 .0376574
644.254 .0376364
645.009 .0376146
645.764 .0375929
646.518 .0375713
647.272 .0375501
648.026 .0375292
648.780 .0375087
649.533 .0374891
650.286 .0374690
651.039 .0374488
651.792 .0374283
652.544 .0374073
653.296 .0373861
654.048 .0373649
654.799 .0373447
655.550 .0373254
656.301 .0373068
657.052 .0372893
657.802 .0372718
658.552 .0372539
659.302 .0372352
660.052 .0372153
660.801 .0371943
661.550 .0371727
662.299 .0371499
663.048 .0371273
663.796 .0371052
664.544 .0370840
665.292 .0370633
666.040 .0370431
666.787 .0370238
667.534 .0370044
668.281 .0369850
669.028 .0369656
669.774 .0369455
670.521 .0369256
671.266 .0369052
672.012 .0368849
672.758 .0368649
673.503 .0368448
674.248 .0368245
674.992 .0368038
675.737 .0367834
676.481 .0367627
677.225 .0367413
677.969 .0367199
678.712 .0366985
679.455 .0366765
680.199 .0366545
680.941 .0366324
681.684 .0366109
682.426 .0365898
683.168 .0365691
683.910 .0365484
684.652 .0365277
685.393 .0365072
686.134 .0364865
686.875 .0364657
687.616 .0364459
688.356 .0364264
689.097 .0364081
689.837 .0363907
690.576 .0363745
691.316 .0363588
692.055 .0363438
692.794 .0363288
693.533 .0363137
694.272 .0362981
695.010 .0362823
695.748 .0362663
696.486 .0362509
697.224 .0362357
697.962 .0362209
698.699 .0362070
699.436 .0361934
700.173 .0361791
700.909 .0361644
701.646 .0361489
702.382 .0361330
703.118 .0361165
703.853 .0360996
704.589 .0360829
705.324 .0360670
706.059 .0360516
706.794 .0360367
707.529 .0360227
708.263 .0360094
708.997 .0359964
709.731 .0359829
710.465 .0359693
711.198 .0359548
711.931 .0359395
712.664 .0359232
713.397 .0359055
714.130 .0358861
714.862 .0358655
715.594 .0358435
716.326 .0358211
717.058 .0357982
717.789 .0357754
718.520 .0357523
719.251 .0357292
719.982 .0357055
720.713 .0356814
721.443 .0356566
722.173 .0356318
722.903 .0356061
723.633 .0355805
724.362 .0355549
725.091 .0355301
725.820 .0355066
726.549 .0354845
727.278 .0354634
728.006 .0354433
728.734 .0354233
729.462 .0354036
730.190 .0353837
730.917 .0353637
731.644 .0353432
732.371 .0353228
733.098 .0353025
733.825 .0352826
734.551 .0352636
735.277 .0352458
736.003 .0352288
736.728 .0352130
737.454 .0351984
738.179 .0351847
738.904 .0351717
739.629 .0351595
740.353 .0351477
741.077 .0351370
741.801 .0351265
742.525 .0351164
743.249 .0351068
743.972 .0350982
744.695 .0350901
745.418 .0350821
746.141 .0350740
746.863 .0350651
747.585 .0350558
748.307 .0350455
749.029 .0350338
749.750 .0350209
750.472 .0350072
751.193 .0349929
751.913 .0349782
752.634 .0349633
753.354 .0349483
754.074 .0349337
754.794 .0349190
755.514 .0349035
756.233 .0348875
756.952 .0348710
757.671 .0348545
758.390 .0348375
759.108 .0348206
759.826 .0348039
760.544 .0347878
761.262 .0347726
761.979 .0347577
762.697 .0347431
763.414 .0347286
764.130 .0347141
764.847 .0346995
765.563 .0346846
766.279 .0346697
766.995 .0346549
767.710 .0346409
768.426 .0346270
769.141 .0346133
769.855 .0345997
770.570 .0345859
771.284 .0345719
771.998 .0345576
772.712 .0345431
773.426 .0345284
774.139 .0345138
774.852 .0344991
775.565 .0344845
776.277 .0344700
776.990 .0344553
777.702 .0344405
778.414 .0344255
779.125 .0344100
779.836 .0343940
780.547 .0343779
781.258 .0343617
781.969 .0343456
782.679 .0343296
783.389 .0343136
784.099 .0342977
784.808 .0342814
785.517 .0342652
786.226 .0342492
786.935 .0342343
787.643 .0342200
788.352 .0342071
789.060 .0341958
789.767 .0341857
790.475 .0341761
791.182 .0341667
791.889 .0341569
792.595 .0341465
793.301 .0341348
794.008 .0341217
794.713 .0341076
795.419 .0340937
796.124 .0340792
796.829 .0340655
797.534 .0340518
798.238 .0340385
798.942 .0340250
799.646 .0340111
800.350 .0339967
801.053 .0339812
801.756 .0339648
802.459 .0339474
803.162 .0339294
803.864 .0339113
804.566 .0338927
805.267 .0338747
805.969 .0338573
806.670 .0338407
807.371 .0338245
808.071 .0338091
808.772 .0337943
809.472 .0337796
810.171 .0337643
810.871 .0337482
811.570 .0337311
812.269 .0337130
812.967 .0336942
813.666 .0336755
814.364 .0336574
815.061 .0336402
815.759 .0336244
816.456 .0336104
817.153 .0335977
817.849 .0335857
818.545 .0335741
819.241 .0335622
819.937 .0335501
820.632 .0335371
821.327 .0335237
822.022 .0335098
822.717 .0334959
823.411 .0334819
824.105 .0334678
824.798 .0334535
825.491 .0334390
826.184 .0334239
826.877 .0334089
827.569 .0333935
828.261 .0333783
828.953 .0333629
829.645 .0333479
830.336 .0333332
831.027 .0333190
831.717 .0333051
832.407 .0332919
833.097 .0332794
833.787 .0332676
834.476 .0332566
835.165 .0332470
835.854 .0332383
836.542 .0332307
837.230 .0332233
837.918 .0332163
838.605 .0332092
839.292 .0332020
839.979 .0331944
840.665 .0331869
841.352 .0331796
842.037 .0331723
842.723 .0331649
843.408 .0331577
844.093 .0331502
844.777 .0331424
845.462 .0331338
846.145 .0331239
846.829 .0331127
847.512 .0331004
848.195 .0330868
848.878 .0330724
849.560 .0330572
850.242 .0330410
850.923 .0330243
851.605 .0330071
852.286 .0329892
852.966 .0329708
853.646 .0329521
854.326 .0329333
855.006 .0329146
855.685 .0328957
856.364 .0328765
857.043 .0328577
857.721 .0328390
858.399 .0328199
859.077 .0328007
859.754 .0327809
860.431 .0327603
861.107 .0327389
861.784 .0327167
862.459 .0326937
863.135 .0326702
863.810 .0326462
864.485 .0326221
865.160 .0325984
865.834 .0325754
866.508 .0325530
867.181 .0325324
867.854 .0325134
868.527 .0324950
869.199 .0324770
869.872 .0324594
870.543 .0324416
871.215 .0324238
871.886 .0324057
872.557 .0323877
873.227 .0323701
873.897 .0323529
874.567 .0323361
875.236 .0323198
875.905 .0323042
876.573 .0322885
877.242 .0322720
877.909 .0322547
878.577 .0322362
879.244 .0322165
879.911 .0321965
880.577 .0321765
881.243 .0321570
881.909 .0321384
882.575 .0321208
883.240 .0321044
883.904 .0320890
884.569 .0320744
885.232 .0320602
885.896 .0320461
886.559 .0320320
887.222 .0320172
887.885 .0320019
888.547 .0319865
889.208 .0319710
889.870 .0319554
890.531 .0319404
891.192 .0319259
891.852 .0319121
892.512 .0318992
893.171 .0318874
893.830 .0318764
894.489 .0318665
895.148 .0318571
895.806 .0318480
896.464 .0318392
897.121 .0318309
897.778 .0318226
898.434 .0318146
899.091 .0318070
899.747 .0317995
900.402 .0317919
901.057 .0317842
901.712 .0317757
902.366 .0317666
903.020 .0317569
903.674 .0317463
904.327 .0317350
904.980 .0317236
905.633 .0317122
906.285 .0317010
906.936 .0316906
907.588 .0316804
908.239 .0316702
908.889 .0316600
909.540 .0316494
910.190 .0316382
910.839 .0316273
911.488 .0316163
912.137 .0316054
912.785 .0315950
913.433 .0315851
914.081 .0315754
914.728 .0315662
915.375 .0315569
916.021 .0315471
916.668 .0315369
917.313 .0315264
917.959 .0315150
918.604 .0315039
919.248 .0314924
919.892 .0314807
920.536 .0314692
921.180 .0314577
921.823 .0314453
922.465 .0314327
923.108 .0314195
923.750 .0314053
924.391 .0313904
925.032 .0313754
925.673 .0313600
926.313 .0313447
926.953 .0313291
927.593 .0313129
928.232 .0312962
928.871 .0312791
929.510 .0312608
930.148 .0312418
930.786 .0312226
931.423 .0312029
932.060 .0311835
932.697 .0311646
933.333 .0311456
933.969 .0311270
934.604 .0311087
935.239 .0310898
935.874 .0310706
936.508 .0310508
937.142 .0310308
937.776 .0310104
938.409 .0309904
939.042 .0309699
939.674 .0309491
940.306 .0309286
940.938 .0309076
941.569 .0308863
942.200 .0308654
942.830 .0308441
943.460 .0308229
944.090 .0308017
944.720 .0307804
945.349 .0307589
945.977 .0307376
946.606 .0307163
947.233 .0306953
947.861 .0306739
948.488 .0306522
949.115 .0306302
949.741 .0306086
950.367 .0305871
950.993 .0305653
951.618 .0305439
952.243 .0305226
952.868 .0305012
953.492 .0304797
954.115 .0304582
954.739 .0304372
955.362 .0304166
955.984 .0303965
956.607 .0303766
957.229 .0303568
957.850 .0303372
958.471 .0303175
959.092 .0302973
959.713 .0302764
960.333 .0302545
960.952 .0302321
961.572 .0302096
962.191 .0301872
962.809 .0301652
963.428 .0301438
964.045 .0301230
964.663 .0301027
965.280 .0300826
965.897 .0300624
966.513 .0300423
967.129 .0300227
967.745 .0300037
968.361 .0299854
968.976 .0299683
969.590 .0299530
970.205 .0299395
970.818 .0299274
971.432 .0299164
972.045 .0299066
972.658 .0298981
973.271 .0298894
973.883 .0298800
974.495 .0298696
975.106 .0298579
975.717 .0298455
976.328 .0298318
976.938 .0298176
977.548 .0298035
978.158 .0297893
978.768 .0297754
979.377 .0297617
979.985 .0297485
980.594 .0297357
981.202 .0297229
981.809 .0297098
982.417 .0296964
983.024 .0296838
983.631 .0296721
984.237 .0296622
984.843 .0296542
985.449 .0296480
986.054 .0296429
986.659 .0296391
987.264 .0296354
987.868 .0296312
988.472 .0296265
989.076 .0296206
989.679 .0296136
990.282 .0296058
990.885 .0295969
991.487 .0295884
992.090 .0295805
992.691 .0295730
993.293 .0295652
993.894 .0295576
994.495 .0295499
995.095 .0295418
995.696 .0295336
996.296 .0295250
996.895 .0295169
997.494 .0295097
998.093 .0295034
998.692 .0294983
999.291 .0294951
999.889 .0294935
1000.487 .0294931
1001.084 .0294940
1001.681 .0294944
1002.278 .0294947
1002.875 .0294949
1003.471 .0294944
1004.067 .0294931
1004.663 .0294917
1005.258 .0294902
1005.854 .0294882
1006.449 .0294862
1007.043 .0294835
1007.638 .0294800
1008.232 .0294767
1008.826 .0294728
1009.419 .0294689
1010.012 .0294653
1010.605 .0294621
1011.198 .0294584
1011.791 .0294554
1012.383 .0294523
1012.975 .0294488
1013.566 .0294454
1014.158 .0294424
1014.749 .0294400
1015.340 .0294393
1015.931 .0294407
1016.521 .0294446
1017.111 .0294509
1017.701 .0294590
1018.291 .0294671
1018.880 .0294750
1019.470 .0294815
1020.059 .0294860
1020.647 .0294889
1021.236 .0294913
1021.824 .0294938
1022.412 .0294973
1023.000 .0295023
1023.588 .0295088
1024.175 .0295164
1024.762 .0295238
1025.349 .0295290
1025.936 .0295316
1026.523 .0295310
1027.109 .0295279
1027.695 .0295228
1028.281 .0295178
1028.867 .0295141
1029.452 .0295124
1030.038 .0295129
1030.623 .0295146
1031.208 .0295174
1031.792 .0295205
1032.377 .0295229
1032.961 .0295242
1033.546 .0295238
1034.130 .0295229
1034.714 .0295212
1035.297 .0295197
1035.881 .0295183
1036.464 .0295170
1037.047 .0295154
1037.630 .0295133
1038.213 .0295107
1038.796 .0295072
1039.378 .0295029
1039.961 .0294980
1040.543 .0294930
1041.125 .0294872
1041.707 .0294805
1042.289 .0294730
1042.871 .0294644
1043.452 .0294550
1044.034 .0294442
1044.615 .0294331
1045.196 .0294223
1045.777 .0294126
1046.358 .0294042
1046.939 .0293964
1047.520 .0293899
1048.101 .0293840
1048.681 .0293782
1049.262 .0293718
1049.842 .0293648
1050.422 .0293570
1051.002 .0293488
1051.582 .0293401
1052.162 .0293319
1052.742 .0293236
1053.322 .0293153
1053.902 .0293066
1054.482 .0292973
1055.061 .0292878
1055.641 .0292782
1056.220 .0292683
1056.800 .0292592
1057.379 .0292501
1057.958 .0292416
1058.538 .0292325
1059.117 .0292246
1059.696 .0292175
1060.275 .0292103
1060.854 .0292033
1061.433 .0291954
1062.012 .0291879
1062.592 .0291813
1063.171 .0291761
1063.750 .0291726
1064.329 .0291705
1064.908 .0291695
1065.487 .0291673
1066.066 .0291643
1066.645 .0291594
1067.224 .0291516
1067.803 .0291407
1068.382 .0291262
1068.961 .0291079
1069.540 .0290874
1070.119 .0290663
1070.698 .0290453
1071.278 .0290261
1071.857 .0290081
1072.436 .0289911
1073.016 .0289760
1073.595 .0289616
1074.175 .0289479
1074.754 .0289337
1075.334 .0289200
1075.913 .0289057
1076.493 .0288911
1077.073 .0288776
1077.653 .0288653
1078.233 .0288559
1078.813 .0288487
1079.393 .0288425
1079.974 .0288376
1080.554 .0288324
1081.135 .0288252
1081.716 .0288135
1082.296 .0287988
1082.877 .0287798
1083.458 .0287581
1084.040 .0287340
1084.621 .0287088
1085.202 .0286853
1085.784 .0286648
1086.366 .0286468
1086.948 .0286310
1087.530 .0286178
1088.112 .0286068
1088.695 .0285948
1089.277 .0285835
1089.860 .0285700
1090.443 .0285565
1091.026 .0285437
1091.610 .0285332
1092.193 .0285245
1092.777 .0285205
1093.361 .0285204
1093.946 .0285233
1094.530 .0285298
1095.115 .0285381
1095.700 .0285464
1096.285 .0285543
1096.871 .0285602
1097.456 .0285631
1098.042 .0285627
1098.628 .0285622
1099.215 .0285592
1099.802 .0285565
1100.389 .0285541
1100.976 .0285513
1101.564 .0285498
1102.152 .0285484
1102.740 .0285474
1103.329 .0285459
1103.917 .0285459
1104.507 .0285450
1105.096 .0285434
1105.686 .0285427
1106.276 .0285424
1106.867 .0285425
1107.457 .0285444
1108.049 .0285479
1108.640 .0285539
1109.232 .0285638
1109.825 .0285796
1110.417 .0285972
1111.010 .0286191
1111.604 .0286423
1112.198 .0286667
1112.792 .0286905
1113.387 .0287135
1113.982 .0287334
1114.577 .0287531
1115.173 .0287737
1115.769 .0287940
1116.366 .0288160
1116.963 .0288427
1117.561 .0288710
1118.159 .0289010
1118.758 .0289316
1119.357 .0289617
1119.957 .0289885
1120.557 .0290153
1121.157 .0290368
1121.758 .0290579
1122.360 .0290781
1122.962 .0290960
1123.564 .0291146
1124.167 .0291368
1124.771 .0291621
1125.375 .0291903
1125.980 .0292249
1126.585 .0292657
1127.191 .0293093
1127.797 .0293601
1128.404 .0294107
1129.012 .0294604
1129.620 .0295092
1130.229 .0295562
1130.838 .0296006
1131.448 .0296457
1132.058 .0296901
1132.669 .0297340
1133.281 .0297798
1133.894 .0298253
1134.507 .0298678
1135.120 .0299095
1135.735 .0299480
1136.350 .0299796
1136.965 .0300066
1137.582 .0300334
1138.199 .0300583
1138.816 .0300880
1139.435 .0301133
1140.054 .0301422
1140.674 .0301824
1141.294 .0302300
1141.916 .0302795
1142.538 .0301330
1143.160 .0303368
1143.784 .0306381
1144.408 .0306558
1145.033 .0305087
