Measurement Sequence started on: 14-45-04-498
Integration time: 36
Scans to Average: 2 
>>>>>Begin Spectral Data<<<<<
433.946 .0619704
434.870 .0502762
435.793 .0471371
436.715 .0466143
437.635 .0447138
438.555 .0448070
439.473 .0434075
440.389 .0425298
441.305 .0418361
442.219 .0412441
443.132 .0407801
444.044 .0404090
444.954 .0401211
445.863 .0399068
446.771 .0397421
447.678 .0396110
448.584 .0395098
449.488 .0394334
450.391 .0393634
451.293 .0393111
452.194 .0392761
453.094 .0392544
453.992 .0392293
454.890 .0391968
455.786 .0391556
456.681 .0391128
457.575 .0390628
458.468 .0390029
459.360 .0389415
460.250 .0388837
461.140 .0388201
462.028 .0387595
462.915 .0387033
463.801 .0386512
464.687 .0386032
465.571 .0385661
466.454 .0385281
467.335 .0384922
468.216 .0384579
469.096 .0384264
469.975 .0383964
470.853 .0383682
471.729 .0383321
472.605 .0382894
473.479 .0382422
474.353 .0381895
475.226 .0381253
476.097 .0380587
476.968 .0379869
477.838 .0379091
478.706 .0378220
479.574 .0377298
480.441 .0376299
481.306 .0375284
482.171 .0374230
483.035 .0373166
483.898 .0372131
484.760 .0371177
485.621 .0370302
486.481 .0369530
487.340 .0368890
488.198 .0368372
489.055 .0367884
489.912 .0367464
490.767 .0367064
491.622 .0366689
492.476 .0366316
493.329 .0365996
494.180 .0365683
495.032 .0365440
495.882 .0365278
496.731 .0365192
497.580 .0365162
498.427 .0365147
499.274 .0365068
500.120 .0364912
500.965 .0364624
501.809 .0364190
502.653 .0363582
503.495 .0362909
504.337 .0362125
505.178 .0361327
506.018 .0360529
506.858 .0359812
507.696 .0359190
508.534 .0358697
509.371 .0358279
510.208 .0357922
511.043 .0357618
511.878 .0357317
512.712 .0357044
513.545 .0356841
514.377 .0356660
515.209 .0356548
516.040 .0356547
516.870 .0356695
517.699 .0356979
518.528 .0357431
519.356 .0357942
520.183 .0358430
521.010 .0358832
521.836 .0358982
522.661 .0358818
523.485 .0358375
524.309 .0357616
525.132 .0356549
525.954 .0355346
526.776 .0354029
527.597 .0352744
528.417 .0351570
529.237 .0350589
530.056 .0349711
530.874 .0348937
531.692 .0348198
532.508 .0347417
533.325 .0346643
534.140 .0345881
534.955 .0345107
535.770 .0344387
536.583 .0343734
537.397 .0343212
538.209 .0342823
539.021 .0342624
539.832 .0342545
540.643 .0342576
541.453 .0342646
542.262 .0342736
543.071 .0342783
543.879 .0342758
544.687 .0342686
545.494 .0342552
546.300 .0342387
547.106 .0342143
547.911 .0341923
548.716 .0341758
549.520 .0341666
550.323 .0341619
551.126 .0341580
551.929 .0341575
552.731 .0341550
553.532 .0341450
554.332 .0341256
555.133 .0340968
555.932 .0340611
556.731 .0340135
557.530 .0339629
558.328 .0339100
559.125 .0338583
559.922 .0338109
560.719 .0337675
561.515 .0337307
562.310 .0336979
563.105 .0336653
563.899 .0336393
564.693 .0336129
565.487 .0335877
566.280 .0335605
567.072 .0335347
567.864 .0335100
568.655 .0334817
569.446 .0334510
570.236 .0334191
571.026 .0333816
571.816 .0333402
572.605 .0332935
573.393 .0332454
574.181 .0331972
574.969 .0331477
575.756 .0330989
576.543 .0330548
577.329 .0330119
578.115 .0329713
578.900 .0329317
579.685 .0328948
580.469 .0328591
581.253 .0328244
582.036 .0327951
582.820 .0327677
583.602 .0327444
584.384 .0327252
585.166 .0327084
585.947 .0326949
586.728 .0326814
587.509 .0326663
588.289 .0326514
589.069 .0326353
589.848 .0326185
590.627 .0326001
591.405 .0325810
592.183 .0325617
592.961 .0325425
593.738 .0325234
594.515 .0325043
595.291 .0324851
596.067 .0324672
596.843 .0324502
597.618 .0324336
598.393 .0324184
599.167 .0324045
599.941 .0323910
600.715 .0323791
601.488 .0323676
602.261 .0323570
603.034 .0323466
603.806 .0323367
604.578 .0323265
605.349 .0323147
606.121 .0323023
606.891 .0322886
607.662 .0322740
608.432 .0322585
609.201 .0322421
609.971 .0322254
610.740 .0322086
611.508 .0321913
612.277 .0321732
613.045 .0321554
613.812 .0321377
614.579 .0321190
615.346 .0320998
616.113 .0320805
616.879 .0320619
617.645 .0320436
618.411 .0320270
619.176 .0320115
619.941 .0319968
620.705 .0319824
621.470 .0319675
622.233 .0319516
622.997 .0319343
623.760 .0319153
624.523 .0318954
625.286 .0318744
626.048 .0318530
626.810 .0318311
627.572 .0318103
628.333 .0317900
629.095 .0317699
629.855 .0317488
630.616 .0317275
631.376 .0317063
632.136 .0316845
632.895 .0316626
633.655 .0316425
634.414 .0316244
635.172 .0316086
635.931 .0315949
636.689 .0315844
637.447 .0315759
638.204 .0315690
638.962 .0315618
639.718 .0315536
640.475 .0315435
641.231 .0315311
641.988 .0315163
642.743 .0315003
643.499 .0314838
644.254 .0314666
645.009 .0314496
645.764 .0314335
646.518 .0314179
647.272 .0314028
648.026 .0313881
648.780 .0313739
649.533 .0313601
650.286 .0313463
651.039 .0313333
651.792 .0313219
652.544 .0313122
653.296 .0313042
654.048 .0312978
654.799 .0312929
655.550 .0312885
656.301 .0312837
657.052 .0312783
657.802 .0312712
658.552 .0312629
659.302 .0312526
660.052 .0312404
660.801 .0312267
661.550 .0312115
662.299 .0311952
663.048 .0311781
663.796 .0311607
664.544 .0311426
665.292 .0311243
666.040 .0311063
666.787 .0310889
667.534 .0310722
668.281 .0310570
669.028 .0310431
669.774 .0310301
670.521 .0310181
671.266 .0310065
672.012 .0309958
672.758 .0309860
673.503 .0309766
674.248 .0309681
674.992 .0309591
675.737 .0309499
676.481 .0309401
677.225 .0309297
677.969 .0309185
678.712 .0309064
679.455 .0308940
680.199 .0308816
680.941 .0308701
681.684 .0308590
682.426 .0308490
683.168 .0308404
683.910 .0308327
684.652 .0308249
685.393 .0308177
686.134 .0308109
686.875 .0308040
687.616 .0307979
688.356 .0307926
689.097 .0307877
689.837 .0307842
690.576 .0307807
691.316 .0307771
692.055 .0307725
692.794 .0307667
693.533 .0307584
694.272 .0307485
695.010 .0307372
695.748 .0307243
696.486 .0307113
697.224 .0306989
697.962 .0306865
698.699 .0306750
699.436 .0306638
700.173 .0306524
700.909 .0306400
701.646 .0306271
702.382 .0306127
703.118 .0305979
703.853 .0305832
704.589 .0305686
705.324 .0305552
706.059 .0305432
706.794 .0305321
707.529 .0305219
708.263 .0305129
708.997 .0305041
709.731 .0304946
710.465 .0304849
711.198 .0304744
711.931 .0304634
712.664 .0304519
713.397 .0304402
714.130 .0304279
714.862 .0304154
715.594 .0304027
716.326 .0303896
717.058 .0303768
717.789 .0303642
718.520 .0303512
719.251 .0303382
719.982 .0303247
720.713 .0303110
721.443 .0302964
722.173 .0302816
722.903 .0302662
723.633 .0302500
724.362 .0302339
725.091 .0302176
725.820 .0302017
726.549 .0301862
727.278 .0301705
728.006 .0301545
728.734 .0301378
729.462 .0301209
730.190 .0301035
730.917 .0300863
731.644 .0300697
732.371 .0300534
733.098 .0300381
733.825 .0300237
734.551 .0300096
735.277 .0299957
736.003 .0299820
736.728 .0299674
737.454 .0299524
738.179 .0299374
738.904 .0299223
739.629 .0299084
740.353 .0298961
741.077 .0298854
741.801 .0298757
742.525 .0298672
743.249 .0298593
743.972 .0298511
744.695 .0298435
745.418 .0298344
746.141 .0298244
746.863 .0298140
747.585 .0298030
748.307 .0297911
749.029 .0297791
749.750 .0297671
750.472 .0297551
751.193 .0297435
751.913 .0297322
752.634 .0297212
753.354 .0297115
754.074 .0297025
754.794 .0296939
755.514 .0296851
756.233 .0296764
756.952 .0296664
757.671 .0296559
758.390 .0296443
759.108 .0296318
759.826 .0296193
760.544 .0296075
761.262 .0295966
761.979 .0295876
762.697 .0295800
763.414 .0295738
764.130 .0295681
764.847 .0295628
765.563 .0295565
766.279 .0295497
766.995 .0295419
767.710 .0295339
768.426 .0295255
769.141 .0295175
769.855 .0295095
770.570 .0295017
771.284 .0294942
771.998 .0294861
772.712 .0294772
773.426 .0294677
774.139 .0294565
774.852 .0294441
775.565 .0294300
776.277 .0294146
776.990 .0293976
777.702 .0293793
778.414 .0293606
779.125 .0293412
779.836 .0293217
780.547 .0293024
781.258 .0292839
781.969 .0292667
782.679 .0292508
783.389 .0292359
784.099 .0292220
784.808 .0292091
785.517 .0291969
786.226 .0291851
786.935 .0291738
787.643 .0291632
788.352 .0291529
789.060 .0291432
789.767 .0291341
790.475 .0291245
791.182 .0291153
791.889 .0291064
792.595 .0290976
793.301 .0290887
794.008 .0290799
794.713 .0290719
795.419 .0290648
796.124 .0290584
796.829 .0290521
797.534 .0290461
798.238 .0290402
798.942 .0290332
799.646 .0290253
800.350 .0290167
801.053 .0290075
801.756 .0289979
802.459 .0289881
803.162 .0289780
803.864 .0289680
804.566 .0289575
805.267 .0289462
805.969 .0289349
806.670 .0289229
807.371 .0289104
808.071 .0288981
808.772 .0288862
809.472 .0288740
810.171 .0288624
810.871 .0288519
811.570 .0288422
812.269 .0288338
812.967 .0288257
813.666 .0288175
814.364 .0288097
815.061 .0288021
815.759 .0287940
816.456 .0287860
817.153 .0287782
817.849 .0287693
818.545 .0287600
819.241 .0287501
819.937 .0287394
820.632 .0287280
821.327 .0287165
822.022 .0287042
822.717 .0286911
823.411 .0286781
824.105 .0286650
824.798 .0286526
825.491 .0286410
826.184 .0286300
826.877 .0286192
827.569 .0286093
828.261 .0285997
828.953 .0285902
829.645 .0285812
830.336 .0285724
831.027 .0285632
831.717 .0285542
832.407 .0285453
833.097 .0285368
833.787 .0285283
834.476 .0285207
835.165 .0285131
835.854 .0285056
836.542 .0284983
837.230 .0284910
837.918 .0284832
838.605 .0284750
839.292 .0284658
839.979 .0284562
840.665 .0284462
841.352 .0284361
842.037 .0284256
842.723 .0284151
843.408 .0284042
844.093 .0283926
844.777 .0283802
845.462 .0283671
846.145 .0283526
846.829 .0283360
847.512 .0283184
848.195 .0282997
848.878 .0282802
849.560 .0282607
850.242 .0282416
850.923 .0282226
851.605 .0282032
852.286 .0281833
852.966 .0281632
853.646 .0281428
854.326 .0281226
855.006 .0281024
855.685 .0280825
856.364 .0280633
857.043 .0280445
857.721 .0280267
858.399 .0280107
859.077 .0279947
859.754 .0279791
860.431 .0279633
861.107 .0279475
861.784 .0279311
862.459 .0279147
863.135 .0278987
863.810 .0278827
864.485 .0278664
865.160 .0278507
865.834 .0278354
866.508 .0278213
867.181 .0278080
867.854 .0277953
868.527 .0277836
869.199 .0277727
869.872 .0277627
870.543 .0277541
871.215 .0277464
871.886 .0277398
872.557 .0277337
873.227 .0277282
873.897 .0277228
874.567 .0277175
875.236 .0277124
875.905 .0277078
876.573 .0277027
877.242 .0276973
877.909 .0276915
878.577 .0276856
879.244 .0276789
879.911 .0276714
880.577 .0276631
881.243 .0276538
881.909 .0276437
882.575 .0276327
883.240 .0276205
883.904 .0276079
884.569 .0275947
885.232 .0275817
885.896 .0275689
886.559 .0275570
887.222 .0275459
887.885 .0275366
888.547 .0275285
889.208 .0275211
889.870 .0275148
890.531 .0275100
891.192 .0275062
891.852 .0275035
892.512 .0275015
893.171 .0275008
893.830 .0275013
894.489 .0275030
895.148 .0275054
895.806 .0275086
896.464 .0275125
897.121 .0275169
897.778 .0275214
898.434 .0275262
899.091 .0275306
899.747 .0275344
900.402 .0275378
901.057 .0275401
901.712 .0275415
902.366 .0275416
903.020 .0275410
903.674 .0275398
904.327 .0275372
904.980 .0275335
905.633 .0275286
906.285 .0275226
906.936 .0275153
907.588 .0275060
908.239 .0274951
908.889 .0274829
909.540 .0274690
910.190 .0274538
910.839 .0274378
911.488 .0274218
912.137 .0274061
912.785 .0273903
913.433 .0273750
914.081 .0273598
914.728 .0273446
915.375 .0273294
916.021 .0273140
916.668 .0272989
917.313 .0272841
917.959 .0272696
918.604 .0272559
919.248 .0272422
919.892 .0272286
920.536 .0272147
921.180 .0272004
921.823 .0271852
922.465 .0271686
923.108 .0271510
923.750 .0271330
924.391 .0271142
925.032 .0270949
925.673 .0270747
926.313 .0270542
926.953 .0270325
927.593 .0270095
928.232 .0269851
928.871 .0269599
929.510 .0269343
930.148 .0269086
930.786 .0268826
931.423 .0268576
932.060 .0268331
932.697 .0268094
933.333 .0267857
933.969 .0267622
934.604 .0267380
935.239 .0267133
935.874 .0266878
936.508 .0266626
937.142 .0266377
937.776 .0266146
938.409 .0265924
939.042 .0265721
939.674 .0265532
940.306 .0265356
940.938 .0265186
941.569 .0265024
942.200 .0264860
942.830 .0264694
943.460 .0264524
944.090 .0264349
944.720 .0264166
945.349 .0263983
945.977 .0263802
946.606 .0263624
947.233 .0263446
947.861 .0263272
948.488 .0263095
949.115 .0262921
949.741 .0262745
950.367 .0262564
950.993 .0262377
951.618 .0262196
952.243 .0262022
952.868 .0261855
953.492 .0261702
954.115 .0261566
954.739 .0261443
955.362 .0261334
955.984 .0261231
956.607 .0261125
957.229 .0261019
957.850 .0260917
958.471 .0260805
959.092 .0260694
959.713 .0260584
960.333 .0260472
960.952 .0260368
961.572 .0260268
962.191 .0260166
962.809 .0260061
963.428 .0259961
964.045 .0259863
964.663 .0259763
965.280 .0259672
965.897 .0259588
966.513 .0259512
967.129 .0259452
967.745 .0259397
968.361 .0259349
968.976 .0259313
969.590 .0259289
970.205 .0259272
970.818 .0259267
971.432 .0259276
972.045 .0259294
972.658 .0259327
973.271 .0259368
973.883 .0259408
974.495 .0259444
975.106 .0259482
975.717 .0259516
976.328 .0259546
976.938 .0259576
977.548 .0259609
978.158 .0259648
978.768 .0259693
979.377 .0259736
979.985 .0259775
980.594 .0259813
981.202 .0259848
981.809 .0259867
982.417 .0259885
983.024 .0259904
983.631 .0259931
984.237 .0259961
984.843 .0259995
985.449 .0260029
986.054 .0260065
986.659 .0260101
987.264 .0260131
987.868 .0260158
988.472 .0260196
989.076 .0260237
989.679 .0260285
990.282 .0260336
990.885 .0260394
991.487 .0260442
992.090 .0260487
992.691 .0260514
993.293 .0260526
993.894 .0260524
994.495 .0260520
995.095 .0260508
995.696 .0260494
996.296 .0260477
996.895 .0260461
997.494 .0260441
998.093 .0260421
998.692 .0260386
999.291 .0260348
999.889 .0260304
1000.487 .0260249
1001.084 .0260185
1001.681 .0260120
1002.278 .0260055
1002.875 .0259992
1003.471 .0259922
1004.067 .0259847
1004.663 .0259769
1005.258 .0259693
1005.854 .0259608
1006.449 .0259515
1007.043 .0259419
1007.638 .0259314
1008.232 .0259203
1008.826 .0259088
1009.419 .0258966
1010.012 .0258840
1010.605 .0258720
1011.198 .0258594
1011.791 .0258473
1012.383 .0258354
1012.975 .0258242
1013.566 .0258140
1014.158 .0258047
1014.749 .0257959
1015.340 .0257876
1015.931 .0257802
1016.521 .0257733
1017.111 .0257662
1017.701 .0257607
1018.291 .0257553
1018.880 .0257506
1019.470 .0257461
1020.059 .0257420
1020.647 .0257386
1021.236 .0257358
1021.824 .0257324
1022.412 .0257293
1023.000 .0257258
1023.588 .0257214
1024.175 .0257151
1024.762 .0257076
1025.349 .0256985
1025.936 .0256885
1026.523 .0256772
1027.109 .0256645
1027.695 .0256507
1028.281 .0256361
1028.867 .0256198
1029.452 .0256025
1030.038 .0255838
1030.623 .0255635
1031.208 .0255424
1031.792 .0255220
1032.377 .0255013
1032.961 .0254828
1033.546 .0254673
1034.130 .0254552
1034.714 .0254466
1035.297 .0254411
1035.881 .0254376
1036.464 .0254357
1037.047 .0254350
1037.630 .0254338
1038.213 .0254327
1038.796 .0254328
1039.378 .0254346
1039.961 .0254380
1040.543 .0254430
1041.125 .0254487
1041.707 .0254543
1042.289 .0254585
1042.871 .0254596
1043.452 .0254559
1044.034 .0254475
1044.615 .0254339
1045.196 .0254164
1045.777 .0253961
1046.358 .0253758
1046.939 .0253567
1047.520 .0253392
1048.101 .0253237
1048.681 .0253096
1049.262 .0252964
1049.842 .0252836
1050.422 .0252709
1051.002 .0252581
1051.582 .0252455
1052.162 .0252342
1052.742 .0252236
1053.322 .0252160
1053.902 .0252117
1054.482 .0252099
1055.061 .0252108
1055.641 .0252133
1056.220 .0252169
1056.800 .0252205
1057.379 .0252244
1057.958 .0252273
1058.538 .0252296
1059.117 .0252312
1059.696 .0252322
1060.275 .0252333
1060.854 .0252353
1061.433 .0252384
1062.012 .0252431
1062.592 .0252502
1063.171 .0252592
1063.750 .0252691
1064.329 .0252804
1064.908 .0252929
1065.487 .0253055
1066.066 .0253166
1066.645 .0253262
1067.224 .0253343
1067.803 .0253406
1068.382 .0253441
1068.961 .0253454
1069.540 .0253452
1070.119 .0253423
1070.698 .0253390
1071.278 .0253341
1071.857 .0253291
1072.436 .0253249
1073.016 .0253204
1073.595 .0253161
1074.175 .0253122
1074.754 .0253073
1075.334 .0253028
1075.913 .0253000
1076.493 .0252996
1077.073 .0253004
1077.653 .0253055
1078.233 .0253173
1078.813 .0253338
1079.393 .0253566
1079.974 .0253849
1080.554 .0254142
1081.135 .0254445
1081.716 .0254716
1082.296 .0254942
1082.877 .0255132
1083.458 .0255291
1084.040 .0255427
1084.621 .0255547
1085.202 .0255688
1085.784 .0255829
1086.366 .0255980
1086.948 .0256159
1087.530 .0256329
1088.112 .0256455
1088.695 .0256539
1089.277 .0256562
1089.860 .0256523
1090.443 .0256447
1091.026 .0256346
1091.610 .0256238
1092.193 .0256153
1092.777 .0256095
1093.361 .0256056
1093.946 .0256027
1094.530 .0256021
1095.115 .0255988
1095.700 .0255936
1096.285 .0255838
1096.871 .0255693
1097.456 .0255525
1098.042 .0255360
1098.628 .0255213
1099.215 .0255101
1099.802 .0255059
1100.389 .0255090
1100.976 .0255173
1101.564 .0255309
1102.152 .0255444
1102.740 .0255585
1103.329 .0255719
1103.917 .0255836
1104.507 .0255924
1105.096 .0256000
1105.686 .0256092
1106.276 .0256212
1106.867 .0256367
1107.457 .0256545
1108.049 .0256746
1108.640 .0256962
1109.232 .0257151
1109.825 .0257311
1110.417 .0257443
1111.010 .0257559
1111.604 .0257648
1112.198 .0257726
1112.792 .0257776
1113.387 .0257802
1113.982 .0257825
1114.577 .0257846
1115.173 .0257881
1115.769 .0257895
1116.366 .0257888
1116.963 .0257878
1117.561 .0257841
1118.159 .0257803
1118.758 .0257743
1119.357 .0257707
1119.957 .0257680
1120.557 .0257659
1121.157 .0257630
1121.758 .0257606
1122.360 .0257599
1122.962 .0257566
1123.564 .0257520
1124.167 .0257500
1124.771 .0257486
1125.375 .0257503
1125.980 .0257596
1126.585 .0257786
1127.191 .0258038
1127.797 .0258409
1128.404 .0258842
1129.012 .0259351
1129.620 .0259913
1130.229 .0260482
1130.838 .0261040
1131.448 .0261584
1132.058 .0262120
1132.669 .0262594
1133.281 .0263081
1133.894 .0263579
1134.507 .0264010
1135.120 .0264417
1135.735 .0264808
1136.350 .0265134
1136.965 .0265394
1137.582 .0265584
1138.199 .0265688
1138.816 .0265702
1139.435 .0265687
1140.054 .0265616
1140.674 .0265504
1141.294 .0265499
1141.916 .0265529
1142.538 .0265319
1143.160 .0265355
1143.784 .0264447
1144.408 .0267480
1145.033 .0267121
