Measurement Sequence started on: 14-45-04-498
Integration time: 36
Scans to Average: 2 
>>>>>Begin Spectral Data<<<<<
433.946 .0539740
434.870 .0519666
435.793 .0473070
436.715 .0452115
437.635 .0453474
438.555 .0458414
439.473 .0451634
440.389 .0447028
441.305 .0444550
442.219 .0442794
443.132 .0441184
444.044 .0439875
444.954 .0439062
445.863 .0438367
446.771 .0437895
447.678 .0437532
448.584 .0437278
449.488 .0436897
450.391 .0436313
451.293 .0435562
452.194 .0434774
453.094 .0433863
453.992 .0432920
454.890 .0431987
455.786 .0431154
456.681 .0430425
457.575 .0429806
458.468 .0429300
459.360 .0428825
460.250 .0428397
461.140 .0427924
462.028 .0427433
462.915 .0426922
463.801 .0426311
464.687 .0425717
465.571 .0425148
466.454 .0424630
467.335 .0424187
468.216 .0423794
469.096 .0423432
469.975 .0423081
470.853 .0422711
471.729 .0422239
472.605 .0421674
473.479 .0421084
474.353 .0420459
475.226 .0419792
476.097 .0419145
476.968 .0418534
477.838 .0417971
478.706 .0417527
479.574 .0417074
480.441 .0416609
481.306 .0416133
482.171 .0415594
483.035 .0414972
483.898 .0414351
484.760 .0413779
485.621 .0413247
486.481 .0412795
487.340 .0412468
488.198 .0412214
489.055 .0412047
489.912 .0411942
490.767 .0411846
491.622 .0411750
492.476 .0411608
493.329 .0411388
494.180 .0411165
495.032 .0410985
495.882 .0410842
496.731 .0410740
497.580 .0410716
498.427 .0410723
499.274 .0410702
500.120 .0410636
500.965 .0410526
501.809 .0410344
502.653 .0410025
503.495 .0409625
504.337 .0409123
505.178 .0408555
506.018 .0407907
506.858 .0407193
507.696 .0406474
508.534 .0405711
509.371 .0404901
510.208 .0404029
511.043 .0403156
511.878 .0402289
512.712 .0401407
513.545 .0400506
514.377 .0399577
515.209 .0398571
516.040 .0397559
516.870 .0396540
517.699 .0395544
518.528 .0394652
519.356 .0393912
520.183 .0393321
521.010 .0392955
521.836 .0392718
522.661 .0392680
523.485 .0392751
524.309 .0392872
525.132 .0392945
525.954 .0393005
526.776 .0392979
527.597 .0392874
528.417 .0392730
529.237 .0392615
530.056 .0392396
530.874 .0392124
531.692 .0391746
532.508 .0391193
533.325 .0390482
534.140 .0389534
534.955 .0388328
535.770 .0386988
536.583 .0385492
537.397 .0383912
538.209 .0382410
539.021 .0381107
539.832 .0379977
540.643 .0379044
541.453 .0378336
542.262 .0377785
543.071 .0377363
543.879 .0377095
544.687 .0376915
545.494 .0376801
546.300 .0376716
547.106 .0376564
547.911 .0376399
548.716 .0376263
549.520 .0376045
550.323 .0375834
551.126 .0375628
551.929 .0375407
552.731 .0375139
553.532 .0374867
554.332 .0374560
555.133 .0374234
555.932 .0373860
556.731 .0373424
557.530 .0372907
558.328 .0372423
559.125 .0371939
559.922 .0371514
560.719 .0371215
561.515 .0371024
562.310 .0370902
563.105 .0370902
563.899 .0370952
564.693 .0371038
565.487 .0371125
566.280 .0371161
567.072 .0371091
567.864 .0370914
568.655 .0370646
569.446 .0370288
570.236 .0369871
571.026 .0369403
571.816 .0368876
572.605 .0368313
573.393 .0367712
574.181 .0367063
574.969 .0366404
575.756 .0365737
576.543 .0365087
577.329 .0364450
578.115 .0363855
578.900 .0363315
579.685 .0362845
580.469 .0362440
581.253 .0362101
582.036 .0361809
582.820 .0361570
583.602 .0361379
584.384 .0361226
585.166 .0361089
585.947 .0360960
586.728 .0360824
587.509 .0360661
588.289 .0360455
589.069 .0360206
589.848 .0359915
590.627 .0359589
591.405 .0359237
592.183 .0358867
592.961 .0358500
593.738 .0358144
594.515 .0357806
595.291 .0357489
596.067 .0357188
596.843 .0356896
597.618 .0356609
598.393 .0356320
599.167 .0356035
599.941 .0355748
600.715 .0355469
601.488 .0355203
602.261 .0354950
603.034 .0354714
603.806 .0354486
604.578 .0354267
605.349 .0354050
606.121 .0353833
606.891 .0353621
607.662 .0353405
608.432 .0353186
609.201 .0352970
609.971 .0352753
610.740 .0352534
611.508 .0352311
612.277 .0352080
613.045 .0351832
613.812 .0351573
614.579 .0351301
615.346 .0351023
616.113 .0350748
616.879 .0350484
617.645 .0350231
618.411 .0350000
619.176 .0349779
619.941 .0349558
620.705 .0349334
621.470 .0349098
622.233 .0348843
622.997 .0348572
623.760 .0348284
624.523 .0347991
625.286 .0347699
626.048 .0347424
626.810 .0347158
627.572 .0346909
628.333 .0346673
629.095 .0346438
629.855 .0346203
630.616 .0345957
631.376 .0345694
632.136 .0345419
632.895 .0345131
633.655 .0344841
634.414 .0344549
635.172 .0344273
635.931 .0344014
636.689 .0343774
637.447 .0343556
638.204 .0343346
638.962 .0343140
639.718 .0342938
640.475 .0342726
641.231 .0342496
641.988 .0342247
642.743 .0341982
643.499 .0341702
644.254 .0341416
645.009 .0341131
645.764 .0340850
646.518 .0340582
647.272 .0340332
648.026 .0340087
648.780 .0339851
649.533 .0339622
650.286 .0339395
651.039 .0339175
651.792 .0338959
652.544 .0338751
653.296 .0338553
654.048 .0338379
654.799 .0338224
655.550 .0338082
656.301 .0337956
657.052 .0337841
657.802 .0337734
658.552 .0337626
659.302 .0337513
660.052 .0337394
660.801 .0337264
661.550 .0337122
662.299 .0336965
663.048 .0336794
663.796 .0336611
664.544 .0336422
665.292 .0336229
666.040 .0336038
666.787 .0335850
667.534 .0335671
668.281 .0335505
669.028 .0335349
669.774 .0335196
670.521 .0335040
671.266 .0334888
672.012 .0334734
672.758 .0334571
673.503 .0334400
674.248 .0334223
674.992 .0334046
675.737 .0333862
676.481 .0333679
677.225 .0333491
677.969 .0333301
678.712 .0333106
679.455 .0332903
680.199 .0332695
680.941 .0332479
681.684 .0332261
682.426 .0332042
683.168 .0331827
683.910 .0331616
684.652 .0331408
685.393 .0331211
686.134 .0331030
686.875 .0330860
687.616 .0330704
688.356 .0330567
689.097 .0330447
689.837 .0330340
690.576 .0330244
691.316 .0330153
692.055 .0330069
692.794 .0329981
693.533 .0329889
694.272 .0329792
695.010 .0329693
695.748 .0329590
696.486 .0329484
697.224 .0329380
697.962 .0329274
698.699 .0329164
699.436 .0329049
700.173 .0328929
700.909 .0328802
701.646 .0328666
702.382 .0328521
703.118 .0328369
703.853 .0328210
704.589 .0328049
705.324 .0327890
706.059 .0327735
706.794 .0327578
707.529 .0327419
708.263 .0327257
708.997 .0327092
709.731 .0326923
710.465 .0326749
711.198 .0326576
711.931 .0326406
712.664 .0326235
713.397 .0326070
714.130 .0325909
714.862 .0325754
715.594 .0325601
716.326 .0325448
717.058 .0325288
717.789 .0325122
718.520 .0324951
719.251 .0324778
719.982 .0324604
720.713 .0324438
721.443 .0324278
722.173 .0324130
722.903 .0323996
723.633 .0323871
724.362 .0323754
725.091 .0323643
725.820 .0323534
726.549 .0323423
727.278 .0323309
728.006 .0323192
728.734 .0323072
729.462 .0322952
730.190 .0322836
730.917 .0322721
731.644 .0322612
732.371 .0322509
733.098 .0322413
733.825 .0322322
734.551 .0322233
735.277 .0322147
736.003 .0322063
736.728 .0321978
737.454 .0321888
738.179 .0321796
738.904 .0321704
739.629 .0321612
740.353 .0321524
741.077 .0321443
741.801 .0321371
742.525 .0321302
743.249 .0321235
743.972 .0321166
744.695 .0321097
745.418 .0321018
746.141 .0320925
746.863 .0320819
747.585 .0320708
748.307 .0320584
749.029 .0320455
749.750 .0320324
750.472 .0320192
751.193 .0320059
751.913 .0319925
752.634 .0319786
753.354 .0319646
754.074 .0319504
754.794 .0319358
755.514 .0319209
756.233 .0319066
756.952 .0318921
757.671 .0318779
758.390 .0318639
759.108 .0318499
759.826 .0318352
760.544 .0318205
761.262 .0318055
761.979 .0317904
762.697 .0317755
763.414 .0317607
764.130 .0317468
764.847 .0317337
765.563 .0317215
766.279 .0317104
766.995 .0316999
767.710 .0316904
768.426 .0316813
769.141 .0316727
769.855 .0316649
770.570 .0316576
771.284 .0316511
771.998 .0316450
772.712 .0316394
773.426 .0316342
774.139 .0316294
774.852 .0316249
775.565 .0316205
776.277 .0316166
776.990 .0316136
777.702 .0316111
778.414 .0316094
779.125 .0316088
779.836 .0316086
780.547 .0316086
781.258 .0316088
781.969 .0316081
782.679 .0316076
783.389 .0316063
784.099 .0316047
784.808 .0316027
785.517 .0316010
786.226 .0315995
786.935 .0315979
787.643 .0315963
788.352 .0315946
789.060 .0315917
789.767 .0315879
790.475 .0315818
791.182 .0315739
791.889 .0315636
792.595 .0315513
793.301 .0315368
794.008 .0315211
794.713 .0315041
795.419 .0314863
796.124 .0314678
796.829 .0314484
797.534 .0314284
798.238 .0314078
798.942 .0313866
799.646 .0313656
800.350 .0313445
801.053 .0313237
801.756 .0313035
802.459 .0312845
803.162 .0312663
803.864 .0312497
804.566 .0312345
805.267 .0312206
805.969 .0312081
806.670 .0311969
807.371 .0311870
808.071 .0311785
808.772 .0311717
809.472 .0311654
810.171 .0311600
810.871 .0311556
811.570 .0311514
812.269 .0311479
812.967 .0311443
813.666 .0311407
814.364 .0311369
815.061 .0311328
815.759 .0311287
816.456 .0311243
817.153 .0311200
817.849 .0311154
818.545 .0311108
819.241 .0311063
819.937 .0311015
820.632 .0310964
821.327 .0310911
822.022 .0310855
822.717 .0310798
823.411 .0310737
824.105 .0310676
824.798 .0310616
825.491 .0310559
826.184 .0310501
826.877 .0310448
827.569 .0310394
828.261 .0310339
828.953 .0310279
829.645 .0310216
830.336 .0310143
831.027 .0310068
831.717 .0309990
832.407 .0309914
833.097 .0309841
833.787 .0309768
834.476 .0309690
835.165 .0309613
835.854 .0309528
836.542 .0309439
837.230 .0309341
837.918 .0309241
838.605 .0309133
839.292 .0309025
839.979 .0308914
840.665 .0308805
841.352 .0308697
842.037 .0308592
842.723 .0308482
843.408 .0308369
844.093 .0308242
844.777 .0308106
845.462 .0307956
846.145 .0307793
846.829 .0307611
847.512 .0307417
848.195 .0307209
848.878 .0306992
849.560 .0306771
850.242 .0306549
850.923 .0306325
851.605 .0306101
852.286 .0305875
852.966 .0305648
853.646 .0305419
854.326 .0305190
855.006 .0304960
855.685 .0304741
856.364 .0304528
857.043 .0304324
857.721 .0304133
858.399 .0303961
859.077 .0303800
859.754 .0303652
860.431 .0303507
861.107 .0303363
861.784 .0303219
862.459 .0303079
863.135 .0302942
863.810 .0302813
864.485 .0302692
865.160 .0302585
865.834 .0302492
866.508 .0302413
867.181 .0302342
867.854 .0302284
868.527 .0302232
869.199 .0302179
869.872 .0302126
870.543 .0302074
871.215 .0302023
871.886 .0301980
872.557 .0301945
873.227 .0301915
873.897 .0301895
874.567 .0301889
875.236 .0301894
875.905 .0301908
876.573 .0301930
877.242 .0301953
877.909 .0301978
878.577 .0302005
879.244 .0302022
879.911 .0302031
880.577 .0302037
881.243 .0302035
881.909 .0302026
882.575 .0302014
883.240 .0302000
883.904 .0301986
884.569 .0301972
885.232 .0301950
885.896 .0301916
886.559 .0301873
887.222 .0301817
887.885 .0301743
888.547 .0301658
889.208 .0301561
889.870 .0301457
890.531 .0301353
891.192 .0301252
891.852 .0301154
892.512 .0301060
893.171 .0300964
893.830 .0300861
894.489 .0300752
895.148 .0300626
895.806 .0300490
896.464 .0300346
897.121 .0300197
897.778 .0300042
898.434 .0299887
899.091 .0299731
899.747 .0299575
900.402 .0299419
901.057 .0299254
901.712 .0299073
902.366 .0298885
903.020 .0298682
903.674 .0298469
904.327 .0298252
904.980 .0298036
905.633 .0297817
906.285 .0297603
906.936 .0297392
907.588 .0297180
908.239 .0296965
908.889 .0296750
909.540 .0296525
910.190 .0296294
910.839 .0296059
911.488 .0295821
912.137 .0295584
912.785 .0295356
913.433 .0295134
914.081 .0294920
914.728 .0294722
915.375 .0294535
916.021 .0294358
916.668 .0294198
917.313 .0294050
917.959 .0293908
918.604 .0293775
919.248 .0293648
919.892 .0293524
920.536 .0293399
921.180 .0293274
921.823 .0293145
922.465 .0293012
923.108 .0292875
923.750 .0292737
924.391 .0292597
925.032 .0292463
925.673 .0292328
926.313 .0292197
926.953 .0292068
927.593 .0291942
928.232 .0291819
928.871 .0291701
929.510 .0291590
930.148 .0291484
930.786 .0291388
931.423 .0291307
932.060 .0291244
932.697 .0291195
933.333 .0291158
933.969 .0291130
934.604 .0291110
935.239 .0291092
935.874 .0291070
936.508 .0291049
937.142 .0291026
937.776 .0291003
938.409 .0290972
939.042 .0290931
939.674 .0290883
940.306 .0290828
940.938 .0290764
941.569 .0290686
942.200 .0290603
942.830 .0290513
943.460 .0290416
944.090 .0290312
944.720 .0290197
945.349 .0290077
945.977 .0289952
946.606 .0289821
947.233 .0289679
947.861 .0289531
948.488 .0289380
949.115 .0289227
949.741 .0289081
950.367 .0288937
950.993 .0288795
951.618 .0288656
952.243 .0288515
952.868 .0288366
953.492 .0288210
954.115 .0288048
954.739 .0287877
955.362 .0287705
955.984 .0287527
956.607 .0287346
957.229 .0287166
957.850 .0286991
958.471 .0286812
959.092 .0286623
959.713 .0286424
960.333 .0286209
960.952 .0285982
961.572 .0285745
962.191 .0285498
962.809 .0285248
963.428 .0285000
964.045 .0284752
964.663 .0284513
965.280 .0284288
965.897 .0284072
966.513 .0283865
967.129 .0283664
967.745 .0283466
968.361 .0283264
968.976 .0283057
969.590 .0282849
970.205 .0282642
970.818 .0282441
971.432 .0282243
972.045 .0282056
972.658 .0281883
973.271 .0281717
973.883 .0281553
974.495 .0281387
975.106 .0281206
975.717 .0281015
976.328 .0280810
976.938 .0280596
977.548 .0280381
978.158 .0280172
978.768 .0279977
979.377 .0279797
979.985 .0279631
980.594 .0279480
981.202 .0279338
981.809 .0279206
982.417 .0279076
983.024 .0278951
983.631 .0278837
984.237 .0278730
984.843 .0278632
985.449 .0278543
986.054 .0278458
986.659 .0278376
987.264 .0278294
987.868 .0278210
988.472 .0278127
989.076 .0278040
989.679 .0277962
990.282 .0277884
990.885 .0277811
991.487 .0277745
992.090 .0277680
992.691 .0277618
993.293 .0277558
993.894 .0277506
994.495 .0277468
995.095 .0277446
995.696 .0277444
996.296 .0277453
996.895 .0277481
997.494 .0277518
998.093 .0277561
998.692 .0277607
999.291 .0277657
999.889 .0277706
1000.487 .0277756
1001.084 .0277812
1001.681 .0277877
1002.278 .0277947
1002.875 .0278031
1003.471 .0278121
1004.067 .0278217
1004.663 .0278315
1005.258 .0278415
1005.854 .0278512
1006.449 .0278615
1007.043 .0278721
1007.638 .0278831
1008.232 .0278950
1008.826 .0279088
1009.419 .0279237
1010.012 .0279398
1010.605 .0279569
1011.198 .0279743
1011.791 .0279906
1012.383 .0280065
1012.975 .0280205
1013.566 .0280330
1014.158 .0280435
1014.749 .0280527
1015.340 .0280610
1015.931 .0280698
1016.521 .0280794
1017.111 .0280895
1017.701 .0281005
1018.291 .0281119
1018.880 .0281218
1019.470 .0281301
1020.059 .0281368
1020.647 .0281419
1021.236 .0281451
1021.824 .0281476
1022.412 .0281491
1023.000 .0281504
1023.588 .0281520
1024.175 .0281534
1024.762 .0281547
1025.349 .0281552
1025.936 .0281546
1026.523 .0281529
1027.109 .0281504
1027.695 .0281474
1028.281 .0281442
1028.867 .0281418
1029.452 .0281402
1030.038 .0281389
1030.623 .0281374
1031.208 .0281360
1031.792 .0281348
1032.377 .0281331
1032.961 .0281307
1033.546 .0281278
1034.130 .0281246
1034.714 .0281203
1035.297 .0281154
1035.881 .0281091
1036.464 .0281012
1037.047 .0280920
1037.630 .0280802
1038.213 .0280667
1038.796 .0280520
1039.378 .0280368
1039.961 .0280218
1040.543 .0280074
1041.125 .0279933
1041.707 .0279784
1042.289 .0279625
1042.871 .0279455
1043.452 .0279260
1044.034 .0279050
1044.615 .0278829
1045.196 .0278609
1045.777 .0278402
1046.358 .0278206
1046.939 .0278017
1047.520 .0277847
1048.101 .0277679
1048.681 .0277503
1049.262 .0277315
1049.842 .0277116
1050.422 .0276903
1051.002 .0276677
1051.582 .0276449
1052.162 .0276240
1052.742 .0276049
1053.322 .0275890
1053.902 .0275745
1054.482 .0275617
1055.061 .0275496
1055.641 .0275372
1056.220 .0275255
1056.800 .0275154
1057.379 .0275062
1057.958 .0274990
1058.538 .0274931
1059.117 .0274899
1059.696 .0274880
1060.275 .0274874
1060.854 .0274873
1061.433 .0274863
1062.012 .0274827
1062.592 .0274780
1063.171 .0274717
1063.750 .0274658
1064.329 .0274601
1064.908 .0274543
1065.487 .0274473
1066.066 .0274379
1066.645 .0274251
1067.224 .0274094
1067.803 .0273908
1068.382 .0273709
1068.961 .0273497
1069.540 .0273297
1070.119 .0273116
1070.698 .0272968
1071.278 .0272873
1071.857 .0272823
1072.436 .0272804
1073.016 .0272810
1073.595 .0272829
1074.175 .0272865
1074.754 .0272915
1075.334 .0272974
1075.913 .0273053
1076.493 .0273158
1077.073 .0273272
1077.653 .0273387
1078.233 .0273511
1078.813 .0273633
1079.393 .0273740
1079.974 .0273842
1080.554 .0273933
1081.135 .0274006
1081.716 .0274085
1082.296 .0274166
1082.877 .0274248
1083.458 .0274338
1084.040 .0274428
1084.621 .0274507
1085.202 .0274590
1085.784 .0274686
1086.366 .0274778
1086.948 .0274888
1087.530 .0275034
1088.112 .0275199
1088.695 .0275377
1089.277 .0275563
1089.860 .0275751
1090.443 .0275919
1091.026 .0276071
1091.610 .0276195
1092.193 .0276295
1092.777 .0276381
1093.361 .0276477
1093.946 .0276564
1094.530 .0276672
1095.115 .0276800
1095.700 .0276941
1096.285 .0277092
1096.871 .0277261
1097.456 .0277421
1098.042 .0277566
1098.628 .0277697
1099.215 .0277815
1099.802 .0277913
1100.389 .0278010
1100.976 .0278105
1101.564 .0278217
1102.152 .0278342
1102.740 .0278478
1103.329 .0278614
1103.917 .0278764
1104.507 .0278911
1105.096 .0279037
1105.686 .0279143
1106.276 .0279214
1106.867 .0279260
1107.457 .0279271
1108.049 .0279266
1108.640 .0279246
1109.232 .0279214
1109.825 .0279164
1110.417 .0279111
1111.010 .0279045
1111.604 .0278963
1112.198 .0278885
1112.792 .0278839
1113.387 .0278814
1113.982 .0278827
1114.577 .0278891
1115.173 .0279014
1115.769 .0279178
1116.366 .0279386
1116.963 .0279593
1117.561 .0279820
1118.159 .0280020
1118.758 .0280187
1119.357 .0280320
1119.957 .0280431
1120.557 .0280521
1121.157 .0280594
1121.758 .0280659
1122.360 .0280696
1122.962 .0280697
1123.564 .0280652
1124.167 .0280573
1124.771 .0280462
1125.375 .0280294
1125.980 .0280100
1126.585 .0279901
1127.191 .0279715
1127.797 .0279543
1128.404 .0279438
1129.012 .0279425
1129.620 .0279511
1130.229 .0279676
1130.838 .0279869
1131.448 .0280105
1132.058 .0280325
1132.669 .0280505
1133.281 .0280645
1133.894 .0280780
1134.507 .0280910
1135.120 .0281030
1135.735 .0281188
1136.350 .0281399
1136.965 .0281682
1137.582 .0282013
1138.199 .0282331
1138.816 .0282610
1139.435 .0282915
1140.054 .0283286
1140.674 .0283675
1141.294 .0284020
1141.916 .0284651
1142.538 .0285057
1143.160 .0287421
1143.784 .0287234
1144.408 .0283793
1145.033 .0292067
