Measurement Sequence started on: 14-45-04-498
Integration time: 36
Scans to Average: 2 
>>>>>Begin Spectral Data<<<<<
433.946 .0347660
434.870 .0448576
435.793 .0470742
436.715 .0492341
437.635 .0466269
438.555 .0462864
439.473 .0465937
440.389 .0464862
441.305 .0463160
442.219 .0461227
443.132 .0460288
444.044 .0459473
444.954 .0459080
445.863 .0458798
446.771 .0458874
447.678 .0459029
448.584 .0459421
449.488 .0459716
450.391 .0459815
451.293 .0459790
452.194 .0459611
453.094 .0459291
453.992 .0458923
454.890 .0458534
455.786 .0458286
456.681 .0458160
457.575 .0458171
458.468 .0458133
459.360 .0458049
460.250 .0457918
461.140 .0457460
462.028 .0456871
462.915 .0456129
463.801 .0455292
464.687 .0454443
465.571 .0453648
466.454 .0452951
467.335 .0452300
468.216 .0451711
469.096 .0451161
469.975 .0450561
470.853 .0449923
471.729 .0449139
472.605 .0448284
473.479 .0447355
474.353 .0446468
475.226 .0445579
476.097 .0444788
476.968 .0444063
477.838 .0443387
478.706 .0442713
479.574 .0442043
480.441 .0441329
481.306 .0440525
482.171 .0439651
483.035 .0438729
483.898 .0437756
484.760 .0436778
485.621 .0435798
486.481 .0434890
487.340 .0433976
488.198 .0433122
489.055 .0432287
489.912 .0431485
490.767 .0430757
491.622 .0430064
492.476 .0429475
493.329 .0428970
494.180 .0428593
495.032 .0428338
495.882 .0428194
496.731 .0428176
497.580 .0428224
498.427 .0428300
499.274 .0428405
500.120 .0428481
500.965 .0428483
501.809 .0428410
502.653 .0428226
503.495 .0427918
504.337 .0427491
505.178 .0426957
506.018 .0426394
506.858 .0425720
507.696 .0425008
508.534 .0424232
509.371 .0423418
510.208 .0422598
511.043 .0421733
511.878 .0420902
512.712 .0420136
513.545 .0419476
514.377 .0418945
515.209 .0418533
516.040 .0418337
516.870 .0418297
517.699 .0418356
518.528 .0418499
519.356 .0418691
520.183 .0418865
521.010 .0419061
521.836 .0419308
522.661 .0419535
523.485 .0419786
524.309 .0420054
525.132 .0420339
525.954 .0420569
526.776 .0420736
527.597 .0420802
528.417 .0420751
529.237 .0420652
530.056 .0420470
530.874 .0420284
531.692 .0420218
532.508 .0420249
533.325 .0420279
534.140 .0420187
534.955 .0419988
535.770 .0419590
536.583 .0419001
537.397 .0418245
538.209 .0417380
539.021 .0416493
539.832 .0415586
540.643 .0414755
541.453 .0413979
542.262 .0413294
543.071 .0412657
543.879 .0411990
544.687 .0411304
545.494 .0410594
546.300 .0409911
547.106 .0409265
547.911 .0408720
548.716 .0408310
549.520 .0407957
550.323 .0407641
551.126 .0407370
551.929 .0407086
552.731 .0406741
553.532 .0406351
554.332 .0405865
555.133 .0405310
555.932 .0404694
556.731 .0404069
557.530 .0403459
558.328 .0402898
559.125 .0402378
559.922 .0401852
560.719 .0401348
561.515 .0400910
562.310 .0400440
563.105 .0400031
563.899 .0399683
564.693 .0399407
565.487 .0399185
566.280 .0399029
567.072 .0398910
567.864 .0398829
568.655 .0398708
569.446 .0398561
570.236 .0398316
571.026 .0398038
571.816 .0397660
572.605 .0397196
573.393 .0396646
574.181 .0396066
574.969 .0395456
575.756 .0394872
576.543 .0394316
577.329 .0393825
578.115 .0393357
578.900 .0392941
579.685 .0392560
580.469 .0392213
581.253 .0391883
582.036 .0391597
582.820 .0391316
583.602 .0391079
584.384 .0390865
585.166 .0390678
585.947 .0390516
586.728 .0390362
587.509 .0390191
588.289 .0389977
589.069 .0389719
589.848 .0389412
590.627 .0389069
591.405 .0388713
592.183 .0388357
592.961 .0387999
593.738 .0387655
594.515 .0387327
595.291 .0387027
596.067 .0386739
596.843 .0386459
597.618 .0386180
598.393 .0385917
599.167 .0385649
599.941 .0385388
600.715 .0385141
601.488 .0384916
602.261 .0384704
603.034 .0384519
603.806 .0384342
604.578 .0384187
605.349 .0384050
606.121 .0383921
606.891 .0383796
607.662 .0383674
608.432 .0383539
609.201 .0383392
609.971 .0383238
610.740 .0383080
611.508 .0382906
612.277 .0382744
613.045 .0382590
613.812 .0382448
614.579 .0382321
615.346 .0382214
616.113 .0382122
616.879 .0382052
617.645 .0381984
618.411 .0381914
619.176 .0381848
619.941 .0381782
620.705 .0381702
621.470 .0381620
622.233 .0381535
622.997 .0381446
623.760 .0381351
624.523 .0381258
625.286 .0381157
626.048 .0381065
626.810 .0380967
627.572 .0380867
628.333 .0380764
629.095 .0380648
629.855 .0380506
630.616 .0380341
631.376 .0380146
632.136 .0379924
632.895 .0379680
633.655 .0379443
634.414 .0379212
635.172 .0379009
635.931 .0378832
636.689 .0378677
637.447 .0378542
638.204 .0378408
638.962 .0378254
639.718 .0378075
640.475 .0377861
641.231 .0377617
641.988 .0377341
642.743 .0377057
643.499 .0376777
644.254 .0376512
645.009 .0376272
645.764 .0376052
646.518 .0375841
647.272 .0375628
648.026 .0375405
648.780 .0375161
649.533 .0374893
650.286 .0374602
651.039 .0374292
651.792 .0373977
652.544 .0373675
653.296 .0373394
654.048 .0373142
654.799 .0372927
655.550 .0372742
656.301 .0372577
657.052 .0372426
657.802 .0372280
658.552 .0372132
659.302 .0371984
660.052 .0371828
660.801 .0371657
661.550 .0371489
662.299 .0371322
663.048 .0371164
663.796 .0371027
664.544 .0370912
665.292 .0370814
666.040 .0370728
666.787 .0370644
667.534 .0370560
668.281 .0370470
669.028 .0370374
669.774 .0370266
670.521 .0370152
671.266 .0370034
672.012 .0369918
672.758 .0369806
673.503 .0369702
674.248 .0369599
674.992 .0369494
675.737 .0369377
676.481 .0369249
677.225 .0369104
677.969 .0368940
678.712 .0368765
679.455 .0368569
680.199 .0368359
680.941 .0368141
681.684 .0367921
682.426 .0367701
683.168 .0367493
683.910 .0367294
684.652 .0367097
685.393 .0366916
686.134 .0366750
686.875 .0366590
687.616 .0366447
688.356 .0366322
689.097 .0366208
689.837 .0366101
690.576 .0365999
691.316 .0365893
692.055 .0365788
692.794 .0365672
693.533 .0365538
694.272 .0365386
695.010 .0365223
695.748 .0365047
696.486 .0364859
697.224 .0364672
697.962 .0364486
698.699 .0364300
699.436 .0364114
700.173 .0363923
700.909 .0363726
701.646 .0363519
702.382 .0363303
703.118 .0363080
703.853 .0362850
704.589 .0362622
705.324 .0362404
706.059 .0362201
706.794 .0362017
707.529 .0361851
708.263 .0361694
708.997 .0361547
709.731 .0361398
710.465 .0361247
711.198 .0361093
711.931 .0360942
712.664 .0360791
713.397 .0360645
714.130 .0360509
714.862 .0360381
715.594 .0360259
716.326 .0360145
717.058 .0360035
717.789 .0359927
718.520 .0359815
719.251 .0359701
719.982 .0359589
720.713 .0359480
721.443 .0359371
722.173 .0359262
722.903 .0359151
723.633 .0359038
724.362 .0358919
725.091 .0358794
725.820 .0358664
726.549 .0358531
727.278 .0358395
728.006 .0358256
728.734 .0358122
729.462 .0357991
730.190 .0357865
730.917 .0357743
731.644 .0357621
732.371 .0357494
733.098 .0357361
733.825 .0357226
734.551 .0357084
735.277 .0356935
736.003 .0356780
736.728 .0356622
737.454 .0356467
738.179 .0356318
738.904 .0356174
739.629 .0356038
740.353 .0355912
741.077 .0355787
741.801 .0355660
742.525 .0355533
743.249 .0355397
743.972 .0355253
744.695 .0355101
745.418 .0354937
746.141 .0354763
746.863 .0354586
747.585 .0354411
748.307 .0354231
749.029 .0354052
749.750 .0353872
750.472 .0353687
751.193 .0353507
751.913 .0353326
752.634 .0353143
753.354 .0352961
754.074 .0352778
754.794 .0352586
755.514 .0352388
756.233 .0352191
756.952 .0351994
757.671 .0351808
758.390 .0351634
759.108 .0351474
759.826 .0351335
760.544 .0351215
761.262 .0351110
761.979 .0351013
762.697 .0350919
763.414 .0350814
764.130 .0350703
764.847 .0350587
765.563 .0350465
766.279 .0350349
766.995 .0350241
767.710 .0350141
768.426 .0350044
769.141 .0349951
769.855 .0349856
770.570 .0349757
771.284 .0349651
771.998 .0349531
772.712 .0349408
773.426 .0349280
774.139 .0349154
774.852 .0349034
775.565 .0348924
776.277 .0348826
776.990 .0348735
777.702 .0348651
778.414 .0348569
779.125 .0348491
779.836 .0348414
780.547 .0348336
781.258 .0348257
781.969 .0348177
782.679 .0348091
783.389 .0348003
784.099 .0347913
784.808 .0347818
785.517 .0347726
786.226 .0347630
786.935 .0347533
787.643 .0347440
788.352 .0347349
789.060 .0347262
789.767 .0347178
790.475 .0347101
791.182 .0347029
791.889 .0346969
792.595 .0346921
793.301 .0346872
794.008 .0346828
794.713 .0346783
795.419 .0346732
796.124 .0346676
796.829 .0346608
797.534 .0346530
798.238 .0346448
798.942 .0346359
799.646 .0346258
800.350 .0346148
801.053 .0346034
801.756 .0345909
802.459 .0345772
803.162 .0345629
803.864 .0345473
804.566 .0345317
805.267 .0345162
805.969 .0345002
806.670 .0344848
807.371 .0344698
808.071 .0344555
808.772 .0344421
809.472 .0344290
810.171 .0344166
810.871 .0344050
811.570 .0343947
812.269 .0343849
812.967 .0343749
813.666 .0343650
814.364 .0343546
815.061 .0343426
815.759 .0343293
816.456 .0343136
817.153 .0342967
817.849 .0342784
818.545 .0342590
819.241 .0342393
819.937 .0342192
820.632 .0341991
821.327 .0341785
822.022 .0341570
822.717 .0341346
823.411 .0341104
824.105 .0340848
824.798 .0340582
825.491 .0340304
826.184 .0340027
826.877 .0339751
827.569 .0339489
828.261 .0339238
828.953 .0338991
829.645 .0338744
830.336 .0338499
831.027 .0338248
831.717 .0337993
832.407 .0337737
833.097 .0337486
833.787 .0337241
834.476 .0337007
835.165 .0336783
835.854 .0336574
836.542 .0336380
837.230 .0336203
837.918 .0336033
838.605 .0335878
839.292 .0335736
839.979 .0335609
840.665 .0335508
841.352 .0335431
842.037 .0335372
842.723 .0335329
843.408 .0335298
844.093 .0335266
844.777 .0335224
845.462 .0335173
846.145 .0335106
846.829 .0335028
847.512 .0334939
848.195 .0334848
848.878 .0334759
849.560 .0334685
850.242 .0334616
850.923 .0334548
851.605 .0334479
852.286 .0334398
852.966 .0334308
853.646 .0334206
854.326 .0334102
855.006 .0333999
855.685 .0333900
856.364 .0333807
857.043 .0333718
857.721 .0333635
858.399 .0333549
859.077 .0333461
859.754 .0333362
860.431 .0333254
861.107 .0333142
861.784 .0333024
862.459 .0332907
863.135 .0332796
863.810 .0332688
864.485 .0332582
865.160 .0332477
865.834 .0332367
866.508 .0332250
867.181 .0332132
867.854 .0332010
868.527 .0331887
869.199 .0331766
869.872 .0331656
870.543 .0331548
871.215 .0331453
871.886 .0331367
872.557 .0331280
873.227 .0331201
873.897 .0331125
874.567 .0331051
875.236 .0330978
875.905 .0330909
876.573 .0330849
877.242 .0330789
877.909 .0330727
878.577 .0330658
879.244 .0330578
879.911 .0330493
880.577 .0330392
881.243 .0330276
881.909 .0330155
882.575 .0330029
883.240 .0329891
883.904 .0329746
884.569 .0329599
885.232 .0329444
885.896 .0329276
886.559 .0329104
887.222 .0328918
887.885 .0328723
888.547 .0328526
889.208 .0328327
889.870 .0328141
890.531 .0327972
891.192 .0327814
891.852 .0327672
892.512 .0327556
893.171 .0327453
893.830 .0327351
894.489 .0327251
895.148 .0327145
895.806 .0327021
896.464 .0326885
897.121 .0326738
897.778 .0326581
898.434 .0326423
899.091 .0326260
899.747 .0326088
900.402 .0325911
901.057 .0325724
901.712 .0325524
902.366 .0325311
903.020 .0325087
903.674 .0324839
904.327 .0324581
904.980 .0324323
905.633 .0324068
906.285 .0323816
906.936 .0323569
907.588 .0323325
908.239 .0323082
908.889 .0322840
909.540 .0322597
910.190 .0322347
910.839 .0322102
911.488 .0321858
912.137 .0321612
912.785 .0321363
913.433 .0321124
914.081 .0320886
914.728 .0320651
915.375 .0320415
916.021 .0320173
916.668 .0319925
917.313 .0319678
917.959 .0319428
918.604 .0319173
919.248 .0318923
919.892 .0318675
920.536 .0318424
921.180 .0318183
921.823 .0317947
922.465 .0317715
923.108 .0317490
923.750 .0317269
924.391 .0317044
925.032 .0316818
925.673 .0316593
926.313 .0316367
926.953 .0316148
927.593 .0315932
928.232 .0315718
928.871 .0315516
929.510 .0315324
930.148 .0315135
930.786 .0314952
931.423 .0314777
932.060 .0314606
932.697 .0314435
933.333 .0314265
933.969 .0314094
934.604 .0313933
935.239 .0313771
935.874 .0313608
936.508 .0313446
937.142 .0313290
937.776 .0313127
938.409 .0312960
939.042 .0312790
939.674 .0312610
940.306 .0312430
940.938 .0312248
941.569 .0312065
942.200 .0311891
942.830 .0311727
943.460 .0311578
944.090 .0311439
944.720 .0311317
945.349 .0311202
945.977 .0311104
946.606 .0311022
947.233 .0310950
947.861 .0310883
948.488 .0310825
949.115 .0310772
949.741 .0310724
950.367 .0310683
950.993 .0310648
951.618 .0310624
952.243 .0310605
952.868 .0310584
953.492 .0310556
954.115 .0310515
954.739 .0310461
955.362 .0310388
955.984 .0310299
956.607 .0310198
957.229 .0310093
957.850 .0309995
958.471 .0309903
959.092 .0309822
959.713 .0309747
960.333 .0309674
960.952 .0309606
961.572 .0309534
962.191 .0309452
962.809 .0309372
963.428 .0309296
964.045 .0309229
964.663 .0309175
965.280 .0309142
965.897 .0309129
966.513 .0309135
967.129 .0309154
967.745 .0309168
968.361 .0309169
968.976 .0309159
969.590 .0309122
970.205 .0309065
970.818 .0308997
971.432 .0308919
972.045 .0308845
972.658 .0308782
973.271 .0308737
973.883 .0308703
974.495 .0308675
975.106 .0308649
975.717 .0308616
976.328 .0308576
976.938 .0308521
977.548 .0308450
978.158 .0308375
978.768 .0308290
979.377 .0308201
979.985 .0308112
980.594 .0308033
981.202 .0307961
981.809 .0307892
982.417 .0307825
983.024 .0307767
983.631 .0307712
984.237 .0307654
984.843 .0307593
985.449 .0307527
986.054 .0307442
986.659 .0307345
987.264 .0307246
987.868 .0307145
988.472 .0307052
989.076 .0306970
989.679 .0306896
990.282 .0306840
990.885 .0306790
991.487 .0306732
992.090 .0306663
992.691 .0306576
993.293 .0306456
993.894 .0306299
994.495 .0306119
995.095 .0305925
995.696 .0305718
996.296 .0305511
996.895 .0305303
997.494 .0305100
998.093 .0304906
998.692 .0304721
999.291 .0304548
999.889 .0304388
1000.487 .0304231
1001.084 .0304078
1001.681 .0303927
1002.278 .0303783
1002.875 .0303644
1003.471 .0303509
1004.067 .0303382
1004.663 .0303260
1005.258 .0303146
1005.854 .0303042
1006.449 .0302943
1007.043 .0302853
1007.638 .0302753
1008.232 .0302644
1008.826 .0302523
1009.419 .0302394
1010.012 .0302257
1010.605 .0302116
1011.198 .0301967
1011.791 .0301812
1012.383 .0301654
1012.975 .0301488
1013.566 .0301314
1014.158 .0301136
1014.749 .0300959
1015.340 .0300772
1015.931 .0300585
1016.521 .0300408
1017.111 .0300236
1017.701 .0300076
1018.291 .0299921
1018.880 .0299762
1019.470 .0299605
1020.059 .0299443
1020.647 .0299285
1021.236 .0299139
1021.824 .0299021
1022.412 .0298922
1023.000 .0298849
1023.588 .0298804
1024.175 .0298783
1024.762 .0298768
1025.349 .0298755
1025.936 .0298730
1026.523 .0298690
1027.109 .0298626
1027.695 .0298540
1028.281 .0298446
1028.867 .0298350
1029.452 .0298252
1030.038 .0298159
1030.623 .0298063
1031.208 .0297973
1031.792 .0297878
1032.377 .0297781
1032.961 .0297679
1033.546 .0297575
1034.130 .0297466
1034.714 .0297353
1035.297 .0297249
1035.881 .0297146
1036.464 .0297055
1037.047 .0296975
1037.630 .0296899
1038.213 .0296833
1038.796 .0296769
1039.378 .0296717
1039.961 .0296672
1040.543 .0296639
1041.125 .0296608
1041.707 .0296582
1042.289 .0296563
1042.871 .0296536
1043.452 .0296507
1044.034 .0296476
1044.615 .0296435
1045.196 .0296395
1045.777 .0296362
1046.358 .0296335
1046.939 .0296322
1047.520 .0296327
1048.101 .0296334
1048.681 .0296352
1049.262 .0296373
1049.842 .0296383
1050.422 .0296379
1051.002 .0296365
1051.582 .0296324
1052.162 .0296263
1052.742 .0296194
1053.322 .0296116
1053.902 .0296041
1054.482 .0295978
1055.061 .0295911
1055.641 .0295846
1056.220 .0295788
1056.800 .0295726
1057.379 .0295668
1057.958 .0295623
1058.538 .0295584
1059.117 .0295556
1059.696 .0295559
1060.275 .0295593
1060.854 .0295650
1061.433 .0295752
1062.012 .0295882
1062.592 .0296037
1063.171 .0296210
1063.750 .0296375
1064.329 .0296545
1064.908 .0296715
1065.487 .0296870
1066.066 .0296992
1066.645 .0297098
1067.224 .0297206
1067.803 .0297291
1068.382 .0297375
1068.961 .0297459
1069.540 .0297535
1070.119 .0297600
1070.698 .0297643
1071.278 .0297645
1071.857 .0297611
1072.436 .0297542
1073.016 .0297438
1073.595 .0297300
1074.175 .0297137
1074.754 .0296964
1075.334 .0296794
1075.913 .0296642
1076.493 .0296523
1077.073 .0296402
1077.653 .0296331
1078.233 .0296296
1078.813 .0296284
1079.393 .0296290
1079.974 .0296331
1080.554 .0296408
1081.135 .0296509
1081.716 .0296634
1082.296 .0296785
1082.877 .0296936
1083.458 .0297113
1084.040 .0297286
1084.621 .0297460
1085.202 .0297636
1085.784 .0297811
1086.366 .0297963
1086.948 .0298106
1087.530 .0298211
1088.112 .0298283
1088.695 .0298300
1089.277 .0298287
1089.860 .0298227
1090.443 .0298128
1091.026 .0298002
1091.610 .0297864
1092.193 .0297724
1092.777 .0297606
1093.361 .0297502
1093.946 .0297422
1094.530 .0297356
1095.115 .0297323
1095.700 .0297319
1096.285 .0297329
1096.871 .0297357
1097.456 .0297419
1098.042 .0297490
1098.628 .0297593
1099.215 .0297706
1099.802 .0297835
1100.389 .0297976
1100.976 .0298128
1101.564 .0298262
1102.152 .0298359
1102.740 .0298444
1103.329 .0298503
1103.917 .0298549
1104.507 .0298591
1105.096 .0298627
1105.686 .0298683
1106.276 .0298780
1106.867 .0298896
1107.457 .0299017
1108.049 .0299142
1108.640 .0299253
1109.232 .0299328
1109.825 .0299360
1110.417 .0299352
1111.010 .0299341
1111.604 .0299333
1112.198 .0299361
1112.792 .0299401
1113.387 .0299485
1113.982 .0299600
1114.577 .0299730
1115.173 .0299842
1115.769 .0299911
1116.366 .0299935
1116.963 .0299933
1117.561 .0299908
1118.159 .0299903
1118.758 .0299945
1119.357 .0300076
1119.957 .0300254
1120.557 .0300472
1121.157 .0300705
1121.758 .0300965
1122.360 .0301218
1122.962 .0301452
1123.564 .0301682
1124.167 .0301927
1124.771 .0302204
1125.375 .0302517
1125.980 .0302899
1126.585 .0303364
1127.191 .0303861
1127.797 .0304363
1128.404 .0304821
1129.012 .0305228
1129.620 .0305600
1130.229 .0305965
1130.838 .0306320
1131.448 .0306692
1132.058 .0307099
1132.669 .0307530
1133.281 .0308033
1133.894 .0308563
1134.507 .0309095
1135.120 .0309630
1135.735 .0310172
1136.350 .0310678
1136.965 .0311120
1137.582 .0311582
1138.199 .0312068
1138.816 .0312499
1139.435 .0312934
1140.054 .0313399
1140.674 .0313881
1141.294 .0314395
1141.916 .0314865
1142.538 .0315186
1143.160 .0317527
1143.784 .0316672
1144.408 .0317011
1145.033 .0315777
