Measurement Sequence started on: 14-45-04-498
Integration time: 36
Scans to Average: 2 
>>>>>Begin Spectral Data<<<<<
433.946 .0474405
434.870 .0483621
435.793 .0449867
436.715 .0444693
437.635 .0413890
438.555 .0427657
439.473 .0421620
440.389 .0416991
441.305 .0414576
442.219 .0413094
443.132 .0412877
444.044 .0412657
444.954 .0413098
445.863 .0413693
446.771 .0414395
447.678 .0415186
448.584 .0416101
449.488 .0417154
450.391 .0418137
451.293 .0419143
452.194 .0420165
453.094 .0420999
453.992 .0421581
454.890 .0421909
455.786 .0422194
456.681 .0422343
457.575 .0422310
458.468 .0422092
459.360 .0421758
460.250 .0421294
461.140 .0420669
462.028 .0419934
462.915 .0419110
463.801 .0418209
464.687 .0417262
465.571 .0416303
466.454 .0415338
467.335 .0414372
468.216 .0413420
469.096 .0412439
469.975 .0411440
470.853 .0410358
471.729 .0409220
472.605 .0408082
473.479 .0406963
474.353 .0405892
475.226 .0404877
476.097 .0403990
476.968 .0403185
477.838 .0402440
478.706 .0401768
479.574 .0401117
480.441 .0400492
481.306 .0399923
482.171 .0399418
483.035 .0398973
483.898 .0398632
484.760 .0398413
485.621 .0398298
486.481 .0398255
487.340 .0398276
488.198 .0398328
489.055 .0398374
489.912 .0398387
490.767 .0398313
491.622 .0398173
492.476 .0397960
493.329 .0397653
494.180 .0397285
495.032 .0396892
495.882 .0396458
496.731 .0395967
497.580 .0395455
498.427 .0394953
499.274 .0394406
500.120 .0393810
500.965 .0393191
501.809 .0392573
502.653 .0391942
503.495 .0391319
504.337 .0390704
505.178 .0390150
506.018 .0389625
506.858 .0389111
507.696 .0388591
508.534 .0388062
509.371 .0387498
510.208 .0386915
511.043 .0386326
511.878 .0385768
512.712 .0385179
513.545 .0384607
514.377 .0384076
515.209 .0383524
516.040 .0382937
516.870 .0382335
517.699 .0381784
518.528 .0381308
519.356 .0380903
520.183 .0380626
521.010 .0380528
521.836 .0380650
522.661 .0380917
523.485 .0381229
524.309 .0381565
525.132 .0381862
525.954 .0382076
526.776 .0382208
527.597 .0382280
528.417 .0382263
529.237 .0382280
530.056 .0382252
530.874 .0382158
531.692 .0381910
532.508 .0381500
533.325 .0380841
534.140 .0379876
534.955 .0378598
535.770 .0377056
536.583 .0375437
537.397 .0373859
538.209 .0372334
539.021 .0371008
539.832 .0369842
540.643 .0368852
541.453 .0367960
542.262 .0367212
543.071 .0366494
543.879 .0365846
544.687 .0365262
545.494 .0364725
546.300 .0364268
547.106 .0363911
547.911 .0363659
548.716 .0363543
549.520 .0363461
550.323 .0363421
551.126 .0363381
551.929 .0363391
552.731 .0363389
553.532 .0363381
554.332 .0363349
555.133 .0363320
555.932 .0363217
556.731 .0363045
557.530 .0362813
558.328 .0362572
559.125 .0362300
559.922 .0362009
560.719 .0361717
561.515 .0361445
562.310 .0361185
563.105 .0360975
563.899 .0360746
564.693 .0360494
565.487 .0360199
566.280 .0359836
567.072 .0359403
567.864 .0358914
568.655 .0358397
569.446 .0357889
570.236 .0357413
571.026 .0356964
571.816 .0356530
572.605 .0356144
573.393 .0355792
574.181 .0355452
574.969 .0355122
575.756 .0354789
576.543 .0354449
577.329 .0354085
578.115 .0353697
578.900 .0353277
579.685 .0352845
580.469 .0352406
581.253 .0351977
582.036 .0351544
582.820 .0351104
583.602 .0350664
584.384 .0350233
585.166 .0349794
585.947 .0349350
586.728 .0348886
587.509 .0348407
588.289 .0347919
589.069 .0347437
589.848 .0346961
590.627 .0346511
591.405 .0346081
592.183 .0345676
592.961 .0345296
593.738 .0344942
594.515 .0344606
595.291 .0344287
596.067 .0343982
596.843 .0343689
597.618 .0343394
598.393 .0343110
599.167 .0342832
599.941 .0342566
600.715 .0342307
601.488 .0342053
602.261 .0341799
603.034 .0341541
603.806 .0341279
604.578 .0341019
605.349 .0340753
606.121 .0340482
606.891 .0340212
607.662 .0339941
608.432 .0339670
609.201 .0339404
609.971 .0339148
610.740 .0338901
611.508 .0338666
612.277 .0338430
613.045 .0338194
613.812 .0337963
614.579 .0337732
615.346 .0337493
616.113 .0337258
616.879 .0337022
617.645 .0336786
618.411 .0336558
619.176 .0336344
619.941 .0336136
620.705 .0335934
621.470 .0335736
622.233 .0335534
622.997 .0335326
623.760 .0335111
624.523 .0334876
625.286 .0334634
626.048 .0334384
626.810 .0334122
627.572 .0333852
628.333 .0333587
629.095 .0333322
629.855 .0333059
630.616 .0332802
631.376 .0332547
632.136 .0332293
632.895 .0332048
633.655 .0331805
634.414 .0331564
635.172 .0331321
635.931 .0331078
636.689 .0330830
637.447 .0330583
638.204 .0330334
638.962 .0330085
639.718 .0329844
640.475 .0329604
641.231 .0329365
641.988 .0329122
642.743 .0328883
643.499 .0328638
644.254 .0328380
645.009 .0328108
645.764 .0327824
646.518 .0327531
647.272 .0327234
648.026 .0326942
648.780 .0326653
649.533 .0326369
650.286 .0326093
651.039 .0325818
651.792 .0325550
652.544 .0325289
653.296 .0325035
654.048 .0324789
654.799 .0324555
655.550 .0324329
656.301 .0324117
657.052 .0323929
657.802 .0323761
658.552 .0323607
659.302 .0323466
660.052 .0323335
660.801 .0323209
661.550 .0323088
662.299 .0322969
663.048 .0322853
663.796 .0322739
664.544 .0322622
665.292 .0322506
666.040 .0322391
666.787 .0322278
667.534 .0322167
668.281 .0322053
669.028 .0321930
669.774 .0321792
670.521 .0321636
671.266 .0321461
672.012 .0321267
672.758 .0321056
673.503 .0320830
674.248 .0320600
674.992 .0320373
675.737 .0320153
676.481 .0319949
677.225 .0319757
677.969 .0319571
678.712 .0319390
679.455 .0319206
680.199 .0319017
680.941 .0318829
681.684 .0318645
682.426 .0318468
683.168 .0318305
683.910 .0318156
684.652 .0318021
685.393 .0317898
686.134 .0317781
686.875 .0317659
687.616 .0317528
688.356 .0317384
689.097 .0317221
689.837 .0317038
690.576 .0316842
691.316 .0316636
692.055 .0316430
692.794 .0316225
693.533 .0316022
694.272 .0315826
695.010 .0315638
695.748 .0315456
696.486 .0315271
697.224 .0315083
697.962 .0314892
698.699 .0314698
699.436 .0314502
700.173 .0314311
700.909 .0314128
701.646 .0313959
702.382 .0313807
703.118 .0313666
703.853 .0313536
704.589 .0313417
705.324 .0313301
706.059 .0313182
706.794 .0313057
707.529 .0312929
708.263 .0312793
708.997 .0312660
709.731 .0312526
710.465 .0312395
711.198 .0312269
711.931 .0312146
712.664 .0312024
713.397 .0311900
714.130 .0311773
714.862 .0311642
715.594 .0311509
716.326 .0311373
717.058 .0311232
717.789 .0311094
718.520 .0310955
719.251 .0310817
719.982 .0310677
720.713 .0310534
721.443 .0310393
722.173 .0310252
722.903 .0310108
723.633 .0309968
724.362 .0309831
725.091 .0309693
725.820 .0309556
726.549 .0309421
727.278 .0309290
728.006 .0309163
728.734 .0309041
729.462 .0308924
730.190 .0308817
730.917 .0308719
731.644 .0308624
732.371 .0308531
733.098 .0308443
733.825 .0308353
734.551 .0308264
735.277 .0308172
736.003 .0308078
736.728 .0307981
737.454 .0307881
738.179 .0307777
738.904 .0307666
739.629 .0307542
740.353 .0307411
741.077 .0307275
741.801 .0307133
742.525 .0306987
743.249 .0306849
743.972 .0306713
744.695 .0306588
745.418 .0306466
746.141 .0306346
746.863 .0306232
747.585 .0306123
748.307 .0306012
749.029 .0305898
749.750 .0305788
750.472 .0305682
751.193 .0305581
751.913 .0305488
752.634 .0305397
753.354 .0305308
754.074 .0305220
754.794 .0305120
755.514 .0305009
756.233 .0304892
756.952 .0304760
757.671 .0304621
758.390 .0304474
759.108 .0304318
759.826 .0304166
760.544 .0304018
761.262 .0303881
761.979 .0303751
762.697 .0303630
763.414 .0303514
764.130 .0303405
764.847 .0303299
765.563 .0303191
766.279 .0303083
766.995 .0302974
767.710 .0302860
768.426 .0302743
769.141 .0302630
769.855 .0302522
770.570 .0302421
771.284 .0302329
771.998 .0302239
772.712 .0302153
773.426 .0302068
774.139 .0301981
774.852 .0301889
775.565 .0301793
776.277 .0301691
776.990 .0301584
777.702 .0301475
778.414 .0301364
779.125 .0301255
779.836 .0301153
780.547 .0301055
781.258 .0300961
781.969 .0300867
782.679 .0300773
783.389 .0300677
784.099 .0300581
784.808 .0300479
785.517 .0300376
786.226 .0300275
786.935 .0300175
787.643 .0300084
788.352 .0299999
789.060 .0299922
789.767 .0299851
790.475 .0299783
791.182 .0299713
791.889 .0299635
792.595 .0299552
793.301 .0299463
794.008 .0299369
794.713 .0299276
795.419 .0299185
796.124 .0299102
796.829 .0299029
797.534 .0298960
798.238 .0298893
798.942 .0298835
799.646 .0298776
800.350 .0298715
801.053 .0298650
801.756 .0298581
802.459 .0298511
803.162 .0298438
803.864 .0298367
804.566 .0298297
805.267 .0298230
805.969 .0298169
806.670 .0298104
807.371 .0298045
808.071 .0297985
808.772 .0297925
809.472 .0297863
810.171 .0297799
810.871 .0297730
811.570 .0297655
812.269 .0297580
812.967 .0297506
813.666 .0297428
814.364 .0297349
815.061 .0297267
815.759 .0297184
816.456 .0297097
817.153 .0297007
817.849 .0296905
818.545 .0296802
819.241 .0296689
819.937 .0296565
820.632 .0296433
821.327 .0296295
822.022 .0296153
822.717 .0296009
823.411 .0295864
824.105 .0295718
824.798 .0295578
825.491 .0295450
826.184 .0295324
826.877 .0295207
827.569 .0295093
828.261 .0294984
828.953 .0294869
829.645 .0294750
830.336 .0294622
831.027 .0294491
831.717 .0294355
832.407 .0294216
833.097 .0294078
833.787 .0293941
834.476 .0293806
835.165 .0293671
835.854 .0293536
836.542 .0293398
837.230 .0293254
837.918 .0293109
838.605 .0292965
839.292 .0292827
839.979 .0292693
840.665 .0292572
841.352 .0292465
842.037 .0292364
842.723 .0292266
843.408 .0292170
844.093 .0292070
844.777 .0291961
845.462 .0291842
846.145 .0291715
846.829 .0291581
847.512 .0291443
848.195 .0291304
848.878 .0291165
849.560 .0291030
850.242 .0290896
850.923 .0290758
851.605 .0290619
852.286 .0290472
852.966 .0290320
853.646 .0290160
854.326 .0290000
855.006 .0289842
855.685 .0289685
856.364 .0289534
857.043 .0289392
857.721 .0289255
858.399 .0289126
859.077 .0289003
859.754 .0288882
860.431 .0288759
861.107 .0288634
861.784 .0288503
862.459 .0288372
863.135 .0288239
863.810 .0288107
864.485 .0287978
865.160 .0287859
865.834 .0287750
866.508 .0287651
867.181 .0287566
867.854 .0287491
868.527 .0287424
869.199 .0287356
869.872 .0287282
870.543 .0287202
871.215 .0287112
871.886 .0287012
872.557 .0286904
873.227 .0286791
873.897 .0286680
874.567 .0286572
875.236 .0286472
875.905 .0286375
876.573 .0286279
877.242 .0286174
877.909 .0286056
878.577 .0285926
879.244 .0285776
879.911 .0285612
880.577 .0285443
881.243 .0285276
881.909 .0285116
882.575 .0284964
883.240 .0284826
883.904 .0284702
884.569 .0284588
885.232 .0284473
885.896 .0284354
886.559 .0284234
887.222 .0284112
887.885 .0283993
888.547 .0283882
889.208 .0283784
889.870 .0283700
890.531 .0283631
891.192 .0283570
891.852 .0283515
892.512 .0283464
893.171 .0283407
893.830 .0283350
894.489 .0283290
895.148 .0283224
895.806 .0283160
896.464 .0283101
897.121 .0283048
897.778 .0282996
898.434 .0282949
899.091 .0282898
899.747 .0282843
900.402 .0282787
901.057 .0282726
901.712 .0282663
902.366 .0282603
903.020 .0282544
903.674 .0282483
904.327 .0282425
904.980 .0282369
905.633 .0282311
906.285 .0282257
906.936 .0282200
907.588 .0282139
908.239 .0282077
908.889 .0282009
909.540 .0281932
910.190 .0281846
910.839 .0281753
911.488 .0281647
912.137 .0281531
912.785 .0281408
913.433 .0281278
914.081 .0281144
914.728 .0281008
915.375 .0280870
916.021 .0280727
916.668 .0280583
917.313 .0280433
917.959 .0280277
918.604 .0280114
919.248 .0279943
919.892 .0279767
920.536 .0279587
921.180 .0279404
921.823 .0279217
922.465 .0279028
923.108 .0278838
923.750 .0278647
924.391 .0278452
925.032 .0278256
925.673 .0278063
926.313 .0277872
926.953 .0277681
927.593 .0277488
928.232 .0277294
928.871 .0277101
929.510 .0276907
930.148 .0276709
930.786 .0276510
931.423 .0276317
932.060 .0276133
932.697 .0275959
933.333 .0275793
933.969 .0275634
934.604 .0275478
935.239 .0275319
935.874 .0275154
936.508 .0274982
937.142 .0274810
937.776 .0274639
938.409 .0274471
939.042 .0274306
939.674 .0274146
940.306 .0273989
940.938 .0273834
941.569 .0273676
942.200 .0273512
942.830 .0273340
943.460 .0273159
944.090 .0272970
944.720 .0272775
945.349 .0272578
945.977 .0272381
946.606 .0272181
947.233 .0271978
947.861 .0271770
948.488 .0271555
949.115 .0271332
949.741 .0271102
950.367 .0270866
950.993 .0270624
951.618 .0270381
952.243 .0270139
952.868 .0269901
953.492 .0269672
954.115 .0269452
954.739 .0269237
955.362 .0269030
955.984 .0268827
956.607 .0268629
957.229 .0268439
957.850 .0268254
958.471 .0268071
959.092 .0267891
959.713 .0267715
960.333 .0267541
960.952 .0267371
961.572 .0267213
962.191 .0267063
962.809 .0266925
963.428 .0266794
964.045 .0266662
964.663 .0266536
965.280 .0266414
965.897 .0266292
966.513 .0266173
967.129 .0266061
967.745 .0265958
968.361 .0265870
968.976 .0265790
969.590 .0265724
970.205 .0265669
970.818 .0265623
971.432 .0265580
972.045 .0265541
972.658 .0265509
973.271 .0265476
973.883 .0265445
974.495 .0265412
975.106 .0265373
975.717 .0265333
976.328 .0265288
976.938 .0265242
977.548 .0265191
978.158 .0265137
978.768 .0265080
979.377 .0265022
979.985 .0264954
980.594 .0264879
981.202 .0264795
981.809 .0264701
982.417 .0264599
983.024 .0264487
983.631 .0264369
984.237 .0264251
984.843 .0264134
985.449 .0264014
986.054 .0263895
986.659 .0263782
987.264 .0263672
987.868 .0263567
988.472 .0263474
989.076 .0263387
989.679 .0263316
990.282 .0263262
990.885 .0263221
991.487 .0263192
992.090 .0263178
992.691 .0263173
993.293 .0263174
993.894 .0263182
994.495 .0263195
995.095 .0263214
995.696 .0263243
996.296 .0263273
996.895 .0263300
997.494 .0263325
998.093 .0263346
998.692 .0263359
999.291 .0263365
999.889 .0263361
1000.487 .0263350
1001.084 .0263334
1001.681 .0263314
1002.278 .0263288
1002.875 .0263257
1003.471 .0263223
1004.067 .0263183
1004.663 .0263138
1005.258 .0263090
1005.854 .0263039
1006.449 .0262990
1007.043 .0262944
1007.638 .0262894
1008.232 .0262841
1008.826 .0262783
1009.419 .0262723
1010.012 .0262662
1010.605 .0262599
1011.198 .0262536
1011.791 .0262475
1012.383 .0262423
1012.975 .0262375
1013.566 .0262328
1014.158 .0262283
1014.749 .0262240
1015.340 .0262197
1015.931 .0262148
1016.521 .0262099
1017.111 .0262058
1017.701 .0262030
1018.291 .0262020
1018.880 .0262024
1019.470 .0262046
1020.059 .0262077
1020.647 .0262114
1021.236 .0262147
1021.824 .0262179
1022.412 .0262199
1023.000 .0262208
1023.588 .0262214
1024.175 .0262219
1024.762 .0262226
1025.349 .0262235
1025.936 .0262254
1026.523 .0262281
1027.109 .0262312
1027.695 .0262340
1028.281 .0262358
1028.867 .0262370
1029.452 .0262367
1030.038 .0262351
1030.623 .0262326
1031.208 .0262304
1031.792 .0262289
1032.377 .0262283
1032.961 .0262281
1033.546 .0262290
1034.130 .0262308
1034.714 .0262327
1035.297 .0262345
1035.881 .0262359
1036.464 .0262372
1037.047 .0262383
1037.630 .0262397
1038.213 .0262423
1038.796 .0262456
1039.378 .0262500
1039.961 .0262548
1040.543 .0262591
1041.125 .0262622
1041.707 .0262632
1042.289 .0262616
1042.871 .0262587
1043.452 .0262543
1044.034 .0262488
1044.615 .0262429
1045.196 .0262385
1045.777 .0262353
1046.358 .0262321
1046.939 .0262286
1047.520 .0262236
1048.101 .0262164
1048.681 .0262066
1049.262 .0261942
1049.842 .0261804
1050.422 .0261667
1051.002 .0261536
1051.582 .0261409
1052.162 .0261306
1052.742 .0261227
1053.322 .0261165
1053.902 .0261117
1054.482 .0261077
1055.061 .0261032
1055.641 .0260977
1056.220 .0260920
1056.800 .0260849
1057.379 .0260775
1057.958 .0260701
1058.538 .0260626
1059.117 .0260548
1059.696 .0260481
1060.275 .0260408
1060.854 .0260331
1061.433 .0260262
1062.012 .0260186
1062.592 .0260101
1063.171 .0260021
1063.750 .0259938
1064.329 .0259861
1064.908 .0259789
1065.487 .0259726
1066.066 .0259663
1066.645 .0259623
1067.224 .0259595
1067.803 .0259573
1068.382 .0259561
1068.961 .0259562
1069.540 .0259558
1070.119 .0259559
1070.698 .0259567
1071.278 .0259570
1071.857 .0259580
1072.436 .0259589
1073.016 .0259588
1073.595 .0259580
1074.175 .0259558
1074.754 .0259523
1075.334 .0259464
1075.913 .0259394
1076.493 .0259309
1077.073 .0259223
1077.653 .0259148
1078.233 .0259092
1078.813 .0259037
1079.393 .0258986
1079.974 .0258940
1080.554 .0258894
1081.135 .0258840
1081.716 .0258781
1082.296 .0258721
1082.877 .0258665
1083.458 .0258606
1084.040 .0258545
1084.621 .0258473
1085.202 .0258403
1085.784 .0258322
1086.366 .0258225
1086.948 .0258113
1087.530 .0258001
1088.112 .0257891
1088.695 .0257799
1089.277 .0257729
1089.860 .0257673
1090.443 .0257617
1091.026 .0257554
1091.610 .0257479
1092.193 .0257386
1092.777 .0257283
1093.361 .0257191
1093.946 .0257115
1094.530 .0257072
1095.115 .0257076
1095.700 .0257119
1096.285 .0257209
1096.871 .0257316
1097.456 .0257408
1098.042 .0257470
1098.628 .0257496
1099.215 .0257478
1099.802 .0257431
1100.389 .0257373
1100.976 .0257326
1101.564 .0257281
1102.152 .0257262
1102.740 .0257247
1103.329 .0257231
1103.917 .0257213
1104.507 .0257168
1105.096 .0257088
1105.686 .0256976
1106.276 .0256830
1106.867 .0256680
1107.457 .0256542
1108.049 .0256435
1108.640 .0256362
1109.232 .0256341
1109.825 .0256371
1110.417 .0256437
1111.010 .0256547
1111.604 .0256705
1112.198 .0256896
1112.792 .0257131
1113.387 .0257393
1113.982 .0257700
1114.577 .0258062
1115.173 .0258466
1115.769 .0258883
1116.366 .0259301
1116.963 .0259703
1117.561 .0260061
1118.159 .0260353
1118.758 .0260583
1119.357 .0260736
1119.957 .0260816
1120.557 .0260821
1121.157 .0260770
1121.758 .0260677
1122.360 .0260564
1122.962 .0260414
1123.564 .0260246
1124.167 .0260065
1124.771 .0259876
1125.375 .0259689
1125.980 .0259568
1126.585 .0259512
1127.191 .0259545
1127.797 .0259696
1128.404 .0259985
1129.012 .0260427
1129.620 .0261017
1130.229 .0261747
1130.838 .0262579
1131.448 .0263463
1132.058 .0264356
1132.669 .0265210
1133.281 .0266046
1133.894 .0266825
1134.507 .0267541
1135.120 .0268206
1135.735 .0268810
1136.350 .0269358
1136.965 .0269886
1137.582 .0270405
1138.199 .0270914
1138.816 .0271359
1139.435 .0271756
1140.054 .0272185
1140.674 .0272652
1141.294 .0273142
1141.916 .0273814
1142.538 .0272863
1143.160 .0275523
1143.784 .0276495
1144.408 .0276513
1145.033 .0280490
