Measurement Sequence started on: 14-45-04-498
Integration time: 36
Scans to Average: 2 
>>>>>Begin Spectral Data<<<<<
433.946 .0446492
434.870 .0505408
435.793 .0443712
436.715 .0432891
437.635 .0418429
438.555 .0424805
439.473 .0418558
440.389 .0411792
441.305 .0407768
442.219 .0404420
443.132 .0401739
444.044 .0399382
444.954 .0397577
445.863 .0396337
446.771 .0395469
447.678 .0394751
448.584 .0394239
449.488 .0393844
450.391 .0393524
451.293 .0393153
452.194 .0392899
453.094 .0392717
453.992 .0392529
454.890 .0392362
455.786 .0392186
456.681 .0391938
457.575 .0391636
458.468 .0391238
459.360 .0390723
460.250 .0390149
461.140 .0389455
462.028 .0388747
462.915 .0388006
463.801 .0387187
464.687 .0386280
465.571 .0385297
466.454 .0384348
467.335 .0383373
468.216 .0382460
469.096 .0381687
469.975 .0381010
470.853 .0380442
471.729 .0379923
472.605 .0379439
473.479 .0378959
474.353 .0378495
475.226 .0378022
476.097 .0377527
476.968 .0377082
477.838 .0376677
478.706 .0376334
479.574 .0376070
480.441 .0375890
481.306 .0375699
482.171 .0375503
483.035 .0375223
483.898 .0374837
484.760 .0374356
485.621 .0373820
486.481 .0373266
487.340 .0372753
488.198 .0372339
489.055 .0372014
489.912 .0371762
490.767 .0371623
491.622 .0371479
492.476 .0371347
493.329 .0371197
494.180 .0371037
495.032 .0370862
495.882 .0370702
496.731 .0370597
497.580 .0370574
498.427 .0370603
499.274 .0370684
500.120 .0370739
500.965 .0370731
501.809 .0370571
502.653 .0370190
503.495 .0369627
504.337 .0368899
505.178 .0368046
506.018 .0367137
506.858 .0366234
507.696 .0365391
508.534 .0364584
509.371 .0363771
510.208 .0362963
511.043 .0362119
511.878 .0361227
512.712 .0360284
513.545 .0359281
514.377 .0358350
515.209 .0357536
516.040 .0356904
516.870 .0356536
517.699 .0356375
518.528 .0356408
519.356 .0356537
520.183 .0356706
521.010 .0356856
521.836 .0356950
522.661 .0357017
523.485 .0357073
524.309 .0357117
525.132 .0357112
525.954 .0357036
526.776 .0356872
527.597 .0356640
528.417 .0356196
529.237 .0355538
530.056 .0354686
530.874 .0353620
531.692 .0352501
532.508 .0351322
533.325 .0350239
534.140 .0349247
534.955 .0348237
535.770 .0347198
536.583 .0346057
537.397 .0344817
538.209 .0343504
539.021 .0342137
539.832 .0340831
540.643 .0339602
541.453 .0338583
542.262 .0337862
543.071 .0337461
543.879 .0337361
544.687 .0337491
545.494 .0337736
546.300 .0338055
547.106 .0338308
547.911 .0338498
548.716 .0338639
549.520 .0338691
550.323 .0338696
551.126 .0338629
551.929 .0338506
552.731 .0338365
553.532 .0338192
554.332 .0338024
555.133 .0337862
555.932 .0337666
556.731 .0337442
557.530 .0337163
558.328 .0336884
559.125 .0336564
559.922 .0336223
560.719 .0335876
561.515 .0335499
562.310 .0335103
563.105 .0334744
563.899 .0334403
564.693 .0334110
565.487 .0333843
566.280 .0333600
567.072 .0333338
567.864 .0333095
568.655 .0332849
569.446 .0332598
570.236 .0332351
571.026 .0332099
571.816 .0331817
572.605 .0331549
573.393 .0331283
574.181 .0331029
574.969 .0330770
575.756 .0330531
576.543 .0330282
577.329 .0330037
578.115 .0329786
578.900 .0329508
579.685 .0329229
580.469 .0328939
581.253 .0328636
582.036 .0328326
582.820 .0328009
583.602 .0327699
584.384 .0327390
585.166 .0327082
585.947 .0326773
586.728 .0326463
587.509 .0326156
588.289 .0325862
589.069 .0325592
589.848 .0325326
590.627 .0325058
591.405 .0324791
592.183 .0324539
592.961 .0324271
593.738 .0323991
594.515 .0323693
595.291 .0323381
596.067 .0323052
596.843 .0322713
597.618 .0322369
598.393 .0322040
599.167 .0321731
599.941 .0321451
600.715 .0321192
601.488 .0320958
602.261 .0320743
603.034 .0320547
603.806 .0320359
604.578 .0320172
605.349 .0319983
606.121 .0319802
606.891 .0319622
607.662 .0319449
608.432 .0319281
609.201 .0319134
609.971 .0319004
610.740 .0318891
611.508 .0318787
612.277 .0318686
613.045 .0318573
613.812 .0318460
614.579 .0318329
615.346 .0318181
616.113 .0318016
616.879 .0317850
617.645 .0317689
618.411 .0317535
619.176 .0317384
619.941 .0317250
620.705 .0317128
621.470 .0317009
622.233 .0316872
622.997 .0316726
623.760 .0316556
624.523 .0316360
625.286 .0316132
626.048 .0315883
626.810 .0315604
627.572 .0315303
628.333 .0314985
629.095 .0314652
629.855 .0314307
630.616 .0313954
631.376 .0313599
632.136 .0313255
632.895 .0312911
633.655 .0312570
634.414 .0312231
635.172 .0311909
635.931 .0311588
636.689 .0311274
637.447 .0310981
638.204 .0310705
638.962 .0310452
639.718 .0310225
640.475 .0310030
641.231 .0309863
641.988 .0309724
642.743 .0309616
643.499 .0309522
644.254 .0309444
645.009 .0309365
645.764 .0309288
646.518 .0309208
647.272 .0309116
648.026 .0309007
648.780 .0308882
649.533 .0308754
650.286 .0308611
651.039 .0308461
651.792 .0308305
652.544 .0308143
653.296 .0307964
654.048 .0307764
654.799 .0307552
655.550 .0307303
656.301 .0307043
657.052 .0306770
657.802 .0306496
658.552 .0306240
659.302 .0306008
660.052 .0305816
660.801 .0305656
661.550 .0305535
662.299 .0305434
663.048 .0305337
663.796 .0305258
664.544 .0305167
665.292 .0305066
666.040 .0304964
666.787 .0304865
667.534 .0304769
668.281 .0304688
669.028 .0304619
669.774 .0304558
670.521 .0304503
671.266 .0304446
672.012 .0304376
672.758 .0304291
673.503 .0304192
674.248 .0304072
674.992 .0303936
675.737 .0303793
676.481 .0303640
677.225 .0303487
677.969 .0303338
678.712 .0303191
679.455 .0303047
680.199 .0302907
680.941 .0302776
681.684 .0302645
682.426 .0302516
683.168 .0302384
683.910 .0302250
684.652 .0302109
685.393 .0301970
686.134 .0301828
686.875 .0301685
687.616 .0301536
688.356 .0301386
689.097 .0301232
689.837 .0301078
690.576 .0300920
691.316 .0300765
692.055 .0300616
692.794 .0300473
693.533 .0300326
694.272 .0300185
695.010 .0300049
695.748 .0299918
696.486 .0299780
697.224 .0299648
697.962 .0299514
698.699 .0299386
699.436 .0299269
700.173 .0299169
700.909 .0299090
701.646 .0299030
702.382 .0298984
703.118 .0298946
703.853 .0298910
704.589 .0298869
705.324 .0298813
706.059 .0298752
706.794 .0298682
707.529 .0298600
708.263 .0298514
708.997 .0298431
709.731 .0298348
710.465 .0298265
711.198 .0298181
711.931 .0298085
712.664 .0297988
713.397 .0297879
714.130 .0297759
714.862 .0297637
715.594 .0297518
716.326 .0297409
717.058 .0297317
717.789 .0297242
718.520 .0297173
719.251 .0297116
719.982 .0297065
720.713 .0297009
721.443 .0296950
722.173 .0296878
722.903 .0296791
723.633 .0296696
724.362 .0296590
725.091 .0296468
725.820 .0296347
726.549 .0296226
727.278 .0296101
728.006 .0295973
728.734 .0295840
729.462 .0295700
730.190 .0295560
730.917 .0295419
731.644 .0295271
732.371 .0295120
733.098 .0294971
733.825 .0294823
734.551 .0294684
735.277 .0294556
736.003 .0294442
736.728 .0294350
737.454 .0294281
738.179 .0294222
738.904 .0294173
739.629 .0294128
740.353 .0294087
741.077 .0294041
741.801 .0293986
742.525 .0293920
743.249 .0293855
743.972 .0293789
744.695 .0293725
745.418 .0293660
746.141 .0293593
746.863 .0293524
747.585 .0293447
748.307 .0293355
749.029 .0293243
749.750 .0293109
750.472 .0292960
751.193 .0292794
751.913 .0292630
752.634 .0292464
753.354 .0292308
754.074 .0292163
754.794 .0292024
755.514 .0291883
756.233 .0291738
756.952 .0291583
757.671 .0291421
758.390 .0291248
759.108 .0291067
759.826 .0290892
760.544 .0290735
761.262 .0290601
761.979 .0290492
762.697 .0290409
763.414 .0290346
764.130 .0290284
764.847 .0290217
765.563 .0290136
766.279 .0290043
766.995 .0289940
767.710 .0289830
768.426 .0289726
769.141 .0289636
769.855 .0289560
770.570 .0289499
771.284 .0289456
771.998 .0289415
772.712 .0289367
773.426 .0289308
774.139 .0289231
774.852 .0289137
775.565 .0289030
776.277 .0288915
776.990 .0288804
777.702 .0288698
778.414 .0288594
779.125 .0288497
779.836 .0288406
780.547 .0288317
781.258 .0288225
781.969 .0288140
782.679 .0288061
783.389 .0287990
784.099 .0287932
784.808 .0287886
785.517 .0287855
786.226 .0287833
786.935 .0287814
787.643 .0287799
788.352 .0287787
789.060 .0287771
789.767 .0287749
790.475 .0287730
791.182 .0287707
791.889 .0287679
792.595 .0287642
793.301 .0287595
794.008 .0287535
794.713 .0287462
795.419 .0287377
796.124 .0287283
796.829 .0287187
797.534 .0287086
798.238 .0286984
798.942 .0286885
799.646 .0286786
800.350 .0286688
801.053 .0286590
801.756 .0286492
802.459 .0286390
803.162 .0286283
803.864 .0286177
804.566 .0286074
805.267 .0285975
805.969 .0285880
806.670 .0285791
807.371 .0285702
808.071 .0285612
808.772 .0285517
809.472 .0285417
810.171 .0285310
810.871 .0285196
811.570 .0285076
812.269 .0284955
812.967 .0284835
813.666 .0284719
814.364 .0284609
815.061 .0284510
815.759 .0284417
816.456 .0284325
817.153 .0284230
817.849 .0284130
818.545 .0284019
819.241 .0283895
819.937 .0283755
820.632 .0283605
821.327 .0283439
822.022 .0283266
822.717 .0283090
823.411 .0282911
824.105 .0282732
824.798 .0282549
825.491 .0282362
826.184 .0282166
826.877 .0281964
827.569 .0281758
828.261 .0281550
828.953 .0281347
829.645 .0281142
830.336 .0280939
831.027 .0280740
831.717 .0280545
832.407 .0280351
833.097 .0280161
833.787 .0279973
834.476 .0279786
835.165 .0279609
835.854 .0279436
836.542 .0279277
837.230 .0279127
837.918 .0278990
838.605 .0278859
839.292 .0278739
839.979 .0278630
840.665 .0278527
841.352 .0278439
842.037 .0278360
842.723 .0278284
843.408 .0278213
844.093 .0278142
844.777 .0278070
845.462 .0277993
846.145 .0277914
846.829 .0277824
847.512 .0277733
848.195 .0277641
848.878 .0277548
849.560 .0277454
850.242 .0277360
850.923 .0277256
851.605 .0277136
852.286 .0277002
852.966 .0276850
853.646 .0276686
854.326 .0276523
855.006 .0276361
855.685 .0276207
856.364 .0276068
857.043 .0275953
857.721 .0275854
858.399 .0275777
859.077 .0275712
859.754 .0275654
860.431 .0275598
861.107 .0275546
861.784 .0275488
862.459 .0275432
863.135 .0275377
863.810 .0275325
864.485 .0275273
865.160 .0275230
865.834 .0275189
866.508 .0275154
867.181 .0275128
867.854 .0275104
868.527 .0275072
869.199 .0275038
869.872 .0274996
870.543 .0274940
871.215 .0274867
871.886 .0274782
872.557 .0274678
873.227 .0274569
873.897 .0274455
874.567 .0274343
875.236 .0274240
875.905 .0274146
876.573 .0274057
877.242 .0273974
877.909 .0273901
878.577 .0273825
879.244 .0273745
879.911 .0273666
880.577 .0273585
881.243 .0273502
881.909 .0273427
882.575 .0273362
883.240 .0273308
883.904 .0273274
884.569 .0273252
885.232 .0273232
885.896 .0273222
886.559 .0273207
887.222 .0273188
887.885 .0273159
888.547 .0273120
889.208 .0273065
889.870 .0273006
890.531 .0272941
891.192 .0272869
891.852 .0272793
892.512 .0272716
893.171 .0272627
893.830 .0272536
894.489 .0272435
895.148 .0272322
895.806 .0272200
896.464 .0272078
897.121 .0271947
897.778 .0271817
898.434 .0271681
899.091 .0271548
899.747 .0271414
900.402 .0271285
901.057 .0271147
901.712 .0271011
902.366 .0270871
903.020 .0270725
903.674 .0270570
904.327 .0270412
904.980 .0270242
905.633 .0270073
906.285 .0269901
906.936 .0269733
907.588 .0269560
908.239 .0269394
908.889 .0269226
909.540 .0269061
910.190 .0268893
910.839 .0268724
911.488 .0268551
912.137 .0268383
912.785 .0268211
913.433 .0268044
914.081 .0267880
914.728 .0267723
915.375 .0267569
916.021 .0267421
916.668 .0267273
917.313 .0267129
917.959 .0266978
918.604 .0266835
919.248 .0266692
919.892 .0266556
920.536 .0266420
921.180 .0266293
921.823 .0266170
922.465 .0266047
923.108 .0265918
923.750 .0265783
924.391 .0265631
925.032 .0265469
925.673 .0265288
926.313 .0265101
926.953 .0264902
927.593 .0264696
928.232 .0264485
928.871 .0264273
929.510 .0264052
930.148 .0263822
930.786 .0263577
931.423 .0263328
932.060 .0263069
932.697 .0262804
933.333 .0262535
933.969 .0262275
934.604 .0262021
935.239 .0261776
935.874 .0261540
936.508 .0261314
937.142 .0261095
937.776 .0260888
938.409 .0260680
939.042 .0260472
939.674 .0260267
940.306 .0260059
940.938 .0259850
941.569 .0259639
942.200 .0259424
942.830 .0259205
943.460 .0258984
944.090 .0258762
944.720 .0258537
945.349 .0258322
945.977 .0258118
946.606 .0257922
947.233 .0257736
947.861 .0257554
948.488 .0257372
949.115 .0257191
949.741 .0257011
950.367 .0256833
950.993 .0256661
951.618 .0256502
952.243 .0256357
952.868 .0256230
953.492 .0256118
954.115 .0256015
954.739 .0255918
955.362 .0255821
955.984 .0255719
956.607 .0255610
957.229 .0255506
957.850 .0255411
958.471 .0255329
959.092 .0255268
959.713 .0255226
960.333 .0255201
960.952 .0255183
961.572 .0255163
962.191 .0255138
962.809 .0255102
963.428 .0255059
964.045 .0255002
964.663 .0254940
965.280 .0254879
965.897 .0254821
966.513 .0254766
967.129 .0254717
967.745 .0254667
968.361 .0254618
968.976 .0254564
969.590 .0254504
970.205 .0254438
970.818 .0254372
971.432 .0254311
972.045 .0254257
972.658 .0254209
973.271 .0254167
973.883 .0254124
974.495 .0254087
975.106 .0254049
975.717 .0254013
976.328 .0253980
976.938 .0253947
977.548 .0253918
978.158 .0253892
978.768 .0253865
979.377 .0253840
979.985 .0253822
980.594 .0253800
981.202 .0253775
981.809 .0253750
982.417 .0253731
983.024 .0253721
983.631 .0253725
984.237 .0253737
984.843 .0253756
985.449 .0253785
986.054 .0253803
986.659 .0253813
987.264 .0253815
987.868 .0253805
988.472 .0253791
989.076 .0253770
989.679 .0253749
990.282 .0253725
990.885 .0253709
991.487 .0253691
992.090 .0253669
992.691 .0253646
993.293 .0253616
993.894 .0253582
994.495 .0253554
995.095 .0253535
995.696 .0253528
996.296 .0253542
996.895 .0253570
997.494 .0253602
998.093 .0253637
998.692 .0253662
999.291 .0253680
999.889 .0253682
1000.487 .0253671
1001.084 .0253649
1001.681 .0253620
1002.278 .0253587
1002.875 .0253548
1003.471 .0253506
1004.067 .0253460
1004.663 .0253403
1005.258 .0253340
1005.854 .0253260
1006.449 .0253171
1007.043 .0253074
1007.638 .0252974
1008.232 .0252881
1008.826 .0252804
1009.419 .0252732
1010.012 .0252676
1010.605 .0252632
1011.198 .0252596
1011.791 .0252561
1012.383 .0252526
1012.975 .0252490
1013.566 .0252453
1014.158 .0252418
1014.749 .0252396
1015.340 .0252380
1015.931 .0252382
1016.521 .0252388
1017.111 .0252395
1017.701 .0252400
1018.291 .0252393
1018.880 .0252364
1019.470 .0252320
1020.059 .0252263
1020.647 .0252193
1021.236 .0252116
1021.824 .0252050
1022.412 .0251993
1023.000 .0251953
1023.588 .0251922
1024.175 .0251902
1024.762 .0251883
1025.349 .0251865
1025.936 .0251832
1026.523 .0251793
1027.109 .0251754
1027.695 .0251721
1028.281 .0251691
1028.867 .0251675
1029.452 .0251671
1030.038 .0251673
1030.623 .0251673
1031.208 .0251672
1031.792 .0251655
1032.377 .0251630
1032.961 .0251585
1033.546 .0251530
1034.130 .0251459
1034.714 .0251384
1035.297 .0251298
1035.881 .0251212
1036.464 .0251125
1037.047 .0251038
1037.630 .0250954
1038.213 .0250885
1038.796 .0250834
1039.378 .0250808
1039.961 .0250799
1040.543 .0250810
1041.125 .0250821
1041.707 .0250829
1042.289 .0250819
1042.871 .0250794
1043.452 .0250745
1044.034 .0250683
1044.615 .0250606
1045.196 .0250533
1045.777 .0250474
1046.358 .0250434
1046.939 .0250412
1047.520 .0250395
1048.101 .0250370
1048.681 .0250322
1049.262 .0250242
1049.842 .0250132
1050.422 .0249984
1051.002 .0249823
1051.582 .0249644
1052.162 .0249462
1052.742 .0249289
1053.322 .0249134
1053.902 .0248999
1054.482 .0248887
1055.061 .0248802
1055.641 .0248729
1056.220 .0248661
1056.800 .0248598
1057.379 .0248532
1057.958 .0248467
1058.538 .0248411
1059.117 .0248353
1059.696 .0248296
1060.275 .0248262
1060.854 .0248231
1061.433 .0248216
1062.012 .0248219
1062.592 .0248232
1063.171 .0248250
1063.750 .0248269
1064.329 .0248284
1064.908 .0248278
1065.487 .0248263
1066.066 .0248244
1066.645 .0248207
1067.224 .0248159
1067.803 .0248101
1068.382 .0248030
1068.961 .0247954
1069.540 .0247878
1070.119 .0247799
1070.698 .0247731
1071.278 .0247678
1071.857 .0247646
1072.436 .0247632
1073.016 .0247655
1073.595 .0247717
1074.175 .0247796
1074.754 .0247888
1075.334 .0247973
1075.913 .0248035
1076.493 .0248083
1077.073 .0248113
1077.653 .0248139
1078.233 .0248167
1078.813 .0248208
1079.393 .0248280
1079.974 .0248378
1080.554 .0248497
1081.135 .0248623
1081.716 .0248741
1082.296 .0248825
1082.877 .0248854
1083.458 .0248825
1084.040 .0248738
1084.621 .0248603
1085.202 .0248448
1085.784 .0248276
1086.366 .0248112
1086.948 .0247976
1087.530 .0247871
1088.112 .0247803
1088.695 .0247764
1089.277 .0247719
1089.860 .0247681
1090.443 .0247642
1091.026 .0247608
1091.610 .0247562
1092.193 .0247542
1092.777 .0247547
1093.361 .0247571
1093.946 .0247598
1094.530 .0247626
1095.115 .0247657
1095.700 .0247677
1096.285 .0247649
1096.871 .0247578
1097.456 .0247456
1098.042 .0247289
1098.628 .0247100
1099.215 .0246919
1099.802 .0246737
1100.389 .0246586
1100.976 .0246461
1101.564 .0246379
1102.152 .0246307
1102.740 .0246242
1103.329 .0246179
1103.917 .0246124
1104.507 .0246059
1105.096 .0245958
1105.686 .0245878
1106.276 .0245851
1106.867 .0245872
1107.457 .0245946
1108.049 .0246061
1108.640 .0246215
1109.232 .0246383
1109.825 .0246548
1110.417 .0246699
1111.010 .0246838
1111.604 .0246929
1112.198 .0246995
1112.792 .0247049
1113.387 .0247098
1113.982 .0247151
1114.577 .0247238
1115.173 .0247351
1115.769 .0247452
1116.366 .0247557
1116.963 .0247636
1117.561 .0247687
1118.159 .0247734
1118.758 .0247749
1119.357 .0247700
1119.957 .0247650
1120.557 .0247578
1121.157 .0247472
1121.758 .0247432
1122.360 .0247474
1122.962 .0247594
1123.564 .0247829
1124.167 .0248178
1124.771 .0248600
1125.375 .0249077
1125.980 .0249636
1126.585 .0250164
1127.191 .0250678
1127.797 .0251198
1128.404 .0251669
1129.012 .0252141
1129.620 .0252690
1130.229 .0253306
1130.838 .0253959
1131.448 .0254682
1132.058 .0255409
1132.669 .0256111
1133.281 .0256798
1133.894 .0257447
1134.507 .0258068
1135.120 .0258667
1135.735 .0259283
1136.350 .0259899
1136.965 .0260562
1137.582 .0261283
1138.199 .0262032
1138.816 .0262821
1139.435 .0263611
1140.054 .0264359
1140.674 .0265029
1141.294 .0265524
1141.916 .0265946
1142.538 .0267326
1143.160 .0267246
1143.784 .0266731
1144.408 .0264800
1145.033 .0266386
