Measurement Sequence started on: 14-45-04-498
Integration time: 36
Scans to Average: 2 
>>>>>Begin Spectral Data<<<<<
433.946 .0534335
434.870 .0520243
435.793 .0461905
436.715 .0455342
437.635 .0450766
438.555 .0456933
439.473 .0450178
440.389 .0445220
441.305 .0442418
442.219 .0439955
443.132 .0437678
444.044 .0435483
444.954 .0433614
445.863 .0432131
446.771 .0430797
447.678 .0429490
448.584 .0428203
449.488 .0426997
450.391 .0425730
451.293 .0424438
452.194 .0423070
453.094 .0421732
453.992 .0420322
454.890 .0418845
455.786 .0417372
456.681 .0415973
457.575 .0414658
458.468 .0413444
459.360 .0412356
460.250 .0411328
461.140 .0410337
462.028 .0409416
462.915 .0408495
463.801 .0407568
464.687 .0406594
465.571 .0405641
466.454 .0404721
467.335 .0403881
468.216 .0403118
469.096 .0402469
469.975 .0401927
470.853 .0401437
471.729 .0400939
472.605 .0400438
473.479 .0399913
474.353 .0399354
475.226 .0398786
476.097 .0398219
476.968 .0397648
477.838 .0397096
478.706 .0396568
479.574 .0396085
480.441 .0395647
481.306 .0395233
482.171 .0394816
483.035 .0394374
483.898 .0393898
484.760 .0393380
485.621 .0392865
486.481 .0392376
487.340 .0391896
488.198 .0391476
489.055 .0391100
489.912 .0390769
490.767 .0390490
491.622 .0390253
492.476 .0390020
493.329 .0389808
494.180 .0389606
495.032 .0389408
495.882 .0389265
496.731 .0389212
497.580 .0389238
498.427 .0389348
499.274 .0389505
500.120 .0389655
500.965 .0389774
501.809 .0389863
502.653 .0389834
503.495 .0389718
504.337 .0389516
505.178 .0389193
506.018 .0388754
506.858 .0388224
507.696 .0387597
508.534 .0386899
509.371 .0386107
510.208 .0385255
511.043 .0384374
511.878 .0383511
512.712 .0382684
513.545 .0381930
514.377 .0381262
515.209 .0380658
516.040 .0380080
516.870 .0379542
517.699 .0378981
518.528 .0378428
519.356 .0377905
520.183 .0377423
521.010 .0377083
521.836 .0376864
522.661 .0376731
523.485 .0376758
524.309 .0376814
525.132 .0376861
525.954 .0376826
526.776 .0376688
527.597 .0376449
528.417 .0376075
529.237 .0375652
530.056 .0375170
530.874 .0374669
531.692 .0374222
532.508 .0373750
533.325 .0373330
534.140 .0372929
534.955 .0372460
535.770 .0371962
536.583 .0371432
537.397 .0370852
538.209 .0370206
539.021 .0369476
539.832 .0368681
540.643 .0367785
541.453 .0366850
542.262 .0365928
543.071 .0365034
543.879 .0364292
544.687 .0363698
545.494 .0363251
546.300 .0362982
547.106 .0362826
547.911 .0362733
548.716 .0362688
549.520 .0362588
550.323 .0362386
551.126 .0362082
551.929 .0361742
552.731 .0361353
553.532 .0360950
554.332 .0360574
555.133 .0360222
555.932 .0359888
556.731 .0359539
557.530 .0359114
558.328 .0358657
559.125 .0358168
559.922 .0357657
560.719 .0357128
561.515 .0356658
562.310 .0356242
563.105 .0355920
563.899 .0355697
564.693 .0355524
565.487 .0355396
566.280 .0355287
567.072 .0355166
567.864 .0355006
568.655 .0354789
569.446 .0354542
570.236 .0354249
571.026 .0353936
571.816 .0353600
572.605 .0353253
573.393 .0352912
574.181 .0352575
574.969 .0352235
575.756 .0351891
576.543 .0351540
577.329 .0351160
578.115 .0350744
578.900 .0350293
579.685 .0349821
580.469 .0349350
581.253 .0348893
582.036 .0348457
582.820 .0348029
583.602 .0347624
584.384 .0347251
585.166 .0346880
585.947 .0346506
586.728 .0346117
587.509 .0345719
588.289 .0345295
589.069 .0344855
589.848 .0344403
590.627 .0343959
591.405 .0343519
592.183 .0343089
592.961 .0342665
593.738 .0342260
594.515 .0341875
595.291 .0341500
596.067 .0341142
596.843 .0340796
597.618 .0340447
598.393 .0340115
599.167 .0339791
599.941 .0339487
600.715 .0339197
601.488 .0338938
602.261 .0338716
603.034 .0338523
603.806 .0338350
604.578 .0338198
605.349 .0338059
606.121 .0337926
606.891 .0337781
607.662 .0337627
608.432 .0337469
609.201 .0337307
609.971 .0337137
610.740 .0336967
611.508 .0336804
612.277 .0336656
613.045 .0336510
613.812 .0336364
614.579 .0336219
615.346 .0336064
616.113 .0335904
616.879 .0335736
617.645 .0335555
618.411 .0335362
619.176 .0335154
619.941 .0334932
620.705 .0334702
621.470 .0334467
622.233 .0334227
622.997 .0333991
623.760 .0333756
624.523 .0333513
625.286 .0333264
626.048 .0333010
626.810 .0332748
627.572 .0332471
628.333 .0332181
629.095 .0331872
629.855 .0331558
630.616 .0331248
631.376 .0330939
632.136 .0330652
632.895 .0330389
633.655 .0330141
634.414 .0329909
635.172 .0329695
635.931 .0329486
636.689 .0329278
637.447 .0329070
638.204 .0328845
638.962 .0328607
639.718 .0328362
640.475 .0328107
641.231 .0327845
641.988 .0327584
642.743 .0327320
643.499 .0327048
644.254 .0326776
645.009 .0326494
645.764 .0326211
646.518 .0325927
647.272 .0325644
648.026 .0325360
648.780 .0325082
649.533 .0324820
650.286 .0324571
651.039 .0324340
651.792 .0324122
652.544 .0323916
653.296 .0323719
654.048 .0323524
654.799 .0323336
655.550 .0323153
656.301 .0322979
657.052 .0322816
657.802 .0322664
658.552 .0322524
659.302 .0322395
660.052 .0322271
660.801 .0322144
661.550 .0322015
662.299 .0321881
663.048 .0321735
663.796 .0321586
664.544 .0321439
665.292 .0321293
666.040 .0321154
666.787 .0321029
667.534 .0320915
668.281 .0320812
669.028 .0320721
669.774 .0320630
670.521 .0320538
671.266 .0320443
672.012 .0320340
672.758 .0320232
673.503 .0320119
674.248 .0319999
674.992 .0319870
675.737 .0319739
676.481 .0319605
677.225 .0319467
677.969 .0319329
678.712 .0319188
679.455 .0319040
680.199 .0318882
680.941 .0318715
681.684 .0318534
682.426 .0318344
683.168 .0318143
683.910 .0317931
684.652 .0317710
685.393 .0317482
686.134 .0317254
686.875 .0317028
687.616 .0316809
688.356 .0316601
689.097 .0316398
689.837 .0316200
690.576 .0316004
691.316 .0315810
692.055 .0315617
692.794 .0315422
693.533 .0315225
694.272 .0315027
695.010 .0314831
695.748 .0314638
696.486 .0314448
697.224 .0314265
697.962 .0314088
698.699 .0313916
699.436 .0313745
700.173 .0313574
700.909 .0313400
701.646 .0313226
702.382 .0313051
703.118 .0312879
703.853 .0312712
704.589 .0312555
705.324 .0312413
706.059 .0312286
706.794 .0312171
707.529 .0312069
708.263 .0311979
708.997 .0311895
709.731 .0311810
710.465 .0311724
711.198 .0311638
711.931 .0311552
712.664 .0311468
713.397 .0311384
714.130 .0311303
714.862 .0311223
715.594 .0311141
716.326 .0311054
717.058 .0310966
717.789 .0310877
718.520 .0310784
719.251 .0310696
719.982 .0310612
720.713 .0310532
721.443 .0310462
722.173 .0310401
722.903 .0310346
723.633 .0310296
724.362 .0310250
725.091 .0310202
725.820 .0310154
726.549 .0310108
727.278 .0310059
728.006 .0310009
728.734 .0309960
729.462 .0309906
730.190 .0309849
730.917 .0309790
731.644 .0309728
732.371 .0309661
733.098 .0309593
733.825 .0309520
734.551 .0309444
735.277 .0309365
736.003 .0309283
736.728 .0309200
737.454 .0309118
738.179 .0309038
738.904 .0308958
739.629 .0308879
740.353 .0308802
741.077 .0308727
741.801 .0308647
742.525 .0308562
743.249 .0308470
743.972 .0308370
744.695 .0308258
745.418 .0308133
746.141 .0308005
746.863 .0307873
747.585 .0307739
748.307 .0307604
749.029 .0307464
749.750 .0307320
750.472 .0307171
751.193 .0307012
751.913 .0306845
752.634 .0306669
753.354 .0306484
754.074 .0306295
754.794 .0306101
755.514 .0305909
756.233 .0305720
756.952 .0305535
757.671 .0305358
758.390 .0305182
759.108 .0305010
759.826 .0304840
760.544 .0304676
761.262 .0304519
761.979 .0304366
762.697 .0304221
763.414 .0304083
764.130 .0303957
764.847 .0303842
765.563 .0303740
766.279 .0303650
766.995 .0303573
767.710 .0303505
768.426 .0303438
769.141 .0303374
769.855 .0303308
770.570 .0303237
771.284 .0303160
771.998 .0303079
772.712 .0302990
773.426 .0302894
774.139 .0302799
774.852 .0302703
775.565 .0302609
776.277 .0302521
776.990 .0302441
777.702 .0302368
778.414 .0302307
779.125 .0302256
779.836 .0302212
780.547 .0302183
781.258 .0302166
781.969 .0302158
782.679 .0302163
783.389 .0302178
784.099 .0302201
784.808 .0302233
785.517 .0302272
786.226 .0302310
786.935 .0302346
787.643 .0302379
788.352 .0302399
789.060 .0302409
789.767 .0302406
790.475 .0302389
791.182 .0302364
791.889 .0302332
792.595 .0302295
793.301 .0302257
794.008 .0302215
794.713 .0302169
795.419 .0302122
796.124 .0302075
796.829 .0302028
797.534 .0301983
798.238 .0301945
798.942 .0301919
799.646 .0301909
800.350 .0301913
801.053 .0301933
801.756 .0301967
802.459 .0302010
803.162 .0302050
803.864 .0302088
804.566 .0302119
805.267 .0302140
805.969 .0302153
806.670 .0302158
807.371 .0302154
808.071 .0302144
808.772 .0302128
809.472 .0302098
810.171 .0302054
810.871 .0301993
811.570 .0301910
812.269 .0301813
812.967 .0301696
813.666 .0301566
814.364 .0301427
815.061 .0301291
815.759 .0301159
816.456 .0301034
817.153 .0300917
817.849 .0300809
818.545 .0300708
819.241 .0300614
819.937 .0300516
820.632 .0300419
821.327 .0300322
822.022 .0300223
822.717 .0300117
823.411 .0300003
824.105 .0299881
824.798 .0299751
825.491 .0299605
826.184 .0299443
826.877 .0299264
827.569 .0299070
828.261 .0298865
828.953 .0298648
829.645 .0298422
830.336 .0298197
831.027 .0297971
831.717 .0297750
832.407 .0297530
833.097 .0297313
833.787 .0297098
834.476 .0296888
835.165 .0296685
835.854 .0296488
836.542 .0296302
837.230 .0296128
837.918 .0295968
838.605 .0295816
839.292 .0295671
839.979 .0295529
840.665 .0295391
841.352 .0295252
842.037 .0295109
842.723 .0294961
843.408 .0294813
844.093 .0294667
844.777 .0294526
845.462 .0294388
846.145 .0294253
846.829 .0294123
847.512 .0293998
848.195 .0293872
848.878 .0293749
849.560 .0293626
850.242 .0293504
850.923 .0293383
851.605 .0293257
852.286 .0293125
852.966 .0292986
853.646 .0292842
854.326 .0292690
855.006 .0292532
855.685 .0292370
856.364 .0292211
857.043 .0292057
857.721 .0291913
858.399 .0291778
859.077 .0291655
859.754 .0291543
860.431 .0291439
861.107 .0291340
861.784 .0291249
862.459 .0291164
863.135 .0291087
863.810 .0291022
864.485 .0290974
865.160 .0290938
865.834 .0290922
866.508 .0290917
867.181 .0290924
867.854 .0290939
868.527 .0290953
869.199 .0290963
869.872 .0290967
870.543 .0290963
871.215 .0290945
871.886 .0290917
872.557 .0290886
873.227 .0290846
873.897 .0290801
874.567 .0290755
875.236 .0290705
875.905 .0290653
876.573 .0290604
877.242 .0290551
877.909 .0290502
878.577 .0290458
879.244 .0290413
879.911 .0290373
880.577 .0290343
881.243 .0290318
881.909 .0290293
882.575 .0290274
883.240 .0290257
883.904 .0290236
884.569 .0290217
885.232 .0290191
885.896 .0290162
886.559 .0290130
887.222 .0290094
887.885 .0290051
888.547 .0290003
889.208 .0289952
889.870 .0289895
890.531 .0289838
891.192 .0289783
891.852 .0289726
892.512 .0289677
893.171 .0289639
893.830 .0289611
894.489 .0289596
895.148 .0289596
895.806 .0289606
896.464 .0289626
897.121 .0289652
897.778 .0289682
898.434 .0289714
899.091 .0289751
899.747 .0289791
900.402 .0289831
901.057 .0289872
901.712 .0289915
902.366 .0289954
903.020 .0289993
903.674 .0290020
904.327 .0290032
904.980 .0290025
905.633 .0290002
906.285 .0289958
906.936 .0289900
907.588 .0289832
908.239 .0289757
908.889 .0289668
909.540 .0289570
910.190 .0289458
910.839 .0289330
911.488 .0289192
912.137 .0289034
912.785 .0288856
913.433 .0288663
914.081 .0288456
914.728 .0288242
915.375 .0288028
916.021 .0287818
916.668 .0287611
917.313 .0287411
917.959 .0287215
918.604 .0287018
919.248 .0286824
919.892 .0286629
920.536 .0286426
921.180 .0286218
921.823 .0286006
922.465 .0285788
923.108 .0285572
923.750 .0285356
924.391 .0285137
925.032 .0284915
925.673 .0284686
926.313 .0284447
926.953 .0284195
927.593 .0283934
928.232 .0283655
928.871 .0283364
929.510 .0283065
930.148 .0282757
930.786 .0282451
931.423 .0282149
932.060 .0281852
932.697 .0281558
933.333 .0281270
933.969 .0280982
934.604 .0280693
935.239 .0280405
935.874 .0280113
936.508 .0279826
937.142 .0279549
937.776 .0279284
938.409 .0279033
939.042 .0278798
939.674 .0278571
940.306 .0278349
940.938 .0278127
941.569 .0277898
942.200 .0277662
942.830 .0277419
943.460 .0277170
944.090 .0276908
944.720 .0276643
945.349 .0276373
945.977 .0276099
946.606 .0275822
947.233 .0275541
947.861 .0275257
948.488 .0274974
949.115 .0274691
949.741 .0274413
950.367 .0274142
950.993 .0273885
951.618 .0273639
952.243 .0273407
952.868 .0273189
953.492 .0272988
954.115 .0272803
954.739 .0272637
955.362 .0272486
955.984 .0272351
956.607 .0272233
957.229 .0272137
957.850 .0272060
958.471 .0271993
959.092 .0271934
959.713 .0271878
960.333 .0271819
960.952 .0271756
961.572 .0271688
962.191 .0271619
962.809 .0271550
963.428 .0271481
964.045 .0271411
964.663 .0271347
965.280 .0271293
965.897 .0271250
966.513 .0271219
967.129 .0271198
967.745 .0271182
968.361 .0271173
968.976 .0271171
969.590 .0271172
970.205 .0271175
970.818 .0271180
971.432 .0271192
972.045 .0271210
972.658 .0271235
973.271 .0271267
973.883 .0271307
974.495 .0271353
975.106 .0271397
975.717 .0271432
976.328 .0271453
976.938 .0271465
977.548 .0271465
978.158 .0271455
978.768 .0271437
979.377 .0271414
979.985 .0271388
980.594 .0271363
981.202 .0271338
981.809 .0271313
982.417 .0271291
983.024 .0271272
983.631 .0271260
984.237 .0271256
984.843 .0271256
985.449 .0271259
986.054 .0271265
986.659 .0271276
987.264 .0271285
987.868 .0271291
988.472 .0271298
989.076 .0271306
989.679 .0271317
990.282 .0271330
990.885 .0271346
991.487 .0271370
992.090 .0271398
992.691 .0271426
993.293 .0271456
993.894 .0271485
994.495 .0271517
995.095 .0271550
995.696 .0271588
996.296 .0271630
996.895 .0271678
997.494 .0271739
998.093 .0271814
998.692 .0271904
999.291 .0272006
999.889 .0272114
1000.487 .0272230
1001.084 .0272340
1001.681 .0272435
1002.278 .0272511
1002.875 .0272568
1003.471 .0272608
1004.067 .0272634
1004.663 .0272652
1005.258 .0272666
1005.854 .0272682
1006.449 .0272705
1007.043 .0272724
1007.638 .0272737
1008.232 .0272744
1008.826 .0272745
1009.419 .0272736
1010.012 .0272723
1010.605 .0272707
1011.198 .0272695
1011.791 .0272690
1012.383 .0272696
1012.975 .0272712
1013.566 .0272738
1014.158 .0272766
1014.749 .0272791
1015.340 .0272816
1015.931 .0272839
1016.521 .0272859
1017.111 .0272883
1017.701 .0272909
1018.291 .0272934
1018.880 .0272954
1019.470 .0272969
1020.059 .0272983
1020.647 .0272992
1021.236 .0272996
1021.824 .0272997
1022.412 .0273001
1023.000 .0273009
1023.588 .0273018
1024.175 .0273033
1024.762 .0273049
1025.349 .0273056
1025.936 .0273048
1026.523 .0273021
1027.109 .0272973
1027.695 .0272909
1028.281 .0272833
1028.867 .0272746
1029.452 .0272661
1030.038 .0272571
1030.623 .0272476
1031.208 .0272382
1031.792 .0272290
1032.377 .0272195
1032.961 .0272096
1033.546 .0271997
1034.130 .0271893
1034.714 .0271804
1035.297 .0271734
1035.881 .0271674
1036.464 .0271636
1037.047 .0271619
1037.630 .0271606
1038.213 .0271594
1038.796 .0271580
1039.378 .0271552
1039.961 .0271512
1040.543 .0271461
1041.125 .0271392
1041.707 .0271311
1042.289 .0271223
1042.871 .0271129
1043.452 .0271024
1044.034 .0270913
1044.615 .0270771
1045.196 .0270603
1045.777 .0270414
1046.358 .0270199
1046.939 .0269964
1047.520 .0269726
1048.101 .0269490
1048.681 .0269267
1049.262 .0269059
1049.842 .0268859
1050.422 .0268674
1051.002 .0268508
1051.582 .0268340
1052.162 .0268174
1052.742 .0268009
1053.322 .0267852
1053.902 .0267703
1054.482 .0267575
1055.061 .0267465
1055.641 .0267373
1056.220 .0267300
1056.800 .0267228
1057.379 .0267147
1057.958 .0267058
1058.538 .0266947
1059.117 .0266820
1059.696 .0266688
1060.275 .0266553
1060.854 .0266411
1061.433 .0266282
1062.012 .0266161
1062.592 .0266050
1063.171 .0265943
1063.750 .0265839
1064.329 .0265736
1064.908 .0265626
1065.487 .0265509
1066.066 .0265388
1066.645 .0265273
1067.224 .0265174
1067.803 .0265077
1068.382 .0264990
1068.961 .0264920
1069.540 .0264851
1070.119 .0264785
1070.698 .0264735
1071.278 .0264691
1071.857 .0264650
1072.436 .0264613
1073.016 .0264583
1073.595 .0264561
1074.175 .0264548
1074.754 .0264541
1075.334 .0264531
1075.913 .0264525
1076.493 .0264506
1077.073 .0264464
1077.653 .0264428
1078.233 .0264387
1078.813 .0264329
1079.393 .0264281
1079.974 .0264224
1080.554 .0264153
1081.135 .0264069
1081.716 .0263980
1082.296 .0263879
1082.877 .0263772
1083.458 .0263661
1084.040 .0263543
1084.621 .0263430
1085.202 .0263320
1085.784 .0263194
1086.366 .0263072
1086.948 .0262954
1087.530 .0262817
1088.112 .0262674
1088.695 .0262541
1089.277 .0262416
1089.860 .0262309
1090.443 .0262209
1091.026 .0262115
1091.610 .0262016
1092.193 .0261895
1092.777 .0261765
1093.361 .0261614
1093.946 .0261451
1094.530 .0261281
1095.115 .0261127
1095.700 .0260996
1096.285 .0260891
1096.871 .0260809
1097.456 .0260761
1098.042 .0260738
1098.628 .0260714
1099.215 .0260663
1099.802 .0260599
1100.389 .0260535
1100.976 .0260463
1101.564 .0260396
1102.152 .0260360
1102.740 .0260335
1103.329 .0260338
1103.917 .0260362
1104.507 .0260405
1105.096 .0260447
1105.686 .0260495
1106.276 .0260541
1106.867 .0260584
1107.457 .0260633
1108.049 .0260683
1108.640 .0260765
1109.232 .0260898
1109.825 .0261050
1110.417 .0261204
1111.010 .0261378
1111.604 .0261568
1112.198 .0261757
1112.792 .0261960
1113.387 .0262178
1113.982 .0262412
1114.577 .0262689
1115.173 .0263015
1115.769 .0263377
1116.366 .0263788
1116.963 .0264242
1117.561 .0264693
1118.159 .0265155
1118.758 .0265588
1119.357 .0265989
1119.957 .0266408
1120.557 .0266858
1121.157 .0267324
1121.758 .0267821
1122.360 .0268354
1122.962 .0268865
1123.564 .0269353
1124.167 .0269793
1124.771 .0270109
1125.375 .0270299
1125.980 .0270372
1126.585 .0270322
1127.191 .0270207
1127.797 .0270099
1128.404 .0270013
1129.012 .0270008
1129.620 .0270094
1130.229 .0270218
1130.838 .0270371
1131.448 .0270525
1132.058 .0270631
1132.669 .0270673
1133.281 .0270680
1133.894 .0270643
1134.507 .0270616
1135.120 .0270684
1135.735 .0270887
1136.350 .0271242
1136.965 .0271747
1137.582 .0272359
1138.199 .0273029
1138.816 .0273703
1139.435 .0274315
1140.054 .0274915
1140.674 .0275515
1141.294 .0276132
1141.916 .0276715
1142.538 .0275987
1143.160 .0278569
1143.784 .0279393
1144.408 .0280756
1145.033 .0279333
