Measurement Sequence started on: 14-45-04-498
Integration time: 36
Scans to Average: 2 
>>>>>Begin Spectral Data<<<<<
433.946 .0412075
434.870 .0453520
435.793 .0441010
436.715 .0432881
437.635 .0428075
438.555 .0425237
439.473 .0422470
440.389 .0418614
441.305 .0415545
442.219 .0412976
443.132 .0410955
444.044 .0409515
444.954 .0408531
445.863 .0408046
446.771 .0408005
447.678 .0408076
448.584 .0408113
449.488 .0408027
450.391 .0407741
451.293 .0407221
452.194 .0406641
453.094 .0405979
453.992 .0405321
454.890 .0404768
455.786 .0404361
456.681 .0404008
457.575 .0403677
458.468 .0403284
459.360 .0402787
460.250 .0402117
461.140 .0401276
462.028 .0400324
462.915 .0399286
463.801 .0398241
464.687 .0397164
465.571 .0396093
466.454 .0395125
467.335 .0394235
468.216 .0393448
469.096 .0392771
469.975 .0392196
470.853 .0391671
471.729 .0391155
472.605 .0390631
473.479 .0390089
474.353 .0389540
475.226 .0389009
476.097 .0388501
476.968 .0388051
477.838 .0387648
478.706 .0387333
479.574 .0387083
480.441 .0386887
481.306 .0386663
482.171 .0386412
483.035 .0386085
483.898 .0385697
484.760 .0385274
485.621 .0384850
486.481 .0384473
487.340 .0384213
488.198 .0384013
489.055 .0383842
489.912 .0383699
490.767 .0383544
491.622 .0383322
492.476 .0383050
493.329 .0382692
494.180 .0382292
495.032 .0381902
495.882 .0381564
496.731 .0381264
497.580 .0381047
498.427 .0380906
499.274 .0380727
500.120 .0380508
500.965 .0380203
501.809 .0379776
502.653 .0379261
503.495 .0378703
504.337 .0378088
505.178 .0377463
506.018 .0376889
506.858 .0376368
507.696 .0375898
508.534 .0375488
509.371 .0375078
510.208 .0374652
511.043 .0374228
511.878 .0373780
512.712 .0373293
513.545 .0372859
514.377 .0372480
515.209 .0372143
516.040 .0371856
516.870 .0371655
517.699 .0371466
518.528 .0371279
519.356 .0371110
520.183 .0370891
521.010 .0370661
521.836 .0370450
522.661 .0370233
523.485 .0370017
524.309 .0369839
525.132 .0369643
525.954 .0369408
526.776 .0369146
527.597 .0368774
528.417 .0368256
529.237 .0367706
530.056 .0367048
530.874 .0366270
531.692 .0365514
532.508 .0364806
533.325 .0364143
534.140 .0363546
534.955 .0362997
535.770 .0362464
536.583 .0361955
537.397 .0361399
538.209 .0360803
539.021 .0360220
539.832 .0359662
540.643 .0359094
541.453 .0358605
542.262 .0358200
543.071 .0357824
543.879 .0357474
544.687 .0357160
545.494 .0356798
546.300 .0356407
547.106 .0355928
547.911 .0355444
548.716 .0354966
549.520 .0354491
550.323 .0354053
551.126 .0353683
551.929 .0353378
552.731 .0353075
553.532 .0352772
554.332 .0352461
555.133 .0352102
555.932 .0351711
556.731 .0351254
557.530 .0350772
558.328 .0350321
559.125 .0349924
559.922 .0349611
560.719 .0349413
561.515 .0349293
562.310 .0349187
563.105 .0349126
563.899 .0349043
564.693 .0348934
565.487 .0348774
566.280 .0348568
567.072 .0348314
567.864 .0348023
568.655 .0347719
569.446 .0347391
570.236 .0347072
571.026 .0346774
571.816 .0346452
572.605 .0346148
573.393 .0345837
574.181 .0345559
574.969 .0345284
575.756 .0345015
576.543 .0344714
577.329 .0344394
578.115 .0344049
578.900 .0343679
579.685 .0343296
580.469 .0342908
581.253 .0342510
582.036 .0342116
582.820 .0341714
583.602 .0341319
584.384 .0340913
585.166 .0340517
585.947 .0340106
586.728 .0339693
587.509 .0339273
588.289 .0338857
589.069 .0338467
589.848 .0338108
590.627 .0337765
591.405 .0337438
592.183 .0337120
592.961 .0336812
593.738 .0336509
594.515 .0336199
595.291 .0335878
596.067 .0335558
596.843 .0335241
597.618 .0334924
598.393 .0334615
599.167 .0334321
599.941 .0334041
600.715 .0333767
601.488 .0333506
602.261 .0333249
603.034 .0333003
603.806 .0332767
604.578 .0332544
605.349 .0332336
606.121 .0332134
606.891 .0331938
607.662 .0331752
608.432 .0331574
609.201 .0331399
609.971 .0331226
610.740 .0331060
611.508 .0330895
612.277 .0330730
613.045 .0330563
613.812 .0330399
614.579 .0330231
615.346 .0330061
616.113 .0329877
616.879 .0329687
617.645 .0329486
618.411 .0329270
619.176 .0329050
619.941 .0328826
620.705 .0328600
621.470 .0328374
622.233 .0328153
622.997 .0327941
623.760 .0327732
624.523 .0327531
625.286 .0327335
626.048 .0327140
626.810 .0326936
627.572 .0326722
628.333 .0326497
629.095 .0326269
629.855 .0326030
630.616 .0325789
631.376 .0325546
632.136 .0325309
632.895 .0325076
633.655 .0324841
634.414 .0324611
635.172 .0324382
635.931 .0324148
636.689 .0323910
637.447 .0323664
638.204 .0323416
638.962 .0323168
639.718 .0322929
640.475 .0322695
641.231 .0322468
641.988 .0322246
642.743 .0322027
643.499 .0321800
644.254 .0321572
645.009 .0321333
645.764 .0321093
646.518 .0320859
647.272 .0320628
648.026 .0320405
648.780 .0320200
649.533 .0320008
650.286 .0319824
651.039 .0319641
651.792 .0319455
652.544 .0319255
653.296 .0319045
654.048 .0318828
654.799 .0318605
655.550 .0318385
656.301 .0318182
657.052 .0317997
657.802 .0317833
658.552 .0317686
659.302 .0317552
660.052 .0317431
660.801 .0317308
661.550 .0317177
662.299 .0317034
663.048 .0316882
663.796 .0316723
664.544 .0316558
665.292 .0316396
666.040 .0316240
666.787 .0316094
667.534 .0315955
668.281 .0315822
669.028 .0315692
669.774 .0315555
670.521 .0315413
671.266 .0315263
672.012 .0315107
672.758 .0314944
673.503 .0314778
674.248 .0314611
674.992 .0314447
675.737 .0314284
676.481 .0314121
677.225 .0313959
677.969 .0313801
678.712 .0313642
679.455 .0313481
680.199 .0313323
680.941 .0313169
681.684 .0313021
682.426 .0312880
683.168 .0312737
683.910 .0312596
684.652 .0312449
685.393 .0312295
686.134 .0312131
686.875 .0311961
687.616 .0311788
688.356 .0311616
689.097 .0311448
689.837 .0311289
690.576 .0311137
691.316 .0310992
692.055 .0310847
692.794 .0310698
693.533 .0310539
694.272 .0310367
695.010 .0310187
695.748 .0310002
696.486 .0309814
697.224 .0309636
697.962 .0309465
698.699 .0309306
699.436 .0309154
700.173 .0309004
700.909 .0308854
701.646 .0308699
702.382 .0308537
703.118 .0308362
703.853 .0308181
704.589 .0307999
705.324 .0307819
706.059 .0307648
706.794 .0307487
707.529 .0307337
708.263 .0307198
708.997 .0307070
709.731 .0306945
710.465 .0306827
711.198 .0306717
711.931 .0306615
712.664 .0306522
713.397 .0306436
714.130 .0306358
714.862 .0306284
715.594 .0306210
716.326 .0306134
717.058 .0306052
717.789 .0305969
718.520 .0305880
719.251 .0305787
719.982 .0305692
720.713 .0305598
721.443 .0305501
722.173 .0305403
722.903 .0305298
723.633 .0305183
724.362 .0305056
725.091 .0304918
725.820 .0304774
726.549 .0304628
727.278 .0304483
728.006 .0304344
728.734 .0304210
729.462 .0304087
730.190 .0303970
730.917 .0303862
731.644 .0303758
732.371 .0303651
733.098 .0303542
733.825 .0303427
734.551 .0303309
735.277 .0303185
736.003 .0303063
736.728 .0302940
737.454 .0302820
738.179 .0302704
738.904 .0302588
739.629 .0302482
740.353 .0302386
741.077 .0302297
741.801 .0302215
742.525 .0302137
743.249 .0302060
743.972 .0301977
744.695 .0301894
745.418 .0301800
746.141 .0301701
746.863 .0301601
747.585 .0301500
748.307 .0301398
749.029 .0301301
749.750 .0301205
750.472 .0301109
751.193 .0301010
751.913 .0300899
752.634 .0300773
753.354 .0300632
754.074 .0300478
754.794 .0300312
755.514 .0300135
756.233 .0299961
756.952 .0299787
757.671 .0299621
758.390 .0299461
759.108 .0299308
759.826 .0299164
760.544 .0299024
761.262 .0298884
761.979 .0298741
762.697 .0298594
763.414 .0298448
764.130 .0298301
764.847 .0298160
765.563 .0298027
766.279 .0297901
766.995 .0297779
767.710 .0297660
768.426 .0297542
769.141 .0297425
769.855 .0297306
770.570 .0297187
771.284 .0297066
771.998 .0296943
772.712 .0296827
773.426 .0296716
774.139 .0296618
774.852 .0296530
775.565 .0296449
776.277 .0296374
776.990 .0296300
777.702 .0296226
778.414 .0296151
779.125 .0296075
779.836 .0296002
780.547 .0295924
781.258 .0295847
781.969 .0295772
782.679 .0295696
783.389 .0295619
784.099 .0295542
784.808 .0295464
785.517 .0295383
786.226 .0295303
786.935 .0295225
787.643 .0295152
788.352 .0295088
789.060 .0295028
789.767 .0294970
790.475 .0294915
791.182 .0294860
791.889 .0294800
792.595 .0294742
793.301 .0294684
794.008 .0294625
794.713 .0294569
795.419 .0294518
796.124 .0294470
796.829 .0294425
797.534 .0294384
798.238 .0294340
798.942 .0294294
799.646 .0294243
800.350 .0294180
801.053 .0294113
801.756 .0294041
802.459 .0293962
803.162 .0293881
803.864 .0293800
804.566 .0293719
805.267 .0293636
805.969 .0293552
806.670 .0293462
807.371 .0293369
808.071 .0293275
808.772 .0293178
809.472 .0293078
810.171 .0292984
810.871 .0292893
811.570 .0292800
812.269 .0292710
812.967 .0292614
813.666 .0292513
814.364 .0292407
815.061 .0292295
815.759 .0292182
816.456 .0292071
817.153 .0291965
817.849 .0291863
818.545 .0291772
819.241 .0291687
819.937 .0291600
820.632 .0291511
821.327 .0291414
822.022 .0291307
822.717 .0291187
823.411 .0291060
824.105 .0290930
824.798 .0290803
825.491 .0290676
826.184 .0290552
826.877 .0290431
827.569 .0290309
828.261 .0290183
828.953 .0290045
829.645 .0289895
830.336 .0289735
831.027 .0289568
831.717 .0289400
832.407 .0289232
833.097 .0289073
833.787 .0288917
834.476 .0288767
835.165 .0288623
835.854 .0288484
836.542 .0288351
837.230 .0288223
837.918 .0288099
838.605 .0287979
839.292 .0287866
839.979 .0287761
840.665 .0287664
841.352 .0287577
842.037 .0287494
842.723 .0287412
843.408 .0287326
844.093 .0287231
844.777 .0287126
845.462 .0287010
846.145 .0286885
846.829 .0286754
847.512 .0286622
848.195 .0286493
848.878 .0286372
849.560 .0286262
850.242 .0286158
850.923 .0286056
851.605 .0285947
852.286 .0285829
852.966 .0285699
853.646 .0285562
854.326 .0285418
855.006 .0285275
855.685 .0285137
856.364 .0285004
857.043 .0284878
857.721 .0284755
858.399 .0284636
859.077 .0284515
859.754 .0284386
860.431 .0284248
861.107 .0284098
861.784 .0283945
862.459 .0283794
863.135 .0283646
863.810 .0283504
864.485 .0283367
865.160 .0283232
865.834 .0283102
866.508 .0282971
867.181 .0282840
867.854 .0282711
868.527 .0282586
869.199 .0282466
869.872 .0282348
870.543 .0282239
871.215 .0282134
871.886 .0282029
872.557 .0281928
873.227 .0281818
873.897 .0281703
874.567 .0281589
875.236 .0281477
875.905 .0281368
876.573 .0281266
877.242 .0281170
877.909 .0281079
878.577 .0280997
879.244 .0280919
879.911 .0280836
880.577 .0280752
881.243 .0280663
881.909 .0280564
882.575 .0280461
883.240 .0280354
883.904 .0280246
884.569 .0280140
885.232 .0280036
885.896 .0279931
886.559 .0279827
887.222 .0279722
887.885 .0279614
888.547 .0279501
889.208 .0279384
889.870 .0279259
890.531 .0279130
891.192 .0278999
891.852 .0278871
892.512 .0278744
893.171 .0278627
893.830 .0278516
894.489 .0278416
895.148 .0278322
895.806 .0278236
896.464 .0278160
897.121 .0278092
897.778 .0278027
898.434 .0277972
899.091 .0277915
899.747 .0277858
900.402 .0277800
901.057 .0277741
901.712 .0277677
902.366 .0277609
903.020 .0277533
903.674 .0277455
904.327 .0277374
904.980 .0277294
905.633 .0277207
906.285 .0277126
906.936 .0277043
907.588 .0276952
908.239 .0276857
908.889 .0276761
909.540 .0276662
910.190 .0276560
910.839 .0276460
911.488 .0276361
912.137 .0276261
912.785 .0276166
913.433 .0276077
914.081 .0275991
914.728 .0275905
915.375 .0275818
916.021 .0275727
916.668 .0275632
917.313 .0275532
917.959 .0275424
918.604 .0275312
919.248 .0275195
919.892 .0275070
920.536 .0274937
921.180 .0274800
921.823 .0274658
922.465 .0274508
923.108 .0274353
923.750 .0274192
924.391 .0274021
925.032 .0273849
925.673 .0273673
926.313 .0273496
926.953 .0273318
927.593 .0273139
928.232 .0272955
928.871 .0272770
929.510 .0272582
930.148 .0272393
930.786 .0272201
931.423 .0272012
932.060 .0271828
932.697 .0271647
933.333 .0271473
933.969 .0271304
934.604 .0271134
935.239 .0270968
935.874 .0270796
936.508 .0270621
937.142 .0270439
937.776 .0270255
938.409 .0270071
939.042 .0269889
939.674 .0269709
940.306 .0269531
940.938 .0269357
941.569 .0269185
942.200 .0269008
942.830 .0268825
943.460 .0268641
944.090 .0268452
944.720 .0268259
945.349 .0268068
945.977 .0267881
946.606 .0267702
947.233 .0267530
947.861 .0267361
948.488 .0267198
949.115 .0267033
949.741 .0266865
950.367 .0266693
950.993 .0266517
951.618 .0266344
952.243 .0266173
952.868 .0266008
953.492 .0265851
954.115 .0265697
954.739 .0265546
955.362 .0265392
955.984 .0265235
956.607 .0265064
957.229 .0264883
957.850 .0264694
958.471 .0264493
959.092 .0264286
959.713 .0264078
960.333 .0263870
960.952 .0263669
961.572 .0263475
962.191 .0263285
962.809 .0263102
963.428 .0262933
964.045 .0262769
964.663 .0262618
965.280 .0262479
965.897 .0262358
966.513 .0262253
967.129 .0262172
967.745 .0262110
968.361 .0262063
968.976 .0262031
969.590 .0262007
970.205 .0261985
970.818 .0261963
971.432 .0261937
972.045 .0261911
972.658 .0261881
973.271 .0261850
973.883 .0261810
974.495 .0261768
975.106 .0261723
975.717 .0261674
976.328 .0261620
976.938 .0261565
977.548 .0261510
978.158 .0261453
978.768 .0261398
979.377 .0261347
979.985 .0261293
980.594 .0261241
981.202 .0261186
981.809 .0261127
982.417 .0261064
983.024 .0261002
983.631 .0260941
984.237 .0260883
984.843 .0260830
985.449 .0260772
986.054 .0260712
986.659 .0260647
987.264 .0260572
987.868 .0260488
988.472 .0260399
989.076 .0260306
989.679 .0260210
990.282 .0260120
990.885 .0260039
991.487 .0259966
992.090 .0259902
992.691 .0259843
993.293 .0259789
993.894 .0259737
994.495 .0259682
995.095 .0259624
995.696 .0259568
996.296 .0259511
996.895 .0259450
997.494 .0259390
998.093 .0259331
998.692 .0259276
999.291 .0259228
999.889 .0259183
1000.487 .0259138
1001.084 .0259099
1001.681 .0259058
1002.278 .0259011
1002.875 .0258965
1003.471 .0258915
1004.067 .0258862
1004.663 .0258815
1005.258 .0258770
1005.854 .0258735
1006.449 .0258708
1007.043 .0258688
1007.638 .0258666
1008.232 .0258644
1008.826 .0258617
1009.419 .0258582
1010.012 .0258550
1010.605 .0258524
1011.198 .0258506
1011.791 .0258501
1012.383 .0258510
1012.975 .0258528
1013.566 .0258554
1014.158 .0258577
1014.749 .0258587
1015.340 .0258585
1015.931 .0258565
1016.521 .0258534
1017.111 .0258493
1017.701 .0258454
1018.291 .0258417
1018.880 .0258385
1019.470 .0258366
1020.059 .0258351
1020.647 .0258332
1021.236 .0258310
1021.824 .0258285
1022.412 .0258253
1023.000 .0258214
1023.588 .0258167
1024.175 .0258116
1024.762 .0258070
1025.349 .0258030
1025.936 .0257996
1026.523 .0257971
1027.109 .0257965
1027.695 .0257972
1028.281 .0257987
1028.867 .0258008
1029.452 .0258029
1030.038 .0258046
1030.623 .0258063
1031.208 .0258071
1031.792 .0258072
1032.377 .0258075
1032.961 .0258079
1033.546 .0258086
1034.130 .0258104
1034.714 .0258122
1035.297 .0258147
1035.881 .0258173
1036.464 .0258195
1037.047 .0258207
1037.630 .0258219
1038.213 .0258232
1038.796 .0258250
1039.378 .0258271
1039.961 .0258295
1040.543 .0258318
1041.125 .0258344
1041.707 .0258357
1042.289 .0258361
1042.871 .0258354
1043.452 .0258340
1044.034 .0258315
1044.615 .0258288
1045.196 .0258262
1045.777 .0258241
1046.358 .0258224
1046.939 .0258204
1047.520 .0258171
1048.101 .0258127
1048.681 .0258066
1049.262 .0257993
1049.842 .0257908
1050.422 .0257822
1051.002 .0257727
1051.582 .0257631
1052.162 .0257535
1052.742 .0257431
1053.322 .0257316
1053.902 .0257196
1054.482 .0257068
1055.061 .0256933
1055.641 .0256798
1056.220 .0256669
1056.800 .0256554
1057.379 .0256465
1057.958 .0256395
1058.538 .0256338
1059.117 .0256298
1059.696 .0256273
1060.275 .0256237
1060.854 .0256201
1061.433 .0256167
1062.012 .0256131
1062.592 .0256104
1063.171 .0256102
1063.750 .0256124
1064.329 .0256173
1064.908 .0256237
1065.487 .0256306
1066.066 .0256365
1066.645 .0256404
1067.224 .0256398
1067.803 .0256340
1068.382 .0256259
1068.961 .0256151
1069.540 .0256029
1070.119 .0255924
1070.698 .0255849
1071.278 .0255819
1071.857 .0255826
1072.436 .0255861
1073.016 .0255916
1073.595 .0255980
1074.175 .0256038
1074.754 .0256081
1075.334 .0256106
1075.913 .0256108
1076.493 .0256097
1077.073 .0256080
1077.653 .0256060
1078.233 .0256038
1078.813 .0256020
1079.393 .0256001
1079.974 .0255972
1080.554 .0255934
1081.135 .0255876
1081.716 .0255796
1082.296 .0255712
1082.877 .0255597
1083.458 .0255454
1084.040 .0255297
1084.621 .0255123
1085.202 .0254949
1085.784 .0254782
1086.366 .0254637
1086.948 .0254502
1087.530 .0254390
1088.112 .0254303
1088.695 .0254212
1089.277 .0254124
1089.860 .0254031
1090.443 .0253922
1091.026 .0253802
1091.610 .0253683
1092.193 .0253569
1092.777 .0253476
1093.361 .0253423
1093.946 .0253386
1094.530 .0253381
1095.115 .0253397
1095.700 .0253435
1096.285 .0253470
1096.871 .0253527
1097.456 .0253601
1098.042 .0253674
1098.628 .0253778
1099.215 .0253900
1099.802 .0254039
1100.389 .0254199
1100.976 .0254357
1101.564 .0254485
1102.152 .0254579
1102.740 .0254646
1103.329 .0254658
1103.917 .0254650
1104.507 .0254630
1105.096 .0254602
1105.686 .0254600
1106.276 .0254622
1106.867 .0254654
1107.457 .0254694
1108.049 .0254757
1108.640 .0254810
1109.232 .0254840
1109.825 .0254885
1110.417 .0254915
1111.010 .0254961
1111.604 .0255034
1112.198 .0255135
1112.792 .0255260
1113.387 .0255422
1113.982 .0255600
1114.577 .0255794
1115.173 .0255987
1115.769 .0256156
1116.366 .0256296
1116.963 .0256435
1117.561 .0256553
1118.159 .0256651
1118.758 .0256740
1119.357 .0256836
1119.957 .0256901
1120.557 .0256963
1121.157 .0256996
1121.758 .0257027
1122.360 .0257052
1122.962 .0257053
1123.564 .0257033
1124.167 .0257016
1124.771 .0256989
1125.375 .0256954
1125.980 .0256928
1126.585 .0256906
1127.191 .0256881
1127.797 .0256887
1128.404 .0256906
1129.012 .0256971
1129.620 .0257116
1130.229 .0257339
1130.838 .0257602
1131.448 .0257930
1132.058 .0258319
1132.669 .0258734
1133.281 .0259198
1133.894 .0259666
1134.507 .0260147
1135.120 .0260654
1135.735 .0261181
1136.350 .0261713
1136.965 .0262305
1137.582 .0262965
1138.199 .0263666
1138.816 .0264349
1139.435 .0265050
1140.054 .0265706
1140.674 .0266335
1141.294 .0266945
1141.916 .0267534
1142.538 .0268201
1143.160 .0268173
1143.784 .0268853
1144.408 .0270368
1145.033 .0270787
