Measurement Sequence started on: 14-45-04-498
Integration time: 36
Scans to Average: 2 
>>>>>Begin Spectral Data<<<<<
433.946 .0492159
434.870 .0492271
435.793 .0450941
436.715 .0426104
437.635 .0416078
438.555 .0426070
439.473 .0418983
440.389 .0413370
441.305 .0409821
442.219 .0407228
443.132 .0405107
444.044 .0403101
444.954 .0401559
445.863 .0400435
446.771 .0399720
447.678 .0399126
448.584 .0398632
449.488 .0398217
450.391 .0397717
451.293 .0397161
452.194 .0396611
453.094 .0396050
453.992 .0395553
454.890 .0395034
455.786 .0394596
456.681 .0394124
457.575 .0393671
458.468 .0393115
459.360 .0392507
460.250 .0391904
461.140 .0391274
462.028 .0390711
462.915 .0390185
463.801 .0389739
464.687 .0389304
465.571 .0388836
466.454 .0388318
467.335 .0387753
468.216 .0387144
469.096 .0386505
469.975 .0385866
470.853 .0385260
471.729 .0384678
472.605 .0384139
473.479 .0383632
474.353 .0383140
475.226 .0382638
476.097 .0382100
476.968 .0381487
477.838 .0380852
478.706 .0380193
479.574 .0379540
480.441 .0378953
481.306 .0378436
482.171 .0377997
483.035 .0377623
483.898 .0377294
484.760 .0377004
485.621 .0376732
486.481 .0376466
487.340 .0376160
488.198 .0375846
489.055 .0375528
489.912 .0375168
490.767 .0374813
491.622 .0374453
492.476 .0374085
493.329 .0373714
494.180 .0373347
495.032 .0372976
495.882 .0372605
496.731 .0372215
497.580 .0371787
498.427 .0371330
499.274 .0370836
500.120 .0370290
500.965 .0369702
501.809 .0369126
502.653 .0368536
503.495 .0367941
504.337 .0367387
505.178 .0366837
506.018 .0366318
506.858 .0365760
507.696 .0365180
508.534 .0364577
509.371 .0363945
510.208 .0363327
511.043 .0362729
511.878 .0362163
512.712 .0361678
513.545 .0361259
514.377 .0360952
515.209 .0360729
516.040 .0360620
516.870 .0360570
517.699 .0360604
518.528 .0360664
519.356 .0360753
520.183 .0360836
521.010 .0361003
521.836 .0361140
522.661 .0361268
523.485 .0361351
524.309 .0361380
525.132 .0361293
525.954 .0361120
526.776 .0360760
527.597 .0360281
528.417 .0359608
529.237 .0358838
530.056 .0357916
530.874 .0356983
531.692 .0356034
532.508 .0355119
533.325 .0354263
534.140 .0353495
534.955 .0352756
535.770 .0352143
536.583 .0351570
537.397 .0351078
538.209 .0350580
539.021 .0350172
539.832 .0349782
540.643 .0349467
541.453 .0349244
542.262 .0349119
543.071 .0349048
543.879 .0348994
544.687 .0348890
545.494 .0348716
546.300 .0348419
547.106 .0348000
547.911 .0347418
548.716 .0346793
549.520 .0346130
550.323 .0345442
551.126 .0344789
551.929 .0344209
552.731 .0343647
553.532 .0343082
554.332 .0342528
555.133 .0341959
555.932 .0341366
556.731 .0340788
557.530 .0340213
558.328 .0339680
559.125 .0339187
559.922 .0338721
560.719 .0338266
561.515 .0337858
562.310 .0337433
563.105 .0337003
563.899 .0336606
564.693 .0336229
565.487 .0335842
566.280 .0335486
567.072 .0335178
567.864 .0334908
568.655 .0334636
569.446 .0334386
570.236 .0334124
571.026 .0333863
571.816 .0333582
572.605 .0333295
573.393 .0333019
574.181 .0332774
574.969 .0332530
575.756 .0332299
576.543 .0332066
577.329 .0331849
578.115 .0331621
578.900 .0331397
579.685 .0331165
580.469 .0330929
581.253 .0330692
582.036 .0330477
582.820 .0330263
583.602 .0330062
584.384 .0329868
585.166 .0329676
585.947 .0329460
586.728 .0329227
587.509 .0328965
588.289 .0328686
589.069 .0328392
589.848 .0328083
590.627 .0327756
591.405 .0327426
592.183 .0327089
592.961 .0326742
593.738 .0326394
594.515 .0326038
595.291 .0325656
596.067 .0325259
596.843 .0324843
597.618 .0324412
598.393 .0323982
599.167 .0323571
599.941 .0323180
600.715 .0322822
601.488 .0322497
602.261 .0322202
603.034 .0321930
603.806 .0321682
604.578 .0321446
605.349 .0321220
606.121 .0321010
606.891 .0320810
607.662 .0320622
608.432 .0320452
609.201 .0320296
609.971 .0320149
610.740 .0320007
611.508 .0319866
612.277 .0319723
613.045 .0319582
613.812 .0319445
614.579 .0319305
615.346 .0319170
616.113 .0319042
616.879 .0318917
617.645 .0318785
618.411 .0318646
619.176 .0318490
619.941 .0318313
620.705 .0318118
621.470 .0317908
622.233 .0317690
622.997 .0317473
623.760 .0317264
624.523 .0317063
625.286 .0316866
626.048 .0316667
626.810 .0316454
627.572 .0316223
628.333 .0315963
629.095 .0315671
629.855 .0315354
630.616 .0315035
631.376 .0314723
632.136 .0314429
632.895 .0314157
633.655 .0313918
634.414 .0313701
635.172 .0313497
635.931 .0313294
636.689 .0313083
637.447 .0312859
638.204 .0312617
638.962 .0312358
639.718 .0312085
640.475 .0311813
641.231 .0311547
641.988 .0311281
642.743 .0311019
643.499 .0310751
644.254 .0310470
645.009 .0310178
645.764 .0309870
646.518 .0309547
647.272 .0309218
648.026 .0308893
648.780 .0308577
649.533 .0308281
650.286 .0308010
651.039 .0307767
651.792 .0307551
652.544 .0307362
653.296 .0307193
654.048 .0307042
654.799 .0306911
655.550 .0306789
656.301 .0306676
657.052 .0306568
657.802 .0306461
658.552 .0306354
659.302 .0306245
660.052 .0306137
660.801 .0306028
661.550 .0305921
662.299 .0305811
663.048 .0305697
663.796 .0305583
664.544 .0305464
665.292 .0305334
666.040 .0305200
666.787 .0305062
667.534 .0304923
668.281 .0304786
669.028 .0304656
669.774 .0304534
670.521 .0304427
671.266 .0304332
672.012 .0304247
672.758 .0304168
673.503 .0304096
674.248 .0304024
674.992 .0303948
675.737 .0303868
676.481 .0303779
677.225 .0303681
677.969 .0303580
678.712 .0303467
679.455 .0303343
680.199 .0303212
680.941 .0303077
681.684 .0302934
682.426 .0302786
683.168 .0302630
683.910 .0302470
684.652 .0302302
685.393 .0302129
686.134 .0301944
686.875 .0301754
687.616 .0301560
688.356 .0301358
689.097 .0301152
689.837 .0300949
690.576 .0300747
691.316 .0300552
692.055 .0300364
692.794 .0300183
693.533 .0300002
694.272 .0299825
695.010 .0299650
695.748 .0299474
696.486 .0299297
697.224 .0299124
697.962 .0298948
698.699 .0298778
699.436 .0298614
700.173 .0298454
700.909 .0298302
701.646 .0298161
702.382 .0298026
703.118 .0297895
703.853 .0297768
704.589 .0297644
705.324 .0297526
706.059 .0297413
706.794 .0297301
707.529 .0297195
708.263 .0297097
708.997 .0297000
709.731 .0296904
710.465 .0296807
711.198 .0296707
711.931 .0296598
712.664 .0296483
713.397 .0296361
714.130 .0296235
714.862 .0296105
715.594 .0295974
716.326 .0295851
717.058 .0295739
717.789 .0295635
718.520 .0295536
719.251 .0295445
719.982 .0295358
720.713 .0295266
721.443 .0295176
722.173 .0295082
722.903 .0294985
723.633 .0294890
724.362 .0294795
725.091 .0294708
725.820 .0294631
726.549 .0294564
727.278 .0294506
728.006 .0294453
728.734 .0294400
729.462 .0294341
730.190 .0294282
730.917 .0294224
731.644 .0294164
732.371 .0294108
733.098 .0294060
733.825 .0294023
734.551 .0293996
735.277 .0293976
736.003 .0293957
736.728 .0293937
737.454 .0293907
738.179 .0293864
738.904 .0293805
739.629 .0293734
740.353 .0293659
741.077 .0293582
741.801 .0293504
742.525 .0293427
743.249 .0293353
743.972 .0293280
744.695 .0293203
745.418 .0293124
746.141 .0293034
746.863 .0292938
747.585 .0292837
748.307 .0292725
749.029 .0292608
749.750 .0292488
750.472 .0292364
751.193 .0292235
751.913 .0292103
752.634 .0291964
753.354 .0291813
754.074 .0291660
754.794 .0291500
755.514 .0291329
756.233 .0291152
756.952 .0290968
757.671 .0290777
758.390 .0290581
759.108 .0290381
759.826 .0290186
760.544 .0290003
761.262 .0289834
761.979 .0289676
762.697 .0289534
763.414 .0289413
764.130 .0289305
764.847 .0289204
765.563 .0289114
766.279 .0289021
766.995 .0288926
767.710 .0288831
768.426 .0288733
769.141 .0288637
769.855 .0288546
770.570 .0288459
771.284 .0288376
771.998 .0288299
772.712 .0288224
773.426 .0288150
774.139 .0288082
774.852 .0288014
775.565 .0287941
776.277 .0287872
776.990 .0287806
777.702 .0287743
778.414 .0287686
779.125 .0287635
779.836 .0287586
780.547 .0287540
781.258 .0287489
781.969 .0287432
782.679 .0287373
783.389 .0287313
784.099 .0287250
784.808 .0287188
785.517 .0287134
786.226 .0287087
786.935 .0287047
787.643 .0287018
788.352 .0286992
789.060 .0286967
789.767 .0286940
790.475 .0286909
791.182 .0286874
791.889 .0286841
792.595 .0286812
793.301 .0286790
794.008 .0286780
794.713 .0286775
795.419 .0286774
796.124 .0286775
796.829 .0286778
797.534 .0286771
798.238 .0286751
798.942 .0286724
799.646 .0286690
800.350 .0286651
801.053 .0286613
801.756 .0286578
802.459 .0286543
803.162 .0286506
803.864 .0286466
804.566 .0286416
805.267 .0286361
805.969 .0286299
806.670 .0286232
807.371 .0286164
808.071 .0286102
808.772 .0286042
809.472 .0285992
810.171 .0285953
810.871 .0285919
811.570 .0285884
812.269 .0285844
812.967 .0285795
813.666 .0285736
814.364 .0285667
815.061 .0285592
815.759 .0285517
816.456 .0285443
817.153 .0285370
817.849 .0285296
818.545 .0285220
819.241 .0285139
819.937 .0285050
820.632 .0284946
821.327 .0284824
822.022 .0284684
822.717 .0284531
823.411 .0284374
824.105 .0284218
824.798 .0284066
825.491 .0283921
826.184 .0283783
826.877 .0283647
827.569 .0283512
828.261 .0283374
828.953 .0283231
829.645 .0283080
830.336 .0282924
831.027 .0282763
831.717 .0282606
832.407 .0282457
833.097 .0282317
833.787 .0282185
834.476 .0282061
835.165 .0281935
835.854 .0281808
836.542 .0281676
837.230 .0281534
837.918 .0281387
838.605 .0281237
839.292 .0281085
839.979 .0280941
840.665 .0280805
841.352 .0280686
842.037 .0280581
842.723 .0280491
843.408 .0280406
844.093 .0280322
844.777 .0280235
845.462 .0280134
846.145 .0280018
846.829 .0279882
847.512 .0279728
848.195 .0279563
848.878 .0279393
849.560 .0279224
850.242 .0279060
850.923 .0278902
851.605 .0278747
852.286 .0278592
852.966 .0278431
853.646 .0278264
854.326 .0278090
855.006 .0277909
855.685 .0277729
856.364 .0277552
857.043 .0277388
857.721 .0277239
858.399 .0277110
859.077 .0276998
859.754 .0276899
860.431 .0276809
861.107 .0276724
861.784 .0276642
862.459 .0276563
863.135 .0276481
863.810 .0276397
864.485 .0276310
865.160 .0276219
865.834 .0276122
866.508 .0276021
867.181 .0275915
867.854 .0275809
868.527 .0275702
869.199 .0275598
869.872 .0275500
870.543 .0275410
871.215 .0275328
871.886 .0275252
872.557 .0275179
873.227 .0275103
873.897 .0275022
874.567 .0274941
875.236 .0274856
875.905 .0274774
876.573 .0274697
877.242 .0274624
877.909 .0274559
878.577 .0274502
879.244 .0274450
879.911 .0274400
880.577 .0274354
881.243 .0274307
881.909 .0274264
882.575 .0274221
883.240 .0274180
883.904 .0274144
884.569 .0274116
885.232 .0274091
885.896 .0274068
886.559 .0274046
887.222 .0274025
887.885 .0274003
888.547 .0273980
889.208 .0273957
889.870 .0273935
890.531 .0273911
891.192 .0273892
891.852 .0273871
892.512 .0273848
893.171 .0273815
893.830 .0273781
894.489 .0273740
895.148 .0273691
895.806 .0273639
896.464 .0273590
897.121 .0273545
897.778 .0273509
898.434 .0273472
899.091 .0273437
899.747 .0273404
900.402 .0273368
901.057 .0273325
901.712 .0273281
902.366 .0273234
903.020 .0273184
903.674 .0273138
904.327 .0273103
904.980 .0273067
905.633 .0273038
906.285 .0273012
906.936 .0272985
907.588 .0272954
908.239 .0272910
908.889 .0272856
909.540 .0272795
910.190 .0272723
910.839 .0272642
911.488 .0272558
912.137 .0272479
912.785 .0272401
913.433 .0272321
914.081 .0272240
914.728 .0272151
915.375 .0272051
916.021 .0271935
916.668 .0271804
917.313 .0271663
917.959 .0271505
918.604 .0271339
919.248 .0271172
919.892 .0271006
920.536 .0270842
921.180 .0270680
921.823 .0270520
922.465 .0270361
923.108 .0270199
923.750 .0270023
924.391 .0269837
925.032 .0269646
925.673 .0269447
926.313 .0269243
926.953 .0269039
927.593 .0268835
928.232 .0268631
928.871 .0268432
929.510 .0268232
930.148 .0268030
930.786 .0267832
931.423 .0267630
932.060 .0267430
932.697 .0267231
933.333 .0267027
933.969 .0266818
934.604 .0266610
935.239 .0266401
935.874 .0266187
936.508 .0265972
937.142 .0265760
937.776 .0265549
938.409 .0265343
939.042 .0265138
939.674 .0264929
940.306 .0264719
940.938 .0264506
941.569 .0264282
942.200 .0264053
942.830 .0263820
943.460 .0263586
944.090 .0263348
944.720 .0263112
945.349 .0262875
945.977 .0262640
946.606 .0262406
947.233 .0262171
947.861 .0261931
948.488 .0261688
949.115 .0261442
949.741 .0261190
950.367 .0260941
950.993 .0260696
951.618 .0260459
952.243 .0260236
952.868 .0260024
953.492 .0259830
954.115 .0259646
954.739 .0259478
955.362 .0259321
955.984 .0259172
956.607 .0259032
957.229 .0258899
957.850 .0258776
958.471 .0258660
959.092 .0258548
959.713 .0258441
960.333 .0258337
960.952 .0258236
961.572 .0258136
962.191 .0258037
962.809 .0257938
963.428 .0257847
964.045 .0257753
964.663 .0257665
965.280 .0257576
965.897 .0257486
966.513 .0257392
967.129 .0257290
967.745 .0257177
968.361 .0257056
968.976 .0256939
969.590 .0256827
970.205 .0256723
970.818 .0256637
971.432 .0256563
972.045 .0256503
972.658 .0256455
973.271 .0256410
973.883 .0256363
974.495 .0256308
975.106 .0256240
975.717 .0256164
976.328 .0256084
976.938 .0256006
977.548 .0255938
978.158 .0255886
978.768 .0255846
979.377 .0255812
979.985 .0255783
980.594 .0255756
981.202 .0255724
981.809 .0255685
982.417 .0255634
983.024 .0255580
983.631 .0255528
984.237 .0255476
984.843 .0255437
985.449 .0255408
986.054 .0255381
986.659 .0255354
987.264 .0255325
987.868 .0255292
988.472 .0255255
989.076 .0255224
989.679 .0255199
990.282 .0255185
990.885 .0255183
991.487 .0255195
992.090 .0255228
992.691 .0255280
993.293 .0255342
993.894 .0255414
994.495 .0255495
995.095 .0255576
995.696 .0255654
996.296 .0255731
996.895 .0255805
997.494 .0255879
998.093 .0255952
998.692 .0256027
999.291 .0256109
999.889 .0256195
1000.487 .0256280
1001.084 .0256358
1001.681 .0256423
1002.278 .0256469
1002.875 .0256488
1003.471 .0256486
1004.067 .0256466
1004.663 .0256430
1005.258 .0256385
1005.854 .0256338
1006.449 .0256298
1007.043 .0256266
1007.638 .0256239
1008.232 .0256218
1008.826 .0256198
1009.419 .0256175
1010.012 .0256146
1010.605 .0256114
1011.198 .0256082
1011.791 .0256051
1012.383 .0256022
1012.975 .0256006
1013.566 .0256003
1014.158 .0256016
1014.749 .0256045
1015.340 .0256092
1015.931 .0256151
1016.521 .0256215
1017.111 .0256280
1017.701 .0256342
1018.291 .0256398
1018.880 .0256446
1019.470 .0256474
1020.059 .0256501
1020.647 .0256526
1021.236 .0256553
1021.824 .0256590
1022.412 .0256643
1023.000 .0256706
1023.588 .0256776
1024.175 .0256838
1024.762 .0256885
1025.349 .0256911
1025.936 .0256915
1026.523 .0256896
1027.109 .0256866
1027.695 .0256832
1028.281 .0256808
1028.867 .0256798
1029.452 .0256809
1030.038 .0256831
1030.623 .0256858
1031.208 .0256879
1031.792 .0256881
1032.377 .0256857
1032.961 .0256806
1033.546 .0256739
1034.130 .0256665
1034.714 .0256593
1035.297 .0256540
1035.881 .0256510
1036.464 .0256508
1037.047 .0256529
1037.630 .0256560
1038.213 .0256600
1038.796 .0256637
1039.378 .0256664
1039.961 .0256677
1040.543 .0256681
1041.125 .0256676
1041.707 .0256666
1042.289 .0256654
1042.871 .0256641
1043.452 .0256627
1044.034 .0256615
1044.615 .0256594
1045.196 .0256564
1045.777 .0256528
1046.358 .0256476
1046.939 .0256412
1047.520 .0256338
1048.101 .0256245
1048.681 .0256136
1049.262 .0256020
1049.842 .0255893
1050.422 .0255760
1051.002 .0255628
1051.582 .0255500
1052.162 .0255385
1052.742 .0255285
1053.322 .0255184
1053.902 .0255082
1054.482 .0254982
1055.061 .0254872
1055.641 .0254742
1056.220 .0254608
1056.800 .0254465
1057.379 .0254329
1057.958 .0254198
1058.538 .0254071
1059.117 .0253949
1059.696 .0253840
1060.275 .0253729
1060.854 .0253612
1061.433 .0253492
1062.012 .0253362
1062.592 .0253226
1063.171 .0253098
1063.750 .0252972
1064.329 .0252855
1064.908 .0252742
1065.487 .0252628
1066.066 .0252501
1066.645 .0252373
1067.224 .0252238
1067.803 .0252099
1068.382 .0251974
1068.961 .0251864
1069.540 .0251766
1070.119 .0251688
1070.698 .0251632
1071.278 .0251593
1071.857 .0251559
1072.436 .0251519
1073.016 .0251469
1073.595 .0251417
1074.175 .0251372
1074.754 .0251336
1075.334 .0251311
1075.913 .0251305
1076.493 .0251317
1077.073 .0251328
1077.653 .0251333
1078.233 .0251338
1078.813 .0251327
1079.393 .0251300
1079.974 .0251254
1080.554 .0251188
1081.135 .0251108
1081.716 .0251021
1082.296 .0250929
1082.877 .0250826
1083.458 .0250722
1084.040 .0250613
1084.621 .0250489
1085.202 .0250378
1085.784 .0250288
1086.366 .0250210
1086.948 .0250150
1087.530 .0250113
1088.112 .0250072
1088.695 .0250019
1089.277 .0249953
1089.860 .0249875
1090.443 .0249784
1091.026 .0249690
1091.610 .0249598
1092.193 .0249511
1092.777 .0249454
1093.361 .0249418
1093.946 .0249377
1094.530 .0249360
1095.115 .0249335
1095.700 .0249289
1096.285 .0249240
1096.871 .0249180
1097.456 .0249112
1098.042 .0249047
1098.628 .0248990
1099.215 .0248941
1099.802 .0248900
1100.389 .0248884
1100.976 .0248869
1101.564 .0248863
1102.152 .0248867
1102.740 .0248845
1103.329 .0248813
1103.917 .0248769
1104.507 .0248697
1105.096 .0248608
1105.686 .0248503
1106.276 .0248372
1106.867 .0248235
1107.457 .0248089
1108.049 .0247936
1108.640 .0247780
1109.232 .0247650
1109.825 .0247563
1110.417 .0247507
1111.010 .0247502
1111.604 .0247535
1112.198 .0247609
1112.792 .0247729
1113.387 .0247861
1113.982 .0248040
1114.577 .0248247
1115.173 .0248480
1115.769 .0248740
1116.366 .0249019
1116.963 .0249334
1117.561 .0249681
1118.159 .0250080
1118.758 .0250522
1119.357 .0250979
1119.957 .0251462
1120.557 .0251930
1121.157 .0252381
1121.758 .0252818
1122.360 .0253205
1122.962 .0253553
1123.564 .0253874
1124.167 .0254136
1124.771 .0254356
1125.375 .0254546
1125.980 .0254741
1126.585 .0254903
1127.191 .0255064
1127.797 .0255246
1128.404 .0255430
1129.012 .0255657
1129.620 .0255906
1130.229 .0256146
1130.838 .0256417
1131.448 .0256666
1132.058 .0256861
1132.669 .0257034
1133.281 .0257211
1133.894 .0257381
1134.507 .0257574
1135.120 .0257800
1135.735 .0258098
1136.350 .0258479
1136.965 .0258962
1137.582 .0259494
1138.199 .0260069
1138.816 .0260715
1139.435 .0261328
1140.054 .0261993
1140.674 .0262664
1141.294 .0263399
1141.916 .0264300
1142.538 .0263700
1143.160 .0266531
1143.784 .0266686
1144.408 .0268882
1145.033 .0271782
