Measurement Sequence started on: 14-45-04-498
Integration time: 36
Scans to Average: 2 
>>>>>Begin Spectral Data<<<<<
433.946 .0540246
434.870 .0495529
435.793 .0452224
436.715 .0442289
437.635 .0433154
438.555 .0445133
439.473 .0439080
440.389 .0435785
441.305 .0434109
442.219 .0432524
443.132 .0431017
444.044 .0429395
444.954 .0427636
445.863 .0426085
446.771 .0424804
447.678 .0423607
448.584 .0422348
449.488 .0421020
450.391 .0419509
451.293 .0417889
452.194 .0416332
453.094 .0414837
453.992 .0413497
454.890 .0412457
455.786 .0411715
456.681 .0411281
457.575 .0411162
458.468 .0411160
459.360 .0411238
460.250 .0411318
461.140 .0411337
462.028 .0411285
462.915 .0411174
463.801 .0411061
464.687 .0410886
465.571 .0410668
466.454 .0410432
467.335 .0410134
468.216 .0409837
469.096 .0409502
469.975 .0409120
470.853 .0408670
471.729 .0408140
472.605 .0407544
473.479 .0406921
474.353 .0406253
475.226 .0405595
476.097 .0404938
476.968 .0404292
477.838 .0403642
478.706 .0403004
479.574 .0402397
480.441 .0401839
481.306 .0401302
482.171 .0400794
483.035 .0400274
483.898 .0399785
484.760 .0399313
485.621 .0398854
486.481 .0398408
487.340 .0397962
488.198 .0397501
489.055 .0397015
489.912 .0396510
490.767 .0396008
491.622 .0395503
492.476 .0395030
493.329 .0394559
494.180 .0394140
495.032 .0393766
495.882 .0393454
496.731 .0393189
497.580 .0392982
498.427 .0392786
499.274 .0392549
500.120 .0392265
500.965 .0391933
501.809 .0391541
502.653 .0391113
503.495 .0390643
504.337 .0390156
505.178 .0389619
506.018 .0389078
506.858 .0388480
507.696 .0387898
508.534 .0387264
509.371 .0386540
510.208 .0385730
511.043 .0384875
511.878 .0383944
512.712 .0383010
513.545 .0382108
514.377 .0381330
515.209 .0380682
516.040 .0380241
516.870 .0379914
517.699 .0379755
518.528 .0379747
519.356 .0379848
520.183 .0379977
521.010 .0380215
521.836 .0380480
522.661 .0380776
523.485 .0381148
524.309 .0381524
525.132 .0381829
525.954 .0382089
526.776 .0382193
527.597 .0382110
528.417 .0381774
529.237 .0381231
530.056 .0380453
530.874 .0379563
531.692 .0378693
532.508 .0377749
533.325 .0376881
534.140 .0376099
534.955 .0375296
535.770 .0374476
536.583 .0373610
537.397 .0372726
538.209 .0371794
539.021 .0370860
539.832 .0369902
540.643 .0368951
541.453 .0368127
542.262 .0367396
543.071 .0366734
543.879 .0366140
544.687 .0365623
545.494 .0365112
546.300 .0364676
547.106 .0364314
547.911 .0364009
548.716 .0363844
549.520 .0363733
550.323 .0363710
551.126 .0363713
551.929 .0363812
552.731 .0363954
553.532 .0364094
554.332 .0364280
555.133 .0364460
555.932 .0364621
556.731 .0364756
557.530 .0364837
558.328 .0364893
559.125 .0364898
559.922 .0364874
560.719 .0364776
561.515 .0364656
562.310 .0364479
563.105 .0364270
563.899 .0363991
564.693 .0363652
565.487 .0363211
566.280 .0362660
567.072 .0362018
567.864 .0361276
568.655 .0360464
569.446 .0359625
570.236 .0358789
571.026 .0357985
571.816 .0357227
572.605 .0356536
573.393 .0355912
574.181 .0355362
574.969 .0354873
575.756 .0354413
576.543 .0353986
577.329 .0353610
578.115 .0353267
578.900 .0352961
579.685 .0352707
580.469 .0352498
581.253 .0352353
582.036 .0352257
582.820 .0352202
583.602 .0352191
584.384 .0352234
585.166 .0352290
585.947 .0352340
586.728 .0352383
587.509 .0352408
588.289 .0352405
589.069 .0352375
589.848 .0352310
590.627 .0352208
591.405 .0352084
592.183 .0351931
592.961 .0351765
593.738 .0351592
594.515 .0351400
595.291 .0351193
596.067 .0350966
596.843 .0350713
597.618 .0350423
598.393 .0350118
599.167 .0349798
599.941 .0349463
600.715 .0349129
601.488 .0348796
602.261 .0348480
603.034 .0348173
603.806 .0347877
604.578 .0347593
605.349 .0347323
606.121 .0347063
606.891 .0346807
607.662 .0346563
608.432 .0346343
609.201 .0346144
609.971 .0345963
610.740 .0345799
611.508 .0345644
612.277 .0345493
613.045 .0345339
613.812 .0345183
614.579 .0345028
615.346 .0344873
616.113 .0344736
616.879 .0344610
617.645 .0344495
618.411 .0344386
619.176 .0344276
619.941 .0344163
620.705 .0344037
621.470 .0343890
622.233 .0343722
622.997 .0343544
623.760 .0343360
624.523 .0343171
625.286 .0342988
626.048 .0342818
626.810 .0342660
627.572 .0342508
628.333 .0342361
629.095 .0342212
629.855 .0342061
630.616 .0341914
631.376 .0341768
632.136 .0341625
632.895 .0341486
633.655 .0341352
634.414 .0341217
635.172 .0341083
635.931 .0340941
636.689 .0340784
637.447 .0340611
638.204 .0340423
638.962 .0340209
639.718 .0339974
640.475 .0339722
641.231 .0339458
641.988 .0339174
642.743 .0338877
643.499 .0338556
644.254 .0338226
645.009 .0337890
645.764 .0337552
646.518 .0337219
647.272 .0336897
648.026 .0336592
648.780 .0336304
649.533 .0336037
650.286 .0335795
651.039 .0335566
651.792 .0335349
652.544 .0335138
653.296 .0334931
654.048 .0334732
654.799 .0334545
655.550 .0334373
656.301 .0334218
657.052 .0334077
657.802 .0333946
658.552 .0333825
659.302 .0333710
660.052 .0333597
660.801 .0333481
661.550 .0333368
662.299 .0333253
663.048 .0333140
663.796 .0333041
664.544 .0332950
665.292 .0332871
666.040 .0332796
666.787 .0332723
667.534 .0332648
668.281 .0332570
669.028 .0332489
669.774 .0332408
670.521 .0332331
671.266 .0332260
672.012 .0332194
672.758 .0332136
673.503 .0332079
674.248 .0332020
674.992 .0331956
675.737 .0331880
676.481 .0331787
677.225 .0331683
677.969 .0331564
678.712 .0331436
679.455 .0331297
680.199 .0331153
680.941 .0331002
681.684 .0330846
682.426 .0330678
683.168 .0330494
683.910 .0330299
684.652 .0330091
685.393 .0329870
686.134 .0329645
686.875 .0329420
687.616 .0329199
688.356 .0328988
689.097 .0328788
689.837 .0328592
690.576 .0328398
691.316 .0328206
692.055 .0328013
692.794 .0327814
693.533 .0327612
694.272 .0327413
695.010 .0327217
695.748 .0327030
696.486 .0326845
697.224 .0326662
697.962 .0326478
698.699 .0326289
699.436 .0326085
700.173 .0325867
700.909 .0325631
701.646 .0325381
702.382 .0325126
703.118 .0324872
703.853 .0324628
704.589 .0324396
705.324 .0324183
706.059 .0323993
706.794 .0323816
707.529 .0323654
708.263 .0323506
708.997 .0323369
709.731 .0323237
710.465 .0323109
711.198 .0322992
711.931 .0322885
712.664 .0322789
713.397 .0322702
714.130 .0322618
714.862 .0322541
715.594 .0322466
716.326 .0322388
717.058 .0322313
717.789 .0322240
718.520 .0322156
719.251 .0322068
719.982 .0321967
720.713 .0321852
721.443 .0321724
722.173 .0321585
722.903 .0321436
723.633 .0321280
724.362 .0321124
725.091 .0320970
725.820 .0320823
726.549 .0320688
727.278 .0320553
728.006 .0320418
728.734 .0320275
729.462 .0320114
730.190 .0319937
730.917 .0319746
731.644 .0319543
732.371 .0319335
733.098 .0319126
733.825 .0318918
734.551 .0318716
735.277 .0318519
736.003 .0318321
736.728 .0318118
737.454 .0317908
738.179 .0317688
738.904 .0317459
739.629 .0317226
740.353 .0316991
741.077 .0316762
741.801 .0316544
742.525 .0316331
743.249 .0316129
743.972 .0315933
744.695 .0315739
745.418 .0315541
746.141 .0315334
746.863 .0315116
747.585 .0314887
748.307 .0314645
749.029 .0314392
749.750 .0314134
750.472 .0313874
751.193 .0313612
751.913 .0313355
752.634 .0313102
753.354 .0312852
754.074 .0312604
754.794 .0312358
755.514 .0312108
756.233 .0311859
756.952 .0311609
757.671 .0311360
758.390 .0311115
759.108 .0310875
759.826 .0310645
760.544 .0310432
761.262 .0310232
761.979 .0310046
762.697 .0309873
763.414 .0309710
764.130 .0309552
764.847 .0309397
765.563 .0309241
766.279 .0309088
766.995 .0308931
767.710 .0308772
768.426 .0308608
769.141 .0308446
769.855 .0308288
770.570 .0308131
771.284 .0307984
771.998 .0307844
772.712 .0307708
773.426 .0307584
774.139 .0307462
774.852 .0307347
775.565 .0307232
776.277 .0307120
776.990 .0307007
777.702 .0306892
778.414 .0306775
779.125 .0306659
779.836 .0306547
780.547 .0306440
781.258 .0306334
781.969 .0306234
782.679 .0306136
783.389 .0306040
784.099 .0305942
784.808 .0305841
785.517 .0305734
786.226 .0305620
786.935 .0305497
787.643 .0305368
788.352 .0305236
789.060 .0305105
789.767 .0304977
790.475 .0304849
791.182 .0304720
791.889 .0304587
792.595 .0304446
793.301 .0304296
794.008 .0304134
794.713 .0303960
795.419 .0303778
796.124 .0303589
796.829 .0303395
797.534 .0303199
798.238 .0303006
798.942 .0302811
799.646 .0302616
800.350 .0302413
801.053 .0302200
801.756 .0301973
802.459 .0301734
803.162 .0301482
803.864 .0301222
804.566 .0300957
805.267 .0300689
805.969 .0300421
806.670 .0300159
807.371 .0299901
808.071 .0299654
808.772 .0299410
809.472 .0299169
810.171 .0298930
810.871 .0298692
811.570 .0298453
812.269 .0298212
812.967 .0297966
813.666 .0297717
814.364 .0297459
815.061 .0297199
815.759 .0296933
816.456 .0296673
817.153 .0296416
817.849 .0296162
818.545 .0295916
819.241 .0295676
819.937 .0295436
820.632 .0295199
821.327 .0294956
822.022 .0294707
822.717 .0294447
823.411 .0294181
824.105 .0293914
824.798 .0293649
825.491 .0293386
826.184 .0293132
826.877 .0292891
827.569 .0292662
828.261 .0292438
828.953 .0292224
829.645 .0292013
830.336 .0291804
831.027 .0291596
831.717 .0291390
832.407 .0291188
833.097 .0290996
833.787 .0290812
834.476 .0290640
835.165 .0290482
835.854 .0290340
836.542 .0290209
837.230 .0290092
837.918 .0289981
838.605 .0289875
839.292 .0289775
839.979 .0289679
840.665 .0289584
841.352 .0289491
842.037 .0289396
842.723 .0289298
843.408 .0289195
844.093 .0289089
844.777 .0288976
845.462 .0288860
846.145 .0288735
846.829 .0288606
847.512 .0288472
848.195 .0288336
848.878 .0288200
849.560 .0288070
850.242 .0287941
850.923 .0287816
851.605 .0287695
852.286 .0287579
852.966 .0287468
853.646 .0287363
854.326 .0287261
855.006 .0287163
855.685 .0287060
856.364 .0286958
857.043 .0286848
857.721 .0286736
858.399 .0286618
859.077 .0286493
859.754 .0286369
860.431 .0286244
861.107 .0286122
861.784 .0286003
862.459 .0285890
863.135 .0285783
863.810 .0285675
864.485 .0285565
865.160 .0285451
865.834 .0285336
866.508 .0285219
867.181 .0285104
867.854 .0284991
868.527 .0284884
869.199 .0284783
869.872 .0284683
870.543 .0284587
871.215 .0284485
871.886 .0284377
872.557 .0284256
873.227 .0284114
873.897 .0283952
874.567 .0283766
875.236 .0283564
875.905 .0283349
876.573 .0283121
877.242 .0282884
877.909 .0282639
878.577 .0282390
879.244 .0282136
879.911 .0281880
880.577 .0281623
881.243 .0281366
881.909 .0281108
882.575 .0280852
883.240 .0280601
883.904 .0280360
884.569 .0280131
885.232 .0279910
885.896 .0279697
886.559 .0279490
887.222 .0279286
887.885 .0279085
888.547 .0278883
889.208 .0278676
889.870 .0278466
890.531 .0278250
891.192 .0278024
891.852 .0277795
892.512 .0277566
893.171 .0277337
893.830 .0277115
894.489 .0276895
895.148 .0276676
895.806 .0276465
896.464 .0276259
897.121 .0276051
897.778 .0275844
898.434 .0275636
899.091 .0275424
899.747 .0275214
900.402 .0275009
901.057 .0274800
901.712 .0274602
902.366 .0274411
903.020 .0274220
903.674 .0274039
904.327 .0273863
904.980 .0273687
905.633 .0273513
906.285 .0273338
906.936 .0273161
907.588 .0272981
908.239 .0272805
908.889 .0272625
909.540 .0272450
910.190 .0272280
910.839 .0272110
911.488 .0271947
912.137 .0271792
912.785 .0271638
913.433 .0271488
914.081 .0271340
914.728 .0271193
915.375 .0271045
916.021 .0270899
916.668 .0270749
917.313 .0270603
917.959 .0270456
918.604 .0270316
919.248 .0270181
919.892 .0270057
920.536 .0269941
921.180 .0269833
921.823 .0269732
922.465 .0269630
923.108 .0269528
923.750 .0269422
924.391 .0269317
925.032 .0269218
925.673 .0269121
926.313 .0269031
926.953 .0268948
927.593 .0268867
928.232 .0268788
928.871 .0268710
929.510 .0268630
930.148 .0268545
930.786 .0268459
931.423 .0268370
932.060 .0268286
932.697 .0268210
933.333 .0268144
933.969 .0268086
934.604 .0268038
935.239 .0267990
935.874 .0267938
936.508 .0267880
937.142 .0267816
937.776 .0267738
938.409 .0267651
939.042 .0267552
939.674 .0267445
940.306 .0267330
940.938 .0267211
941.569 .0267087
942.200 .0266960
942.830 .0266822
943.460 .0266674
944.090 .0266507
944.720 .0266332
945.349 .0266145
945.977 .0265949
946.606 .0265747
947.233 .0265538
947.861 .0265321
948.488 .0265097
949.115 .0264875
949.741 .0264651
950.367 .0264428
950.993 .0264209
951.618 .0263996
952.243 .0263793
952.868 .0263600
953.492 .0263417
954.115 .0263243
954.739 .0263081
955.362 .0262922
955.984 .0262762
956.607 .0262603
957.229 .0262447
957.850 .0262295
958.471 .0262145
959.092 .0262003
959.713 .0261865
960.333 .0261730
960.952 .0261596
961.572 .0261455
962.191 .0261308
962.809 .0261148
963.428 .0260978
964.045 .0260794
964.663 .0260603
965.280 .0260406
965.897 .0260208
966.513 .0260016
967.129 .0259827
967.745 .0259636
968.361 .0259441
968.976 .0259242
969.590 .0259037
970.205 .0258827
970.818 .0258616
971.432 .0258404
972.045 .0258200
972.658 .0258003
973.271 .0257814
973.883 .0257633
974.495 .0257457
975.106 .0257284
975.717 .0257108
976.328 .0256931
976.938 .0256752
977.548 .0256579
978.158 .0256416
978.768 .0256265
979.377 .0256128
979.985 .0256003
980.594 .0255888
981.202 .0255776
981.809 .0255663
982.417 .0255546
983.024 .0255421
983.631 .0255289
984.237 .0255153
984.843 .0255020
985.449 .0254885
986.054 .0254750
986.659 .0254618
987.264 .0254482
987.868 .0254341
988.472 .0254193
989.076 .0254044
989.679 .0253893
990.282 .0253747
990.885 .0253606
991.487 .0253476
992.090 .0253366
992.691 .0253270
993.293 .0253190
993.894 .0253128
994.495 .0253079
995.095 .0253034
995.696 .0252995
996.296 .0252965
996.895 .0252937
997.494 .0252915
998.093 .0252895
998.692 .0252875
999.291 .0252859
999.889 .0252838
1000.487 .0252808
1001.084 .0252774
1001.681 .0252731
1002.278 .0252675
1002.875 .0252617
1003.471 .0252559
1004.067 .0252505
1004.663 .0252459
1005.258 .0252428
1005.854 .0252403
1006.449 .0252387
1007.043 .0252373
1007.638 .0252354
1008.232 .0252336
1008.826 .0252315
1009.419 .0252283
1010.012 .0252254
1010.605 .0252229
1011.198 .0252207
1011.791 .0252189
1012.383 .0252183
1012.975 .0252173
1013.566 .0252165
1014.158 .0252147
1014.749 .0252119
1015.340 .0252079
1015.931 .0252041
1016.521 .0251998
1017.111 .0251959
1017.701 .0251929
1018.291 .0251903
1018.880 .0251883
1019.470 .0251874
1020.059 .0251862
1020.647 .0251855
1021.236 .0251847
1021.824 .0251843
1022.412 .0251841
1023.000 .0251847
1023.588 .0251861
1024.175 .0251878
1024.762 .0251900
1025.349 .0251916
1025.936 .0251922
1026.523 .0251920
1027.109 .0251909
1027.695 .0251894
1028.281 .0251879
1028.867 .0251868
1029.452 .0251865
1030.038 .0251875
1030.623 .0251893
1031.208 .0251911
1031.792 .0251931
1032.377 .0251945
1032.961 .0251952
1033.546 .0251948
1034.130 .0251949
1034.714 .0251960
1035.297 .0251991
1035.881 .0252045
1036.464 .0252122
1037.047 .0252221
1037.630 .0252341
1038.213 .0252474
1038.796 .0252616
1039.378 .0252764
1039.961 .0252919
1040.543 .0253076
1041.125 .0253239
1041.707 .0253402
1042.289 .0253563
1042.871 .0253722
1043.452 .0253868
1044.034 .0253997
1044.615 .0254104
1045.196 .0254194
1045.777 .0254268
1046.358 .0254331
1046.939 .0254382
1047.520 .0254427
1048.101 .0254474
1048.681 .0254520
1049.262 .0254568
1049.842 .0254612
1050.422 .0254655
1051.002 .0254699
1051.582 .0254745
1052.162 .0254794
1052.742 .0254847
1053.322 .0254914
1053.902 .0254985
1054.482 .0255059
1055.061 .0255133
1055.641 .0255205
1056.220 .0255288
1056.800 .0255383
1057.379 .0255481
1057.958 .0255579
1058.538 .0255677
1059.117 .0255767
1059.696 .0255842
1060.275 .0255895
1060.854 .0255918
1061.433 .0255913
1062.012 .0255885
1062.592 .0255844
1063.171 .0255794
1063.750 .0255752
1064.329 .0255717
1064.908 .0255672
1065.487 .0255618
1066.066 .0255532
1066.645 .0255413
1067.224 .0255267
1067.803 .0255092
1068.382 .0254899
1068.961 .0254694
1069.540 .0254493
1070.119 .0254306
1070.698 .0254132
1071.278 .0253972
1071.857 .0253813
1072.436 .0253647
1073.016 .0253465
1073.595 .0253261
1074.175 .0253045
1074.754 .0252834
1075.334 .0252633
1075.913 .0252452
1076.493 .0252305
1077.073 .0252185
1077.653 .0252096
1078.233 .0252021
1078.813 .0251964
1079.393 .0251916
1079.974 .0251866
1080.554 .0251816
1081.135 .0251757
1081.716 .0251708
1082.296 .0251666
1082.877 .0251633
1083.458 .0251617
1084.040 .0251612
1084.621 .0251621
1085.202 .0251634
1085.784 .0251644
1086.366 .0251633
1086.948 .0251613
1087.530 .0251575
1088.112 .0251509
1088.695 .0251430
1089.277 .0251326
1089.860 .0251222
1090.443 .0251111
1091.026 .0251008
1091.610 .0250910
1092.193 .0250820
1092.777 .0250741
1093.361 .0250663
1093.946 .0250596
1094.530 .0250536
1095.115 .0250478
1095.700 .0250430
1096.285 .0250401
1096.871 .0250372
1097.456 .0250349
1098.042 .0250346
1098.628 .0250349
1099.215 .0250352
1099.802 .0250346
1100.389 .0250342
1100.976 .0250332
1101.564 .0250311
1102.152 .0250285
1102.740 .0250254
1103.329 .0250244
1103.917 .0250215
1104.507 .0250160
1105.096 .0250082
1105.686 .0249976
1106.276 .0249814
1106.867 .0249615
1107.457 .0249383
1108.049 .0249129
1108.640 .0248859
1109.232 .0248593
1109.825 .0248359
1110.417 .0248166
1111.010 .0248015
1111.604 .0247906
1112.198 .0247831
1112.792 .0247778
1113.387 .0247703
1113.982 .0247636
1114.577 .0247582
1115.173 .0247547
1115.769 .0247524
1116.366 .0247545
1116.963 .0247631
1117.561 .0247786
1118.159 .0248015
1118.758 .0248313
1119.357 .0248673
1119.957 .0249064
1120.557 .0249451
1121.157 .0249830
1121.758 .0250189
1122.360 .0250520
1122.962 .0250824
1123.564 .0251126
1124.167 .0251410
1124.771 .0251690
1125.375 .0251980
1125.980 .0252300
1126.585 .0252641
1127.191 .0253007
1127.797 .0253379
1128.404 .0253754
1129.012 .0254143
1129.620 .0254538
1130.229 .0254920
1130.838 .0255359
1131.448 .0255810
1132.058 .0256300
1132.669 .0256832
1133.281 .0257401
1133.894 .0257971
1134.507 .0258576
1135.120 .0259203
1135.735 .0259838
1136.350 .0260457
1136.965 .0261104
1137.582 .0261704
1138.199 .0262330
1138.816 .0262919
1139.435 .0263454
1140.054 .0263967
1140.674 .0264472
1141.294 .0265008
1141.916 .0265456
1142.538 .0265169
1143.160 .0266040
1143.784 .0267419
1144.408 .0269449
1145.033 .0266416
