Measurement Sequence started on: 14-45-04-498
Integration time: 36
Scans to Average: 2 
>>>>>Begin Spectral Data<<<<<
433.946 .0283584
434.870 .0288665
435.793 .0315532
436.715 .0365902
437.635 .0380898
438.555 .0364168
439.473 .0372357
440.389 .0378084
441.305 .0381492
442.219 .0382787
443.132 .0383420
444.044 .0384054
444.954 .0384425
445.863 .0384619
446.771 .0384579
447.678 .0384477
448.584 .0384264
449.488 .0384065
450.391 .0383772
451.293 .0383332
452.194 .0382788
453.094 .0382120
453.992 .0381169
454.890 .0380179
455.786 .0379107
456.681 .0378045
457.575 .0377042
458.468 .0376085
459.360 .0375116
460.250 .0374260
461.140 .0373290
462.028 .0372224
462.915 .0371052
463.801 .0369773
464.687 .0368386
465.571 .0367069
466.454 .0365879
467.335 .0364852
468.216 .0364036
469.096 .0363425
469.975 .0362925
470.853 .0362589
471.729 .0362307
472.605 .0362012
473.479 .0361711
474.353 .0361343
475.226 .0360860
476.097 .0360345
476.968 .0359818
477.838 .0359272
478.706 .0358784
479.574 .0358338
480.441 .0357940
481.306 .0357603
482.171 .0357295
483.035 .0356955
483.898 .0356588
484.760 .0356162
485.621 .0355641
486.481 .0355040
487.340 .0354396
488.198 .0353746
489.055 .0353144
489.912 .0352617
490.767 .0352192
491.622 .0351864
492.476 .0351661
493.329 .0351541
494.180 .0351466
495.032 .0351390
495.882 .0351267
496.731 .0351112
497.580 .0350917
498.427 .0350689
499.274 .0350438
500.120 .0350206
500.965 .0349982
501.809 .0349757
502.653 .0349501
503.495 .0349246
504.337 .0348911
505.178 .0348515
506.018 .0348030
506.858 .0347425
507.696 .0346708
508.534 .0345905
509.371 .0344992
510.208 .0344046
511.043 .0343028
511.878 .0341991
512.712 .0340943
513.545 .0339950
514.377 .0338965
515.209 .0338061
516.040 .0337266
516.870 .0336599
517.699 .0336036
518.528 .0335616
519.356 .0335309
520.183 .0335138
521.010 .0335071
521.836 .0335067
522.661 .0335099
523.485 .0335175
524.309 .0335217
525.132 .0335277
525.954 .0335319
526.776 .0335375
527.597 .0335428
528.417 .0335444
529.237 .0335409
530.056 .0335303
530.874 .0335136
531.692 .0334917
532.508 .0334632
533.325 .0334294
534.140 .0333854
534.955 .0333298
535.770 .0332659
536.583 .0331941
537.397 .0331153
538.209 .0330295
539.021 .0329386
539.832 .0328466
540.643 .0327544
541.453 .0326703
542.262 .0325948
543.071 .0325276
543.879 .0324673
544.687 .0324053
545.494 .0323405
546.300 .0322781
547.106 .0322132
547.911 .0321503
548.716 .0320931
549.520 .0320440
550.323 .0320039
551.126 .0319794
551.929 .0319699
552.731 .0319675
553.532 .0319698
554.332 .0319696
555.133 .0319599
555.932 .0319422
556.731 .0319147
557.530 .0318799
558.328 .0318474
559.125 .0318172
559.922 .0317894
560.719 .0317690
561.515 .0317549
562.310 .0317432
563.105 .0317347
563.899 .0317230
564.693 .0317082
565.487 .0316891
566.280 .0316678
567.072 .0316437
567.864 .0316216
568.655 .0315991
569.446 .0315790
570.236 .0315633
571.026 .0315487
571.816 .0315318
572.605 .0315168
573.393 .0315024
574.181 .0314867
574.969 .0314692
575.756 .0314506
576.543 .0314267
577.329 .0314036
578.115 .0313759
578.900 .0313444
579.685 .0313111
580.469 .0312781
581.253 .0312456
582.036 .0312140
582.820 .0311819
583.602 .0311488
584.384 .0311141
585.166 .0310794
585.947 .0310411
586.728 .0310029
587.509 .0309663
588.289 .0309323
589.069 .0309027
589.848 .0308791
590.627 .0308603
591.405 .0308477
592.183 .0308392
592.961 .0308324
593.738 .0308245
594.515 .0308151
595.291 .0308051
596.067 .0307948
596.843 .0307835
597.618 .0307721
598.393 .0307609
599.167 .0307517
599.941 .0307422
600.715 .0307326
601.488 .0307227
602.261 .0307114
603.034 .0306976
603.806 .0306802
604.578 .0306601
605.349 .0306387
606.121 .0306171
606.891 .0305955
607.662 .0305747
608.432 .0305549
609.201 .0305359
609.971 .0305179
610.740 .0305010
611.508 .0304840
612.277 .0304664
613.045 .0304486
613.812 .0304294
614.579 .0304087
615.346 .0303868
616.113 .0303646
616.879 .0303436
617.645 .0303232
618.411 .0303026
619.176 .0302819
619.941 .0302614
620.705 .0302409
621.470 .0302193
622.233 .0301975
622.997 .0301752
623.760 .0301529
624.523 .0301309
625.286 .0301094
626.048 .0300887
626.810 .0300690
627.572 .0300494
628.333 .0300307
629.095 .0300116
629.855 .0299915
630.616 .0299719
631.376 .0299534
632.136 .0299367
632.895 .0299210
633.655 .0299065
634.414 .0298928
635.172 .0298794
635.931 .0298657
636.689 .0298499
637.447 .0298322
638.204 .0298131
638.962 .0297916
639.718 .0297692
640.475 .0297463
641.231 .0297236
641.988 .0297012
642.743 .0296804
643.499 .0296587
644.254 .0296368
645.009 .0296142
645.764 .0295920
646.518 .0295697
647.272 .0295479
648.026 .0295273
648.780 .0295083
649.533 .0294921
650.286 .0294780
651.039 .0294655
651.792 .0294554
652.544 .0294466
653.296 .0294389
654.048 .0294316
654.799 .0294253
655.550 .0294190
656.301 .0294126
657.052 .0294056
657.802 .0293979
658.552 .0293889
659.302 .0293792
660.052 .0293688
660.801 .0293569
661.550 .0293440
662.299 .0293296
663.048 .0293146
663.796 .0292986
664.544 .0292818
665.292 .0292646
666.040 .0292473
666.787 .0292305
667.534 .0292133
668.281 .0291964
669.028 .0291805
669.774 .0291650
670.521 .0291496
671.266 .0291338
672.012 .0291190
672.758 .0291045
673.503 .0290909
674.248 .0290784
674.992 .0290668
675.737 .0290560
676.481 .0290466
677.225 .0290377
677.969 .0290288
678.712 .0290202
679.455 .0290115
680.199 .0290028
680.941 .0289943
681.684 .0289857
682.426 .0289770
683.168 .0289685
683.910 .0289604
684.652 .0289504
685.393 .0289402
686.134 .0289290
686.875 .0289168
687.616 .0289038
688.356 .0288908
689.097 .0288783
689.837 .0288666
690.576 .0288558
691.316 .0288456
692.055 .0288358
692.794 .0288262
693.533 .0288160
694.272 .0288054
695.010 .0287945
695.748 .0287835
696.486 .0287722
697.224 .0287621
697.962 .0287522
698.699 .0287431
699.436 .0287347
700.173 .0287262
700.909 .0287176
701.646 .0287081
702.382 .0286981
703.118 .0286873
703.853 .0286756
704.589 .0286629
705.324 .0286489
706.059 .0286346
706.794 .0286197
707.529 .0286043
708.263 .0285894
708.997 .0285752
709.731 .0285614
710.465 .0285485
711.198 .0285361
711.931 .0285231
712.664 .0285101
713.397 .0284958
714.130 .0284802
714.862 .0284626
715.594 .0284437
716.326 .0284243
717.058 .0284053
717.789 .0283875
718.520 .0283701
719.251 .0283541
719.982 .0283393
720.713 .0283245
721.443 .0283092
722.173 .0282931
722.903 .0282762
723.633 .0282590
724.362 .0282415
725.091 .0282239
725.820 .0282075
726.549 .0281925
727.278 .0281791
728.006 .0281670
728.734 .0281554
729.462 .0281442
730.190 .0281334
730.917 .0281230
731.644 .0281123
732.371 .0281024
733.098 .0280931
733.825 .0280846
734.551 .0280774
735.277 .0280709
736.003 .0280648
736.728 .0280597
737.454 .0280551
738.179 .0280505
738.904 .0280458
739.629 .0280412
740.353 .0280369
741.077 .0280335
741.801 .0280304
742.525 .0280276
743.249 .0280253
743.972 .0280232
744.695 .0280211
745.418 .0280185
746.141 .0280154
746.863 .0280115
747.585 .0280070
748.307 .0280014
749.029 .0279948
749.750 .0279877
750.472 .0279800
751.193 .0279719
751.913 .0279634
752.634 .0279542
753.354 .0279442
754.074 .0279336
754.794 .0279216
755.514 .0279079
756.233 .0278925
756.952 .0278752
757.671 .0278568
758.390 .0278380
759.108 .0278192
759.826 .0278009
760.544 .0277840
761.262 .0277690
761.979 .0277554
762.697 .0277430
763.414 .0277311
764.130 .0277192
764.847 .0277069
765.563 .0276935
766.279 .0276794
766.995 .0276653
767.710 .0276521
768.426 .0276397
769.141 .0276285
769.855 .0276186
770.570 .0276093
771.284 .0276001
771.998 .0275899
772.712 .0275788
773.426 .0275665
774.139 .0275536
774.852 .0275404
775.565 .0275275
776.277 .0275155
776.990 .0275046
777.702 .0274951
778.414 .0274864
779.125 .0274781
779.836 .0274695
780.547 .0274605
781.258 .0274507
781.969 .0274403
782.679 .0274292
783.389 .0274177
784.099 .0274060
784.808 .0273937
785.517 .0273815
786.226 .0273697
786.935 .0273584
787.643 .0273476
788.352 .0273378
789.060 .0273289
789.767 .0273208
790.475 .0273133
791.182 .0273061
791.889 .0272998
792.595 .0272939
793.301 .0272880
794.008 .0272822
794.713 .0272773
795.419 .0272730
796.124 .0272696
796.829 .0272672
797.534 .0272650
798.238 .0272624
798.942 .0272597
799.646 .0272555
800.350 .0272501
801.053 .0272432
801.756 .0272355
802.459 .0272269
803.162 .0272186
803.864 .0272101
804.566 .0272023
805.267 .0271958
805.969 .0271906
806.670 .0271860
807.371 .0271826
808.071 .0271800
808.772 .0271782
809.472 .0271765
810.171 .0271750
810.871 .0271733
811.570 .0271718
812.269 .0271697
812.967 .0271669
813.666 .0271632
814.364 .0271589
815.061 .0271538
815.759 .0271483
816.456 .0271421
817.153 .0271345
817.849 .0271253
818.545 .0271147
819.241 .0271023
819.937 .0270886
820.632 .0270734
821.327 .0270575
822.022 .0270409
822.717 .0270238
823.411 .0270065
824.105 .0269896
824.798 .0269731
825.491 .0269569
826.184 .0269404
826.877 .0269236
827.569 .0269062
828.261 .0268884
828.953 .0268699
829.645 .0268506
830.336 .0268306
831.027 .0268102
831.717 .0267894
832.407 .0267690
833.097 .0267488
833.787 .0267295
834.476 .0267118
835.165 .0266954
835.854 .0266799
836.542 .0266653
837.230 .0266517
837.918 .0266388
838.605 .0266258
839.292 .0266132
839.979 .0266011
840.665 .0265896
841.352 .0265784
842.037 .0265673
842.723 .0265565
843.408 .0265458
844.093 .0265342
844.777 .0265218
845.462 .0265078
846.145 .0264924
846.829 .0264759
847.512 .0264582
848.195 .0264402
848.878 .0264224
849.560 .0264050
850.242 .0263889
850.923 .0263737
851.605 .0263595
852.286 .0263464
852.966 .0263347
853.646 .0263242
854.326 .0263144
855.006 .0263056
855.685 .0262978
856.364 .0262909
857.043 .0262851
857.721 .0262798
858.399 .0262750
859.077 .0262708
859.754 .0262659
860.431 .0262606
861.107 .0262547
861.784 .0262478
862.459 .0262405
863.135 .0262326
863.810 .0262242
864.485 .0262151
865.160 .0262066
865.834 .0261985
866.508 .0261911
867.181 .0261852
867.854 .0261806
868.527 .0261772
869.199 .0261750
869.872 .0261734
870.543 .0261726
871.215 .0261727
871.886 .0261731
872.557 .0261729
873.227 .0261730
873.897 .0261727
874.567 .0261720
875.236 .0261709
875.905 .0261699
876.573 .0261685
877.242 .0261672
877.909 .0261654
878.577 .0261634
879.244 .0261612
879.911 .0261586
880.577 .0261546
881.243 .0261499
881.909 .0261437
882.575 .0261365
883.240 .0261288
883.904 .0261216
884.569 .0261144
885.232 .0261081
885.896 .0261022
886.559 .0260967
887.222 .0260912
887.885 .0260849
888.547 .0260776
889.208 .0260690
889.870 .0260587
890.531 .0260467
891.192 .0260335
891.852 .0260202
892.512 .0260065
893.171 .0259929
893.830 .0259797
894.489 .0259671
895.148 .0259550
895.806 .0259437
896.464 .0259330
897.121 .0259232
897.778 .0259142
898.434 .0259060
899.091 .0258985
899.747 .0258915
900.402 .0258846
901.057 .0258773
901.712 .0258694
902.366 .0258602
903.020 .0258500
903.674 .0258389
904.327 .0258272
904.980 .0258145
905.633 .0258010
906.285 .0257871
906.936 .0257728
907.588 .0257575
908.239 .0257413
908.889 .0257247
909.540 .0257078
910.190 .0256902
910.839 .0256724
911.488 .0256545
912.137 .0256369
912.785 .0256194
913.433 .0256022
914.081 .0255849
914.728 .0255680
915.375 .0255510
916.021 .0255344
916.668 .0255178
917.313 .0255011
917.959 .0254841
918.604 .0254667
919.248 .0254486
919.892 .0254294
920.536 .0254090
921.180 .0253886
921.823 .0253679
922.465 .0253475
923.108 .0253274
923.750 .0253080
924.391 .0252891
925.032 .0252710
925.673 .0252534
926.313 .0252367
926.953 .0252203
927.593 .0252043
928.232 .0251877
928.871 .0251707
929.510 .0251531
930.148 .0251344
930.786 .0251151
931.423 .0250956
932.060 .0250757
932.697 .0250561
933.333 .0250371
933.969 .0250192
934.604 .0250021
935.239 .0249856
935.874 .0249694
936.508 .0249528
937.142 .0249359
937.776 .0249192
938.409 .0249025
939.042 .0248865
939.674 .0248711
940.306 .0248563
940.938 .0248421
941.569 .0248278
942.200 .0248132
942.830 .0247978
943.460 .0247818
944.090 .0247651
944.720 .0247479
945.349 .0247313
945.977 .0247160
946.606 .0247026
947.233 .0246915
947.861 .0246826
948.488 .0246753
949.115 .0246692
949.741 .0246642
950.367 .0246597
950.993 .0246558
951.618 .0246528
952.243 .0246509
952.868 .0246500
953.492 .0246506
954.115 .0246519
954.739 .0246534
955.362 .0246553
955.984 .0246567
956.607 .0246570
957.229 .0246564
957.850 .0246546
958.471 .0246516
959.092 .0246475
959.713 .0246426
960.333 .0246364
960.952 .0246304
961.572 .0246243
962.191 .0246183
962.809 .0246133
963.428 .0246095
964.045 .0246069
964.663 .0246055
965.280 .0246052
965.897 .0246055
966.513 .0246059
967.129 .0246067
967.745 .0246070
968.361 .0246070
968.976 .0246063
969.590 .0246053
970.205 .0246033
970.818 .0246016
971.432 .0246002
972.045 .0245997
972.658 .0246008
973.271 .0246034
973.883 .0246069
974.495 .0246106
975.106 .0246144
975.717 .0246174
976.328 .0246179
976.938 .0246167
977.548 .0246130
978.158 .0246080
978.768 .0246020
979.377 .0245957
979.985 .0245894
980.594 .0245840
981.202 .0245791
981.809 .0245739
982.417 .0245685
983.024 .0245628
983.631 .0245565
984.237 .0245496
984.843 .0245419
985.449 .0245335
986.054 .0245247
986.659 .0245166
987.264 .0245091
987.868 .0245026
988.472 .0244970
989.076 .0244929
989.679 .0244899
990.282 .0244876
990.885 .0244858
991.487 .0244839
992.090 .0244814
992.691 .0244783
993.293 .0244737
993.894 .0244681
994.495 .0244622
995.095 .0244568
995.696 .0244516
996.296 .0244471
996.895 .0244431
997.494 .0244395
998.093 .0244357
998.692 .0244317
999.291 .0244260
999.889 .0244185
1000.487 .0244091
1001.084 .0243977
1001.681 .0243849
1002.278 .0243715
1002.875 .0243576
1003.471 .0243437
1004.067 .0243293
1004.663 .0243145
1005.258 .0242985
1005.854 .0242816
1006.449 .0242636
1007.043 .0242439
1007.638 .0242231
1008.232 .0242022
1008.826 .0241810
1009.419 .0241608
1010.012 .0241422
1010.605 .0241251
1011.198 .0241092
1011.791 .0240941
1012.383 .0240794
1012.975 .0240647
1013.566 .0240498
1014.158 .0240353
1014.749 .0240208
1015.340 .0240078
1015.931 .0239964
1016.521 .0239861
1017.111 .0239777
1017.701 .0239711
1018.291 .0239646
1018.880 .0239580
1019.470 .0239513
1020.059 .0239447
1020.647 .0239377
1021.236 .0239321
1021.824 .0239274
1022.412 .0239235
1023.000 .0239203
1023.588 .0239170
1024.175 .0239122
1024.762 .0239070
1025.349 .0238994
1025.936 .0238893
1026.523 .0238785
1027.109 .0238678
1027.695 .0238570
1028.281 .0238484
1028.867 .0238419
1029.452 .0238371
1030.038 .0238332
1030.623 .0238299
1031.208 .0238256
1031.792 .0238208
1032.377 .0238146
1032.961 .0238062
1033.546 .0237971
1034.130 .0237882
1034.714 .0237791
1035.297 .0237711
1035.881 .0237646
1036.464 .0237598
1037.047 .0237563
1037.630 .0237544
1038.213 .0237524
1038.796 .0237508
1039.378 .0237497
1039.961 .0237478
1040.543 .0237460
1041.125 .0237447
1041.707 .0237440
1042.289 .0237450
1042.871 .0237489
1043.452 .0237560
1044.034 .0237663
1044.615 .0237791
1045.196 .0237937
1045.777 .0238088
1046.358 .0238234
1046.939 .0238352
1047.520 .0238441
1048.101 .0238505
1048.681 .0238547
1049.262 .0238573
1049.842 .0238598
1050.422 .0238636
1051.002 .0238692
1051.582 .0238748
1052.162 .0238814
1052.742 .0238877
1053.322 .0238929
1053.902 .0238960
1054.482 .0238964
1055.061 .0238941
1055.641 .0238900
1056.220 .0238853
1056.800 .0238811
1057.379 .0238785
1057.958 .0238796
1058.538 .0238834
1059.117 .0238913
1059.696 .0239028
1060.275 .0239152
1060.854 .0239271
1061.433 .0239394
1062.012 .0239494
1062.592 .0239577
1063.171 .0239640
1063.750 .0239704
1064.329 .0239771
1064.908 .0239851
1065.487 .0239946
1066.066 .0240058
1066.645 .0240189
1067.224 .0240333
1067.803 .0240456
1068.382 .0240565
1068.961 .0240650
1069.540 .0240699
1070.119 .0240726
1070.698 .0240733
1071.278 .0240730
1071.857 .0240717
1072.436 .0240704
1073.016 .0240705
1073.595 .0240711
1074.175 .0240743
1074.754 .0240785
1075.334 .0240830
1075.913 .0240889
1076.493 .0240953
1077.073 .0241015
1077.653 .0241080
1078.233 .0241164
1078.813 .0241253
1079.393 .0241355
1079.974 .0241474
1080.554 .0241604
1081.135 .0241754
1081.716 .0241922
1082.296 .0242092
1082.877 .0242257
1083.458 .0242418
1084.040 .0242559
1084.621 .0242683
1085.202 .0242814
1085.784 .0242928
1086.366 .0243026
1086.948 .0243122
1087.530 .0243214
1088.112 .0243287
1088.695 .0243345
1089.277 .0243384
1089.860 .0243387
1090.443 .0243350
1091.026 .0243252
1091.610 .0243100
1092.193 .0242917
1092.777 .0242703
1093.361 .0242456
1093.946 .0242201
1094.530 .0241952
1095.115 .0241714
1095.700 .0241505
1096.285 .0241328
1096.871 .0241169
1097.456 .0241015
1098.042 .0240869
1098.628 .0240715
1099.215 .0240557
1099.802 .0240423
1100.389 .0240317
1100.976 .0240265
1101.564 .0240273
1102.152 .0240333
1102.740 .0240464
1103.329 .0240649
1103.917 .0240863
1104.507 .0241075
1105.096 .0241259
1105.686 .0241395
1106.276 .0241463
1106.867 .0241488
1107.457 .0241478
1108.049 .0241446
1108.640 .0241425
1109.232 .0241417
1109.825 .0241436
1110.417 .0241491
1111.010 .0241580
1111.604 .0241698
1112.198 .0241819
1112.792 .0241905
1113.387 .0241952
1113.982 .0241963
1114.577 .0241939
1115.173 .0241892
1115.769 .0241842
1116.366 .0241820
1116.963 .0241841
1117.561 .0241911
1118.159 .0242020
1118.758 .0242140
1119.357 .0242257
1119.957 .0242307
1120.557 .0242276
1121.157 .0242166
1121.758 .0241982
1122.360 .0241761
1122.962 .0241533
1123.564 .0241363
1124.167 .0241242
1124.771 .0241190
1125.375 .0241185
1125.980 .0241189
1126.585 .0241224
1127.191 .0241245
1127.797 .0241267
1128.404 .0241316
1129.012 .0241408
1129.620 .0241567
1130.229 .0241808
1130.838 .0242159
1131.448 .0242573
1132.058 .0243049
1132.669 .0243576
1133.281 .0244103
1133.894 .0244615
1134.507 .0245118
1135.120 .0245621
1135.735 .0246125
1136.350 .0246638
1136.965 .0247144
1137.582 .0247648
1138.199 .0248153
1138.816 .0248660
1139.435 .0249089
1140.054 .0249435
1140.674 .0249713
1141.294 .0249896
1141.916 .0250169
1142.538 .0250025
1143.160 .0249518
1143.784 .0249693
1144.408 .0250195
1145.033 .0255095
