Measurement Sequence started on: 14-45-04-498
Integration time: 36
Scans to Average: 2 
>>>>>Begin Spectral Data<<<<<
433.946 .0426349
434.870 .0461516
435.793 .0417682
436.715 .0429016
437.635 .0415936
438.555 .0415180
439.473 .0411181
440.389 .0406826
441.305 .0404275
442.219 .0401863
443.132 .0400297
444.044 .0399113
444.954 .0398402
445.863 .0398036
446.771 .0397920
447.678 .0397893
448.584 .0397975
449.488 .0398020
450.391 .0398018
451.293 .0397912
452.194 .0397691
453.094 .0397309
453.992 .0396827
454.890 .0396123
455.786 .0395255
456.681 .0394265
457.575 .0393285
458.468 .0392251
459.360 .0391258
460.250 .0390305
461.140 .0389307
462.028 .0388314
462.915 .0387301
463.801 .0386227
464.687 .0385110
465.571 .0383969
466.454 .0382875
467.335 .0381863
468.216 .0381039
469.096 .0380335
469.975 .0379802
470.853 .0379410
471.729 .0379071
472.605 .0378673
473.479 .0378206
474.353 .0377644
475.226 .0376989
476.097 .0376286
476.968 .0375565
477.838 .0374868
478.706 .0374260
479.574 .0373748
480.441 .0373341
481.306 .0372963
482.171 .0372614
483.035 .0372202
483.898 .0371732
484.760 .0371186
485.621 .0370583
486.481 .0369935
487.340 .0369307
488.198 .0368707
489.055 .0368128
489.912 .0367601
490.767 .0367118
491.622 .0366621
492.476 .0366116
493.329 .0365580
494.180 .0364999
495.032 .0364353
495.882 .0363708
496.731 .0363047
497.580 .0362429
498.427 .0361873
499.274 .0361352
500.120 .0360902
500.965 .0360543
501.809 .0360239
502.653 .0359996
503.495 .0359829
504.337 .0359700
505.178 .0359615
506.018 .0359585
506.858 .0359591
507.696 .0359605
508.534 .0359624
509.371 .0359653
510.208 .0359633
511.043 .0359588
511.878 .0359494
512.712 .0359365
513.545 .0359225
514.377 .0359057
515.209 .0358878
516.040 .0358713
516.870 .0358556
517.699 .0358414
518.528 .0358235
519.356 .0358031
520.183 .0357759
521.010 .0357408
521.836 .0356991
522.661 .0356523
523.485 .0355975
524.309 .0355402
525.132 .0354775
525.954 .0354150
526.776 .0353461
527.597 .0352744
528.417 .0351972
529.237 .0351163
530.056 .0350293
530.874 .0349371
531.692 .0348423
532.508 .0347507
533.325 .0346649
534.140 .0345880
534.955 .0345163
535.770 .0344574
536.583 .0344077
537.397 .0343691
538.209 .0343414
539.021 .0343237
539.832 .0343129
540.643 .0343124
541.453 .0343187
542.262 .0343282
543.071 .0343409
543.879 .0343563
544.687 .0343651
545.494 .0343666
546.300 .0343626
547.106 .0343470
547.911 .0343229
548.716 .0342969
549.520 .0342640
550.323 .0342289
551.126 .0341929
551.929 .0341558
552.731 .0341150
553.532 .0340671
554.332 .0340092
555.133 .0339432
555.932 .0338723
556.731 .0337942
557.530 .0337109
558.328 .0336330
559.125 .0335590
559.922 .0334913
560.719 .0334312
561.515 .0333796
562.310 .0333362
563.105 .0332995
563.899 .0332653
564.693 .0332370
565.487 .0332168
566.280 .0332015
567.072 .0331922
567.864 .0331923
568.655 .0331947
569.446 .0331985
570.236 .0332026
571.026 .0332040
571.816 .0331988
572.605 .0331862
573.393 .0331654
574.181 .0331378
574.969 .0331066
575.756 .0330724
576.543 .0330373
577.329 .0330062
578.115 .0329745
578.900 .0329414
579.685 .0329074
580.469 .0328720
581.253 .0328343
582.036 .0327957
582.820 .0327561
583.602 .0327166
584.384 .0326799
585.166 .0326463
585.947 .0326145
586.728 .0325860
587.509 .0325583
588.289 .0325302
589.069 .0325008
589.848 .0324711
590.627 .0324403
591.405 .0324093
592.183 .0323791
592.961 .0323497
593.738 .0323215
594.515 .0322944
595.291 .0322671
596.067 .0322406
596.843 .0322135
597.618 .0321857
598.393 .0321578
599.167 .0321302
599.941 .0321035
600.715 .0320776
601.488 .0320531
602.261 .0320308
603.034 .0320105
603.806 .0319912
604.578 .0319731
605.349 .0319556
606.121 .0319389
606.891 .0319223
607.662 .0319066
608.432 .0318916
609.201 .0318772
609.971 .0318635
610.740 .0318503
611.508 .0318369
612.277 .0318250
613.045 .0318130
613.812 .0318018
614.579 .0317905
615.346 .0317792
616.113 .0317668
616.879 .0317541
617.645 .0317398
618.411 .0317242
619.176 .0317070
619.941 .0316884
620.705 .0316681
621.470 .0316476
622.233 .0316265
622.997 .0316058
623.760 .0315857
624.523 .0315664
625.286 .0315463
626.048 .0315256
626.810 .0315035
627.572 .0314800
628.333 .0314550
629.095 .0314287
629.855 .0314015
630.616 .0313754
631.376 .0313501
632.136 .0313264
632.895 .0313048
633.655 .0312854
634.414 .0312677
635.172 .0312508
635.931 .0312345
636.689 .0312180
637.447 .0312010
638.204 .0311836
638.962 .0311654
639.718 .0311472
640.475 .0311286
641.231 .0311093
641.988 .0310895
642.743 .0310694
643.499 .0310487
644.254 .0310273
645.009 .0310056
645.764 .0309841
646.518 .0309621
647.272 .0309401
648.026 .0309185
648.780 .0308975
649.533 .0308770
650.286 .0308569
651.039 .0308377
651.792 .0308195
652.544 .0308025
653.296 .0307868
654.048 .0307730
654.799 .0307613
655.550 .0307508
656.301 .0307410
657.052 .0307318
657.802 .0307228
658.552 .0307128
659.302 .0307019
660.052 .0306901
660.801 .0306774
661.550 .0306640
662.299 .0306503
663.048 .0306367
663.796 .0306235
664.544 .0306104
665.292 .0305972
666.040 .0305843
666.787 .0305713
667.534 .0305580
668.281 .0305444
669.028 .0305309
669.774 .0305175
670.521 .0305037
671.266 .0304898
672.012 .0304758
672.758 .0304609
673.503 .0304453
674.248 .0304287
674.992 .0304110
675.737 .0303932
676.481 .0303753
677.225 .0303577
677.969 .0303410
678.712 .0303252
679.455 .0303101
680.199 .0302956
680.941 .0302814
681.684 .0302668
682.426 .0302513
683.168 .0302359
683.910 .0302200
684.652 .0302040
685.393 .0301888
686.134 .0301747
686.875 .0301616
687.616 .0301500
688.356 .0301391
689.097 .0301289
689.837 .0301183
690.576 .0301075
691.316 .0300957
692.055 .0300831
692.794 .0300698
693.533 .0300565
694.272 .0300434
695.010 .0300316
695.748 .0300203
696.486 .0300104
697.224 .0300015
697.962 .0299930
698.699 .0299841
699.436 .0299750
700.173 .0299650
700.909 .0299540
701.646 .0299423
702.382 .0299307
703.118 .0299186
703.853 .0299072
704.589 .0298958
705.324 .0298848
706.059 .0298737
706.794 .0298624
707.529 .0298503
708.263 .0298380
708.997 .0298252
709.731 .0298119
710.465 .0297992
711.198 .0297872
711.931 .0297754
712.664 .0297638
713.397 .0297521
714.130 .0297397
714.862 .0297266
715.594 .0297127
716.326 .0296980
717.058 .0296830
717.789 .0296680
718.520 .0296527
719.251 .0296375
719.982 .0296228
720.713 .0296082
721.443 .0295933
722.173 .0295783
722.903 .0295624
723.633 .0295462
724.362 .0295300
725.091 .0295138
725.820 .0294978
726.549 .0294821
727.278 .0294667
728.006 .0294508
728.734 .0294344
729.462 .0294178
730.190 .0294010
730.917 .0293842
731.644 .0293675
732.371 .0293512
733.098 .0293357
733.825 .0293210
734.551 .0293069
735.277 .0292935
736.003 .0292803
736.728 .0292669
737.454 .0292536
738.179 .0292404
738.904 .0292274
739.629 .0292151
740.353 .0292039
741.077 .0291941
741.801 .0291851
742.525 .0291767
743.249 .0291694
743.972 .0291631
744.695 .0291575
745.418 .0291522
746.141 .0291469
746.863 .0291418
747.585 .0291361
748.307 .0291293
749.029 .0291212
749.750 .0291122
750.472 .0291021
751.193 .0290908
751.913 .0290792
752.634 .0290675
753.354 .0290557
754.074 .0290449
754.794 .0290347
755.514 .0290242
756.233 .0290139
756.952 .0290028
757.671 .0289909
758.390 .0289785
759.108 .0289656
759.826 .0289527
760.544 .0289410
761.262 .0289310
761.979 .0289224
762.697 .0289154
763.414 .0289102
764.130 .0289054
764.847 .0289010
765.563 .0288960
766.279 .0288898
766.995 .0288828
767.710 .0288755
768.426 .0288677
769.141 .0288602
769.855 .0288534
770.570 .0288473
771.284 .0288415
771.998 .0288361
772.712 .0288305
773.426 .0288246
774.139 .0288183
774.852 .0288113
775.565 .0288036
776.277 .0287955
776.990 .0287873
777.702 .0287791
778.414 .0287715
779.125 .0287638
779.836 .0287561
780.547 .0287480
781.258 .0287394
781.969 .0287300
782.679 .0287201
783.389 .0287096
784.099 .0286984
784.808 .0286864
785.517 .0286744
786.226 .0286624
786.935 .0286507
787.643 .0286397
788.352 .0286294
789.060 .0286197
789.767 .0286105
790.475 .0286013
791.182 .0285920
791.889 .0285826
792.595 .0285727
793.301 .0285616
794.008 .0285500
794.713 .0285380
795.419 .0285256
796.124 .0285135
796.829 .0285015
797.534 .0284897
798.238 .0284779
798.942 .0284655
799.646 .0284522
800.350 .0284380
801.053 .0284230
801.756 .0284070
802.459 .0283907
803.162 .0283742
803.864 .0283581
804.566 .0283427
805.267 .0283283
805.969 .0283141
806.670 .0283010
807.371 .0282882
808.071 .0282757
808.772 .0282635
809.472 .0282513
810.171 .0282390
810.871 .0282273
811.570 .0282158
812.269 .0282046
812.967 .0281934
813.666 .0281829
814.364 .0281726
815.061 .0281628
815.759 .0281538
816.456 .0281455
817.153 .0281379
817.849 .0281308
818.545 .0281236
819.241 .0281165
819.937 .0281096
820.632 .0281025
821.327 .0280952
822.022 .0280879
822.717 .0280805
823.411 .0280736
824.105 .0280671
824.798 .0280615
825.491 .0280565
826.184 .0280518
826.877 .0280475
827.569 .0280428
828.261 .0280378
828.953 .0280320
829.645 .0280257
830.336 .0280189
831.027 .0280116
831.717 .0280041
832.407 .0279966
833.097 .0279890
833.787 .0279816
834.476 .0279741
835.165 .0279667
835.854 .0279591
836.542 .0279514
837.230 .0279432
837.918 .0279352
838.605 .0279274
839.292 .0279192
839.979 .0279109
840.665 .0279029
841.352 .0278949
842.037 .0278869
842.723 .0278791
843.408 .0278718
844.093 .0278650
844.777 .0278590
845.462 .0278532
846.145 .0278470
846.829 .0278404
847.512 .0278327
848.195 .0278230
848.878 .0278116
849.560 .0277984
850.242 .0277831
850.923 .0277665
851.605 .0277489
852.286 .0277307
852.966 .0277119
853.646 .0276934
854.326 .0276750
855.006 .0276565
855.685 .0276376
856.364 .0276184
857.043 .0275990
857.721 .0275799
858.399 .0275606
859.077 .0275418
859.754 .0275237
860.431 .0275062
861.107 .0274892
861.784 .0274726
862.459 .0274563
863.135 .0274405
863.810 .0274246
864.485 .0274089
865.160 .0273933
865.834 .0273783
866.508 .0273637
867.181 .0273500
867.854 .0273373
868.527 .0273253
869.199 .0273137
869.872 .0273022
870.543 .0272905
871.215 .0272787
871.886 .0272664
872.557 .0272536
873.227 .0272404
873.897 .0272273
874.567 .0272141
875.236 .0272013
875.905 .0271890
876.573 .0271770
877.242 .0271652
877.909 .0271532
878.577 .0271410
879.244 .0271283
879.911 .0271152
880.577 .0271017
881.243 .0270881
881.909 .0270747
882.575 .0270613
883.240 .0270483
883.904 .0270361
884.569 .0270249
885.232 .0270144
885.896 .0270043
886.559 .0269949
887.222 .0269863
887.885 .0269780
888.547 .0269701
889.208 .0269626
889.870 .0269561
890.531 .0269504
891.192 .0269454
891.852 .0269420
892.512 .0269398
893.171 .0269391
893.830 .0269398
894.489 .0269416
895.148 .0269442
895.806 .0269468
896.464 .0269494
897.121 .0269518
897.778 .0269539
898.434 .0269554
899.091 .0269561
899.747 .0269563
900.402 .0269555
901.057 .0269533
901.712 .0269495
902.366 .0269443
903.020 .0269376
903.674 .0269300
904.327 .0269216
904.980 .0269132
905.633 .0269054
906.285 .0268985
906.936 .0268927
907.588 .0268872
908.239 .0268817
908.889 .0268756
909.540 .0268686
910.190 .0268609
910.839 .0268521
911.488 .0268430
912.137 .0268336
912.785 .0268244
913.433 .0268153
914.081 .0268067
914.728 .0267979
915.375 .0267885
916.021 .0267783
916.668 .0267666
917.313 .0267533
917.959 .0267390
918.604 .0267241
919.248 .0267093
919.892 .0266951
920.536 .0266812
921.180 .0266683
921.823 .0266562
922.465 .0266444
923.108 .0266324
923.750 .0266201
924.391 .0266070
925.032 .0265931
925.673 .0265786
926.313 .0265635
926.953 .0265480
927.593 .0265316
928.232 .0265140
928.871 .0264954
929.510 .0264756
930.148 .0264549
930.786 .0264333
931.423 .0264118
932.060 .0263900
932.697 .0263678
933.333 .0263454
933.969 .0263224
934.604 .0262992
935.239 .0262753
935.874 .0262507
936.508 .0262260
937.142 .0262016
937.776 .0261780
938.409 .0261557
939.042 .0261351
939.674 .0261154
940.306 .0260965
940.938 .0260776
941.569 .0260585
942.200 .0260381
942.830 .0260167
943.460 .0259940
944.090 .0259704
944.720 .0259466
945.349 .0259229
945.977 .0258999
946.606 .0258782
947.233 .0258572
947.861 .0258368
948.488 .0258164
949.115 .0257957
949.741 .0257747
950.367 .0257536
950.993 .0257326
951.618 .0257122
952.243 .0256930
952.868 .0256755
953.492 .0256598
954.115 .0256458
954.739 .0256335
955.362 .0256228
955.984 .0256129
956.607 .0256036
957.229 .0255946
957.850 .0255855
958.471 .0255763
959.092 .0255669
959.713 .0255572
960.333 .0255474
960.952 .0255375
961.572 .0255271
962.191 .0255160
962.809 .0255050
963.428 .0254935
964.045 .0254816
964.663 .0254703
965.280 .0254594
965.897 .0254491
966.513 .0254399
967.129 .0254315
967.745 .0254242
968.361 .0254180
968.976 .0254125
969.590 .0254074
970.205 .0254032
970.818 .0253998
971.432 .0253970
972.045 .0253951
972.658 .0253942
973.271 .0253931
973.883 .0253920
974.495 .0253907
975.106 .0253887
975.717 .0253859
976.328 .0253823
976.938 .0253778
977.548 .0253730
978.158 .0253680
978.768 .0253628
979.377 .0253579
979.985 .0253539
980.594 .0253507
981.202 .0253481
981.809 .0253465
982.417 .0253462
983.024 .0253470
983.631 .0253491
984.237 .0253522
984.843 .0253563
985.449 .0253610
986.054 .0253659
986.659 .0253709
987.264 .0253756
987.868 .0253806
988.472 .0253858
989.076 .0253916
989.679 .0253978
990.282 .0254039
990.885 .0254095
991.487 .0254145
992.090 .0254179
992.691 .0254201
993.293 .0254212
993.894 .0254210
994.495 .0254201
995.095 .0254190
995.696 .0254176
996.296 .0254162
996.895 .0254144
997.494 .0254125
998.093 .0254099
998.692 .0254072
999.291 .0254036
999.889 .0253997
1000.487 .0253959
1001.084 .0253923
1001.681 .0253888
1002.278 .0253859
1002.875 .0253831
1003.471 .0253808
1004.067 .0253793
1004.663 .0253782
1005.258 .0253773
1005.854 .0253764
1006.449 .0253755
1007.043 .0253749
1007.638 .0253740
1008.232 .0253725
1008.826 .0253705
1009.419 .0253683
1010.012 .0253657
1010.605 .0253623
1011.198 .0253580
1011.791 .0253534
1012.383 .0253484
1012.975 .0253431
1013.566 .0253368
1014.158 .0253301
1014.749 .0253233
1015.340 .0253162
1015.931 .0253091
1016.521 .0253015
1017.111 .0252940
1017.701 .0252866
1018.291 .0252797
1018.880 .0252729
1019.470 .0252662
1020.059 .0252602
1020.647 .0252551
1021.236 .0252511
1021.824 .0252479
1022.412 .0252455
1023.000 .0252438
1023.588 .0252430
1024.175 .0252420
1024.762 .0252398
1025.349 .0252370
1025.936 .0252339
1026.523 .0252302
1027.109 .0252260
1027.695 .0252217
1028.281 .0252174
1028.867 .0252129
1029.452 .0252086
1030.038 .0252032
1030.623 .0251971
1031.208 .0251904
1031.792 .0251827
1032.377 .0251738
1032.961 .0251642
1033.546 .0251541
1034.130 .0251439
1034.714 .0251346
1035.297 .0251257
1035.881 .0251166
1036.464 .0251079
1037.047 .0250999
1037.630 .0250919
1038.213 .0250843
1038.796 .0250769
1039.378 .0250703
1039.961 .0250645
1040.543 .0250588
1041.125 .0250526
1041.707 .0250459
1042.289 .0250384
1042.871 .0250301
1043.452 .0250210
1044.034 .0250121
1044.615 .0250033
1045.196 .0249962
1045.777 .0249904
1046.358 .0249861
1046.939 .0249825
1047.520 .0249792
1048.101 .0249748
1048.681 .0249695
1049.262 .0249617
1049.842 .0249521
1050.422 .0249414
1051.002 .0249308
1051.582 .0249200
1052.162 .0249101
1052.742 .0249004
1053.322 .0248915
1053.902 .0248820
1054.482 .0248723
1055.061 .0248616
1055.641 .0248508
1056.220 .0248397
1056.800 .0248293
1057.379 .0248198
1057.958 .0248123
1058.538 .0248053
1059.117 .0248001
1059.696 .0247948
1060.275 .0247891
1060.854 .0247819
1061.433 .0247743
1062.012 .0247660
1062.592 .0247587
1063.171 .0247519
1063.750 .0247471
1064.329 .0247435
1064.908 .0247415
1065.487 .0247394
1066.066 .0247371
1066.645 .0247346
1067.224 .0247320
1067.803 .0247288
1068.382 .0247275
1068.961 .0247272
1069.540 .0247303
1070.119 .0247355
1070.698 .0247430
1071.278 .0247515
1071.857 .0247601
1072.436 .0247678
1073.016 .0247736
1073.595 .0247775
1074.175 .0247811
1074.754 .0247841
1075.334 .0247877
1075.913 .0247914
1076.493 .0247962
1077.073 .0248011
1077.653 .0248060
1078.233 .0248103
1078.813 .0248135
1079.393 .0248161
1079.974 .0248187
1080.554 .0248207
1081.135 .0248233
1081.716 .0248277
1082.296 .0248334
1082.877 .0248404
1083.458 .0248482
1084.040 .0248554
1084.621 .0248613
1085.202 .0248664
1085.784 .0248698
1086.366 .0248705
1086.948 .0248705
1087.530 .0248697
1088.112 .0248679
1088.695 .0248664
1089.277 .0248650
1089.860 .0248645
1090.443 .0248642
1091.026 .0248642
1091.610 .0248638
1092.193 .0248643
1092.777 .0248654
1093.361 .0248667
1093.946 .0248675
1094.530 .0248688
1095.115 .0248695
1095.700 .0248703
1096.285 .0248706
1096.871 .0248703
1097.456 .0248688
1098.042 .0248661
1098.628 .0248623
1099.215 .0248577
1099.802 .0248514
1100.389 .0248469
1100.976 .0248434
1101.564 .0248404
1102.152 .0248373
1102.740 .0248357
1103.329 .0248351
1103.917 .0248358
1104.507 .0248358
1105.096 .0248365
1105.686 .0248391
1106.276 .0248437
1106.867 .0248505
1107.457 .0248596
1108.049 .0248722
1108.640 .0248873
1109.232 .0249041
1109.825 .0249247
1110.417 .0249467
1111.010 .0249707
1111.604 .0249964
1112.198 .0250242
1112.792 .0250540
1113.387 .0250837
1113.982 .0251162
1114.577 .0251515
1115.173 .0251880
1115.769 .0252243
1116.366 .0252589
1116.963 .0252925
1117.561 .0253248
1118.159 .0253543
1118.758 .0253798
1119.357 .0254033
1119.957 .0254253
1120.557 .0254455
1121.157 .0254643
1121.758 .0254827
1122.360 .0254976
1122.962 .0255057
1123.564 .0255091
1124.167 .0255036
1124.771 .0254914
1125.375 .0254744
1125.980 .0254550
1126.585 .0254358
1127.191 .0254172
1127.797 .0254027
1128.404 .0253907
1129.012 .0253856
1129.620 .0253844
1130.229 .0253837
1130.838 .0253868
1131.448 .0253899
1132.058 .0253957
1132.669 .0254046
1133.281 .0254229
1133.894 .0254499
1134.507 .0254870
1135.120 .0255350
1135.735 .0255896
1136.350 .0256534
1136.965 .0257221
1137.582 .0257930
1138.199 .0258647
1138.816 .0259352
1139.435 .0260033
1140.054 .0260700
1140.674 .0261370
1141.294 .0262009
1141.916 .0262848
1142.538 .0263050
1143.160 .0264431
1143.784 .0264725
1144.408 .0264676
1145.033 .0271065
