Measurement Sequence started on: 14-45-04-498
Integration time: 36
Scans to Average: 2 
>>>>>Begin Spectral Data<<<<<
433.946 .0593042
434.870 .0503191
435.793 .0453703
436.715 .0442031
437.635 .0426394
438.555 .0438651
439.473 .0427684
440.389 .0421242
441.305 .0416938
442.219 .0413286
443.132 .0410384
444.044 .0407763
444.954 .0405788
445.863 .0404318
446.771 .0403386
447.678 .0402608
448.584 .0401925
449.488 .0401227
450.391 .0400429
451.293 .0399636
452.194 .0398861
453.094 .0398069
453.992 .0397316
454.890 .0396469
455.786 .0395634
456.681 .0394741
457.575 .0393743
458.468 .0392596
459.360 .0391294
460.250 .0389935
461.140 .0388412
462.028 .0386893
462.915 .0385368
463.801 .0383850
464.687 .0382321
465.571 .0380817
466.454 .0379374
467.335 .0378013
468.216 .0376765
469.096 .0375594
469.975 .0374555
470.853 .0373602
471.729 .0372687
472.605 .0371837
473.479 .0371043
474.353 .0370329
475.226 .0369624
476.097 .0368952
476.968 .0368323
477.838 .0367723
478.706 .0367197
479.574 .0366713
480.441 .0366311
481.306 .0365962
482.171 .0365650
483.035 .0365324
483.898 .0365001
484.760 .0364647
485.621 .0364272
486.481 .0363879
487.340 .0363479
488.198 .0363078
489.055 .0362697
489.912 .0362335
490.767 .0362030
491.622 .0361728
492.476 .0361436
493.329 .0361110
494.180 .0360790
495.032 .0360439
495.882 .0360049
496.731 .0359635
497.580 .0359220
498.427 .0358821
499.274 .0358455
500.120 .0358106
500.965 .0357831
501.809 .0357623
502.653 .0357440
503.495 .0357265
504.337 .0357095
505.178 .0356895
506.018 .0356653
506.858 .0356349
507.696 .0356012
508.534 .0355606
509.371 .0355168
510.208 .0354724
511.043 .0354285
511.878 .0353899
512.712 .0353539
513.545 .0353185
514.377 .0352841
515.209 .0352422
516.040 .0351929
516.870 .0351382
517.699 .0350828
518.528 .0350304
519.356 .0349873
520.183 .0349556
521.010 .0349385
521.836 .0349348
522.661 .0349408
523.485 .0349463
524.309 .0349466
525.132 .0349342
525.954 .0349045
526.776 .0348567
527.597 .0347983
528.417 .0347303
529.237 .0346689
530.056 .0346095
530.874 .0345535
531.692 .0345027
532.508 .0344570
533.325 .0344127
534.140 .0343684
534.955 .0343252
535.770 .0342822
536.583 .0342390
537.397 .0341986
538.209 .0341602
539.021 .0341314
539.832 .0341089
540.643 .0340933
541.453 .0340813
542.262 .0340733
543.071 .0340641
543.879 .0340532
544.687 .0340443
545.494 .0340310
546.300 .0340104
547.106 .0339814
547.911 .0339447
548.716 .0339013
549.520 .0338486
550.323 .0337934
551.126 .0337386
551.929 .0336862
552.731 .0336362
553.532 .0335859
554.332 .0335396
555.133 .0334991
555.932 .0334649
556.731 .0334325
557.530 .0334076
558.328 .0333881
559.125 .0333742
559.922 .0333655
560.719 .0333593
561.515 .0333548
562.310 .0333504
563.105 .0333431
563.899 .0333343
564.693 .0333183
565.487 .0333022
566.280 .0332804
567.072 .0332593
567.864 .0332324
568.655 .0332023
569.446 .0331655
570.236 .0331246
571.026 .0330789
571.816 .0330278
572.605 .0329724
573.393 .0329173
574.181 .0328639
574.969 .0328137
575.756 .0327649
576.543 .0327220
577.329 .0326802
578.115 .0326445
578.900 .0326081
579.685 .0325726
580.469 .0325384
581.253 .0325064
582.036 .0324744
582.820 .0324441
583.602 .0324161
584.384 .0323903
585.166 .0323678
585.947 .0323484
586.728 .0323297
587.509 .0323124
588.289 .0322968
589.069 .0322836
589.848 .0322720
590.627 .0322628
591.405 .0322553
592.183 .0322503
592.961 .0322466
593.738 .0322437
594.515 .0322413
595.291 .0322386
596.067 .0322351
596.843 .0322298
597.618 .0322222
598.393 .0322130
599.167 .0322020
599.941 .0321897
600.715 .0321762
601.488 .0321619
602.261 .0321468
603.034 .0321321
603.806 .0321179
604.578 .0321044
605.349 .0320925
606.121 .0320829
606.891 .0320749
607.662 .0320683
608.432 .0320635
609.201 .0320602
609.971 .0320579
610.740 .0320564
611.508 .0320549
612.277 .0320536
613.045 .0320528
613.812 .0320515
614.579 .0320503
615.346 .0320495
616.113 .0320481
616.879 .0320461
617.645 .0320438
618.411 .0320404
619.176 .0320352
619.941 .0320287
620.705 .0320211
621.470 .0320118
622.233 .0320016
622.997 .0319906
623.760 .0319792
624.523 .0319678
625.286 .0319556
626.048 .0319424
626.810 .0319283
627.572 .0319129
628.333 .0318951
629.095 .0318750
629.855 .0318533
630.616 .0318297
631.376 .0318048
632.136 .0317799
632.895 .0317550
633.655 .0317310
634.414 .0317077
635.172 .0316857
635.931 .0316648
636.689 .0316454
637.447 .0316269
638.204 .0316086
638.962 .0315908
639.718 .0315738
640.475 .0315566
641.231 .0315399
641.988 .0315236
642.743 .0315075
643.499 .0314913
644.254 .0314753
645.009 .0314595
645.764 .0314443
646.518 .0314300
647.272 .0314168
648.026 .0314045
648.780 .0313930
649.533 .0313824
650.286 .0313719
651.039 .0313619
651.792 .0313516
652.544 .0313407
653.296 .0313293
654.048 .0313184
654.799 .0313080
655.550 .0312987
656.301 .0312908
657.052 .0312849
657.802 .0312796
658.552 .0312748
659.302 .0312693
660.052 .0312628
660.801 .0312549
661.550 .0312456
662.299 .0312342
663.048 .0312218
663.796 .0312091
664.544 .0311963
665.292 .0311840
666.040 .0311723
666.787 .0311608
667.534 .0311488
668.281 .0311364
669.028 .0311229
669.774 .0311074
670.521 .0310912
671.266 .0310746
672.012 .0310574
672.758 .0310405
673.503 .0310234
674.248 .0310066
674.992 .0309903
675.737 .0309744
676.481 .0309587
677.225 .0309435
677.969 .0309294
678.712 .0309165
679.455 .0309044
680.199 .0308943
680.941 .0308854
681.684 .0308778
682.426 .0308709
683.168 .0308635
683.910 .0308552
684.652 .0308456
685.393 .0308348
686.134 .0308232
686.875 .0308108
687.616 .0307988
688.356 .0307872
689.097 .0307767
689.837 .0307671
690.576 .0307578
691.316 .0307485
692.055 .0307390
692.794 .0307282
693.533 .0307163
694.272 .0307033
695.010 .0306901
695.748 .0306774
696.486 .0306654
697.224 .0306554
697.962 .0306471
698.699 .0306404
699.436 .0306350
700.173 .0306298
700.909 .0306244
701.646 .0306177
702.382 .0306094
703.118 .0305998
703.853 .0305888
704.589 .0305770
705.324 .0305649
706.059 .0305533
706.794 .0305422
707.529 .0305319
708.263 .0305224
708.997 .0305135
709.731 .0305045
710.465 .0304953
711.198 .0304857
711.931 .0304756
712.664 .0304648
713.397 .0304532
714.130 .0304411
714.862 .0304290
715.594 .0304167
716.326 .0304049
717.058 .0303935
717.789 .0303834
718.520 .0303740
719.251 .0303654
719.982 .0303572
720.713 .0303489
721.443 .0303403
722.173 .0303307
722.903 .0303196
723.633 .0303074
724.362 .0302940
725.091 .0302799
725.820 .0302656
726.549 .0302518
727.278 .0302386
728.006 .0302263
728.734 .0302147
729.462 .0302034
730.190 .0301918
730.917 .0301795
731.644 .0301663
732.371 .0301526
733.098 .0301385
733.825 .0301245
734.551 .0301107
735.277 .0300975
736.003 .0300848
736.728 .0300726
737.454 .0300607
738.179 .0300492
738.904 .0300379
739.629 .0300267
740.353 .0300160
741.077 .0300065
741.801 .0299978
742.525 .0299898
743.249 .0299823
743.972 .0299748
744.695 .0299668
745.418 .0299580
746.141 .0299480
746.863 .0299376
747.585 .0299271
748.307 .0299165
749.029 .0299062
749.750 .0298967
750.472 .0298877
751.193 .0298791
751.913 .0298703
752.634 .0298609
753.354 .0298504
754.074 .0298395
754.794 .0298280
755.514 .0298163
756.233 .0298047
756.952 .0297939
757.671 .0297839
758.390 .0297746
759.108 .0297661
759.826 .0297588
760.544 .0297527
761.262 .0297474
761.979 .0297429
762.697 .0297387
763.414 .0297349
764.130 .0297312
764.847 .0297270
765.563 .0297219
766.279 .0297160
766.995 .0297088
767.710 .0297007
768.426 .0296919
769.141 .0296826
769.855 .0296728
770.570 .0296627
771.284 .0296521
771.998 .0296409
772.712 .0296289
773.426 .0296163
774.139 .0296028
774.852 .0295886
775.565 .0295739
776.277 .0295594
776.990 .0295452
777.702 .0295317
778.414 .0295192
779.125 .0295075
779.836 .0294966
780.547 .0294863
781.258 .0294761
781.969 .0294660
782.679 .0294558
783.389 .0294455
784.099 .0294346
784.808 .0294236
785.517 .0294122
786.226 .0294008
786.935 .0293896
787.643 .0293783
788.352 .0293671
789.060 .0293559
789.767 .0293450
790.475 .0293338
791.182 .0293224
791.889 .0293109
792.595 .0292991
793.301 .0292870
794.008 .0292749
794.713 .0292628
795.419 .0292513
796.124 .0292406
796.829 .0292304
797.534 .0292210
798.238 .0292121
798.942 .0292038
799.646 .0291959
800.350 .0291881
801.053 .0291801
801.756 .0291712
802.459 .0291613
803.162 .0291508
803.864 .0291393
804.566 .0291274
805.267 .0291149
805.969 .0291023
806.670 .0290896
807.371 .0290769
808.071 .0290648
808.772 .0290531
809.472 .0290413
810.171 .0290296
810.871 .0290178
811.570 .0290057
812.269 .0289938
812.967 .0289823
813.666 .0289714
814.364 .0289612
815.061 .0289512
815.759 .0289416
816.456 .0289322
817.153 .0289232
817.849 .0289135
818.545 .0289040
819.241 .0288944
819.937 .0288844
820.632 .0288743
821.327 .0288641
822.022 .0288540
822.717 .0288438
823.411 .0288331
824.105 .0288218
824.798 .0288100
825.491 .0287975
826.184 .0287837
826.877 .0287694
827.569 .0287546
828.261 .0287394
828.953 .0287237
829.645 .0287080
830.336 .0286919
831.027 .0286756
831.717 .0286594
832.407 .0286433
833.097 .0286277
833.787 .0286127
834.476 .0285979
835.165 .0285840
835.854 .0285707
836.542 .0285581
837.230 .0285461
837.918 .0285353
838.605 .0285250
839.292 .0285153
839.979 .0285062
840.665 .0284979
841.352 .0284903
842.037 .0284833
842.723 .0284763
843.408 .0284693
844.093 .0284616
844.777 .0284535
845.462 .0284444
846.145 .0284344
846.829 .0284235
847.512 .0284120
848.195 .0283996
848.878 .0283868
849.560 .0283739
850.242 .0283609
850.923 .0283479
851.605 .0283350
852.286 .0283211
852.966 .0283063
853.646 .0282907
854.326 .0282743
855.006 .0282575
855.685 .0282405
856.364 .0282232
857.043 .0282064
857.721 .0281901
858.399 .0281747
859.077 .0281597
859.754 .0281452
860.431 .0281309
861.107 .0281165
861.784 .0281022
862.459 .0280879
863.135 .0280738
863.810 .0280602
864.485 .0280465
865.160 .0280331
865.834 .0280195
866.508 .0280061
867.181 .0279930
867.854 .0279799
868.527 .0279666
869.199 .0279528
869.872 .0279389
870.543 .0279253
871.215 .0279114
871.886 .0278974
872.557 .0278834
873.227 .0278692
873.897 .0278551
874.567 .0278408
875.236 .0278271
875.905 .0278144
876.573 .0278025
877.242 .0277912
877.909 .0277804
878.577 .0277704
879.244 .0277606
879.911 .0277508
880.577 .0277415
881.243 .0277318
881.909 .0277220
882.575 .0277120
883.240 .0277020
883.904 .0276926
884.569 .0276836
885.232 .0276749
885.896 .0276670
886.559 .0276600
887.222 .0276532
887.885 .0276464
888.547 .0276402
889.208 .0276340
889.870 .0276273
890.531 .0276205
891.192 .0276136
891.852 .0276066
892.512 .0275997
893.171 .0275932
893.830 .0275875
894.489 .0275827
895.148 .0275785
895.806 .0275748
896.464 .0275717
897.121 .0275690
897.778 .0275658
898.434 .0275625
899.091 .0275591
899.747 .0275550
900.402 .0275501
901.057 .0275450
901.712 .0275396
902.366 .0275335
903.020 .0275273
903.674 .0275207
904.327 .0275141
904.980 .0275071
905.633 .0274993
906.285 .0274912
906.936 .0274831
907.588 .0274743
908.239 .0274649
908.889 .0274558
909.540 .0274467
910.190 .0274373
910.839 .0274283
911.488 .0274195
912.137 .0274107
912.785 .0274016
913.433 .0273922
914.081 .0273821
914.728 .0273717
915.375 .0273607
916.021 .0273486
916.668 .0273364
917.313 .0273236
917.959 .0273098
918.604 .0272955
919.248 .0272807
919.892 .0272652
920.536 .0272490
921.180 .0272326
921.823 .0272156
922.465 .0271981
923.108 .0271804
923.750 .0271629
924.391 .0271459
925.032 .0271296
925.673 .0271134
926.313 .0270975
926.953 .0270820
927.593 .0270655
928.232 .0270480
928.871 .0270292
929.510 .0270092
930.148 .0269877
930.786 .0269648
931.423 .0269415
932.060 .0269179
932.697 .0268945
933.333 .0268713
933.969 .0268479
934.604 .0268246
935.239 .0268008
935.874 .0267764
936.508 .0267519
937.142 .0267272
937.776 .0267026
938.409 .0266786
939.042 .0266555
939.674 .0266334
940.306 .0266123
940.938 .0265922
941.569 .0265730
942.200 .0265543
942.830 .0265358
943.460 .0265173
944.090 .0264990
944.720 .0264810
945.349 .0264634
945.977 .0264459
946.606 .0264285
947.233 .0264109
947.861 .0263931
948.488 .0263745
949.115 .0263553
949.741 .0263358
950.367 .0263163
950.993 .0262972
951.618 .0262787
952.243 .0262609
952.868 .0262442
953.492 .0262284
954.115 .0262133
954.739 .0261983
955.362 .0261838
955.984 .0261689
956.607 .0261541
957.229 .0261399
957.850 .0261261
958.471 .0261129
959.092 .0261011
959.713 .0260906
960.333 .0260808
960.952 .0260719
961.572 .0260638
962.191 .0260561
962.809 .0260486
963.428 .0260406
964.045 .0260318
964.663 .0260231
965.280 .0260147
965.897 .0260062
966.513 .0259983
967.129 .0259917
967.745 .0259858
968.361 .0259809
968.976 .0259769
969.590 .0259737
970.205 .0259711
970.818 .0259695
971.432 .0259686
972.045 .0259684
972.658 .0259694
973.271 .0259714
973.883 .0259739
974.495 .0259767
975.106 .0259792
975.717 .0259810
976.328 .0259820
976.938 .0259825
977.548 .0259819
978.158 .0259809
978.768 .0259799
979.377 .0259789
979.985 .0259778
980.594 .0259767
981.202 .0259753
981.809 .0259731
982.417 .0259699
983.024 .0259663
983.631 .0259621
984.237 .0259578
984.843 .0259538
985.449 .0259500
986.054 .0259471
986.659 .0259454
987.264 .0259446
987.868 .0259450
988.472 .0259467
989.076 .0259491
989.679 .0259517
990.282 .0259547
990.885 .0259582
991.487 .0259617
992.090 .0259650
992.691 .0259683
993.293 .0259711
993.894 .0259731
994.495 .0259748
995.095 .0259756
995.696 .0259758
996.296 .0259749
996.895 .0259727
997.494 .0259697
998.093 .0259658
998.692 .0259618
999.291 .0259576
999.889 .0259536
1000.487 .0259498
1001.084 .0259459
1001.681 .0259414
1002.278 .0259369
1002.875 .0259323
1003.471 .0259279
1004.067 .0259248
1004.663 .0259229
1005.258 .0259222
1005.854 .0259230
1006.449 .0259251
1007.043 .0259276
1007.638 .0259295
1008.232 .0259314
1008.826 .0259319
1009.419 .0259314
1010.012 .0259305
1010.605 .0259284
1011.198 .0259264
1011.791 .0259247
1012.383 .0259220
1012.975 .0259185
1013.566 .0259135
1014.158 .0259070
1014.749 .0258987
1015.340 .0258897
1015.931 .0258803
1016.521 .0258709
1017.111 .0258628
1017.701 .0258558
1018.291 .0258484
1018.880 .0258410
1019.470 .0258334
1020.059 .0258248
1020.647 .0258150
1021.236 .0258036
1021.824 .0257917
1022.412 .0257813
1023.000 .0257719
1023.588 .0257640
1024.175 .0257583
1024.762 .0257552
1025.349 .0257537
1025.936 .0257525
1026.523 .0257518
1027.109 .0257509
1027.695 .0257497
1028.281 .0257480
1028.867 .0257457
1029.452 .0257434
1030.038 .0257413
1030.623 .0257394
1031.208 .0257382
1031.792 .0257374
1032.377 .0257368
1032.961 .0257359
1033.546 .0257356
1034.130 .0257340
1034.714 .0257308
1035.297 .0257263
1035.881 .0257214
1036.464 .0257158
1037.047 .0257101
1037.630 .0257047
1038.213 .0257018
1038.796 .0257017
1039.378 .0257042
1039.961 .0257086
1040.543 .0257153
1041.125 .0257223
1041.707 .0257285
1042.289 .0257324
1042.871 .0257347
1043.452 .0257344
1044.034 .0257327
1044.615 .0257293
1045.196 .0257254
1045.777 .0257222
1046.358 .0257188
1046.939 .0257151
1047.520 .0257108
1048.101 .0257041
1048.681 .0256947
1049.262 .0256824
1049.842 .0256679
1050.422 .0256519
1051.002 .0256361
1051.582 .0256215
1052.162 .0256087
1052.742 .0255985
1053.322 .0255904
1053.902 .0255839
1054.482 .0255784
1055.061 .0255730
1055.641 .0255662
1056.220 .0255593
1056.800 .0255526
1057.379 .0255467
1057.958 .0255423
1058.538 .0255395
1059.117 .0255381
1059.696 .0255377
1060.275 .0255371
1060.854 .0255362
1061.433 .0255346
1062.012 .0255332
1062.592 .0255316
1063.171 .0255312
1063.750 .0255328
1064.329 .0255374
1064.908 .0255443
1065.487 .0255528
1066.066 .0255630
1066.645 .0255732
1067.224 .0255827
1067.803 .0255920
1068.382 .0256005
1068.961 .0256085
1069.540 .0256161
1070.119 .0256234
1070.698 .0256304
1071.278 .0256373
1071.857 .0256436
1072.436 .0256480
1073.016 .0256517
1073.595 .0256531
1074.175 .0256521
1074.754 .0256501
1075.334 .0256472
1075.913 .0256413
1076.493 .0256345
1077.073 .0256257
1077.653 .0256148
1078.233 .0256032
1078.813 .0255906
1079.393 .0255778
1079.974 .0255665
1080.554 .0255557
1081.135 .0255458
1081.716 .0255367
1082.296 .0255300
1082.877 .0255225
1083.458 .0255155
1084.040 .0255091
1084.621 .0255024
1085.202 .0254958
1085.784 .0254916
1086.366 .0254895
1086.948 .0254907
1087.530 .0254955
1088.112 .0255027
1088.695 .0255122
1089.277 .0255230
1089.860 .0255338
1090.443 .0255435
1091.026 .0255506
1091.610 .0255559
1092.193 .0255574
1092.777 .0255577
1093.361 .0255567
1093.946 .0255549
1094.530 .0255535
1095.115 .0255528
1095.700 .0255517
1096.285 .0255496
1096.871 .0255460
1097.456 .0255406
1098.042 .0255341
1098.628 .0255257
1099.215 .0255164
1099.802 .0255067
1100.389 .0254981
1100.976 .0254923
1101.564 .0254885
1102.152 .0254871
1102.740 .0254877
1103.329 .0254913
1103.917 .0254968
1104.507 .0255041
1105.096 .0255146
1105.686 .0255286
1106.276 .0255457
1106.867 .0255649
1107.457 .0255848
1108.049 .0256043
1108.640 .0256241
1109.232 .0256417
1109.825 .0256574
1110.417 .0256729
1111.010 .0256869
1111.604 .0257012
1112.198 .0257163
1112.792 .0257330
1113.387 .0257488
1113.982 .0257637
1114.577 .0257773
1115.173 .0257888
1115.769 .0257993
1116.366 .0258099
1116.963 .0258213
1117.561 .0258351
1118.159 .0258496
1118.758 .0258624
1119.357 .0258743
1119.957 .0258844
1120.557 .0258912
1121.157 .0258930
1121.758 .0258901
1122.360 .0258876
1122.962 .0258849
1123.564 .0258836
1124.167 .0258841
1124.771 .0258870
1125.375 .0258870
1125.980 .0258807
1126.585 .0258684
1127.191 .0258505
1127.797 .0258311
1128.404 .0258133
1129.012 .0257977
1129.620 .0257927
1130.229 .0257984
1130.838 .0258112
1131.448 .0258322
1132.058 .0258638
1132.669 .0258973
1133.281 .0259314
1133.894 .0259669
1134.507 .0260037
1135.120 .0260413
1135.735 .0260849
1136.350 .0261324
1136.965 .0261828
1137.582 .0262375
1138.199 .0262875
1138.816 .0263343
1139.435 .0263864
1140.054 .0264317
1140.674 .0264712
1141.294 .0265087
1141.916 .0265467
1142.538 .0267212
1143.160 .0265848
1143.784 .0265822
1144.408 .0266922
1145.033 .0267808
