Measurement Sequence started on: 14-45-04-498
Integration time: 36
Scans to Average: 2 
>>>>>Begin Spectral Data<<<<<
433.946 .0629870
434.870 .0651377
435.793 .0580405
436.715 .0548684
437.635 .0527992
438.555 .0537146
439.473 .0525924
440.389 .0516934
441.305 .0511901
442.219 .0508496
443.132 .0506021
444.044 .0503908
444.954 .0502001
445.863 .0500140
446.771 .0498522
447.678 .0497227
448.584 .0496227
449.488 .0495292
450.391 .0494343
451.293 .0493268
452.194 .0492163
453.094 .0490859
453.992 .0489518
454.890 .0487961
455.786 .0486397
456.681 .0484773
457.575 .0483264
458.468 .0481904
459.360 .0480668
460.250 .0479552
461.140 .0478567
462.028 .0477627
462.915 .0476710
463.801 .0475796
464.687 .0474933
465.571 .0474083
466.454 .0473295
467.335 .0472573
468.216 .0471924
469.096 .0471282
469.975 .0470671
470.853 .0470029
471.729 .0469352
472.605 .0468587
473.479 .0467704
474.353 .0466722
475.226 .0465648
476.097 .0464522
476.968 .0463387
477.838 .0462251
478.706 .0461150
479.574 .0460034
480.441 .0458924
481.306 .0457770
482.171 .0456565
483.035 .0455346
483.898 .0454145
484.760 .0453043
485.621 .0452043
486.481 .0451154
487.340 .0450460
488.198 .0449918
489.055 .0449575
489.912 .0449351
490.767 .0449228
491.622 .0449155
492.476 .0449127
493.329 .0449100
494.180 .0449026
495.032 .0448932
495.882 .0448840
496.731 .0448691
497.580 .0448533
498.427 .0448306
499.274 .0448020
500.120 .0447684
500.965 .0447329
501.809 .0446897
502.653 .0446439
503.495 .0445918
504.337 .0445374
505.178 .0444792
506.018 .0444183
506.858 .0443530
507.696 .0442912
508.534 .0442350
509.371 .0441831
510.208 .0441380
511.043 .0441011
511.878 .0440687
512.712 .0440424
513.545 .0440175
514.377 .0439935
515.209 .0439673
516.040 .0439388
516.870 .0439115
517.699 .0438862
518.528 .0438622
519.356 .0438473
520.183 .0438326
521.010 .0438174
521.836 .0437914
522.661 .0437563
523.485 .0437098
524.309 .0436514
525.132 .0435800
525.954 .0434949
526.776 .0434042
527.597 .0433128
528.417 .0432150
529.237 .0431288
530.056 .0430474
530.874 .0429750
531.692 .0429027
532.508 .0428347
533.325 .0427599
534.140 .0426917
534.955 .0426259
535.770 .0425659
536.583 .0425105
537.397 .0424674
538.209 .0424396
539.021 .0424264
539.832 .0424224
540.643 .0424253
541.453 .0424220
542.262 .0424180
543.071 .0423819
543.879 .0423266
544.687 .0422495
545.494 .0421630
546.300 .0420704
547.106 .0419777
547.911 .0418987
548.716 .0418444
549.520 .0418044
550.323 .0417749
551.126 .0417486
551.929 .0417190
552.731 .0416715
553.532 .0416064
554.332 .0415238
555.133 .0414378
555.932 .0413529
556.731 .0412786
557.530 .0412151
558.328 .0411685
559.125 .0411298
559.922 .0410903
560.719 .0410507
561.515 .0409996
562.310 .0409368
563.105 .0408681
563.899 .0407963
564.693 .0407289
565.487 .0406681
566.280 .0406227
567.072 .0405935
567.864 .0405768
568.655 .0405624
569.446 .0405481
570.236 .0405296
571.026 .0405009
571.816 .0404602
572.605 .0404101
573.393 .0403571
574.181 .0403021
574.969 .0402463
575.756 .0401911
576.543 .0401371
577.329 .0400856
578.115 .0400332
578.900 .0399802
579.685 .0399277
580.469 .0398746
581.253 .0398255
582.036 .0397788
582.820 .0397344
583.602 .0396934
584.384 .0396556
585.166 .0396193
585.947 .0395846
586.728 .0395525
587.509 .0395242
588.289 .0394970
589.069 .0394699
589.848 .0394419
590.627 .0394126
591.405 .0393817
592.183 .0393478
592.961 .0393126
593.738 .0392755
594.515 .0392366
595.291 .0391970
596.067 .0391556
596.843 .0391118
597.618 .0390673
598.393 .0390219
599.167 .0389764
599.941 .0389295
600.715 .0388824
601.488 .0388359
602.261 .0387908
603.034 .0387465
603.806 .0387034
604.578 .0386622
605.349 .0386247
606.121 .0385900
606.891 .0385592
607.662 .0385319
608.432 .0385080
609.201 .0384866
609.971 .0384671
610.740 .0384482
611.508 .0384282
612.277 .0384079
613.045 .0383865
613.812 .0383648
614.579 .0383429
615.346 .0383220
616.113 .0383025
616.879 .0382851
617.645 .0382685
618.411 .0382518
619.176 .0382340
619.941 .0382147
620.705 .0381920
621.470 .0381670
622.233 .0381393
622.997 .0381114
623.760 .0380834
624.523 .0380578
625.286 .0380325
626.048 .0380090
626.810 .0379850
627.572 .0379611
628.333 .0379371
629.095 .0379123
629.855 .0378862
630.616 .0378606
631.376 .0378352
632.136 .0378108
632.895 .0377865
633.655 .0377642
634.414 .0377419
635.172 .0377199
635.931 .0376960
636.689 .0376708
637.447 .0376445
638.204 .0376177
638.962 .0375898
639.718 .0375623
640.475 .0375342
641.231 .0375054
641.988 .0374763
642.743 .0374476
643.499 .0374182
644.254 .0373889
645.009 .0373596
645.764 .0373314
646.518 .0373047
647.272 .0372795
648.026 .0372566
648.780 .0372360
649.533 .0372165
650.286 .0371964
651.039 .0371754
651.792 .0371534
652.544 .0371303
653.296 .0371059
654.048 .0370813
654.799 .0370570
655.550 .0370329
656.301 .0370094
657.052 .0369864
657.802 .0369633
658.552 .0369401
659.302 .0369160
660.052 .0368915
660.801 .0368662
661.550 .0368419
662.299 .0368188
663.048 .0367972
663.796 .0367781
664.544 .0367611
665.292 .0367458
666.040 .0367317
666.787 .0367186
667.534 .0367052
668.281 .0366910
669.028 .0366765
669.774 .0366609
670.521 .0366445
671.266 .0366273
672.012 .0366094
672.758 .0365907
673.503 .0365718
674.248 .0365516
674.992 .0365303
675.737 .0365091
676.481 .0364872
677.225 .0364645
677.969 .0364415
678.712 .0364190
679.455 .0363962
680.199 .0363738
680.941 .0363515
681.684 .0363287
682.426 .0363057
683.168 .0362823
683.910 .0362581
684.652 .0362333
685.393 .0362085
686.134 .0361833
686.875 .0361581
687.616 .0361332
688.356 .0361084
689.097 .0360842
689.837 .0360605
690.576 .0360365
691.316 .0360120
692.055 .0359872
692.794 .0359619
693.533 .0359355
694.272 .0359095
695.010 .0358837
695.748 .0358588
696.486 .0358349
697.224 .0358126
697.962 .0357916
698.699 .0357728
699.436 .0357551
700.173 .0357387
700.909 .0357229
701.646 .0357078
702.382 .0356922
703.118 .0356764
703.853 .0356601
704.589 .0356424
705.324 .0356236
706.059 .0356041
706.794 .0355831
707.529 .0355611
708.263 .0355383
708.997 .0355156
709.731 .0354922
710.465 .0354693
711.198 .0354457
711.931 .0354219
712.664 .0353979
713.397 .0353736
714.130 .0353488
714.862 .0353248
715.594 .0353016
716.326 .0352798
717.058 .0352602
717.789 .0352430
718.520 .0352282
719.251 .0352161
719.982 .0352061
720.713 .0351976
721.443 .0351892
722.173 .0351813
722.903 .0351722
723.633 .0351631
724.362 .0351530
725.091 .0351422
725.820 .0351306
726.549 .0351187
727.278 .0351052
728.006 .0350912
728.734 .0350757
729.462 .0350588
730.190 .0350404
730.917 .0350209
731.644 .0349995
732.371 .0349775
733.098 .0349547
733.825 .0349320
734.551 .0349093
735.277 .0348872
736.003 .0348638
736.728 .0348407
737.454 .0348173
738.179 .0347937
738.904 .0347696
739.629 .0347459
740.353 .0347221
741.077 .0346995
741.801 .0346779
742.525 .0346573
743.249 .0346377
743.972 .0346197
744.695 .0346017
745.418 .0345835
746.141 .0345645
746.863 .0345450
747.585 .0345249
748.307 .0345053
749.029 .0344851
749.750 .0344648
750.472 .0344449
751.193 .0344253
751.913 .0344056
752.634 .0343857
753.354 .0343654
754.074 .0343445
754.794 .0343230
755.514 .0343011
756.233 .0342787
756.952 .0342571
757.671 .0342368
758.390 .0342178
759.108 .0341997
759.826 .0341827
760.544 .0341667
761.262 .0341516
761.979 .0341377
762.697 .0341240
763.414 .0341109
764.130 .0340987
764.847 .0340879
765.563 .0340774
766.279 .0340680
766.995 .0340595
767.710 .0340508
768.426 .0340413
769.141 .0340307
769.855 .0340184
770.570 .0340051
771.284 .0339907
771.998 .0339752
772.712 .0339590
773.426 .0339432
774.139 .0339274
774.852 .0339118
775.565 .0338973
776.277 .0338839
776.990 .0338714
777.702 .0338593
778.414 .0338477
779.125 .0338363
779.836 .0338251
780.547 .0338145
781.258 .0338039
781.969 .0337938
782.679 .0337841
783.389 .0337745
784.099 .0337652
784.808 .0337562
785.517 .0337473
786.226 .0337378
786.935 .0337279
787.643 .0337169
788.352 .0337045
789.060 .0336909
789.767 .0336769
790.475 .0336617
791.182 .0336460
791.889 .0336304
792.595 .0336149
793.301 .0335997
794.008 .0335849
794.713 .0335703
795.419 .0335553
796.124 .0335400
796.829 .0335241
797.534 .0335073
798.238 .0334914
798.942 .0334756
799.646 .0334602
800.350 .0334452
801.053 .0334307
801.756 .0334155
802.459 .0333994
803.162 .0333822
803.864 .0333631
804.566 .0333423
805.267 .0333204
805.969 .0332973
806.670 .0332741
807.371 .0332518
808.071 .0332301
808.772 .0332094
809.472 .0331893
810.171 .0331695
810.871 .0331504
811.570 .0331318
812.269 .0331141
812.967 .0330973
813.666 .0330820
814.364 .0330686
815.061 .0330567
815.759 .0330467
816.456 .0330379
817.153 .0330294
817.849 .0330203
818.545 .0330096
819.241 .0329973
819.937 .0329833
820.632 .0329675
821.327 .0329502
822.022 .0329311
822.717 .0329105
823.411 .0328886
824.105 .0328654
824.798 .0328411
825.491 .0328157
826.184 .0327892
826.877 .0327619
827.569 .0327337
828.261 .0327052
828.953 .0326764
829.645 .0326479
830.336 .0326205
831.027 .0325942
831.717 .0325700
832.407 .0325483
833.097 .0325292
833.787 .0325127
834.476 .0324987
835.165 .0324863
835.854 .0324752
836.542 .0324649
837.230 .0324549
837.918 .0324451
838.605 .0324360
839.292 .0324281
839.979 .0324219
840.665 .0324175
841.352 .0324148
842.037 .0324132
842.723 .0324124
843.408 .0324112
844.093 .0324086
844.777 .0324042
845.462 .0323978
846.145 .0323889
846.829 .0323782
847.512 .0323667
848.195 .0323548
848.878 .0323429
849.560 .0323311
850.242 .0323190
850.923 .0323065
851.605 .0322934
852.286 .0322799
852.966 .0322659
853.646 .0322519
854.326 .0322378
855.006 .0322237
855.685 .0322105
856.364 .0321973
857.043 .0321841
857.721 .0321711
858.399 .0321577
859.077 .0321436
859.754 .0321289
860.431 .0321143
861.107 .0321001
861.784 .0320861
862.459 .0320725
863.135 .0320586
863.810 .0320447
864.485 .0320302
865.160 .0320148
865.834 .0319987
866.508 .0319819
867.181 .0319645
867.854 .0319473
868.527 .0319303
869.199 .0319139
869.872 .0318980
870.543 .0318824
871.215 .0318669
871.886 .0318513
872.557 .0318352
873.227 .0318191
873.897 .0318032
874.567 .0317878
875.236 .0317726
875.905 .0317580
876.573 .0317442
877.242 .0317306
877.909 .0317170
878.577 .0317029
879.244 .0316881
879.911 .0316728
880.577 .0316567
881.243 .0316402
881.909 .0316235
882.575 .0316071
883.240 .0315903
883.904 .0315734
884.569 .0315564
885.232 .0315390
885.896 .0315205
886.559 .0315013
887.222 .0314814
887.885 .0314616
888.547 .0314417
889.208 .0314224
889.870 .0314040
890.531 .0313871
891.192 .0313712
891.852 .0313560
892.512 .0313413
893.171 .0313274
893.830 .0313133
894.489 .0312989
895.148 .0312845
895.806 .0312697
896.464 .0312543
897.121 .0312388
897.778 .0312230
898.434 .0312063
899.091 .0311890
899.747 .0311709
900.402 .0311515
901.057 .0311314
901.712 .0311099
902.366 .0310872
903.020 .0310645
903.674 .0310418
904.327 .0310188
904.980 .0309964
905.633 .0309752
906.285 .0309556
906.936 .0309377
907.588 .0309214
908.239 .0309067
908.889 .0308940
909.540 .0308825
910.190 .0308709
910.839 .0308597
911.488 .0308489
912.137 .0308380
912.785 .0308269
913.433 .0308158
914.081 .0308047
914.728 .0307944
915.375 .0307839
916.021 .0307729
916.668 .0307613
917.313 .0307486
917.959 .0307342
918.604 .0307185
919.248 .0307017
919.892 .0306842
920.536 .0306668
921.180 .0306507
921.823 .0306356
922.465 .0306225
923.108 .0306111
923.750 .0306009
924.391 .0305914
925.032 .0305820
925.673 .0305716
926.313 .0305608
926.953 .0305495
927.593 .0305370
928.232 .0305236
928.871 .0305102
929.510 .0304970
930.148 .0304836
930.786 .0304703
931.423 .0304567
932.060 .0304433
932.697 .0304300
933.333 .0304164
933.969 .0304025
934.604 .0303887
935.239 .0303748
935.874 .0303600
936.508 .0303452
937.142 .0303309
937.776 .0303170
938.409 .0303038
939.042 .0302915
939.674 .0302792
940.306 .0302664
940.938 .0302535
941.569 .0302393
942.200 .0302240
942.830 .0302073
943.460 .0301888
944.090 .0301687
944.720 .0301481
945.349 .0301279
945.977 .0301079
946.606 .0300897
947.233 .0300723
947.861 .0300551
948.488 .0300384
949.115 .0300218
949.741 .0300052
950.367 .0299890
950.993 .0299734
951.618 .0299587
952.243 .0299451
952.868 .0299330
953.492 .0299219
954.115 .0299124
954.739 .0299042
955.362 .0298959
955.984 .0298868
956.607 .0298772
957.229 .0298670
957.850 .0298564
958.471 .0298453
959.092 .0298336
959.713 .0298209
960.333 .0298077
960.952 .0297933
961.572 .0297778
962.191 .0297615
962.809 .0297445
963.428 .0297269
964.045 .0297087
964.663 .0296896
965.280 .0296699
965.897 .0296501
966.513 .0296307
967.129 .0296116
967.745 .0295933
968.361 .0295761
968.976 .0295604
969.590 .0295464
970.205 .0295345
970.818 .0295241
971.432 .0295160
972.045 .0295092
972.658 .0295028
973.271 .0294970
973.883 .0294907
974.495 .0294842
975.106 .0294776
975.717 .0294710
976.328 .0294635
976.938 .0294557
977.548 .0294477
978.158 .0294393
978.768 .0294302
979.377 .0294203
979.985 .0294085
980.594 .0293956
981.202 .0293817
981.809 .0293661
982.417 .0293496
983.024 .0293340
983.631 .0293185
984.237 .0293043
984.843 .0292910
985.449 .0292783
986.054 .0292664
986.659 .0292559
987.264 .0292451
987.868 .0292335
988.472 .0292221
989.076 .0292112
989.679 .0292000
990.282 .0291889
990.885 .0291781
991.487 .0291672
992.090 .0291571
992.691 .0291474
993.293 .0291376
993.894 .0291286
994.495 .0291196
995.095 .0291100
995.696 .0290993
996.296 .0290876
996.895 .0290744
997.494 .0290604
998.093 .0290464
998.692 .0290321
999.291 .0290179
999.889 .0290051
1000.487 .0289935
1001.084 .0289823
1001.681 .0289702
1002.278 .0289563
1002.875 .0289412
1003.471 .0289247
1004.067 .0289068
1004.663 .0288893
1005.258 .0288736
1005.854 .0288601
1006.449 .0288487
1007.043 .0288391
1007.638 .0288315
1008.232 .0288240
1008.826 .0288163
1009.419 .0288074
1010.012 .0287976
1010.605 .0287865
1011.198 .0287747
1011.791 .0287635
1012.383 .0287532
1012.975 .0287438
1013.566 .0287350
1014.158 .0287265
1014.749 .0287187
1015.340 .0287107
1015.931 .0287031
1016.521 .0286960
1017.111 .0286903
1017.701 .0286849
1018.291 .0286806
1018.880 .0286771
1019.470 .0286755
1020.059 .0286745
1020.647 .0286746
1021.236 .0286757
1021.824 .0286780
1022.412 .0286812
1023.000 .0286854
1023.588 .0286906
1024.175 .0286960
1024.762 .0287005
1025.349 .0287040
1025.936 .0287063
1026.523 .0287075
1027.109 .0287068
1027.695 .0287051
1028.281 .0287030
1028.867 .0287005
1029.452 .0286976
1030.038 .0286952
1030.623 .0286941
1031.208 .0286949
1031.792 .0286976
1032.377 .0287020
1032.961 .0287081
1033.546 .0287158
1034.130 .0287245
1034.714 .0287323
1035.297 .0287399
1035.881 .0287467
1036.464 .0287526
1037.047 .0287589
1037.630 .0287659
1038.213 .0287742
1038.796 .0287839
1039.378 .0287942
1039.961 .0288037
1040.543 .0288118
1041.125 .0288177
1041.707 .0288211
1042.289 .0288222
1042.871 .0288218
1043.452 .0288200
1044.034 .0288180
1044.615 .0288166
1045.196 .0288155
1045.777 .0288134
1046.358 .0288101
1046.939 .0288047
1047.520 .0287978
1048.101 .0287888
1048.681 .0287797
1049.262 .0287717
1049.842 .0287668
1050.422 .0287649
1051.002 .0287658
1051.582 .0287677
1052.162 .0287720
1052.742 .0287757
1053.322 .0287791
1053.902 .0287813
1054.482 .0287829
1055.061 .0287838
1055.641 .0287858
1056.220 .0287891
1056.800 .0287932
1057.379 .0287977
1057.958 .0288020
1058.538 .0288030
1059.117 .0288012
1059.696 .0287952
1060.275 .0287854
1060.854 .0287724
1061.433 .0287584
1062.012 .0287422
1062.592 .0287278
1063.171 .0287150
1063.750 .0287045
1064.329 .0286953
1064.908 .0286877
1065.487 .0286798
1066.066 .0286711
1066.645 .0286633
1067.224 .0286555
1067.803 .0286491
1068.382 .0286459
1068.961 .0286454
1069.540 .0286487
1070.119 .0286553
1070.698 .0286636
1071.278 .0286712
1071.857 .0286778
1072.436 .0286800
1073.016 .0286791
1073.595 .0286751
1074.175 .0286698
1074.754 .0286643
1075.334 .0286588
1075.913 .0286545
1076.493 .0286502
1077.073 .0286458
1077.653 .0286406
1078.233 .0286327
1078.813 .0286217
1079.393 .0286055
1079.974 .0285869
1080.554 .0285665
1081.135 .0285451
1081.716 .0285242
1082.296 .0285047
1082.877 .0284863
1083.458 .0284690
1084.040 .0284530
1084.621 .0284383
1085.202 .0284294
1085.784 .0284243
1086.366 .0284238
1086.948 .0284286
1087.530 .0284378
1088.112 .0284504
1088.695 .0284628
1089.277 .0284756
1089.860 .0284836
1090.443 .0284861
1091.026 .0284844
1091.610 .0284772
1092.193 .0284698
1092.777 .0284614
1093.361 .0284540
1093.946 .0284481
1094.530 .0284432
1095.115 .0284358
1095.700 .0284250
1096.285 .0284102
1096.871 .0283917
1097.456 .0283697
1098.042 .0283455
1098.628 .0283220
1099.215 .0283009
1099.802 .0282860
1100.389 .0282784
1100.976 .0282783
1101.564 .0282861
1102.152 .0282979
1102.740 .0283134
1103.329 .0283284
1103.917 .0283409
1104.507 .0283495
1105.096 .0283551
1105.686 .0283580
1106.276 .0283569
1106.867 .0283542
1107.457 .0283523
1108.049 .0283526
1108.640 .0283540
1109.232 .0283561
1109.825 .0283554
1110.417 .0283532
1111.010 .0283465
1111.604 .0283337
1112.198 .0283177
1112.792 .0283023
1113.387 .0282872
1113.982 .0282767
1114.577 .0282756
1115.173 .0282819
1115.769 .0282995
1116.366 .0283269
1116.963 .0283592
1117.561 .0283919
1118.159 .0284238
1118.758 .0284536
1119.357 .0284797
1119.957 .0285071
1120.557 .0285324
1121.157 .0285571
1121.758 .0285865
1122.360 .0286157
1122.962 .0286440
1123.564 .0286750
1124.167 .0287062
1124.771 .0287324
1125.375 .0287546
1125.980 .0287725
1126.585 .0287884
1127.191 .0287992
1127.797 .0288091
1128.404 .0288152
1129.012 .0288212
1129.620 .0288270
1130.229 .0288365
1130.838 .0288539
1131.448 .0288799
1132.058 .0289153
1132.669 .0289597
1133.281 .0290067
1133.894 .0290564
1134.507 .0291048
1135.120 .0291514
1135.735 .0291971
1136.350 .0292453
1136.965 .0292951
1137.582 .0293569
1138.199 .0294320
1138.816 .0295222
1139.435 .0296192
1140.054 .0297243
1140.674 .0298370
1141.294 .0299494
1141.916 .0300740
1142.538 .0300426
1143.160 .0301661
1143.784 .0304378
1144.408 .0305808
1145.033 .0309955
