Measurement Sequence started on: 14-45-04-498
Integration time: 36
Scans to Average: 2 
>>>>>Begin Spectral Data<<<<<
433.946 .0365806
434.870 .0499929
435.793 .0430060
436.715 .0424898
437.635 .0436911
438.555 .0442444
439.473 .0446169
440.389 .0446589
441.305 .0449107
442.219 .0451229
443.132 .0452698
444.044 .0453928
444.954 .0454868
445.863 .0455711
446.771 .0456514
447.678 .0457091
448.584 .0457509
449.488 .0457634
450.391 .0457223
451.293 .0456482
452.194 .0455516
453.094 .0454366
453.992 .0453144
454.890 .0452005
455.786 .0450824
456.681 .0449688
457.575 .0448654
458.468 .0447568
459.360 .0446521
460.250 .0445460
461.140 .0444369
462.028 .0443236
462.915 .0442149
463.801 .0441091
464.687 .0440058
465.571 .0439164
466.454 .0438377
467.335 .0437643
468.216 .0437017
469.096 .0436478
469.975 .0436017
470.853 .0435583
471.729 .0435166
472.605 .0434697
473.479 .0434231
474.353 .0433717
475.226 .0433155
476.097 .0432559
476.968 .0431980
477.838 .0431380
478.706 .0430790
479.574 .0430215
480.441 .0429667
481.306 .0429120
482.171 .0428580
483.035 .0428018
483.898 .0427441
484.760 .0426824
485.621 .0426241
486.481 .0425670
487.340 .0425140
488.198 .0424689
489.055 .0424329
489.912 .0424042
490.767 .0423795
491.622 .0423553
492.476 .0423253
493.329 .0422880
494.180 .0422441
495.032 .0421915
495.882 .0421357
496.731 .0420815
497.580 .0420294
498.427 .0419805
499.274 .0419384
500.120 .0418986
500.965 .0418615
501.809 .0418226
502.653 .0417749
503.495 .0417186
504.337 .0416550
505.178 .0415874
506.018 .0415166
506.858 .0414501
507.696 .0413911
508.534 .0413397
509.371 .0412953
510.208 .0412586
511.043 .0412314
511.878 .0412086
512.712 .0411925
513.545 .0411808
514.377 .0411750
515.209 .0411734
516.040 .0411798
516.870 .0411946
517.699 .0412160
518.528 .0412442
519.356 .0412762
520.183 .0413124
521.010 .0413538
521.836 .0413908
522.661 .0414234
523.485 .0414542
524.309 .0414764
525.132 .0414838
525.954 .0414825
526.776 .0414679
527.597 .0414400
528.417 .0413990
529.237 .0413438
530.056 .0412736
530.874 .0411885
531.692 .0410882
532.508 .0409712
533.325 .0408497
534.140 .0407232
534.955 .0405904
535.770 .0404689
536.583 .0403564
537.397 .0402474
538.209 .0401469
539.021 .0400484
539.832 .0399500
540.643 .0398454
541.453 .0397325
542.262 .0396122
543.071 .0394891
543.879 .0393697
544.687 .0392581
545.494 .0391617
546.300 .0390876
547.106 .0390271
547.911 .0389805
548.716 .0389453
549.520 .0389108
550.323 .0388729
551.126 .0388304
551.929 .0387812
552.731 .0387268
553.532 .0386657
554.332 .0386056
555.133 .0385476
555.932 .0384946
556.731 .0384461
557.530 .0383994
558.328 .0383595
559.125 .0383212
559.922 .0382842
560.719 .0382482
561.515 .0382128
562.310 .0381739
563.105 .0381333
563.899 .0380910
564.693 .0380454
565.487 .0379958
566.280 .0379447
567.072 .0378927
567.864 .0378395
568.655 .0377841
569.446 .0377297
570.236 .0376737
571.026 .0376194
571.816 .0375609
572.605 .0374985
573.393 .0374328
574.181 .0373643
574.969 .0372938
575.756 .0372222
576.543 .0371523
577.329 .0370843
578.115 .0370185
578.900 .0369555
579.685 .0368950
580.469 .0368387
581.253 .0367864
582.036 .0367394
582.820 .0366983
583.602 .0366642
584.384 .0366369
585.166 .0366149
585.947 .0365979
586.728 .0365833
587.509 .0365697
588.289 .0365554
589.069 .0365399
589.848 .0365223
590.627 .0365031
591.405 .0364819
592.183 .0364596
592.961 .0364364
593.738 .0364115
594.515 .0363835
595.291 .0363532
596.067 .0363207
596.843 .0362851
597.618 .0362460
598.393 .0362056
599.167 .0361633
599.941 .0361206
600.715 .0360779
601.488 .0360363
602.261 .0359964
603.034 .0359583
603.806 .0359213
604.578 .0358852
605.349 .0358495
606.121 .0358143
606.891 .0357788
607.662 .0357436
608.432 .0357080
609.201 .0356718
609.971 .0356357
610.740 .0356001
611.508 .0355652
612.277 .0355313
613.045 .0354986
613.812 .0354670
614.579 .0354357
615.346 .0354044
616.113 .0353738
616.879 .0353435
617.645 .0353145
618.411 .0352865
619.176 .0352590
619.941 .0352329
620.705 .0352084
621.470 .0351851
622.233 .0351623
622.997 .0351399
623.760 .0351176
624.523 .0350949
625.286 .0350725
626.048 .0350493
626.810 .0350250
627.572 .0350003
628.333 .0349749
629.095 .0349477
629.855 .0349192
630.616 .0348893
631.376 .0348583
632.136 .0348277
632.895 .0347969
633.655 .0347660
634.414 .0347361
635.172 .0347077
635.931 .0346798
636.689 .0346516
637.447 .0346236
638.204 .0345940
638.962 .0345637
639.718 .0345327
640.475 .0345006
641.231 .0344680
641.988 .0344356
642.743 .0344035
643.499 .0343715
644.254 .0343399
645.009 .0343082
645.764 .0342766
646.518 .0342456
647.272 .0342149
648.026 .0341839
648.780 .0341535
649.533 .0341241
650.286 .0340951
651.039 .0340671
651.792 .0340396
652.544 .0340132
653.296 .0339880
654.048 .0339640
654.799 .0339413
655.550 .0339194
656.301 .0338987
657.052 .0338782
657.802 .0338577
658.552 .0338370
659.302 .0338156
660.052 .0337935
660.801 .0337710
661.550 .0337489
662.299 .0337266
663.048 .0337046
663.796 .0336832
664.544 .0336620
665.292 .0336408
666.040 .0336191
666.787 .0335967
667.534 .0335733
668.281 .0335494
669.028 .0335250
669.774 .0335009
670.521 .0334777
671.266 .0334558
672.012 .0334352
672.758 .0334162
673.503 .0333980
674.248 .0333803
674.992 .0333633
675.737 .0333464
676.481 .0333294
677.225 .0333123
677.969 .0332948
678.712 .0332776
679.455 .0332606
680.199 .0332439
680.941 .0332278
681.684 .0332119
682.426 .0331963
683.168 .0331804
683.910 .0331644
684.652 .0331476
685.393 .0331297
686.134 .0331111
686.875 .0330913
687.616 .0330704
688.356 .0330487
689.097 .0330263
689.837 .0330034
690.576 .0329803
691.316 .0329565
692.055 .0329323
692.794 .0329081
693.533 .0328839
694.272 .0328605
695.010 .0328375
695.748 .0328150
696.486 .0327929
697.224 .0327712
697.962 .0327498
698.699 .0327284
699.436 .0327072
700.173 .0326861
700.909 .0326653
701.646 .0326456
702.382 .0326267
703.118 .0326096
703.853 .0325947
704.589 .0325814
705.324 .0325698
706.059 .0325597
706.794 .0325499
707.529 .0325410
708.263 .0325324
708.997 .0325237
709.731 .0325146
710.465 .0325056
711.198 .0324967
711.931 .0324880
712.664 .0324797
713.397 .0324715
714.130 .0324635
714.862 .0324556
715.594 .0324467
716.326 .0324371
717.058 .0324275
717.789 .0324172
718.520 .0324061
719.251 .0323944
719.982 .0323819
720.713 .0323687
721.443 .0323548
722.173 .0323404
722.903 .0323254
723.633 .0323103
724.362 .0322951
725.091 .0322794
725.820 .0322640
726.549 .0322487
727.278 .0322336
728.006 .0322185
728.734 .0322037
729.462 .0321887
730.190 .0321737
730.917 .0321589
731.644 .0321446
732.371 .0321307
733.098 .0321176
733.825 .0321055
734.551 .0320945
735.277 .0320841
736.003 .0320742
736.728 .0320647
737.454 .0320554
738.179 .0320459
738.904 .0320356
739.629 .0320243
740.353 .0320127
741.077 .0320006
741.801 .0319881
742.525 .0319754
743.249 .0319623
743.972 .0319483
744.695 .0319330
745.418 .0319163
746.141 .0318978
746.863 .0318781
747.585 .0318576
748.307 .0318367
749.029 .0318161
749.750 .0317962
750.472 .0317772
751.193 .0317595
751.913 .0317431
752.634 .0317271
753.354 .0317115
754.074 .0316958
754.794 .0316802
755.514 .0316645
756.233 .0316491
756.952 .0316345
757.671 .0316210
758.390 .0316090
759.108 .0315978
759.826 .0315875
760.544 .0315781
761.262 .0315689
761.979 .0315596
762.697 .0315497
763.414 .0315396
764.130 .0315293
764.847 .0315192
765.563 .0315096
766.279 .0315011
766.995 .0314935
767.710 .0314866
768.426 .0314803
769.141 .0314745
769.855 .0314685
770.570 .0314623
771.284 .0314562
771.998 .0314505
772.712 .0314452
773.426 .0314407
774.139 .0314369
774.852 .0314347
775.565 .0314329
776.277 .0314318
776.990 .0314312
777.702 .0314308
778.414 .0314299
779.125 .0314286
779.836 .0314270
780.547 .0314251
781.258 .0314232
781.969 .0314213
782.679 .0314193
783.389 .0314177
784.099 .0314160
784.808 .0314138
785.517 .0314117
786.226 .0314092
786.935 .0314062
787.643 .0314030
788.352 .0313994
789.060 .0313952
789.767 .0313903
790.475 .0313845
791.182 .0313777
791.889 .0313697
792.595 .0313608
793.301 .0313504
794.008 .0313392
794.713 .0313275
795.419 .0313152
796.124 .0313026
796.829 .0312898
797.534 .0312769
798.238 .0312639
798.942 .0312508
799.646 .0312376
800.350 .0312241
801.053 .0312106
801.756 .0311974
802.459 .0311839
803.162 .0311704
803.864 .0311572
804.566 .0311446
805.267 .0311322
805.969 .0311202
806.670 .0311083
807.371 .0310971
808.071 .0310862
808.772 .0310752
809.472 .0310635
810.171 .0310516
810.871 .0310391
811.570 .0310259
812.269 .0310115
812.967 .0309966
813.666 .0309805
814.364 .0309645
815.061 .0309481
815.759 .0309322
816.456 .0309164
817.153 .0309015
817.849 .0308868
818.545 .0308727
819.241 .0308590
819.937 .0308454
820.632 .0308323
821.327 .0308195
822.022 .0308062
822.717 .0307926
823.411 .0307792
824.105 .0307666
824.798 .0307539
825.491 .0307419
826.184 .0307298
826.877 .0307184
827.569 .0307072
828.261 .0306963
828.953 .0306849
829.645 .0306734
830.336 .0306617
831.027 .0306488
831.717 .0306357
832.407 .0306223
833.097 .0306087
833.787 .0305955
834.476 .0305824
835.165 .0305703
835.854 .0305587
836.542 .0305489
837.230 .0305402
837.918 .0305327
838.605 .0305263
839.292 .0305206
839.979 .0305157
840.665 .0305120
841.352 .0305097
842.037 .0305084
842.723 .0305082
843.408 .0305089
844.093 .0305100
844.777 .0305114
845.462 .0305129
846.145 .0305143
846.829 .0305148
847.512 .0305148
848.195 .0305136
848.878 .0305118
849.560 .0305094
850.242 .0305060
850.923 .0305017
851.605 .0304959
852.286 .0304883
852.966 .0304787
853.646 .0304675
854.326 .0304551
855.006 .0304415
855.685 .0304274
856.364 .0304129
857.043 .0303985
857.721 .0303839
858.399 .0303695
859.077 .0303550
859.754 .0303403
860.431 .0303251
861.107 .0303094
861.784 .0302932
862.459 .0302773
863.135 .0302620
863.810 .0302477
864.485 .0302344
865.160 .0302225
865.834 .0302115
866.508 .0302015
867.181 .0301921
867.854 .0301828
868.527 .0301737
869.199 .0301643
869.872 .0301538
870.543 .0301428
871.215 .0301310
871.886 .0301189
872.557 .0301064
873.227 .0300938
873.897 .0300811
874.567 .0300685
875.236 .0300561
875.905 .0300434
876.573 .0300304
877.242 .0300166
877.909 .0300013
878.577 .0299844
879.244 .0299655
879.911 .0299447
880.577 .0299226
881.243 .0298998
881.909 .0298767
882.575 .0298540
883.240 .0298318
883.904 .0298106
884.569 .0297905
885.232 .0297706
885.896 .0297507
886.559 .0297305
887.222 .0297101
887.885 .0296892
888.547 .0296684
889.208 .0296481
889.870 .0296286
890.531 .0296104
891.192 .0295935
891.852 .0295785
892.512 .0295650
893.171 .0295531
893.830 .0295428
894.489 .0295336
895.148 .0295253
895.806 .0295173
896.464 .0295103
897.121 .0295033
897.778 .0294964
898.434 .0294897
899.091 .0294828
899.747 .0294760
900.402 .0294694
901.057 .0294631
901.712 .0294577
902.366 .0294526
903.020 .0294478
903.674 .0294435
904.327 .0294392
904.980 .0294341
905.633 .0294286
906.285 .0294226
906.936 .0294165
907.588 .0294099
908.239 .0294037
908.889 .0293978
909.540 .0293923
910.190 .0293871
910.839 .0293817
911.488 .0293760
912.137 .0293696
912.785 .0293616
913.433 .0293532
914.081 .0293438
914.728 .0293337
915.375 .0293230
916.021 .0293123
916.668 .0293017
917.313 .0292909
917.959 .0292798
918.604 .0292687
919.248 .0292572
919.892 .0292453
920.536 .0292326
921.180 .0292199
921.823 .0292074
922.465 .0291951
923.108 .0291837
923.750 .0291730
924.391 .0291629
925.032 .0291535
925.673 .0291447
926.313 .0291362
926.953 .0291275
927.593 .0291180
928.232 .0291077
928.871 .0290964
929.510 .0290843
930.148 .0290709
930.786 .0290569
931.423 .0290426
932.060 .0290284
932.697 .0290139
933.333 .0289996
933.969 .0289852
934.604 .0289713
935.239 .0289572
935.874 .0289429
936.508 .0289281
937.142 .0289136
937.776 .0288989
938.409 .0288847
939.042 .0288710
939.674 .0288578
940.306 .0288449
940.938 .0288324
941.569 .0288196
942.200 .0288064
942.830 .0287926
943.460 .0287781
944.090 .0287627
944.720 .0287470
945.349 .0287306
945.977 .0287139
946.606 .0286972
947.233 .0286805
947.861 .0286633
948.488 .0286459
949.115 .0286279
949.741 .0286093
950.367 .0285906
950.993 .0285719
951.618 .0285539
952.243 .0285373
952.868 .0285222
953.492 .0285089
954.115 .0284976
954.739 .0284878
955.362 .0284789
955.984 .0284706
956.607 .0284626
957.229 .0284545
957.850 .0284462
958.471 .0284375
959.092 .0284284
959.713 .0284190
960.333 .0284098
960.952 .0284004
961.572 .0283907
962.191 .0283804
962.809 .0283694
963.428 .0283573
964.045 .0283437
964.663 .0283287
965.280 .0283128
965.897 .0282959
966.513 .0282787
967.129 .0282608
967.745 .0282430
968.361 .0282256
968.976 .0282085
969.590 .0281921
970.205 .0281764
970.818 .0281613
971.432 .0281470
972.045 .0281338
972.658 .0281218
973.271 .0281102
973.883 .0280993
974.495 .0280883
975.106 .0280769
975.717 .0280644
976.328 .0280509
976.938 .0280362
977.548 .0280210
978.158 .0280049
978.768 .0279882
979.377 .0279713
979.985 .0279538
980.594 .0279357
981.202 .0279170
981.809 .0278975
982.417 .0278774
983.024 .0278569
983.631 .0278367
984.237 .0278166
984.843 .0277972
985.449 .0277778
986.054 .0277585
986.659 .0277399
987.264 .0277214
987.868 .0277030
988.472 .0276853
989.076 .0276686
989.679 .0276531
990.282 .0276390
990.885 .0276261
991.487 .0276139
992.090 .0276027
992.691 .0275913
993.293 .0275795
993.894 .0275672
994.495 .0275555
995.095 .0275440
995.696 .0275337
996.296 .0275249
996.895 .0275175
997.494 .0275122
998.093 .0275092
998.692 .0275081
999.291 .0275088
999.889 .0275103
1000.487 .0275125
1001.084 .0275145
1001.681 .0275157
1002.278 .0275156
1002.875 .0275145
1003.471 .0275127
1004.067 .0275107
1004.663 .0275076
1005.258 .0275046
1005.854 .0275019
1006.449 .0274992
1007.043 .0274960
1007.638 .0274918
1008.232 .0274866
1008.826 .0274804
1009.419 .0274726
1010.012 .0274644
1010.605 .0274563
1011.198 .0274489
1011.791 .0274426
1012.383 .0274376
1012.975 .0274342
1013.566 .0274327
1014.158 .0274325
1014.749 .0274343
1015.340 .0274371
1015.931 .0274410
1016.521 .0274463
1017.111 .0274528
1017.701 .0274608
1018.291 .0274694
1018.880 .0274787
1019.470 .0274885
1020.059 .0274984
1020.647 .0275082
1021.236 .0275183
1021.824 .0275295
1022.412 .0275417
1023.000 .0275542
1023.588 .0275676
1024.175 .0275816
1024.762 .0275951
1025.349 .0276080
1025.936 .0276195
1026.523 .0276292
1027.109 .0276376
1027.695 .0276442
1028.281 .0276503
1028.867 .0276557
1029.452 .0276611
1030.038 .0276664
1030.623 .0276708
1031.208 .0276748
1031.792 .0276775
1032.377 .0276784
1032.961 .0276779
1033.546 .0276756
1034.130 .0276717
1034.714 .0276665
1035.297 .0276608
1035.881 .0276553
1036.464 .0276505
1037.047 .0276466
1037.630 .0276431
1038.213 .0276405
1038.796 .0276385
1039.378 .0276367
1039.961 .0276350
1040.543 .0276339
1041.125 .0276329
1041.707 .0276320
1042.289 .0276315
1042.871 .0276317
1043.452 .0276326
1044.034 .0276336
1044.615 .0276344
1045.196 .0276362
1045.777 .0276377
1046.358 .0276396
1046.939 .0276416
1047.520 .0276444
1048.101 .0276477
1048.681 .0276515
1049.262 .0276551
1049.842 .0276586
1050.422 .0276615
1051.002 .0276624
1051.582 .0276612
1052.162 .0276589
1052.742 .0276562
1053.322 .0276536
1053.902 .0276521
1054.482 .0276521
1055.061 .0276533
1055.641 .0276556
1056.220 .0276578
1056.800 .0276590
1057.379 .0276592
1057.958 .0276568
1058.538 .0276517
1059.117 .0276444
1059.696 .0276358
1060.275 .0276262
1060.854 .0276168
1061.433 .0276074
1062.012 .0275985
1062.592 .0275894
1063.171 .0275797
1063.750 .0275693
1064.329 .0275581
1064.908 .0275444
1065.487 .0275285
1066.066 .0275113
1066.645 .0274938
1067.224 .0274759
1067.803 .0274601
1068.382 .0274466
1068.961 .0274361
1069.540 .0274281
1070.119 .0274219
1070.698 .0274179
1071.278 .0274161
1071.857 .0274143
1072.436 .0274121
1073.016 .0274102
1073.595 .0274085
1074.175 .0274065
1074.754 .0274051
1075.334 .0274053
1075.913 .0274065
1076.493 .0274083
1077.073 .0274096
1077.653 .0274096
1078.233 .0274078
1078.813 .0274042
1079.393 .0273983
1079.974 .0273913
1080.554 .0273831
1081.135 .0273744
1081.716 .0273668
1082.296 .0273621
1082.877 .0273594
1083.458 .0273578
1084.040 .0273582
1084.621 .0273601
1085.202 .0273611
1085.784 .0273620
1086.366 .0273621
1086.948 .0273615
1087.530 .0273594
1088.112 .0273558
1088.695 .0273503
1089.277 .0273447
1089.860 .0273400
1090.443 .0273345
1091.026 .0273293
1091.610 .0273235
1092.193 .0273153
1092.777 .0273043
1093.361 .0272914
1093.946 .0272754
1094.530 .0272560
1095.115 .0272362
1095.700 .0272145
1096.285 .0271927
1096.871 .0271726
1097.456 .0271540
1098.042 .0271382
1098.628 .0271253
1099.215 .0271128
1099.802 .0270995
1100.389 .0270870
1100.976 .0270747
1101.564 .0270615
1102.152 .0270492
1102.740 .0270379
1103.329 .0270273
1103.917 .0270204
1104.507 .0270164
1105.096 .0270151
1105.686 .0270190
1106.276 .0270261
1106.867 .0270351
1107.457 .0270456
1108.049 .0270573
1108.640 .0270677
1109.232 .0270774
1109.825 .0270858
1110.417 .0270929
1111.010 .0271000
1111.604 .0271093
1112.198 .0271197
1112.792 .0271334
1113.387 .0271515
1113.982 .0271725
1114.577 .0271975
1115.173 .0272239
1115.769 .0272485
1116.366 .0272722
1116.963 .0272930
1117.561 .0273116
1118.159 .0273255
1118.758 .0273379
1119.357 .0273468
1119.957 .0273565
1120.557 .0273650
1121.157 .0273728
1121.758 .0273834
1122.360 .0273956
1122.962 .0274077
1123.564 .0274192
1124.167 .0274310
1124.771 .0274432
1125.375 .0274571
1125.980 .0274748
1126.585 .0274939
1127.191 .0275186
1127.797 .0275488
1128.404 .0275830
1129.012 .0276250
1129.620 .0276752
1130.229 .0277310
1130.838 .0277915
1131.448 .0278554
1132.058 .0279185
1132.669 .0279793
1133.281 .0280383
1133.894 .0280955
1134.507 .0281480
1135.120 .0281974
1135.735 .0282447
1136.350 .0282911
1136.965 .0283395
1137.582 .0283885
1138.199 .0284389
1138.816 .0284891
1139.435 .0285429
1140.054 .0285988
1140.674 .0286586
1141.294 .0287237
1141.916 .0287842
1142.538 .0288570
1143.160 .0289488
1143.784 .0290510
1144.408 .0290972
1145.033 .0289034
