Measurement Sequence started on: 14-45-04-498
Integration time: 36
Scans to Average: 2 
>>>>>Begin Spectral Data<<<<<
433.946 .0414625
434.870 .0576402
435.793 .0501711
436.715 .0511358
437.635 .0506447
438.555 .0501006
439.473 .0499165
440.389 .0492655
441.305 .0488698
442.219 .0484680
443.132 .0481256
444.044 .0478185
444.954 .0475951
445.863 .0474091
446.771 .0472375
447.678 .0470733
448.584 .0469214
449.488 .0467807
450.391 .0466440
451.293 .0465125
452.194 .0463901
453.094 .0462780
453.992 .0461666
454.890 .0460596
455.786 .0459460
456.681 .0458260
457.575 .0457035
458.468 .0455757
459.360 .0454622
460.250 .0453579
461.140 .0452568
462.028 .0451657
462.915 .0450751
463.801 .0449856
464.687 .0448948
465.571 .0448054
466.454 .0447207
467.335 .0446436
468.216 .0445746
469.096 .0445103
469.975 .0444487
470.853 .0443917
471.729 .0443284
472.605 .0442516
473.479 .0441627
474.353 .0440581
475.226 .0439434
476.097 .0438217
476.968 .0436982
477.838 .0435784
478.706 .0434665
479.574 .0433638
480.441 .0432690
481.306 .0431810
482.171 .0430984
483.035 .0430222
483.898 .0429519
484.760 .0428889
485.621 .0428377
486.481 .0427958
487.340 .0427682
488.198 .0427511
489.055 .0427435
489.912 .0427413
490.767 .0427436
491.622 .0427432
492.476 .0427399
493.329 .0427319
494.180 .0427202
495.032 .0427040
495.882 .0426853
496.731 .0426687
497.580 .0426507
498.427 .0426312
499.274 .0426091
500.120 .0425800
500.965 .0425504
501.809 .0425157
502.653 .0424824
503.495 .0424508
504.337 .0424255
505.178 .0424088
506.018 .0423948
506.858 .0423821
507.696 .0423687
508.534 .0423500
509.371 .0423244
510.208 .0422914
511.043 .0422482
511.878 .0422007
512.712 .0421550
513.545 .0421092
514.377 .0420687
515.209 .0420320
516.040 .0419971
516.870 .0419573
517.699 .0419039
518.528 .0418368
519.356 .0417535
520.183 .0416672
521.010 .0415797
521.836 .0414878
522.661 .0413974
523.485 .0413111
524.309 .0412301
525.132 .0411513
525.954 .0410686
526.776 .0409812
527.597 .0408877
528.417 .0407862
529.237 .0406733
530.056 .0405633
530.874 .0404584
531.692 .0403669
532.508 .0402888
533.325 .0402295
534.140 .0401889
534.955 .0401664
535.770 .0401603
536.583 .0401570
537.397 .0401479
538.209 .0401280
539.021 .0400872
539.832 .0400337
540.643 .0399715
541.453 .0399102
542.262 .0398574
543.071 .0398246
543.879 .0398039
544.687 .0397974
545.494 .0398066
546.300 .0398210
547.106 .0398288
547.911 .0398291
548.716 .0398230
549.520 .0398128
550.323 .0398052
551.126 .0398062
551.929 .0398148
552.731 .0398371
553.532 .0398630
554.332 .0398844
555.133 .0399028
555.932 .0399097
556.731 .0398994
557.530 .0398775
558.328 .0398424
559.125 .0397998
559.922 .0397603
560.719 .0397225
561.515 .0396881
562.310 .0396548
563.105 .0396255
563.899 .0395969
564.693 .0395675
565.487 .0395321
566.280 .0394921
567.072 .0394502
567.864 .0394067
568.655 .0393603
569.446 .0393156
570.236 .0392702
571.026 .0392247
571.816 .0391779
572.605 .0391316
573.393 .0390835
574.181 .0390359
574.969 .0389829
575.756 .0389266
576.543 .0388669
577.329 .0388053
578.115 .0387436
578.900 .0386848
579.685 .0386301
580.469 .0385802
581.253 .0385374
582.036 .0385021
582.820 .0384705
583.602 .0384442
584.384 .0384187
585.166 .0383927
585.947 .0383616
586.728 .0383269
587.509 .0382883
588.289 .0382471
589.069 .0382049
589.848 .0381612
590.627 .0381180
591.405 .0380764
592.183 .0380357
592.961 .0379962
593.738 .0379569
594.515 .0379178
595.291 .0378764
596.067 .0378357
596.843 .0377943
597.618 .0377542
598.393 .0377167
599.167 .0376828
599.941 .0376516
600.715 .0376243
601.488 .0376006
602.261 .0375804
603.034 .0375618
603.806 .0375452
604.578 .0375279
605.349 .0375118
606.121 .0374943
606.891 .0374761
607.662 .0374558
608.432 .0374356
609.201 .0374131
609.971 .0373902
610.740 .0373667
611.508 .0373441
612.277 .0373222
613.045 .0373021
613.812 .0372828
614.579 .0372647
615.346 .0372453
616.113 .0372261
616.879 .0372044
617.645 .0371808
618.411 .0371534
619.176 .0371242
619.941 .0370929
620.705 .0370615
621.470 .0370296
622.233 .0369992
622.997 .0369702
623.760 .0369423
624.523 .0369143
625.286 .0368857
626.048 .0368561
626.810 .0368245
627.572 .0367892
628.333 .0367519
629.095 .0367121
629.855 .0366716
630.616 .0366312
631.376 .0365926
632.136 .0365561
632.895 .0365222
633.655 .0364902
634.414 .0364598
635.172 .0364305
635.931 .0364019
636.689 .0363734
637.447 .0363449
638.204 .0363179
638.962 .0362920
639.718 .0362684
640.475 .0362485
641.231 .0362321
641.988 .0362193
642.743 .0362098
643.499 .0362031
644.254 .0361988
645.009 .0361958
645.764 .0361941
646.518 .0361929
647.272 .0361922
648.026 .0361913
648.780 .0361889
649.533 .0361851
650.286 .0361795
651.039 .0361704
651.792 .0361582
652.544 .0361431
653.296 .0361249
654.048 .0361044
654.799 .0360831
655.550 .0360604
656.301 .0360369
657.052 .0360125
657.802 .0359871
658.552 .0359611
659.302 .0359341
660.052 .0359061
660.801 .0358771
661.550 .0358486
662.299 .0358211
663.048 .0357942
663.796 .0357691
664.544 .0357453
665.292 .0357227
666.040 .0357011
666.787 .0356799
667.534 .0356582
668.281 .0356364
669.028 .0356147
669.774 .0355927
670.521 .0355704
671.266 .0355485
672.012 .0355277
672.758 .0355077
673.503 .0354882
674.248 .0354698
674.992 .0354518
675.737 .0354345
676.481 .0354169
677.225 .0353991
677.969 .0353807
678.712 .0353618
679.455 .0353430
680.199 .0353241
680.941 .0353057
681.684 .0352881
682.426 .0352704
683.168 .0352535
683.910 .0352371
684.652 .0352199
685.393 .0352019
686.134 .0351838
686.875 .0351647
687.616 .0351451
688.356 .0351259
689.097 .0351075
689.837 .0350899
690.576 .0350741
691.316 .0350597
692.055 .0350457
692.794 .0350325
693.533 .0350193
694.272 .0350057
695.010 .0349926
695.748 .0349797
696.486 .0349667
697.224 .0349543
697.962 .0349428
698.699 .0349313
699.436 .0349204
700.173 .0349100
700.909 .0348997
701.646 .0348890
702.382 .0348782
703.118 .0348668
703.853 .0348546
704.589 .0348421
705.324 .0348292
706.059 .0348158
706.794 .0348019
707.529 .0347877
708.263 .0347733
708.997 .0347588
709.731 .0347447
710.465 .0347302
711.198 .0347159
711.931 .0347016
712.664 .0346865
713.397 .0346703
714.130 .0346538
714.862 .0346365
715.594 .0346183
716.326 .0346001
717.058 .0345821
717.789 .0345645
718.520 .0345475
719.251 .0345308
719.982 .0345141
720.713 .0344971
721.443 .0344797
722.173 .0344614
722.903 .0344432
723.633 .0344250
724.362 .0344066
725.091 .0343881
725.820 .0343702
726.549 .0343520
727.278 .0343334
728.006 .0343139
728.734 .0342938
729.462 .0342727
730.190 .0342516
730.917 .0342302
731.644 .0342095
732.371 .0341903
733.098 .0341727
733.825 .0341555
734.551 .0341396
735.277 .0341235
736.003 .0341081
736.728 .0340920
737.454 .0340755
738.179 .0340584
738.904 .0340411
739.629 .0340238
740.353 .0340073
741.077 .0339918
741.801 .0339775
742.525 .0339638
743.249 .0339512
743.972 .0339386
744.695 .0339259
745.418 .0339124
746.141 .0338985
746.863 .0338838
747.585 .0338690
748.307 .0338535
749.029 .0338385
749.750 .0338242
750.472 .0338105
751.193 .0337978
751.913 .0337861
752.634 .0337755
753.354 .0337652
754.074 .0337554
754.794 .0337456
755.514 .0337350
756.233 .0337239
756.952 .0337116
757.671 .0336991
758.390 .0336860
759.108 .0336723
759.826 .0336589
760.544 .0336462
761.262 .0336341
761.979 .0336228
762.697 .0336125
763.414 .0336028
764.130 .0335936
764.847 .0335845
765.563 .0335754
766.279 .0335658
766.995 .0335558
767.710 .0335455
768.426 .0335349
769.141 .0335245
769.855 .0335131
770.570 .0335018
771.284 .0334911
771.998 .0334804
772.712 .0334695
773.426 .0334583
774.139 .0334475
774.852 .0334364
775.565 .0334254
776.277 .0334141
776.990 .0334030
777.702 .0333916
778.414 .0333794
779.125 .0333662
779.836 .0333527
780.547 .0333389
781.258 .0333249
781.969 .0333112
782.679 .0332978
783.389 .0332846
784.099 .0332719
784.808 .0332592
785.517 .0332470
786.226 .0332342
786.935 .0332213
787.643 .0332075
788.352 .0331934
789.060 .0331783
789.767 .0331629
790.475 .0331472
791.182 .0331310
791.889 .0331139
792.595 .0330964
793.301 .0330784
794.008 .0330601
794.713 .0330413
795.419 .0330223
796.124 .0330031
796.829 .0329842
797.534 .0329653
798.238 .0329470
798.942 .0329295
799.646 .0329131
800.350 .0328979
801.053 .0328840
801.756 .0328713
802.459 .0328597
803.162 .0328493
803.864 .0328399
804.566 .0328309
805.267 .0328216
805.969 .0328130
806.670 .0328043
807.371 .0327958
808.071 .0327872
808.772 .0327783
809.472 .0327693
810.171 .0327602
810.871 .0327501
811.570 .0327392
812.269 .0327272
812.967 .0327139
813.666 .0326992
814.364 .0326845
815.061 .0326691
815.759 .0326543
816.456 .0326406
817.153 .0326286
817.849 .0326170
818.545 .0326065
819.241 .0325963
819.937 .0325866
820.632 .0325765
821.327 .0325651
822.022 .0325526
822.717 .0325398
823.411 .0325268
824.105 .0325140
824.798 .0325016
825.491 .0324906
826.184 .0324799
826.877 .0324699
827.569 .0324597
828.261 .0324490
828.953 .0324369
829.645 .0324231
830.336 .0324080
831.027 .0323920
831.717 .0323754
832.407 .0323593
833.097 .0323442
833.787 .0323293
834.476 .0323145
835.165 .0322998
835.854 .0322849
836.542 .0322696
837.230 .0322539
837.918 .0322374
838.605 .0322213
839.292 .0322066
839.979 .0321931
840.665 .0321811
841.352 .0321715
842.037 .0321627
842.723 .0321541
843.408 .0321446
844.093 .0321342
844.777 .0321215
845.462 .0321076
846.145 .0320916
846.829 .0320740
847.512 .0320557
848.195 .0320374
848.878 .0320192
849.560 .0320019
850.242 .0319849
850.923 .0319677
851.605 .0319496
852.286 .0319311
852.966 .0319110
853.646 .0318910
854.326 .0318717
855.006 .0318537
855.685 .0318371
856.364 .0318232
857.043 .0318113
857.721 .0318013
858.399 .0317923
859.077 .0317831
859.754 .0317731
860.431 .0317620
861.107 .0317494
861.784 .0317352
862.459 .0317209
863.135 .0317069
863.810 .0316928
864.485 .0316794
865.160 .0316662
865.834 .0316529
866.508 .0316393
867.181 .0316245
867.854 .0316090
868.527 .0315929
869.199 .0315765
869.872 .0315603
870.543 .0315445
871.215 .0315297
871.886 .0315152
872.557 .0315006
873.227 .0314863
873.897 .0314711
874.567 .0314552
875.236 .0314386
875.905 .0314215
876.573 .0314037
877.242 .0313853
877.909 .0313662
878.577 .0313474
879.244 .0313281
879.911 .0313085
880.577 .0312885
881.243 .0312688
881.909 .0312496
882.575 .0312303
883.240 .0312120
883.904 .0311957
884.569 .0311800
885.232 .0311650
885.896 .0311503
886.559 .0311360
887.222 .0311220
887.885 .0311083
888.547 .0310946
889.208 .0310814
889.870 .0310688
890.531 .0310566
891.192 .0310448
891.852 .0310344
892.512 .0310247
893.171 .0310151
893.830 .0310063
894.489 .0309975
895.148 .0309882
895.806 .0309794
896.464 .0309708
897.121 .0309621
897.778 .0309538
898.434 .0309453
899.091 .0309365
899.747 .0309280
900.402 .0309198
901.057 .0309114
901.712 .0309035
902.366 .0308961
903.020 .0308883
903.674 .0308808
904.327 .0308730
904.980 .0308645
905.633 .0308549
906.285 .0308441
906.936 .0308319
907.588 .0308186
908.239 .0308044
908.889 .0307892
909.540 .0307740
910.190 .0307595
910.839 .0307450
911.488 .0307310
912.137 .0307171
912.785 .0307031
913.433 .0306884
914.081 .0306729
914.728 .0306561
915.375 .0306387
916.021 .0306207
916.668 .0306025
917.313 .0305847
917.959 .0305677
918.604 .0305517
919.248 .0305372
919.892 .0305240
920.536 .0305117
921.180 .0304997
921.823 .0304881
922.465 .0304766
923.108 .0304646
923.750 .0304519
924.391 .0304389
925.032 .0304262
925.673 .0304135
926.313 .0304008
926.953 .0303890
927.593 .0303779
928.232 .0303672
928.871 .0303562
929.510 .0303445
930.148 .0303315
930.786 .0303165
931.423 .0302993
932.060 .0302796
932.697 .0302577
933.333 .0302342
933.969 .0302088
934.604 .0301827
935.239 .0301560
935.874 .0301289
936.508 .0301018
937.142 .0300754
937.776 .0300489
938.409 .0300221
939.042 .0299950
939.674 .0299675
940.306 .0299391
940.938 .0299104
941.569 .0298816
942.200 .0298528
942.830 .0298248
943.460 .0297976
944.090 .0297706
944.720 .0297454
945.349 .0297215
945.977 .0296986
946.606 .0296766
947.233 .0296552
947.861 .0296341
948.488 .0296132
949.115 .0295928
949.741 .0295728
950.367 .0295536
950.993 .0295359
951.618 .0295192
952.243 .0295046
952.868 .0294917
953.492 .0294801
954.115 .0294698
954.739 .0294602
955.362 .0294508
955.984 .0294408
956.607 .0294309
957.229 .0294210
957.850 .0294115
958.471 .0294017
959.092 .0293909
959.713 .0293795
960.333 .0293669
960.952 .0293529
961.572 .0293380
962.191 .0293223
962.809 .0293066
963.428 .0292910
964.045 .0292761
964.663 .0292617
965.280 .0292480
965.897 .0292351
966.513 .0292227
967.129 .0292107
967.745 .0291988
968.361 .0291873
968.976 .0291774
969.590 .0291688
970.205 .0291621
970.818 .0291573
971.432 .0291541
972.045 .0291521
972.658 .0291501
973.271 .0291473
973.883 .0291435
974.495 .0291380
975.106 .0291308
975.717 .0291225
976.328 .0291131
976.938 .0291028
977.548 .0290922
978.158 .0290817
978.768 .0290703
979.377 .0290579
979.985 .0290447
980.594 .0290306
981.202 .0290160
981.809 .0290007
982.417 .0289858
983.024 .0289716
983.631 .0289587
984.237 .0289465
984.843 .0289347
985.449 .0289234
986.054 .0289118
986.659 .0288995
987.264 .0288867
987.868 .0288739
988.472 .0288609
989.076 .0288482
989.679 .0288361
990.282 .0288244
990.885 .0288129
991.487 .0288011
992.090 .0287899
992.691 .0287777
993.293 .0287661
993.894 .0287547
994.495 .0287439
995.095 .0287348
995.696 .0287268
996.296 .0287193
996.895 .0287121
997.494 .0287053
998.093 .0286974
998.692 .0286888
999.291 .0286807
999.889 .0286720
1000.487 .0286646
1001.084 .0286582
1001.681 .0286530
1002.278 .0286491
1002.875 .0286470
1003.471 .0286447
1004.067 .0286428
1004.663 .0286411
1005.258 .0286385
1005.854 .0286359
1006.449 .0286332
1007.043 .0286302
1007.638 .0286276
1008.232 .0286259
1008.826 .0286255
1009.419 .0286260
1010.012 .0286290
1010.605 .0286326
1011.198 .0286367
1011.791 .0286403
1012.383 .0286424
1012.975 .0286432
1013.566 .0286424
1014.158 .0286399
1014.749 .0286372
1015.340 .0286351
1015.931 .0286348
1016.521 .0286365
1017.111 .0286405
1017.701 .0286462
1018.291 .0286524
1018.880 .0286568
1019.470 .0286587
1020.059 .0286576
1020.647 .0286539
1021.236 .0286477
1021.824 .0286410
1022.412 .0286344
1023.000 .0286277
1023.588 .0286215
1024.175 .0286155
1024.762 .0286082
1025.349 .0286004
1025.936 .0285903
1026.523 .0285788
1027.109 .0285662
1027.695 .0285534
1028.281 .0285415
1028.867 .0285313
1029.452 .0285233
1030.038 .0285166
1030.623 .0285103
1031.208 .0285048
1031.792 .0284980
1032.377 .0284900
1032.961 .0284809
1033.546 .0284711
1034.130 .0284608
1034.714 .0284506
1035.297 .0284406
1035.881 .0284313
1036.464 .0284229
1037.047 .0284166
1037.630 .0284102
1038.213 .0284047
1038.796 .0283992
1039.378 .0283938
1039.961 .0283878
1040.543 .0283816
1041.125 .0283748
1041.707 .0283688
1042.289 .0283626
1042.871 .0283576
1043.452 .0283534
1044.034 .0283517
1044.615 .0283520
1045.196 .0283552
1045.777 .0283603
1046.358 .0283668
1046.939 .0283732
1047.520 .0283787
1048.101 .0283820
1048.681 .0283847
1049.262 .0283841
1049.842 .0283814
1050.422 .0283766
1051.002 .0283702
1051.582 .0283625
1052.162 .0283557
1052.742 .0283504
1053.322 .0283469
1053.902 .0283446
1054.482 .0283438
1055.061 .0283421
1055.641 .0283399
1056.220 .0283368
1056.800 .0283316
1057.379 .0283251
1057.958 .0283174
1058.538 .0283070
1059.117 .0282965
1059.696 .0282885
1060.275 .0282826
1060.854 .0282786
1061.433 .0282768
1062.012 .0282761
1062.592 .0282751
1063.171 .0282733
1063.750 .0282706
1064.329 .0282663
1064.908 .0282605
1065.487 .0282526
1066.066 .0282432
1066.645 .0282347
1067.224 .0282285
1067.803 .0282238
1068.382 .0282238
1068.961 .0282270
1069.540 .0282304
1070.119 .0282333
1070.698 .0282346
1071.278 .0282340
1071.857 .0282298
1072.436 .0282204
1073.016 .0282085
1073.595 .0281930
1074.175 .0281769
1074.754 .0281605
1075.334 .0281460
1075.913 .0281336
1076.493 .0281231
1077.073 .0281121
1077.653 .0281009
1078.233 .0280878
1078.813 .0280755
1079.393 .0280620
1079.974 .0280501
1080.554 .0280417
1081.135 .0280355
1081.716 .0280348
1082.296 .0280400
1082.877 .0280485
1083.458 .0280603
1084.040 .0280714
1084.621 .0280809
1085.202 .0280857
1085.784 .0280888
1086.366 .0280895
1086.948 .0280893
1087.530 .0280903
1088.112 .0280917
1088.695 .0280928
1089.277 .0280941
1089.860 .0280948
1090.443 .0280926
1091.026 .0280870
1091.610 .0280763
1092.193 .0280622
1092.777 .0280469
1093.361 .0280331
1093.946 .0280245
1094.530 .0280232
1095.115 .0280306
1095.700 .0280422
1096.285 .0280583
1096.871 .0280744
1097.456 .0280901
1098.042 .0281043
1098.628 .0281133
1099.215 .0281209
1099.802 .0281269
1100.389 .0281336
1100.976 .0281450
1101.564 .0281617
1102.152 .0281844
1102.740 .0282114
1103.329 .0282412
1103.917 .0282675
1104.507 .0282873
1105.096 .0283013
1105.686 .0283061
1106.276 .0283020
1106.867 .0282933
1107.457 .0282797
1108.049 .0282661
1108.640 .0282569
1109.232 .0282495
1109.825 .0282490
1110.417 .0282513
1111.010 .0282545
1111.604 .0282527
1112.198 .0282440
1112.792 .0282287
1113.387 .0282058
1113.982 .0281797
1114.577 .0281547
1115.173 .0281314
1115.769 .0281165
1116.366 .0281088
1116.963 .0281116
1117.561 .0281216
1118.159 .0281383
1118.758 .0281582
1119.357 .0281813
1119.957 .0282030
1120.557 .0282281
1121.157 .0282554
1121.758 .0282893
1122.360 .0283295
1122.962 .0283720
1123.564 .0284148
1124.167 .0284547
1124.771 .0284864
1125.375 .0285081
1125.980 .0285191
1126.585 .0285234
1127.191 .0285200
1127.797 .0285165
1128.404 .0285144
1129.012 .0285165
1129.620 .0285247
1130.229 .0285387
1130.838 .0285544
1131.448 .0285700
1132.058 .0285852
1132.669 .0285952
1133.281 .0286044
1133.894 .0286178
1134.507 .0286373
1135.120 .0286648
1135.735 .0287044
1136.350 .0287569
1136.965 .0288209
1137.582 .0288952
1138.199 .0289762
1138.816 .0290584
1139.435 .0291433
1140.054 .0292274
1140.674 .0293198
1141.294 .0294117
1141.916 .0295302
1142.538 .0295287
1143.160 .0296407
1143.784 .0300426
1144.408 .0299201
1145.033 .0305912
