Measurement Sequence started on: 14-45-04-498
Integration time: 36
Scans to Average: 2 
>>>>>Begin Spectral Data<<<<<
433.946 .0646899
434.870 .0622745
435.793 .0571338
436.715 .0557310
437.635 .0537899
438.555 .0551533
439.473 .0542970
440.389 .0536903
441.305 .0533131
442.219 .0530190
443.132 .0528126
444.044 .0526462
444.954 .0525301
445.863 .0524714
446.771 .0524664
447.678 .0524685
448.584 .0524613
449.488 .0524344
450.391 .0523672
451.293 .0522756
452.194 .0521659
453.094 .0520543
453.992 .0519476
454.890 .0518442
455.786 .0517531
456.681 .0516604
457.575 .0515645
458.468 .0514539
459.360 .0513311
460.250 .0511977
461.140 .0510582
462.028 .0509172
462.915 .0507787
463.801 .0506435
464.687 .0505115
465.571 .0503841
466.454 .0502600
467.335 .0501369
468.216 .0500124
469.096 .0498851
469.975 .0497656
470.853 .0496476
471.729 .0495329
472.605 .0494214
473.479 .0493153
474.353 .0492063
475.226 .0490929
476.097 .0489756
476.968 .0488573
477.838 .0487393
478.706 .0486269
479.574 .0485184
480.441 .0484210
481.306 .0483319
482.171 .0482502
483.035 .0481748
483.898 .0481028
484.760 .0480267
485.621 .0479489
486.481 .0478674
487.340 .0477847
488.198 .0476994
489.055 .0476172
489.912 .0475393
490.767 .0474656
491.622 .0473917
492.476 .0473199
493.329 .0472480
494.180 .0471768
495.032 .0471014
495.882 .0470279
496.731 .0469558
497.580 .0468837
498.427 .0468135
499.274 .0467453
500.120 .0466779
500.965 .0466126
501.809 .0465458
502.653 .0464774
503.495 .0464117
504.337 .0463448
505.178 .0462765
506.018 .0462135
506.858 .0461512
507.696 .0460857
508.534 .0460146
509.371 .0459376
510.208 .0458493
511.043 .0457510
511.878 .0456499
512.712 .0455464
513.545 .0454492
514.377 .0453604
515.209 .0452848
516.040 .0452275
516.870 .0451886
517.699 .0451581
518.528 .0451378
519.356 .0451265
520.183 .0451151
521.010 .0451027
521.836 .0450939
522.661 .0450916
523.485 .0450942
524.309 .0451026
525.132 .0451166
525.954 .0451277
526.776 .0451341
527.597 .0451263
528.417 .0450981
529.237 .0450503
530.056 .0449742
530.874 .0448709
531.692 .0447512
532.508 .0446149
533.325 .0444632
534.140 .0443009
534.955 .0441401
535.770 .0439852
536.583 .0438359
537.397 .0437020
538.209 .0435832
539.021 .0434807
539.832 .0433937
540.643 .0433134
541.453 .0432422
542.262 .0431753
543.071 .0431098
543.879 .0430428
544.687 .0429761
545.494 .0429099
546.300 .0428493
547.106 .0427976
547.911 .0427533
548.716 .0427107
549.520 .0426666
550.323 .0426220
551.126 .0425750
551.929 .0425245
552.731 .0424682
553.532 .0424087
554.332 .0423529
555.133 .0423021
555.932 .0422567
556.731 .0422177
557.530 .0421866
558.328 .0421633
559.125 .0421396
559.922 .0421107
560.719 .0420762
561.515 .0420353
562.310 .0419883
563.105 .0419372
563.899 .0418829
564.693 .0418276
565.487 .0417743
566.280 .0417207
567.072 .0416651
567.864 .0416076
568.655 .0415459
569.446 .0414819
570.236 .0414141
571.026 .0413447
571.816 .0412758
572.605 .0412092
573.393 .0411493
574.181 .0410942
574.969 .0410455
575.756 .0410002
576.543 .0409586
577.329 .0409203
578.115 .0408813
578.900 .0408423
579.685 .0408024
580.469 .0407625
581.253 .0407234
582.036 .0406852
582.820 .0406468
583.602 .0406098
584.384 .0405752
585.166 .0405400
585.947 .0405045
586.728 .0404670
587.509 .0404271
588.289 .0403833
589.069 .0403370
589.848 .0402891
590.627 .0402400
591.405 .0401911
592.183 .0401417
592.961 .0400932
593.738 .0400451
594.515 .0399965
595.291 .0399476
596.067 .0398983
596.843 .0398486
597.618 .0397975
598.393 .0397465
599.167 .0396970
599.941 .0396497
600.715 .0396055
601.488 .0395656
602.261 .0395296
603.034 .0394967
603.806 .0394669
604.578 .0394392
605.349 .0394127
606.121 .0393870
606.891 .0393625
607.662 .0393380
608.432 .0393149
609.201 .0392930
609.971 .0392718
610.740 .0392514
611.508 .0392311
612.277 .0392100
613.045 .0391878
613.812 .0391643
614.579 .0391385
615.346 .0391109
616.113 .0390820
616.879 .0390517
617.645 .0390210
618.411 .0389906
619.176 .0389612
619.941 .0389321
620.705 .0389036
621.470 .0388744
622.233 .0388442
622.997 .0388130
623.760 .0387803
624.523 .0387466
625.286 .0387120
626.048 .0386778
626.810 .0386440
627.572 .0386109
628.333 .0385792
629.095 .0385476
629.855 .0385166
630.616 .0384853
631.376 .0384535
632.136 .0384214
632.895 .0383894
633.655 .0383587
634.414 .0383293
635.172 .0383021
635.931 .0382766
636.689 .0382526
637.447 .0382297
638.204 .0382071
638.962 .0381837
639.718 .0381596
640.475 .0381350
641.231 .0381091
641.988 .0380829
642.743 .0380557
643.499 .0380277
644.254 .0379983
645.009 .0379674
645.764 .0379349
646.518 .0379004
647.272 .0378646
648.026 .0378276
648.780 .0377905
649.533 .0377541
650.286 .0377185
651.039 .0376842
651.792 .0376503
652.544 .0376174
653.296 .0375849
654.048 .0375534
654.799 .0375231
655.550 .0374944
656.301 .0374672
657.052 .0374421
657.802 .0374191
658.552 .0373979
659.302 .0373786
660.052 .0373608
660.801 .0373439
661.550 .0373273
662.299 .0373109
663.048 .0372941
663.796 .0372775
664.544 .0372609
665.292 .0372431
666.040 .0372248
666.787 .0372056
667.534 .0371853
668.281 .0371642
669.028 .0371426
669.774 .0371207
670.521 .0370984
671.266 .0370762
672.012 .0370536
672.758 .0370314
673.503 .0370096
674.248 .0369875
674.992 .0369652
675.737 .0369433
676.481 .0369211
677.225 .0368991
677.969 .0368777
678.712 .0368564
679.455 .0368353
680.199 .0368143
680.941 .0367929
681.684 .0367714
682.426 .0367498
683.168 .0367280
683.910 .0367058
684.652 .0366840
685.393 .0366625
686.134 .0366413
686.875 .0366216
687.616 .0366029
688.356 .0365853
689.097 .0365689
689.837 .0365531
690.576 .0365380
691.316 .0365234
692.055 .0365090
692.794 .0364943
693.533 .0364796
694.272 .0364644
695.010 .0364486
695.748 .0364323
696.486 .0364155
697.224 .0363984
697.962 .0363805
698.699 .0363622
699.436 .0363433
700.173 .0363236
700.909 .0363035
701.646 .0362826
702.382 .0362612
703.118 .0362390
703.853 .0362166
704.589 .0361943
705.324 .0361725
706.059 .0361518
706.794 .0361322
707.529 .0361144
708.263 .0360981
708.997 .0360831
709.731 .0360685
710.465 .0360541
711.198 .0360390
711.931 .0360227
712.664 .0360055
713.397 .0359872
714.130 .0359683
714.862 .0359494
715.594 .0359308
716.326 .0359131
717.058 .0358962
717.789 .0358798
718.520 .0358632
719.251 .0358461
719.982 .0358276
720.713 .0358071
721.443 .0357846
722.173 .0357604
722.903 .0357347
723.633 .0357080
724.362 .0356809
725.091 .0356539
725.820 .0356276
726.549 .0356021
727.278 .0355770
728.006 .0355526
728.734 .0355283
729.462 .0355038
730.190 .0354799
730.917 .0354559
731.644 .0354326
732.371 .0354106
733.098 .0353905
733.825 .0353726
734.551 .0353569
735.277 .0353433
736.003 .0353316
736.728 .0353218
737.454 .0353133
738.179 .0353054
738.904 .0352985
739.629 .0352921
740.353 .0352861
741.077 .0352805
741.801 .0352752
742.525 .0352693
743.249 .0352633
743.972 .0352564
744.695 .0352483
745.418 .0352391
746.141 .0352285
746.863 .0352168
747.585 .0352043
748.307 .0351908
749.029 .0351763
749.750 .0351604
750.472 .0351435
751.193 .0351249
751.913 .0351052
752.634 .0350843
753.354 .0350627
754.074 .0350412
754.794 .0350201
755.514 .0349992
756.233 .0349791
756.952 .0349597
757.671 .0349411
758.390 .0349232
759.108 .0349058
759.826 .0348891
760.544 .0348733
761.262 .0348583
761.979 .0348443
762.697 .0348313
763.414 .0348190
764.130 .0348072
764.847 .0347951
765.563 .0347829
766.279 .0347696
766.995 .0347556
767.710 .0347408
768.426 .0347246
769.141 .0347078
769.855 .0346895
770.570 .0346701
771.284 .0346502
771.998 .0346288
772.712 .0346074
773.426 .0345857
774.139 .0345642
774.852 .0345428
775.565 .0345220
776.277 .0345022
776.990 .0344836
777.702 .0344662
778.414 .0344497
779.125 .0344338
779.836 .0344189
780.547 .0344046
781.258 .0343903
781.969 .0343765
782.679 .0343632
783.389 .0343496
784.099 .0343359
784.808 .0343220
785.517 .0343083
786.226 .0342944
786.935 .0342811
787.643 .0342682
788.352 .0342557
789.060 .0342436
789.767 .0342316
790.475 .0342202
791.182 .0342088
791.889 .0341978
792.595 .0341874
793.301 .0341774
794.008 .0341684
794.713 .0341598
795.419 .0341522
796.124 .0341456
796.829 .0341398
797.534 .0341341
798.238 .0341279
798.942 .0341212
799.646 .0341134
800.350 .0341037
801.053 .0340932
801.756 .0340812
802.459 .0340677
803.162 .0340531
803.864 .0340376
804.566 .0340216
805.267 .0340053
805.969 .0339884
806.670 .0339713
807.371 .0339540
808.071 .0339371
808.772 .0339201
809.472 .0339034
810.171 .0338881
810.871 .0338739
811.570 .0338610
812.269 .0338495
812.967 .0338388
813.666 .0338290
814.364 .0338200
815.061 .0338114
815.759 .0338031
816.456 .0337952
817.153 .0337879
817.849 .0337803
818.545 .0337729
819.241 .0337652
819.937 .0337569
820.632 .0337478
821.327 .0337374
822.022 .0337246
822.717 .0337098
823.411 .0336932
824.105 .0336749
824.798 .0336555
825.491 .0336353
826.184 .0336146
826.877 .0335943
827.569 .0335742
828.261 .0335540
828.953 .0335331
829.645 .0335120
830.336 .0334901
831.027 .0334674
831.717 .0334440
832.407 .0334206
833.097 .0333981
833.787 .0333770
834.476 .0333571
835.165 .0333383
835.854 .0333206
836.542 .0333033
837.230 .0332858
837.918 .0332675
838.605 .0332482
839.292 .0332287
839.979 .0332090
840.665 .0331900
841.352 .0331720
842.037 .0331555
842.723 .0331405
843.408 .0331266
844.093 .0331136
844.777 .0331006
845.462 .0330870
846.145 .0330731
846.829 .0330588
847.512 .0330446
848.195 .0330307
848.878 .0330175
849.560 .0330055
850.242 .0329942
850.923 .0329827
851.605 .0329705
852.286 .0329575
852.966 .0329431
853.646 .0329272
854.326 .0329101
855.006 .0328923
855.685 .0328739
856.364 .0328551
857.043 .0328364
857.721 .0328175
858.399 .0327989
859.077 .0327798
859.754 .0327601
860.431 .0327404
861.107 .0327208
861.784 .0327015
862.459 .0326829
863.135 .0326653
863.810 .0326487
864.485 .0326330
865.160 .0326185
865.834 .0326052
866.508 .0325933
867.181 .0325830
867.854 .0325737
868.527 .0325655
869.199 .0325581
869.872 .0325515
870.543 .0325453
871.215 .0325399
871.886 .0325345
872.557 .0325290
873.227 .0325236
873.897 .0325183
874.567 .0325129
875.236 .0325073
875.905 .0325015
876.573 .0324952
877.242 .0324878
877.909 .0324796
878.577 .0324697
879.244 .0324585
879.911 .0324462
880.577 .0324323
881.243 .0324171
881.909 .0324006
882.575 .0323829
883.240 .0323644
883.904 .0323450
884.569 .0323250
885.232 .0323044
885.896 .0322834
886.559 .0322626
887.222 .0322420
887.885 .0322221
888.547 .0322031
889.208 .0321847
889.870 .0321675
890.531 .0321515
891.192 .0321365
891.852 .0321222
892.512 .0321088
893.171 .0320969
893.830 .0320863
894.489 .0320770
895.148 .0320692
895.806 .0320630
896.464 .0320590
897.121 .0320561
897.778 .0320540
898.434 .0320526
899.091 .0320513
899.747 .0320490
900.402 .0320457
901.057 .0320410
901.712 .0320351
902.366 .0320279
903.020 .0320202
903.674 .0320117
904.327 .0320025
904.980 .0319931
905.633 .0319831
906.285 .0319721
906.936 .0319596
907.588 .0319453
908.239 .0319297
908.889 .0319129
909.540 .0318954
910.190 .0318772
910.839 .0318594
911.488 .0318424
912.137 .0318258
912.785 .0318095
913.433 .0317937
914.081 .0317778
914.728 .0317609
915.375 .0317427
916.021 .0317232
916.668 .0317026
917.313 .0316821
917.959 .0316619
918.604 .0316424
919.248 .0316245
919.892 .0316083
920.536 .0315939
921.180 .0315810
921.823 .0315697
922.465 .0315588
923.108 .0315477
923.750 .0315364
924.391 .0315243
925.032 .0315118
925.673 .0314995
926.313 .0314871
926.953 .0314743
927.593 .0314609
928.232 .0314461
928.871 .0314297
929.510 .0314113
930.148 .0313907
930.786 .0313674
931.423 .0313416
932.060 .0313146
932.697 .0312860
933.333 .0312565
933.969 .0312269
934.604 .0311974
935.239 .0311679
935.874 .0311387
936.508 .0311102
937.142 .0310834
937.776 .0310585
938.409 .0310358
939.042 .0310143
939.674 .0309942
940.306 .0309744
940.938 .0309547
941.569 .0309351
942.200 .0309156
942.830 .0308953
943.460 .0308756
944.090 .0308561
944.720 .0308372
945.349 .0308186
945.977 .0308007
946.606 .0307831
947.233 .0307651
947.861 .0307465
948.488 .0307272
949.115 .0307077
949.741 .0306890
950.367 .0306712
950.993 .0306550
951.618 .0306405
952.243 .0306278
952.868 .0306161
953.492 .0306053
954.115 .0305943
954.739 .0305831
955.362 .0305719
955.984 .0305608
956.607 .0305501
957.229 .0305402
957.850 .0305317
958.471 .0305244
959.092 .0305179
959.713 .0305112
960.333 .0305037
960.952 .0304954
961.572 .0304859
962.191 .0304754
962.809 .0304645
963.428 .0304537
964.045 .0304433
964.663 .0304340
965.280 .0304261
965.897 .0304193
966.513 .0304137
967.129 .0304090
967.745 .0304045
968.361 .0303998
968.976 .0303945
969.590 .0303887
970.205 .0303826
970.818 .0303763
971.432 .0303700
972.045 .0303637
972.658 .0303581
973.271 .0303521
973.883 .0303451
974.495 .0303365
975.106 .0303259
975.717 .0303132
976.328 .0302983
976.938 .0302816
977.548 .0302642
978.158 .0302461
978.768 .0302284
979.377 .0302111
979.985 .0301945
980.594 .0301780
981.202 .0301621
981.809 .0301460
982.417 .0301304
983.024 .0301152
983.631 .0301011
984.237 .0300882
984.843 .0300778
985.449 .0300690
986.054 .0300618
986.659 .0300561
987.264 .0300518
987.868 .0300478
988.472 .0300449
989.076 .0300422
989.679 .0300401
990.282 .0300382
990.885 .0300368
991.487 .0300353
992.090 .0300347
992.691 .0300341
993.293 .0300336
993.894 .0300326
994.495 .0300320
995.095 .0300307
995.696 .0300296
996.296 .0300282
996.895 .0300267
997.494 .0300248
998.093 .0300227
998.692 .0300199
999.291 .0300172
999.889 .0300134
1000.487 .0300091
1001.084 .0300039
1001.681 .0299980
1002.278 .0299908
1002.875 .0299831
1003.471 .0299748
1004.067 .0299667
1004.663 .0299580
1005.258 .0299493
1005.854 .0299396
1006.449 .0299295
1007.043 .0299181
1007.638 .0299052
1008.232 .0298912
1008.826 .0298761
1009.419 .0298600
1010.012 .0298438
1010.605 .0298278
1011.198 .0298125
1011.791 .0297977
1012.383 .0297838
1012.975 .0297708
1013.566 .0297580
1014.158 .0297453
1014.749 .0297335
1015.340 .0297224
1015.931 .0297120
1016.521 .0297024
1017.111 .0296936
1017.701 .0296856
1018.291 .0296787
1018.880 .0296721
1019.470 .0296655
1020.059 .0296594
1020.647 .0296539
1021.236 .0296493
1021.824 .0296460
1022.412 .0296442
1023.000 .0296431
1023.588 .0296430
1024.175 .0296441
1024.762 .0296449
1025.349 .0296458
1025.936 .0296472
1026.523 .0296487
1027.109 .0296508
1027.695 .0296541
1028.281 .0296584
1028.867 .0296643
1029.452 .0296716
1030.038 .0296797
1030.623 .0296873
1031.208 .0296940
1031.792 .0296997
1032.377 .0297040
1032.961 .0297070
1033.546 .0297088
1034.130 .0297094
1034.714 .0297099
1035.297 .0297096
1035.881 .0297088
1036.464 .0297080
1037.047 .0297077
1037.630 .0297076
1038.213 .0297070
1038.796 .0297066
1039.378 .0297064
1039.961 .0297061
1040.543 .0297058
1041.125 .0297051
1041.707 .0297043
1042.289 .0297029
1042.871 .0297015
1043.452 .0297007
1044.034 .0297006
1044.615 .0297007
1045.196 .0297009
1045.777 .0297012
1046.358 .0297002
1046.939 .0296970
1047.520 .0296912
1048.101 .0296829
1048.681 .0296723
1049.262 .0296594
1049.842 .0296460
1050.422 .0296320
1051.002 .0296191
1051.582 .0296062
1052.162 .0295944
1052.742 .0295836
1053.322 .0295737
1053.902 .0295648
1054.482 .0295570
1055.061 .0295508
1055.641 .0295455
1056.220 .0295414
1056.800 .0295390
1057.379 .0295372
1057.958 .0295365
1058.538 .0295357
1059.117 .0295357
1059.696 .0295353
1060.275 .0295362
1060.854 .0295377
1061.433 .0295404
1062.012 .0295440
1062.592 .0295473
1063.171 .0295499
1063.750 .0295507
1064.329 .0295500
1064.908 .0295479
1065.487 .0295445
1066.066 .0295407
1066.645 .0295354
1067.224 .0295320
1067.803 .0295290
1068.382 .0295281
1068.961 .0295292
1069.540 .0295327
1070.119 .0295372
1070.698 .0295422
1071.278 .0295485
1071.857 .0295555
1072.436 .0295639
1073.016 .0295731
1073.595 .0295814
1074.175 .0295891
1074.754 .0295955
1075.334 .0296002
1075.913 .0296030
1076.493 .0296066
1077.073 .0296082
1077.653 .0296093
1078.233 .0296109
1078.813 .0296118
1079.393 .0296107
1079.974 .0296086
1080.554 .0296034
1081.135 .0295938
1081.716 .0295805
1082.296 .0295644
1082.877 .0295456
1083.458 .0295285
1084.040 .0295129
1084.621 .0295003
1085.202 .0294917
1085.784 .0294876
1086.366 .0294852
1086.948 .0294854
1087.530 .0294862
1088.112 .0294863
1088.695 .0294855
1089.277 .0294861
1089.860 .0294870
1090.443 .0294906
1091.026 .0294970
1091.610 .0295081
1092.193 .0295213
1092.777 .0295360
1093.361 .0295493
1093.946 .0295598
1094.530 .0295663
1095.115 .0295685
1095.700 .0295666
1096.285 .0295633
1096.871 .0295598
1097.456 .0295583
1098.042 .0295584
1098.628 .0295624
1099.215 .0295674
1099.802 .0295716
1100.389 .0295744
1100.976 .0295737
1101.564 .0295664
1102.152 .0295532
1102.740 .0295369
1103.329 .0295189
1103.917 .0295013
1104.507 .0294856
1105.096 .0294723
1105.686 .0294619
1106.276 .0294535
1106.867 .0294443
1107.457 .0294345
1108.049 .0294230
1108.640 .0294090
1109.232 .0293932
1109.825 .0293779
1110.417 .0293637
1111.010 .0293526
1111.604 .0293447
1112.198 .0293413
1112.792 .0293401
1113.387 .0293419
1113.982 .0293454
1114.577 .0293516
1115.173 .0293606
1115.769 .0293713
1116.366 .0293857
1116.963 .0294049
1117.561 .0294284
1118.159 .0294576
1118.758 .0294939
1119.357 .0295378
1119.957 .0295887
1120.557 .0296455
1121.157 .0297061
1121.758 .0297721
1122.360 .0298427
1122.962 .0299136
1123.564 .0299848
1124.167 .0300552
1124.771 .0301203
1125.375 .0301758
1125.980 .0302262
1126.585 .0302677
1127.191 .0303017
1127.797 .0303310
1128.404 .0303555
1129.012 .0303784
1129.620 .0304038
1130.229 .0304334
1130.838 .0304653
1131.448 .0304971
1132.058 .0305282
1132.669 .0305515
1133.281 .0305731
1133.894 .0305907
1134.507 .0306049
1135.120 .0306230
1135.735 .0306515
1136.350 .0306890
1136.965 .0307370
1137.582 .0307980
1138.199 .0308678
1138.816 .0309377
1139.435 .0310030
1140.054 .0310663
1140.674 .0311293
1141.294 .0312058
1141.916 .0313002
1142.538 .0311444
1143.160 .0314279
1143.784 .0315549
1144.408 .0319902
1145.033 .0322700
