Measurement Sequence started on: 14-45-04-498
Integration time: 36
Scans to Average: 2 
>>>>>Begin Spectral Data<<<<<
433.946 .0463501
434.870 .0444675
435.793 .0412633
436.715 .0414562
437.635 .0397200
438.555 .0402186
439.473 .0395915
440.389 .0391272
441.305 .0388149
442.219 .0385451
443.132 .0383610
444.044 .0382152
444.954 .0381251
445.863 .0380864
446.771 .0380777
447.678 .0380843
448.584 .0381041
449.488 .0381246
450.391 .0381205
451.293 .0381065
452.194 .0380786
453.094 .0380367
453.992 .0379757
454.890 .0378992
455.786 .0378116
456.681 .0377183
457.575 .0376250
458.468 .0375284
459.360 .0374303
460.250 .0373395
461.140 .0372460
462.028 .0371613
462.915 .0370862
463.801 .0370166
464.687 .0369495
465.571 .0368954
466.454 .0368477
467.335 .0368039
468.216 .0367696
469.096 .0367481
469.975 .0367347
470.853 .0367284
471.729 .0367217
472.605 .0367107
473.479 .0366958
474.353 .0366749
475.226 .0366388
476.097 .0365967
476.968 .0365429
477.838 .0364785
478.706 .0364095
479.574 .0363412
480.441 .0362738
481.306 .0362133
482.171 .0361558
483.035 .0360997
483.898 .0360419
484.760 .0359840
485.621 .0359241
486.481 .0358652
487.340 .0358081
488.198 .0357530
489.055 .0357012
489.912 .0356569
490.767 .0356171
491.622 .0355851
492.476 .0355597
493.329 .0355375
494.180 .0355166
495.032 .0354954
495.882 .0354734
496.731 .0354523
497.580 .0354333
498.427 .0354159
499.274 .0353983
500.120 .0353803
500.965 .0353610
501.809 .0353370
502.653 .0353078
503.495 .0352741
504.337 .0352331
505.178 .0351838
506.018 .0351308
506.858 .0350719
507.696 .0350153
508.534 .0349594
509.371 .0349073
510.208 .0348604
511.043 .0348219
511.878 .0347897
512.712 .0347651
513.545 .0347480
514.377 .0347382
515.209 .0347296
516.040 .0347271
516.870 .0347251
517.699 .0347269
518.528 .0347313
519.356 .0347420
520.183 .0347511
521.010 .0347615
521.836 .0347644
522.661 .0347624
523.485 .0347478
524.309 .0347149
525.132 .0346628
525.954 .0345903
526.776 .0344974
527.597 .0343909
528.417 .0342700
529.237 .0341478
530.056 .0340247
530.874 .0339033
531.692 .0337874
532.508 .0336840
533.325 .0335932
534.140 .0335095
534.955 .0334316
535.770 .0333557
536.583 .0332764
537.397 .0331964
538.209 .0331212
539.021 .0330486
539.832 .0329856
540.643 .0329329
541.453 .0328944
542.262 .0328705
543.071 .0328642
543.879 .0328718
544.687 .0328915
545.494 .0329169
546.300 .0329436
547.106 .0329599
547.911 .0329740
548.716 .0329866
549.520 .0329921
550.323 .0329911
551.126 .0329896
551.929 .0329816
552.731 .0329728
553.532 .0329619
554.332 .0329490
555.133 .0329299
555.932 .0329089
556.731 .0328796
557.530 .0328395
558.328 .0327970
559.125 .0327548
559.922 .0327117
560.719 .0326719
561.515 .0326326
562.310 .0325927
563.105 .0325581
563.899 .0325308
564.693 .0325047
565.487 .0324816
566.280 .0324606
567.072 .0324392
567.864 .0324162
568.655 .0323920
569.446 .0323654
570.236 .0323357
571.026 .0323047
571.816 .0322668
572.605 .0322236
573.393 .0321763
574.181 .0321286
574.969 .0320803
575.756 .0320330
576.543 .0319864
577.329 .0319412
578.115 .0318989
578.900 .0318573
579.685 .0318163
580.469 .0317752
581.253 .0317358
582.036 .0316991
582.820 .0316634
583.602 .0316331
584.384 .0316081
585.166 .0315890
585.947 .0315742
586.728 .0315614
587.509 .0315486
588.289 .0315331
589.069 .0315156
589.848 .0314935
590.627 .0314674
591.405 .0314383
592.183 .0314075
592.961 .0313765
593.738 .0313464
594.515 .0313176
595.291 .0312906
596.067 .0312659
596.843 .0312415
597.618 .0312163
598.393 .0311910
599.167 .0311659
599.941 .0311414
600.715 .0311173
601.488 .0310955
602.261 .0310764
603.034 .0310603
603.806 .0310466
604.578 .0310345
605.349 .0310232
606.121 .0310117
606.891 .0309983
607.662 .0309829
608.432 .0309653
609.201 .0309463
609.971 .0309261
610.740 .0309063
611.508 .0308870
612.277 .0308687
613.045 .0308511
613.812 .0308351
614.579 .0308199
615.346 .0308047
616.113 .0307890
616.879 .0307734
617.645 .0307575
618.411 .0307417
619.176 .0307261
619.941 .0307118
620.705 .0306988
621.470 .0306875
622.233 .0306763
622.997 .0306655
623.760 .0306543
624.523 .0306422
625.286 .0306273
626.048 .0306102
626.810 .0305899
627.572 .0305667
628.333 .0305414
629.095 .0305148
629.855 .0304873
630.616 .0304606
631.376 .0304346
632.136 .0304097
632.895 .0303862
633.655 .0303641
634.414 .0303426
635.172 .0303225
635.931 .0303033
636.689 .0302845
637.447 .0302664
638.204 .0302500
638.962 .0302341
639.718 .0302193
640.475 .0302057
641.231 .0301919
641.988 .0301784
642.743 .0301642
643.499 .0301486
644.254 .0301317
645.009 .0301137
645.764 .0300941
646.518 .0300731
647.272 .0300518
648.026 .0300300
648.780 .0300077
649.533 .0299862
650.286 .0299649
651.039 .0299438
651.792 .0299233
652.544 .0299038
653.296 .0298845
654.048 .0298663
654.799 .0298494
655.550 .0298341
656.301 .0298204
657.052 .0298084
657.802 .0297981
658.552 .0297895
659.302 .0297824
660.052 .0297754
660.801 .0297680
661.550 .0297603
662.299 .0297513
663.048 .0297409
663.796 .0297298
664.544 .0297181
665.292 .0297062
666.040 .0296944
666.787 .0296832
667.534 .0296724
668.281 .0296621
669.028 .0296518
669.774 .0296415
670.521 .0296308
671.266 .0296195
672.012 .0296077
672.758 .0295964
673.503 .0295853
674.248 .0295750
674.992 .0295655
675.737 .0295572
676.481 .0295494
677.225 .0295422
677.969 .0295346
678.712 .0295267
679.455 .0295182
680.199 .0295088
680.941 .0294981
681.684 .0294866
682.426 .0294741
683.168 .0294610
683.910 .0294475
684.652 .0294336
685.393 .0294191
686.134 .0294052
686.875 .0293912
687.616 .0293775
688.356 .0293640
689.097 .0293513
689.837 .0293390
690.576 .0293271
691.316 .0293152
692.055 .0293035
692.794 .0292918
693.533 .0292807
694.272 .0292696
695.010 .0292591
695.748 .0292492
696.486 .0292400
697.224 .0292313
697.962 .0292226
698.699 .0292137
699.436 .0292045
700.173 .0291947
700.909 .0291838
701.646 .0291718
702.382 .0291589
703.118 .0291456
703.853 .0291319
704.589 .0291181
705.324 .0291044
706.059 .0290913
706.794 .0290786
707.529 .0290659
708.263 .0290532
708.997 .0290407
709.731 .0290280
710.465 .0290156
711.198 .0290031
711.931 .0289903
712.664 .0289777
713.397 .0289654
714.130 .0289533
714.862 .0289411
715.594 .0289292
716.326 .0289175
717.058 .0289054
717.789 .0288933
718.520 .0288808
719.251 .0288680
719.982 .0288549
720.713 .0288411
721.443 .0288267
722.173 .0288116
722.903 .0287960
723.633 .0287800
724.362 .0287637
725.091 .0287471
725.820 .0287305
726.549 .0287138
727.278 .0286974
728.006 .0286816
728.734 .0286660
729.462 .0286512
730.190 .0286373
730.917 .0286242
731.644 .0286117
732.371 .0286000
733.098 .0285890
733.825 .0285781
734.551 .0285676
735.277 .0285572
736.003 .0285471
736.728 .0285374
737.454 .0285280
738.179 .0285187
738.904 .0285096
739.629 .0285006
740.353 .0284911
741.077 .0284815
741.801 .0284716
742.525 .0284611
743.249 .0284505
743.972 .0284398
744.695 .0284300
745.418 .0284209
746.141 .0284125
746.863 .0284050
747.585 .0283978
748.307 .0283907
749.029 .0283835
749.750 .0283766
750.472 .0283702
751.193 .0283642
751.913 .0283589
752.634 .0283540
753.354 .0283497
754.074 .0283458
754.794 .0283414
755.514 .0283362
756.233 .0283298
756.952 .0283220
757.671 .0283132
758.390 .0283036
759.108 .0282934
759.826 .0282833
760.544 .0282734
761.262 .0282635
761.979 .0282536
762.697 .0282434
763.414 .0282331
764.130 .0282224
764.847 .0282117
765.563 .0282009
766.279 .0281905
766.995 .0281810
767.710 .0281719
768.426 .0281633
769.141 .0281550
769.855 .0281466
770.570 .0281379
771.284 .0281287
771.998 .0281188
772.712 .0281084
773.426 .0280979
774.139 .0280868
774.852 .0280755
775.565 .0280639
776.277 .0280518
776.990 .0280392
777.702 .0280259
778.414 .0280122
779.125 .0279979
779.836 .0279837
780.547 .0279698
781.258 .0279562
781.969 .0279432
782.679 .0279307
783.389 .0279187
784.099 .0279070
784.808 .0278957
785.517 .0278848
786.226 .0278743
786.935 .0278646
787.643 .0278555
788.352 .0278473
789.060 .0278399
789.767 .0278333
790.475 .0278268
791.182 .0278208
791.889 .0278145
792.595 .0278076
793.301 .0278000
794.008 .0277918
794.713 .0277834
795.419 .0277748
796.124 .0277669
796.829 .0277594
797.534 .0277524
798.238 .0277458
798.942 .0277394
799.646 .0277330
800.350 .0277261
801.053 .0277190
801.756 .0277114
802.459 .0277038
803.162 .0276963
803.864 .0276892
804.566 .0276831
805.267 .0276780
805.969 .0276731
806.670 .0276684
807.371 .0276638
808.071 .0276589
808.772 .0276539
809.472 .0276485
810.171 .0276427
810.871 .0276368
811.570 .0276310
812.269 .0276251
812.967 .0276195
813.666 .0276141
814.364 .0276089
815.061 .0276037
815.759 .0275986
816.456 .0275928
817.153 .0275864
817.849 .0275792
818.545 .0275709
819.241 .0275614
819.937 .0275510
820.632 .0275395
821.327 .0275274
822.022 .0275150
822.717 .0275021
823.411 .0274890
824.105 .0274761
824.798 .0274635
825.491 .0274507
826.184 .0274374
826.877 .0274237
827.569 .0274099
828.261 .0273959
828.953 .0273818
829.645 .0273678
830.336 .0273542
831.027 .0273412
831.717 .0273283
832.407 .0273160
833.097 .0273040
833.787 .0272921
834.476 .0272804
835.165 .0272690
835.854 .0272579
836.542 .0272469
837.230 .0272361
837.918 .0272257
838.605 .0272150
839.292 .0272041
839.979 .0271925
840.665 .0271808
841.352 .0271691
842.037 .0271575
842.723 .0271460
843.408 .0271351
844.093 .0271243
844.777 .0271133
845.462 .0271019
846.145 .0270896
846.829 .0270762
847.512 .0270617
848.195 .0270462
848.878 .0270300
849.560 .0270133
850.242 .0269967
850.923 .0269802
851.605 .0269642
852.286 .0269479
852.966 .0269319
853.646 .0269158
854.326 .0268998
855.006 .0268836
855.685 .0268674
856.364 .0268512
857.043 .0268355
857.721 .0268204
858.399 .0268060
859.077 .0267920
859.754 .0267790
860.431 .0267662
861.107 .0267537
861.784 .0267413
862.459 .0267292
863.135 .0267171
863.810 .0267057
864.485 .0266942
865.160 .0266833
865.834 .0266734
866.508 .0266640
867.181 .0266553
867.854 .0266473
868.527 .0266397
869.199 .0266319
869.872 .0266235
870.543 .0266146
871.215 .0266047
871.886 .0265944
872.557 .0265839
873.227 .0265733
873.897 .0265632
874.567 .0265535
875.236 .0265443
875.905 .0265359
876.573 .0265281
877.242 .0265204
877.909 .0265130
878.577 .0265060
879.244 .0264991
879.911 .0264926
880.577 .0264866
881.243 .0264810
881.909 .0264756
882.575 .0264703
883.240 .0264648
883.904 .0264592
884.569 .0264540
885.232 .0264485
885.896 .0264433
886.559 .0264380
887.222 .0264324
887.885 .0264264
888.547 .0264199
889.208 .0264129
889.870 .0264053
890.531 .0263980
891.192 .0263909
891.852 .0263843
892.512 .0263792
893.171 .0263752
893.830 .0263723
894.489 .0263706
895.148 .0263694
895.806 .0263679
896.464 .0263664
897.121 .0263645
897.778 .0263618
898.434 .0263588
899.091 .0263553
899.747 .0263514
900.402 .0263473
901.057 .0263433
901.712 .0263385
902.366 .0263331
903.020 .0263274
903.674 .0263208
904.327 .0263137
904.980 .0263063
905.633 .0262983
906.285 .0262906
906.936 .0262831
907.588 .0262759
908.239 .0262691
908.889 .0262633
909.540 .0262579
910.190 .0262527
910.839 .0262477
911.488 .0262427
912.137 .0262373
912.785 .0262311
913.433 .0262239
914.081 .0262156
914.728 .0262064
915.375 .0261962
916.021 .0261851
916.668 .0261734
917.313 .0261607
917.959 .0261472
918.604 .0261328
919.248 .0261181
919.892 .0261029
920.536 .0260873
921.180 .0260716
921.823 .0260559
922.465 .0260400
923.108 .0260237
923.750 .0260074
924.391 .0259910
925.032 .0259745
925.673 .0259582
926.313 .0259417
926.953 .0259259
927.593 .0259105
928.232 .0258949
928.871 .0258791
929.510 .0258630
930.148 .0258455
930.786 .0258271
931.423 .0258076
932.060 .0257877
932.697 .0257670
933.333 .0257461
933.969 .0257246
934.604 .0257029
935.239 .0256812
935.874 .0256590
936.508 .0256361
937.142 .0256131
937.776 .0255894
938.409 .0255655
939.042 .0255415
939.674 .0255178
940.306 .0254942
940.938 .0254715
941.569 .0254489
942.200 .0254267
942.830 .0254047
943.460 .0253831
944.090 .0253614
944.720 .0253402
945.349 .0253194
945.977 .0252985
946.606 .0252782
947.233 .0252582
947.861 .0252383
948.488 .0252185
949.115 .0251982
949.741 .0251781
950.367 .0251578
950.993 .0251377
951.618 .0251177
952.243 .0250984
952.868 .0250800
953.492 .0250627
954.115 .0250460
954.739 .0250303
955.362 .0250156
955.984 .0250016
956.607 .0249882
957.229 .0249752
957.850 .0249628
958.471 .0249508
959.092 .0249389
959.713 .0249274
960.333 .0249159
960.952 .0249052
961.572 .0248950
962.191 .0248856
962.809 .0248772
963.428 .0248697
964.045 .0248627
964.663 .0248564
965.280 .0248504
965.897 .0248447
966.513 .0248390
967.129 .0248333
967.745 .0248280
968.361 .0248227
968.976 .0248182
969.590 .0248142
970.205 .0248109
970.818 .0248085
971.432 .0248061
972.045 .0248041
972.658 .0248020
973.271 .0247997
973.883 .0247970
974.495 .0247935
975.106 .0247893
975.717 .0247843
976.328 .0247790
976.938 .0247737
977.548 .0247690
978.158 .0247651
978.768 .0247621
979.377 .0247598
979.985 .0247584
980.594 .0247579
981.202 .0247578
981.809 .0247580
982.417 .0247583
983.024 .0247590
983.631 .0247597
984.237 .0247606
984.843 .0247617
985.449 .0247632
986.054 .0247651
986.659 .0247670
987.264 .0247689
987.868 .0247710
988.472 .0247739
989.076 .0247775
989.679 .0247818
990.282 .0247870
990.885 .0247926
991.487 .0247983
992.090 .0248042
992.691 .0248097
993.293 .0248146
993.894 .0248192
994.495 .0248235
995.095 .0248270
995.696 .0248304
996.296 .0248336
996.895 .0248367
997.494 .0248398
998.093 .0248426
998.692 .0248436
999.291 .0248441
999.889 .0248435
1000.487 .0248414
1001.084 .0248389
1001.681 .0248358
1002.278 .0248322
1002.875 .0248289
1003.471 .0248254
1004.067 .0248219
1004.663 .0248185
1005.258 .0248161
1005.854 .0248138
1006.449 .0248119
1007.043 .0248104
1007.638 .0248088
1008.232 .0248074
1008.826 .0248066
1009.419 .0248057
1010.012 .0248051
1010.605 .0248047
1011.198 .0248041
1011.791 .0248033
1012.383 .0248025
1012.975 .0248014
1013.566 .0248000
1014.158 .0247981
1014.749 .0247956
1015.340 .0247924
1015.931 .0247888
1016.521 .0247855
1017.111 .0247821
1017.701 .0247788
1018.291 .0247752
1018.880 .0247712
1019.470 .0247665
1020.059 .0247612
1020.647 .0247560
1021.236 .0247506
1021.824 .0247458
1022.412 .0247418
1023.000 .0247385
1023.588 .0247368
1024.175 .0247362
1024.762 .0247360
1025.349 .0247358
1025.936 .0247348
1026.523 .0247328
1027.109 .0247296
1027.695 .0247265
1028.281 .0247229
1028.867 .0247198
1029.452 .0247176
1030.038 .0247158
1030.623 .0247136
1031.208 .0247115
1031.792 .0247084
1032.377 .0247038
1032.961 .0246978
1033.546 .0246903
1034.130 .0246823
1034.714 .0246750
1035.297 .0246682
1035.881 .0246625
1036.464 .0246582
1037.047 .0246549
1037.630 .0246508
1038.213 .0246473
1038.796 .0246432
1039.378 .0246381
1039.961 .0246324
1040.543 .0246260
1041.125 .0246188
1041.707 .0246111
1042.289 .0246028
1042.871 .0245937
1043.452 .0245841
1044.034 .0245732
1044.615 .0245600
1045.196 .0245464
1045.777 .0245319
1046.358 .0245164
1046.939 .0245008
1047.520 .0244859
1048.101 .0244708
1048.681 .0244565
1049.262 .0244437
1049.842 .0244316
1050.422 .0244212
1051.002 .0244125
1051.582 .0244039
1052.162 .0243963
1052.742 .0243893
1053.322 .0243815
1053.902 .0243733
1054.482 .0243658
1055.061 .0243579
1055.641 .0243503
1056.220 .0243432
1056.800 .0243367
1057.379 .0243305
1057.958 .0243246
1058.538 .0243177
1059.117 .0243090
1059.696 .0242987
1060.275 .0242865
1060.854 .0242727
1061.433 .0242590
1062.012 .0242471
1062.592 .0242379
1063.171 .0242316
1063.750 .0242290
1064.329 .0242288
1064.908 .0242302
1065.487 .0242311
1066.066 .0242317
1066.645 .0242314
1067.224 .0242298
1067.803 .0242273
1068.382 .0242248
1068.961 .0242244
1069.540 .0242247
1070.119 .0242247
1070.698 .0242241
1071.278 .0242213
1071.857 .0242152
1072.436 .0242037
1073.016 .0241895
1073.595 .0241734
1074.175 .0241571
1074.754 .0241414
1075.334 .0241285
1075.913 .0241186
1076.493 .0241112
1077.073 .0241053
1077.653 .0241000
1078.233 .0240954
1078.813 .0240910
1079.393 .0240868
1079.974 .0240842
1080.554 .0240844
1081.135 .0240880
1081.716 .0240946
1082.296 .0241067
1082.877 .0241211
1083.458 .0241369
1084.040 .0241538
1084.621 .0241692
1085.202 .0241828
1085.784 .0241940
1086.366 .0242027
1086.948 .0242102
1087.530 .0242173
1088.112 .0242243
1088.695 .0242305
1089.277 .0242386
1089.860 .0242465
1090.443 .0242530
1091.026 .0242586
1091.610 .0242631
1092.193 .0242653
1092.777 .0242661
1093.361 .0242651
1093.946 .0242616
1094.530 .0242568
1095.115 .0242509
1095.700 .0242431
1096.285 .0242345
1096.871 .0242241
1097.456 .0242144
1098.042 .0242042
1098.628 .0241946
1099.215 .0241856
1099.802 .0241788
1100.389 .0241753
1100.976 .0241728
1101.564 .0241719
1102.152 .0241732
1102.740 .0241751
1103.329 .0241781
1103.917 .0241811
1104.507 .0241859
1105.096 .0241926
1105.686 .0242012
1106.276 .0242109
1106.867 .0242232
1107.457 .0242367
1108.049 .0242501
1108.640 .0242615
1109.232 .0242722
1109.825 .0242815
1110.417 .0242894
1111.010 .0242993
1111.604 .0243119
1112.198 .0243285
1112.792 .0243503
1113.387 .0243744
1113.982 .0244014
1114.577 .0244283
1115.173 .0244559
1115.769 .0244829
1116.366 .0245105
1116.963 .0245385
1117.561 .0245663
1118.159 .0245952
1118.758 .0246272
1119.357 .0246588
1119.957 .0246910
1120.557 .0247218
1121.157 .0247492
1121.758 .0247726
1122.360 .0247921
1122.962 .0248076
1123.564 .0248235
1124.167 .0248371
1124.771 .0248515
1125.375 .0248641
1125.980 .0248782
1126.585 .0248928
1127.191 .0249064
1127.797 .0249221
1128.404 .0249395
1129.012 .0249589
1129.620 .0249810
1130.229 .0250051
1130.838 .0250349
1131.448 .0250664
1132.058 .0250990
1132.669 .0251286
1133.281 .0251546
1133.894 .0251792
1134.507 .0252020
1135.120 .0252257
1135.735 .0252526
1136.350 .0252835
1136.965 .0253181
1137.582 .0253579
1138.199 .0253995
1138.816 .0254432
1139.435 .0254844
1140.054 .0255268
1140.674 .0255745
1141.294 .0256223
1141.916 .0256626
1142.538 .0255949
1143.160 .0257661
1143.784 .0260263
1144.408 .0259388
1145.033 .0256418
