Measurement Sequence started on: 14-45-04-498
Integration time: 36
Scans to Average: 2 
>>>>>Begin Spectral Data<<<<<
433.946 .0571235
434.870 .0499085
435.793 .0506854
436.715 .0496328
437.635 .0485890
438.555 .0491875
439.473 .0487134
440.389 .0485251
441.305 .0483495
442.219 .0482258
443.132 .0481480
444.044 .0480751
444.954 .0480183
445.863 .0479905
446.771 .0479836
447.678 .0479880
448.584 .0480055
449.488 .0480253
450.391 .0480408
451.293 .0480511
452.194 .0480462
453.094 .0480170
453.992 .0479754
454.890 .0479139
455.786 .0478411
456.681 .0477600
457.575 .0476691
458.468 .0475602
459.360 .0474437
460.250 .0473190
461.140 .0471879
462.028 .0470546
462.915 .0469188
463.801 .0467819
464.687 .0466451
465.571 .0465107
466.454 .0463812
467.335 .0462591
468.216 .0461491
469.096 .0460515
469.975 .0459689
470.853 .0458955
471.729 .0458325
472.605 .0457725
473.479 .0457130
474.353 .0456521
475.226 .0455874
476.097 .0455220
476.968 .0454582
477.838 .0453993
478.706 .0453447
479.574 .0452980
480.441 .0452580
481.306 .0452219
482.171 .0451905
483.035 .0451573
483.898 .0451206
484.760 .0450834
485.621 .0450474
486.481 .0450132
487.340 .0449850
488.198 .0449641
489.055 .0449488
489.912 .0449382
490.767 .0449306
491.622 .0449227
492.476 .0449119
493.329 .0448987
494.180 .0448813
495.032 .0448610
495.882 .0448381
496.731 .0448125
497.580 .0447866
498.427 .0447584
499.274 .0447227
500.120 .0446805
500.965 .0446314
501.809 .0445798
502.653 .0445238
503.495 .0444658
504.337 .0444083
505.178 .0443467
506.018 .0442773
506.858 .0442010
507.696 .0441173
508.534 .0440263
509.371 .0439270
510.208 .0438250
511.043 .0437224
511.878 .0436240
512.712 .0435327
513.545 .0434490
514.377 .0433759
515.209 .0433093
516.040 .0432445
516.870 .0431822
517.699 .0431256
518.528 .0430696
519.356 .0430156
520.183 .0429675
521.010 .0429233
521.836 .0428826
522.661 .0428456
523.485 .0428098
524.309 .0427767
525.132 .0427411
525.954 .0427079
526.776 .0426675
527.597 .0426303
528.417 .0425921
529.237 .0425521
530.056 .0425101
530.874 .0424684
531.692 .0424214
532.508 .0423764
533.325 .0423381
534.140 .0423078
534.955 .0422833
535.770 .0422704
536.583 .0422622
537.397 .0422589
538.209 .0422513
539.021 .0422387
539.832 .0422114
540.643 .0421760
541.453 .0421290
542.262 .0420687
543.071 .0420022
543.879 .0419329
544.687 .0418583
545.494 .0417823
546.300 .0417051
547.106 .0416276
547.911 .0415545
548.716 .0414917
549.520 .0414324
550.323 .0413799
551.126 .0413397
551.929 .0413089
552.731 .0412811
553.532 .0412572
554.332 .0412325
555.133 .0412091
555.932 .0411893
556.731 .0411679
557.530 .0411481
558.328 .0411374
559.125 .0411289
559.922 .0411203
560.719 .0411124
561.515 .0411010
562.310 .0410838
563.105 .0410589
563.899 .0410258
564.693 .0409842
565.487 .0409385
566.280 .0408921
567.072 .0408467
567.864 .0408056
568.655 .0407658
569.446 .0407272
570.236 .0406908
571.026 .0406531
571.816 .0406099
572.605 .0405629
573.393 .0405093
574.181 .0404498
574.969 .0403844
575.756 .0403157
576.543 .0402486
577.329 .0401839
578.115 .0401220
578.900 .0400638
579.685 .0400102
580.469 .0399612
581.253 .0399146
582.036 .0398724
582.820 .0398299
583.602 .0397885
584.384 .0397466
585.166 .0397043
585.947 .0396616
586.728 .0396187
587.509 .0395754
588.289 .0395347
589.069 .0394976
589.848 .0394641
590.627 .0394346
591.405 .0394089
592.183 .0393854
592.961 .0393620
593.738 .0393366
594.515 .0393088
595.291 .0392767
596.067 .0392417
596.843 .0392030
597.618 .0391616
598.393 .0391194
599.167 .0390773
599.941 .0390363
600.715 .0389972
601.488 .0389602
602.261 .0389246
603.034 .0388902
603.806 .0388574
604.578 .0388257
605.349 .0387957
606.121 .0387684
606.891 .0387430
607.662 .0387193
608.432 .0386977
609.201 .0386774
609.971 .0386585
610.740 .0386413
611.508 .0386245
612.277 .0386080
613.045 .0385913
613.812 .0385741
614.579 .0385555
615.346 .0385359
616.113 .0385145
616.879 .0384910
617.645 .0384652
618.411 .0384368
619.176 .0384056
619.941 .0383731
620.705 .0383392
621.470 .0383045
622.233 .0382696
622.997 .0382355
623.760 .0382014
624.523 .0381687
625.286 .0381360
626.048 .0381038
626.810 .0380710
627.572 .0380367
628.333 .0380014
629.095 .0379648
629.855 .0379276
630.616 .0378908
631.376 .0378550
632.136 .0378211
632.895 .0377889
633.655 .0377595
634.414 .0377315
635.172 .0377049
635.931 .0376785
636.689 .0376513
637.447 .0376238
638.204 .0375959
638.962 .0375679
639.718 .0375404
640.475 .0375149
641.231 .0374904
641.988 .0374675
642.743 .0374460
643.499 .0374246
644.254 .0374029
645.009 .0373807
645.764 .0373574
646.518 .0373331
647.272 .0373085
648.026 .0372845
648.780 .0372613
649.533 .0372405
650.286 .0372208
651.039 .0372026
651.792 .0371854
652.544 .0371691
653.296 .0371521
654.048 .0371348
654.799 .0371172
655.550 .0370987
656.301 .0370799
657.052 .0370607
657.802 .0370411
658.552 .0370213
659.302 .0370012
660.052 .0369806
660.801 .0369583
661.550 .0369352
662.299 .0369111
663.048 .0368860
663.796 .0368610
664.544 .0368354
665.292 .0368098
666.040 .0367850
666.787 .0367608
667.534 .0367359
668.281 .0367109
669.028 .0366857
669.774 .0366597
670.521 .0366332
671.266 .0366063
672.012 .0365797
672.758 .0365541
673.503 .0365294
674.248 .0365052
674.992 .0364813
675.737 .0364579
676.481 .0364345
677.225 .0364105
677.969 .0363865
678.712 .0363623
679.455 .0363388
680.199 .0363165
680.941 .0362960
681.684 .0362771
682.426 .0362600
683.168 .0362444
683.910 .0362298
684.652 .0362152
685.393 .0362008
686.134 .0361867
686.875 .0361727
687.616 .0361594
688.356 .0361463
689.097 .0361334
689.837 .0361211
690.576 .0361085
691.316 .0360954
692.055 .0360813
692.794 .0360661
693.533 .0360500
694.272 .0360335
695.010 .0360175
695.748 .0360016
696.486 .0359868
697.224 .0359733
697.962 .0359601
698.699 .0359472
699.436 .0359342
700.173 .0359205
700.909 .0359063
701.646 .0358919
702.382 .0358774
703.118 .0358631
703.853 .0358494
704.589 .0358358
705.324 .0358227
706.059 .0358094
706.794 .0357952
707.529 .0357800
708.263 .0357642
708.997 .0357477
709.731 .0357302
710.465 .0357123
711.198 .0356943
711.931 .0356760
712.664 .0356573
713.397 .0356381
714.130 .0356181
714.862 .0355976
715.594 .0355765
716.326 .0355549
717.058 .0355338
717.789 .0355129
718.520 .0354923
719.251 .0354725
719.982 .0354530
720.713 .0354339
721.443 .0354146
722.173 .0353952
722.903 .0353752
723.633 .0353550
724.362 .0353345
725.091 .0353138
725.820 .0352934
726.549 .0352736
727.278 .0352543
728.006 .0352356
728.734 .0352173
729.462 .0351989
730.190 .0351809
730.917 .0351632
731.644 .0351452
732.371 .0351274
733.098 .0351103
733.825 .0350936
734.551 .0350774
735.277 .0350621
736.003 .0350472
736.728 .0350331
737.454 .0350197
738.179 .0350068
738.904 .0349942
739.629 .0349822
740.353 .0349708
741.077 .0349595
741.801 .0349488
742.525 .0349376
743.249 .0349259
743.972 .0349134
744.695 .0349002
745.418 .0348857
746.141 .0348702
746.863 .0348543
747.585 .0348381
748.307 .0348220
749.029 .0348060
749.750 .0347905
750.472 .0347756
751.193 .0347614
751.913 .0347476
752.634 .0347340
753.354 .0347214
754.074 .0347094
754.794 .0346983
755.514 .0346882
756.233 .0346794
756.952 .0346713
757.671 .0346635
758.390 .0346559
759.108 .0346483
759.826 .0346404
760.544 .0346324
761.262 .0346242
761.979 .0346163
762.697 .0346083
763.414 .0346000
764.130 .0345916
764.847 .0345831
765.563 .0345742
766.279 .0345645
766.995 .0345542
767.710 .0345438
768.426 .0345333
769.141 .0345231
769.855 .0345132
770.570 .0345040
771.284 .0344951
771.998 .0344862
772.712 .0344771
773.426 .0344678
774.139 .0344583
774.852 .0344483
775.565 .0344382
776.277 .0344280
776.990 .0344180
777.702 .0344076
778.414 .0343973
779.125 .0343867
779.836 .0343754
780.547 .0343632
781.258 .0343503
781.969 .0343372
782.679 .0343238
783.389 .0343107
784.099 .0342982
784.808 .0342862
785.517 .0342750
786.226 .0342637
786.935 .0342522
787.643 .0342406
788.352 .0342284
789.060 .0342154
789.767 .0342018
790.475 .0341876
791.182 .0341726
791.889 .0341572
792.595 .0341415
793.301 .0341249
794.008 .0341078
794.713 .0340900
795.419 .0340713
796.124 .0340523
796.829 .0340327
797.534 .0340124
798.238 .0339925
798.942 .0339729
799.646 .0339532
800.350 .0339339
801.053 .0339155
801.756 .0338979
802.459 .0338812
803.162 .0338657
803.864 .0338507
804.566 .0338367
805.267 .0338234
805.969 .0338099
806.670 .0337966
807.371 .0337835
808.071 .0337704
808.772 .0337578
809.472 .0337452
810.171 .0337329
810.871 .0337211
811.570 .0337102
812.269 .0336997
812.967 .0336896
813.666 .0336797
814.364 .0336700
815.061 .0336607
815.759 .0336520
816.456 .0336433
817.153 .0336349
817.849 .0336267
818.545 .0336185
819.241 .0336102
819.937 .0336018
820.632 .0335932
821.327 .0335847
822.022 .0335758
822.717 .0335663
823.411 .0335561
824.105 .0335456
824.798 .0335343
825.491 .0335223
826.184 .0335094
826.877 .0334961
827.569 .0334827
828.261 .0334693
828.953 .0334558
829.645 .0334419
830.336 .0334277
831.027 .0334133
831.717 .0333978
832.407 .0333821
833.097 .0333659
833.787 .0333494
834.476 .0333329
835.165 .0333173
835.854 .0333023
836.542 .0332885
837.230 .0332754
837.918 .0332634
838.605 .0332521
839.292 .0332417
839.979 .0332320
840.665 .0332243
841.352 .0332182
842.037 .0332138
842.723 .0332103
843.408 .0332086
844.093 .0332073
844.777 .0332064
845.462 .0332050
846.145 .0332029
846.829 .0331997
847.512 .0331947
848.195 .0331883
848.878 .0331807
849.560 .0331718
850.242 .0331615
850.923 .0331493
851.605 .0331352
852.286 .0331188
852.966 .0331004
853.646 .0330803
854.326 .0330592
855.006 .0330374
855.685 .0330151
856.364 .0329931
857.043 .0329712
857.721 .0329501
858.399 .0329288
859.077 .0329077
859.754 .0328864
860.431 .0328645
861.107 .0328422
861.784 .0328200
862.459 .0327987
863.135 .0327784
863.810 .0327591
864.485 .0327414
865.160 .0327247
865.834 .0327097
866.508 .0326954
867.181 .0326817
867.854 .0326680
868.527 .0326542
869.199 .0326395
869.872 .0326245
870.543 .0326096
871.215 .0325949
871.886 .0325808
872.557 .0325671
873.227 .0325536
873.897 .0325402
874.567 .0325263
875.236 .0325121
875.905 .0324968
876.573 .0324804
877.242 .0324625
877.909 .0324436
878.577 .0324244
879.244 .0324047
879.911 .0323851
880.577 .0323659
881.243 .0323472
881.909 .0323283
882.575 .0323095
883.240 .0322908
883.904 .0322719
884.569 .0322535
885.232 .0322354
885.896 .0322180
886.559 .0322016
887.222 .0321860
887.885 .0321712
888.547 .0321569
889.208 .0321430
889.870 .0321285
890.531 .0321138
891.192 .0320992
891.852 .0320844
892.512 .0320701
893.171 .0320573
893.830 .0320461
894.489 .0320360
895.148 .0320270
895.806 .0320183
896.464 .0320096
897.121 .0320009
897.778 .0319914
898.434 .0319817
899.091 .0319718
899.747 .0319620
900.402 .0319523
901.057 .0319435
901.712 .0319357
902.366 .0319285
903.020 .0319219
903.674 .0319155
904.327 .0319091
904.980 .0319023
905.633 .0318953
906.285 .0318888
906.936 .0318827
907.588 .0318769
908.239 .0318716
908.889 .0318677
909.540 .0318646
910.190 .0318622
910.839 .0318610
911.488 .0318602
912.137 .0318598
912.785 .0318590
913.433 .0318575
914.081 .0318556
914.728 .0318530
915.375 .0318488
916.021 .0318435
916.668 .0318373
917.313 .0318300
917.959 .0318215
918.604 .0318129
919.248 .0318036
919.892 .0317932
920.536 .0317822
921.180 .0317705
921.823 .0317579
922.465 .0317447
923.108 .0317303
923.750 .0317154
924.391 .0317001
925.032 .0316839
925.673 .0316673
926.313 .0316508
926.953 .0316342
927.593 .0316166
928.232 .0315983
928.871 .0315789
929.510 .0315581
930.148 .0315354
930.786 .0315111
931.423 .0314848
932.060 .0314572
932.697 .0314279
933.333 .0313978
933.969 .0313670
934.604 .0313356
935.239 .0313038
935.874 .0312718
936.508 .0312395
937.142 .0312069
937.776 .0311740
938.409 .0311409
939.042 .0311071
939.674 .0310730
940.306 .0310380
940.938 .0310023
941.569 .0309661
942.200 .0309292
942.830 .0308917
943.460 .0308538
944.090 .0308157
944.720 .0307776
945.349 .0307397
945.977 .0307021
946.606 .0306646
947.233 .0306276
947.861 .0305910
948.488 .0305544
949.115 .0305183
949.741 .0304828
950.367 .0304473
950.993 .0304122
951.618 .0303778
952.243 .0303443
952.868 .0303119
953.492 .0302808
954.115 .0302506
954.739 .0302214
955.362 .0301932
955.984 .0301653
956.607 .0301376
957.229 .0301106
957.850 .0300842
958.471 .0300577
959.092 .0300316
959.713 .0300059
960.333 .0299804
960.952 .0299556
961.572 .0299314
962.191 .0299075
962.809 .0298846
963.428 .0298623
964.045 .0298403
964.663 .0298191
965.280 .0297988
965.897 .0297795
966.513 .0297613
967.129 .0297445
967.745 .0297287
968.361 .0297139
968.976 .0296998
969.590 .0296864
970.205 .0296731
970.818 .0296606
971.432 .0296484
972.045 .0296363
972.658 .0296248
973.271 .0296133
973.883 .0296017
974.495 .0295895
975.106 .0295765
975.717 .0295626
976.328 .0295468
976.938 .0295302
977.548 .0295130
978.158 .0294955
978.768 .0294781
979.377 .0294611
979.985 .0294446
980.594 .0294289
981.202 .0294136
981.809 .0293995
982.417 .0293874
983.024 .0293773
983.631 .0293693
984.237 .0293636
984.843 .0293607
985.449 .0293598
986.054 .0293601
986.659 .0293621
987.264 .0293651
987.868 .0293689
988.472 .0293736
989.076 .0293794
989.679 .0293867
990.282 .0293953
990.885 .0294049
991.487 .0294152
992.090 .0294257
992.691 .0294357
993.293 .0294450
993.894 .0294533
994.495 .0294612
995.095 .0294682
995.696 .0294747
996.296 .0294811
996.895 .0294868
997.494 .0294922
998.093 .0294967
998.692 .0295008
999.291 .0295043
999.889 .0295070
1000.487 .0295098
1001.084 .0295123
1001.681 .0295149
1002.278 .0295173
1002.875 .0295198
1003.471 .0295225
1004.067 .0295251
1004.663 .0295284
1005.258 .0295324
1005.854 .0295369
1006.449 .0295422
1007.043 .0295484
1007.638 .0295551
1008.232 .0295625
1008.826 .0295702
1009.419 .0295774
1010.012 .0295844
1010.605 .0295907
1011.198 .0295960
1011.791 .0296006
1012.383 .0296052
1012.975 .0296098
1013.566 .0296145
1014.158 .0296199
1014.749 .0296252
1015.340 .0296315
1015.931 .0296386
1016.521 .0296464
1017.111 .0296551
1017.701 .0296641
1018.291 .0296737
1018.880 .0296832
1019.470 .0296931
1020.059 .0297029
1020.647 .0297119
1021.236 .0297210
1021.824 .0297298
1022.412 .0297383
1023.000 .0297467
1023.588 .0297560
1024.175 .0297660
1024.762 .0297759
1025.349 .0297849
1025.936 .0297926
1026.523 .0297985
1027.109 .0298029
1027.695 .0298049
1028.281 .0298048
1028.867 .0298037
1029.452 .0298025
1030.038 .0298012
1030.623 .0298016
1031.208 .0298039
1031.792 .0298081
1032.377 .0298137
1032.961 .0298202
1033.546 .0298266
1034.130 .0298332
1034.714 .0298392
1035.297 .0298446
1035.881 .0298499
1036.464 .0298552
1037.047 .0298608
1037.630 .0298674
1038.213 .0298753
1038.796 .0298841
1039.378 .0298930
1039.961 .0299016
1040.543 .0299084
1041.125 .0299135
1041.707 .0299163
1042.289 .0299161
1042.871 .0299137
1043.452 .0299092
1044.034 .0299030
1044.615 .0298959
1045.196 .0298889
1045.777 .0298819
1046.358 .0298752
1046.939 .0298677
1047.520 .0298589
1048.101 .0298484
1048.681 .0298364
1049.262 .0298229
1049.842 .0298082
1050.422 .0297940
1051.002 .0297802
1051.582 .0297673
1052.162 .0297558
1052.742 .0297454
1053.322 .0297350
1053.902 .0297238
1054.482 .0297116
1055.061 .0296979
1055.641 .0296828
1056.220 .0296672
1056.800 .0296515
1057.379 .0296367
1057.958 .0296230
1058.538 .0296101
1059.117 .0295978
1059.696 .0295871
1060.275 .0295763
1060.854 .0295647
1061.433 .0295527
1062.012 .0295418
1062.592 .0295307
1063.171 .0295204
1063.750 .0295121
1064.329 .0295049
1064.908 .0294991
1065.487 .0294926
1066.066 .0294854
1066.645 .0294776
1067.224 .0294696
1067.803 .0294600
1068.382 .0294497
1068.961 .0294404
1069.540 .0294309
1070.119 .0294210
1070.698 .0294127
1071.278 .0294045
1071.857 .0293955
1072.436 .0293851
1073.016 .0293727
1073.595 .0293571
1074.175 .0293402
1074.754 .0293200
1075.334 .0292994
1075.913 .0292791
1076.493 .0292603
1077.073 .0292425
1077.653 .0292271
1078.233 .0292149
1078.813 .0292042
1079.393 .0291944
1079.974 .0291861
1080.554 .0291768
1081.135 .0291680
1081.716 .0291586
1082.296 .0291507
1082.877 .0291453
1083.458 .0291427
1084.040 .0291418
1084.621 .0291437
1085.202 .0291477
1085.784 .0291531
1086.366 .0291576
1086.948 .0291615
1087.530 .0291632
1088.112 .0291631
1088.695 .0291602
1089.277 .0291552
1089.860 .0291494
1090.443 .0291440
1091.026 .0291375
1091.610 .0291308
1092.193 .0291237
1092.777 .0291156
1093.361 .0291061
1093.946 .0290953
1094.530 .0290817
1095.115 .0290656
1095.700 .0290475
1096.285 .0290277
1096.871 .0290069
1097.456 .0289872
1098.042 .0289673
1098.628 .0289496
1099.215 .0289324
1099.802 .0289162
1100.389 .0289012
1100.976 .0288869
1101.564 .0288732
1102.152 .0288589
1102.740 .0288458
1103.329 .0288351
1103.917 .0288266
1104.507 .0288239
1105.096 .0288264
1105.686 .0288350
1106.276 .0288473
1106.867 .0288627
1107.457 .0288783
1108.049 .0288934
1108.640 .0289047
1109.232 .0289137
1109.825 .0289192
1110.417 .0289251
1111.010 .0289330
1111.604 .0289454
1112.198 .0289649
1112.792 .0289899
1113.387 .0290189
1113.982 .0290536
1114.577 .0290877
1115.173 .0291217
1115.769 .0291518
1116.366 .0291797
1116.963 .0292055
1117.561 .0292300
1118.159 .0292551
1118.758 .0292819
1119.357 .0293111
1119.957 .0293413
1120.557 .0293685
1121.157 .0293922
1121.758 .0294094
1122.360 .0294200
1122.962 .0294233
1123.564 .0294201
1124.167 .0294145
1124.771 .0294105
1125.375 .0294090
1125.980 .0294121
1126.585 .0294222
1127.191 .0294389
1127.797 .0294648
1128.404 .0294966
1129.012 .0295344
1129.620 .0295809
1130.229 .0296346
1130.838 .0296939
1131.448 .0297558
1132.058 .0298232
1132.669 .0298909
1133.281 .0299565
1133.894 .0300218
1134.507 .0300797
1135.120 .0301363
1135.735 .0301885
1136.350 .0302392
1136.965 .0302917
1137.582 .0303452
1138.199 .0303995
1138.816 .0304518
1139.435 .0305042
1140.054 .0305546
1140.674 .0306098
1141.294 .0306812
1141.916 .0307759
1142.538 .0306767
1143.160 .0307722
1143.784 .0310738
1144.408 .0314344
1145.033 .0318430
