Measurement Sequence started on: 14-45-04-498
Integration time: 36
Scans to Average: 2 
>>>>>Begin Spectral Data<<<<<
433.946 .0441884
434.870 .0460227
435.793 .0425951
436.715 .0419330
437.635 .0413167
438.555 .0408968
439.473 .0402680
440.389 .0396640
441.305 .0392330
442.219 .0388713
443.132 .0385727
444.044 .0383230
444.954 .0381434
445.863 .0379999
446.771 .0378790
447.678 .0377921
448.584 .0377356
449.488 .0376906
450.391 .0376600
451.293 .0376208
452.194 .0375744
453.094 .0375157
453.992 .0374420
454.890 .0373511
455.786 .0372605
456.681 .0371675
457.575 .0370777
458.468 .0369978
459.360 .0369290
460.250 .0368603
461.140 .0367922
462.028 .0367246
462.915 .0366559
463.801 .0365909
464.687 .0365329
465.571 .0364813
466.454 .0364473
467.335 .0364257
468.216 .0364163
469.096 .0364185
469.975 .0364274
470.853 .0364368
471.729 .0364446
472.605 .0364492
473.479 .0364469
474.353 .0364400
475.226 .0364308
476.097 .0364194
476.968 .0364069
477.838 .0363937
478.706 .0363807
479.574 .0363706
480.441 .0363614
481.306 .0363506
482.171 .0363371
483.035 .0363201
483.898 .0362986
484.760 .0362775
485.621 .0362588
486.481 .0362424
487.340 .0362296
488.198 .0362213
489.055 .0362149
489.912 .0362074
490.767 .0361962
491.622 .0361785
492.476 .0361524
493.329 .0361153
494.180 .0360643
495.032 .0360079
495.882 .0359511
496.731 .0358977
497.580 .0358522
498.427 .0358181
499.274 .0357897
500.120 .0357675
500.965 .0357467
501.809 .0357228
502.653 .0356910
503.495 .0356505
504.337 .0356004
505.178 .0355429
506.018 .0354845
506.858 .0354262
507.696 .0353735
508.534 .0353297
509.371 .0352862
510.208 .0352386
511.043 .0351842
511.878 .0351185
512.712 .0350351
513.545 .0349367
514.377 .0348234
515.209 .0346985
516.040 .0345713
516.870 .0344440
517.699 .0343205
518.528 .0342034
519.356 .0340917
520.183 .0339744
521.010 .0338523
521.836 .0337224
522.661 .0335830
523.485 .0334377
524.309 .0332917
525.132 .0331386
525.954 .0329894
526.776 .0328455
527.597 .0327046
528.417 .0325634
529.237 .0324342
530.056 .0323098
530.874 .0321982
531.692 .0321004
532.508 .0320245
533.325 .0319753
534.140 .0319567
534.955 .0319552
535.770 .0319682
536.583 .0319913
537.397 .0320268
538.209 .0320606
539.021 .0321056
539.832 .0321508
540.643 .0322018
541.453 .0322553
542.262 .0323093
543.071 .0323599
543.879 .0324081
544.687 .0324501
545.494 .0324871
546.300 .0325135
547.106 .0325360
547.911 .0325561
548.716 .0325856
549.520 .0326156
550.323 .0326515
551.126 .0326841
551.929 .0327182
552.731 .0327433
553.532 .0327623
554.332 .0327727
555.133 .0327777
555.932 .0327774
556.731 .0327718
557.530 .0327645
558.328 .0327620
559.125 .0327616
559.922 .0327673
560.719 .0327709
561.515 .0327738
562.310 .0327685
563.105 .0327600
563.899 .0327452
564.693 .0327258
565.487 .0327025
566.280 .0326783
567.072 .0326532
567.864 .0326280
568.655 .0326035
569.446 .0325791
570.236 .0325517
571.026 .0325223
571.816 .0324856
572.605 .0324438
573.393 .0323978
574.181 .0323495
574.969 .0323005
575.756 .0322549
576.543 .0322124
577.329 .0321759
578.115 .0321459
578.900 .0321188
579.685 .0320933
580.469 .0320686
581.253 .0320444
582.036 .0320171
582.820 .0319895
583.602 .0319629
584.384 .0319384
585.166 .0319180
585.947 .0319008
586.728 .0318861
587.509 .0318738
588.289 .0318613
589.069 .0318470
589.848 .0318294
590.627 .0318097
591.405 .0317884
592.183 .0317663
592.961 .0317442
593.738 .0317230
594.515 .0317024
595.291 .0316822
596.067 .0316614
596.843 .0316398
597.618 .0316162
598.393 .0315915
599.167 .0315664
599.941 .0315405
600.715 .0315156
601.488 .0314927
602.261 .0314715
603.034 .0314531
603.806 .0314358
604.578 .0314185
605.349 .0314015
606.121 .0313845
606.891 .0313664
607.662 .0313476
608.432 .0313294
609.201 .0313115
609.971 .0312938
610.740 .0312766
611.508 .0312585
612.277 .0312400
613.045 .0312214
613.812 .0312022
614.579 .0311828
615.346 .0311641
616.113 .0311461
616.879 .0311294
617.645 .0311148
618.411 .0311015
619.176 .0310892
619.941 .0310778
620.705 .0310663
621.470 .0310541
622.233 .0310415
622.997 .0310283
623.760 .0310143
624.523 .0310003
625.286 .0309859
626.048 .0309709
626.810 .0309552
627.572 .0309379
628.333 .0309192
629.095 .0308990
629.855 .0308774
630.616 .0308543
631.376 .0308309
632.136 .0308079
632.895 .0307852
633.655 .0307638
634.414 .0307434
635.172 .0307239
635.931 .0307054
636.689 .0306871
637.447 .0306689
638.204 .0306506
638.962 .0306328
639.718 .0306153
640.475 .0305982
641.231 .0305821
641.988 .0305664
642.743 .0305511
643.499 .0305358
644.254 .0305204
645.009 .0305047
645.764 .0304893
646.518 .0304742
647.272 .0304598
648.026 .0304462
648.780 .0304341
649.533 .0304235
650.286 .0304148
651.039 .0304076
651.792 .0304015
652.544 .0303962
653.296 .0303918
654.048 .0303880
654.799 .0303851
655.550 .0303830
656.301 .0303822
657.052 .0303821
657.802 .0303828
658.552 .0303835
659.302 .0303840
660.052 .0303838
660.801 .0303822
661.550 .0303789
662.299 .0303743
663.048 .0303678
663.796 .0303601
664.544 .0303509
665.292 .0303412
666.040 .0303305
666.787 .0303189
667.534 .0303061
668.281 .0302920
669.028 .0302766
669.774 .0302599
670.521 .0302418
671.266 .0302236
672.012 .0302055
672.758 .0301881
673.503 .0301715
674.248 .0301561
674.992 .0301418
675.737 .0301284
676.481 .0301158
677.225 .0301037
677.969 .0300917
678.712 .0300804
679.455 .0300693
680.199 .0300591
680.941 .0300494
681.684 .0300404
682.426 .0300319
683.168 .0300240
683.910 .0300153
684.652 .0300062
685.393 .0299965
686.134 .0299863
686.875 .0299756
687.616 .0299652
688.356 .0299552
689.097 .0299455
689.837 .0299366
690.576 .0299279
691.316 .0299187
692.055 .0299098
692.794 .0299000
693.533 .0298895
694.272 .0298785
695.010 .0298675
695.748 .0298562
696.486 .0298458
697.224 .0298361
697.962 .0298269
698.699 .0298184
699.436 .0298103
700.173 .0298020
700.909 .0297931
701.646 .0297839
702.382 .0297736
703.118 .0297624
703.853 .0297504
704.589 .0297370
705.324 .0297229
706.059 .0297084
706.794 .0296931
707.529 .0296775
708.263 .0296618
708.997 .0296461
709.731 .0296299
710.465 .0296133
711.198 .0295961
711.931 .0295785
712.664 .0295605
713.397 .0295422
714.130 .0295238
714.862 .0295060
715.594 .0294890
716.326 .0294729
717.058 .0294579
717.789 .0294445
718.520 .0294321
719.251 .0294208
719.982 .0294106
720.713 .0294016
721.443 .0293934
722.173 .0293860
722.903 .0293795
723.633 .0293733
724.362 .0293673
725.091 .0293611
725.820 .0293541
726.549 .0293468
727.278 .0293389
728.006 .0293302
728.734 .0293211
729.462 .0293119
730.190 .0293022
730.917 .0292925
731.644 .0292825
732.371 .0292718
733.098 .0292600
733.825 .0292472
734.551 .0292337
735.277 .0292193
736.003 .0292045
736.728 .0291894
737.454 .0291749
738.179 .0291617
738.904 .0291490
739.629 .0291376
740.353 .0291274
741.077 .0291186
741.801 .0291106
742.525 .0291025
743.249 .0290945
743.972 .0290865
744.695 .0290782
745.418 .0290694
746.141 .0290598
746.863 .0290502
747.585 .0290404
748.307 .0290305
749.029 .0290208
749.750 .0290104
750.472 .0289998
751.193 .0289886
751.913 .0289761
752.634 .0289625
753.354 .0289479
754.074 .0289330
754.794 .0289184
755.514 .0289043
756.233 .0288907
756.952 .0288778
757.671 .0288661
758.390 .0288552
759.108 .0288449
759.826 .0288351
760.544 .0288258
761.262 .0288169
761.979 .0288086
762.697 .0288005
763.414 .0287932
764.130 .0287868
764.847 .0287809
765.563 .0287755
766.279 .0287703
766.995 .0287656
767.710 .0287608
768.426 .0287564
769.141 .0287521
769.855 .0287479
770.570 .0287434
771.284 .0287391
771.998 .0287349
772.712 .0287307
773.426 .0287267
774.139 .0287234
774.852 .0287202
775.565 .0287174
776.277 .0287143
776.990 .0287114
777.702 .0287079
778.414 .0287038
779.125 .0286987
779.836 .0286926
780.547 .0286858
781.258 .0286783
781.969 .0286700
782.679 .0286619
783.389 .0286537
784.099 .0286454
784.808 .0286370
785.517 .0286287
786.226 .0286198
786.935 .0286110
787.643 .0286019
788.352 .0285932
789.060 .0285840
789.767 .0285751
790.475 .0285662
791.182 .0285574
791.889 .0285488
792.595 .0285402
793.301 .0285320
794.008 .0285244
794.713 .0285165
795.419 .0285088
796.124 .0285007
796.829 .0284923
797.534 .0284829
798.238 .0284723
798.942 .0284606
799.646 .0284480
800.350 .0284345
801.053 .0284208
801.756 .0284069
802.459 .0283932
803.162 .0283796
803.864 .0283667
804.566 .0283546
805.267 .0283429
805.969 .0283318
806.670 .0283222
807.371 .0283138
808.071 .0283073
808.772 .0283027
809.472 .0283000
810.171 .0282990
810.871 .0282994
811.570 .0283002
812.269 .0283015
812.967 .0283031
813.666 .0283048
814.364 .0283058
815.061 .0283068
815.759 .0283073
816.456 .0283071
817.153 .0283062
817.849 .0283042
818.545 .0283005
819.241 .0282948
819.937 .0282874
820.632 .0282784
821.327 .0282684
822.022 .0282583
822.717 .0282482
823.411 .0282387
824.105 .0282299
824.798 .0282213
825.491 .0282129
826.184 .0282046
826.877 .0281960
827.569 .0281867
828.261 .0281766
828.953 .0281657
829.645 .0281542
830.336 .0281421
831.027 .0281293
831.717 .0281160
832.407 .0281021
833.097 .0280869
833.787 .0280706
834.476 .0280529
835.165 .0280341
835.854 .0280144
836.542 .0279940
837.230 .0279734
837.918 .0279531
838.605 .0279334
839.292 .0279149
839.979 .0278977
840.665 .0278820
841.352 .0278677
842.037 .0278545
842.723 .0278418
843.408 .0278296
844.093 .0278175
844.777 .0278057
845.462 .0277940
846.145 .0277827
846.829 .0277717
847.512 .0277615
848.195 .0277519
848.878 .0277432
849.560 .0277353
850.242 .0277277
850.923 .0277201
851.605 .0277120
852.286 .0277029
852.966 .0276927
853.646 .0276818
854.326 .0276706
855.006 .0276597
855.685 .0276492
856.364 .0276394
857.043 .0276305
857.721 .0276227
858.399 .0276152
859.077 .0276075
859.754 .0275996
860.431 .0275909
861.107 .0275809
861.784 .0275699
862.459 .0275581
863.135 .0275464
863.810 .0275347
864.485 .0275235
865.160 .0275125
865.834 .0275025
866.508 .0274931
867.181 .0274843
867.854 .0274765
868.527 .0274694
869.199 .0274629
869.872 .0274577
870.543 .0274540
871.215 .0274519
871.886 .0274512
872.557 .0274521
873.227 .0274537
873.897 .0274563
874.567 .0274590
875.236 .0274618
875.905 .0274650
876.573 .0274689
877.242 .0274725
877.909 .0274758
878.577 .0274789
879.244 .0274811
879.911 .0274817
880.577 .0274807
881.243 .0274774
881.909 .0274719
882.575 .0274638
883.240 .0274532
883.904 .0274407
884.569 .0274268
885.232 .0274110
885.896 .0273935
886.559 .0273749
887.222 .0273545
887.885 .0273328
888.547 .0273102
889.208 .0272870
889.870 .0272639
890.531 .0272413
891.192 .0272196
891.852 .0271993
892.512 .0271805
893.171 .0271628
893.830 .0271468
894.489 .0271319
895.148 .0271174
895.806 .0271032
896.464 .0270896
897.121 .0270761
897.778 .0270625
898.434 .0270488
899.091 .0270344
899.747 .0270195
900.402 .0270039
901.057 .0269868
901.712 .0269688
902.366 .0269500
903.020 .0269301
903.674 .0269090
904.327 .0268874
904.980 .0268655
905.633 .0268437
906.285 .0268228
906.936 .0268031
907.588 .0267845
908.239 .0267675
908.889 .0267521
909.540 .0267380
910.190 .0267252
910.839 .0267134
911.488 .0267025
912.137 .0266925
912.785 .0266832
913.433 .0266745
914.081 .0266671
914.728 .0266607
915.375 .0266547
916.021 .0266492
916.668 .0266444
917.313 .0266394
917.959 .0266347
918.604 .0266300
919.248 .0266259
919.892 .0266226
920.536 .0266200
921.180 .0266184
921.823 .0266177
922.465 .0266177
923.108 .0266173
923.750 .0266164
924.391 .0266148
925.032 .0266117
925.673 .0266077
926.313 .0266029
926.953 .0265977
927.593 .0265923
928.232 .0265866
928.871 .0265810
929.510 .0265752
930.148 .0265686
930.786 .0265608
931.423 .0265520
932.060 .0265423
932.697 .0265315
933.333 .0265200
933.969 .0265084
934.604 .0264974
935.239 .0264865
935.874 .0264764
936.508 .0264667
937.142 .0264573
937.776 .0264473
938.409 .0264365
939.042 .0264245
939.674 .0264110
940.306 .0263964
940.938 .0263812
941.569 .0263657
942.200 .0263505
942.830 .0263353
943.460 .0263202
944.090 .0263050
944.720 .0262894
945.349 .0262730
945.977 .0262555
946.606 .0262371
947.233 .0262177
947.861 .0261971
948.488 .0261758
949.115 .0261540
949.741 .0261321
950.367 .0261102
950.993 .0260884
951.618 .0260668
952.243 .0260457
952.868 .0260247
953.492 .0260038
954.115 .0259831
954.739 .0259625
955.362 .0259417
955.984 .0259207
956.607 .0258997
957.229 .0258784
957.850 .0258570
958.471 .0258357
959.092 .0258140
959.713 .0257922
960.333 .0257703
960.952 .0257481
961.572 .0257261
962.191 .0257042
962.809 .0256819
963.428 .0256596
964.045 .0256371
964.663 .0256144
965.280 .0255914
965.897 .0255681
966.513 .0255450
967.129 .0255221
967.745 .0254999
968.361 .0254788
968.976 .0254588
969.590 .0254406
970.205 .0254238
970.818 .0254082
971.432 .0253941
972.045 .0253808
972.658 .0253685
973.271 .0253568
973.883 .0253458
974.495 .0253355
975.106 .0253260
975.717 .0253180
976.328 .0253113
976.938 .0253059
977.548 .0253022
978.158 .0252998
978.768 .0252987
979.377 .0252987
979.985 .0252996
980.594 .0253011
981.202 .0253033
981.809 .0253057
982.417 .0253084
983.024 .0253116
983.631 .0253152
984.237 .0253189
984.843 .0253233
985.449 .0253280
986.054 .0253325
986.659 .0253374
987.264 .0253427
987.868 .0253475
988.472 .0253525
989.076 .0253577
989.679 .0253629
990.282 .0253682
990.885 .0253735
991.487 .0253783
992.090 .0253831
992.691 .0253875
993.293 .0253910
993.894 .0253941
994.495 .0253972
995.095 .0253994
995.696 .0254014
996.296 .0254030
996.895 .0254042
997.494 .0254047
998.093 .0254054
998.692 .0254062
999.291 .0254075
999.889 .0254090
1000.487 .0254110
1001.084 .0254139
1001.681 .0254175
1002.278 .0254212
1002.875 .0254251
1003.471 .0254291
1004.067 .0254331
1004.663 .0254368
1005.258 .0254406
1005.854 .0254449
1006.449 .0254501
1007.043 .0254557
1007.638 .0254616
1008.232 .0254678
1008.826 .0254742
1009.419 .0254802
1010.012 .0254860
1010.605 .0254914
1011.198 .0254960
1011.791 .0255001
1012.383 .0255041
1012.975 .0255083
1013.566 .0255128
1014.158 .0255178
1014.749 .0255230
1015.340 .0255289
1015.931 .0255347
1016.521 .0255402
1017.111 .0255451
1017.701 .0255496
1018.291 .0255528
1018.880 .0255534
1019.470 .0255519
1020.059 .0255482
1020.647 .0255419
1021.236 .0255341
1021.824 .0255245
1022.412 .0255134
1023.000 .0255010
1023.588 .0254870
1024.175 .0254710
1024.762 .0254532
1025.349 .0254337
1025.936 .0254123
1026.523 .0253902
1027.109 .0253685
1027.695 .0253476
1028.281 .0253286
1028.867 .0253122
1029.452 .0252982
1030.038 .0252862
1030.623 .0252754
1031.208 .0252657
1031.792 .0252572
1032.377 .0252496
1032.961 .0252427
1033.546 .0252381
1034.130 .0252356
1034.714 .0252354
1035.297 .0252366
1035.881 .0252387
1036.464 .0252412
1037.047 .0252436
1037.630 .0252447
1038.213 .0252447
1038.796 .0252447
1039.378 .0252445
1039.961 .0252438
1040.543 .0252438
1041.125 .0252434
1041.707 .0252432
1042.289 .0252422
1042.871 .0252407
1043.452 .0252381
1044.034 .0252351
1044.615 .0252317
1045.196 .0252280
1045.777 .0252248
1046.358 .0252210
1046.939 .0252160
1047.520 .0252098
1048.101 .0252017
1048.681 .0251910
1049.262 .0251781
1049.842 .0251645
1050.422 .0251507
1051.002 .0251378
1051.582 .0251252
1052.162 .0251140
1052.742 .0251044
1053.322 .0250963
1053.902 .0250893
1054.482 .0250823
1055.061 .0250767
1055.641 .0250715
1056.220 .0250669
1056.800 .0250623
1057.379 .0250581
1057.958 .0250551
1058.538 .0250523
1059.117 .0250505
1059.696 .0250493
1060.275 .0250487
1060.854 .0250494
1061.433 .0250510
1062.012 .0250538
1062.592 .0250564
1063.171 .0250591
1063.750 .0250614
1064.329 .0250636
1064.908 .0250647
1065.487 .0250653
1066.066 .0250656
1066.645 .0250670
1067.224 .0250705
1067.803 .0250738
1068.382 .0250786
1068.961 .0250849
1069.540 .0250917
1070.119 .0250986
1070.698 .0251043
1071.278 .0251099
1071.857 .0251143
1072.436 .0251188
1073.016 .0251226
1073.595 .0251260
1074.175 .0251304
1074.754 .0251357
1075.334 .0251416
1075.913 .0251476
1076.493 .0251538
1077.073 .0251598
1077.653 .0251654
1078.233 .0251702
1078.813 .0251737
1079.393 .0251767
1079.974 .0251779
1080.554 .0251789
1081.135 .0251787
1081.716 .0251779
1082.296 .0251777
1082.877 .0251774
1083.458 .0251769
1084.040 .0251761
1084.621 .0251760
1085.202 .0251748
1085.784 .0251740
1086.366 .0251738
1086.948 .0251742
1087.530 .0251756
1088.112 .0251795
1088.695 .0251836
1089.277 .0251890
1089.860 .0251959
1090.443 .0252029
1091.026 .0252099
1091.610 .0252187
1092.193 .0252268
1092.777 .0252359
1093.361 .0252468
1093.946 .0252577
1094.530 .0252682
1095.115 .0252801
1095.700 .0252912
1096.285 .0253017
1096.871 .0253090
1097.456 .0253140
1098.042 .0253157
1098.628 .0253153
1099.215 .0253117
1099.802 .0253046
1100.389 .0252970
1100.976 .0252876
1101.564 .0252767
1102.152 .0252643
1102.740 .0252509
1103.329 .0252379
1103.917 .0252251
1104.507 .0252126
1105.096 .0252015
1105.686 .0251948
1106.276 .0251926
1106.867 .0251966
1107.457 .0252079
1108.049 .0252253
1108.640 .0252486
1109.232 .0252748
1109.825 .0253044
1110.417 .0253335
1111.010 .0253612
1111.604 .0253863
1112.198 .0254091
1112.792 .0254303
1113.387 .0254480
1113.982 .0254635
1114.577 .0254794
1115.173 .0254944
1115.769 .0255076
1116.366 .0255171
1116.963 .0255224
1117.561 .0255232
1118.159 .0255185
1118.758 .0255068
1119.357 .0254918
1119.957 .0254749
1120.557 .0254572
1121.157 .0254415
1121.758 .0254298
1122.360 .0254201
1122.962 .0254113
1123.564 .0254048
1124.167 .0253988
1124.771 .0253917
1125.375 .0253837
1125.980 .0253731
1126.585 .0253641
1127.191 .0253561
1127.797 .0253504
1128.404 .0253465
1129.012 .0253507
1129.620 .0253596
1130.229 .0253729
1130.838 .0253905
1131.448 .0254130
1132.058 .0254389
1132.669 .0254682
1133.281 .0254990
1133.894 .0255299
1134.507 .0255595
1135.120 .0255921
1135.735 .0256262
1136.350 .0256665
1136.965 .0257090
1137.582 .0257585
1138.199 .0258132
1138.816 .0258718
1139.435 .0259302
1140.054 .0259887
1140.674 .0260545
1141.294 .0261362
1141.916 .0262242
1142.538 .0261670
1143.160 .0262669
1143.784 .0265183
1144.408 .0269267
1145.033 .0268561
