Measurement Sequence started on: 14-45-04-498
Integration time: 36
Scans to Average: 2 
>>>>>Begin Spectral Data<<<<<
433.946 .0475452
434.870 .0510292
435.793 .0477479
436.715 .0458816
437.635 .0429359
438.555 .0433711
439.473 .0424353
440.389 .0415479
441.305 .0408961
442.219 .0403985
443.132 .0400483
444.044 .0397912
444.954 .0396206
445.863 .0395332
446.771 .0395294
447.678 .0395946
448.584 .0397032
449.488 .0397988
450.391 .0398748
451.293 .0399057
452.194 .0398938
453.094 .0398453
453.992 .0397626
454.890 .0396546
455.786 .0395339
456.681 .0394028
457.575 .0392652
458.468 .0391233
459.360 .0389742
460.250 .0388101
461.140 .0386355
462.028 .0384555
462.915 .0382743
463.801 .0380970
464.687 .0379286
465.571 .0377669
466.454 .0376168
467.335 .0374727
468.216 .0373353
469.096 .0372053
469.975 .0370877
470.853 .0369868
471.729 .0368925
472.605 .0368077
473.479 .0367310
474.353 .0366624
475.226 .0365964
476.097 .0365292
476.968 .0364639
477.838 .0363975
478.706 .0363301
479.574 .0362656
480.441 .0362060
481.306 .0361519
482.171 .0361063
483.035 .0360665
483.898 .0360338
484.760 .0360075
485.621 .0359836
486.481 .0359642
487.340 .0359450
488.198 .0359290
489.055 .0359070
489.912 .0358807
490.767 .0358520
491.622 .0358162
492.476 .0357763
493.329 .0357348
494.180 .0356945
495.032 .0356542
495.882 .0356165
496.731 .0355828
497.580 .0355511
498.427 .0355192
499.274 .0354816
500.120 .0354371
500.965 .0353885
501.809 .0353395
502.653 .0352865
503.495 .0352361
504.337 .0351907
505.178 .0351456
506.018 .0351000
506.858 .0350506
507.696 .0349981
508.534 .0349388
509.371 .0348767
510.208 .0348099
511.043 .0347403
511.878 .0346715
512.712 .0346070
513.545 .0345508
514.377 .0345019
515.209 .0344512
516.040 .0343995
516.870 .0343451
517.699 .0342931
518.528 .0342403
519.356 .0342008
520.183 .0341770
521.010 .0341739
521.836 .0341885
522.661 .0342178
523.485 .0342568
524.309 .0343035
525.132 .0343463
525.954 .0343849
526.776 .0344099
527.597 .0344352
528.417 .0344506
529.237 .0344745
530.056 .0344971
530.874 .0345224
531.692 .0345449
532.508 .0345686
533.325 .0345855
534.140 .0345822
534.955 .0345608
535.770 .0345293
536.583 .0344765
537.397 .0344095
538.209 .0343273
539.021 .0342453
539.832 .0341532
540.643 .0340666
541.453 .0339789
542.262 .0338964
543.071 .0338268
543.879 .0337655
544.687 .0337111
545.494 .0336679
546.300 .0336337
547.106 .0335893
547.911 .0335443
548.716 .0334994
549.520 .0334387
550.323 .0333763
551.126 .0333177
551.929 .0332625
552.731 .0332117
553.532 .0331717
554.332 .0331413
555.133 .0331148
555.932 .0330937
556.731 .0330631
557.530 .0330297
558.328 .0329944
559.125 .0329547
559.922 .0329136
560.719 .0328781
561.515 .0328454
562.310 .0328158
563.105 .0327918
563.899 .0327741
564.693 .0327595
565.487 .0327482
566.280 .0327370
567.072 .0327289
567.864 .0327174
568.655 .0327010
569.446 .0326797
570.236 .0326549
571.026 .0326221
571.816 .0325840
572.605 .0325425
573.393 .0324991
574.181 .0324562
574.969 .0324154
575.756 .0323785
576.543 .0323436
577.329 .0323096
578.115 .0322727
578.900 .0322330
579.685 .0321910
580.469 .0321459
581.253 .0321018
582.036 .0320617
582.820 .0320267
583.602 .0319986
584.384 .0319760
585.166 .0319568
585.947 .0319386
586.728 .0319191
587.509 .0318976
588.289 .0318751
589.069 .0318529
589.848 .0318334
590.627 .0318188
591.405 .0318111
592.183 .0318086
592.961 .0318100
593.738 .0318139
594.515 .0318164
595.291 .0318162
596.067 .0318117
596.843 .0318027
597.618 .0317899
598.393 .0317756
599.167 .0317601
599.941 .0317449
600.715 .0317312
601.488 .0317199
602.261 .0317101
603.034 .0317011
603.806 .0316924
604.578 .0316827
605.349 .0316724
606.121 .0316607
606.891 .0316483
607.662 .0316359
608.432 .0316244
609.201 .0316147
609.971 .0316067
610.740 .0316009
611.508 .0315971
612.277 .0315947
613.045 .0315927
613.812 .0315905
614.579 .0315860
615.346 .0315788
616.113 .0315697
616.879 .0315576
617.645 .0315436
618.411 .0315274
619.176 .0315105
619.941 .0314931
620.705 .0314751
621.470 .0314569
622.233 .0314382
622.997 .0314200
623.760 .0314011
624.523 .0313814
625.286 .0313616
626.048 .0313416
626.810 .0313216
627.572 .0313020
628.333 .0312832
629.095 .0312656
629.855 .0312487
630.616 .0312326
631.376 .0312181
632.136 .0312053
632.895 .0311935
633.655 .0311837
634.414 .0311754
635.172 .0311685
635.931 .0311618
636.689 .0311560
637.447 .0311505
638.204 .0311449
638.962 .0311390
639.718 .0311319
640.475 .0311245
641.231 .0311162
641.988 .0311063
642.743 .0310961
643.499 .0310846
644.254 .0310725
645.009 .0310584
645.764 .0310426
646.518 .0310261
647.272 .0310080
648.026 .0309893
648.780 .0309703
649.533 .0309517
650.286 .0309334
651.039 .0309153
651.792 .0308982
652.544 .0308816
653.296 .0308647
654.048 .0308475
654.799 .0308289
655.550 .0308097
656.301 .0307906
657.052 .0307712
657.802 .0307531
658.552 .0307367
659.302 .0307215
660.052 .0307076
660.801 .0306951
661.550 .0306838
662.299 .0306723
663.048 .0306612
663.796 .0306502
664.544 .0306385
665.292 .0306275
666.040 .0306170
666.787 .0306077
667.534 .0305999
668.281 .0305926
669.028 .0305854
669.774 .0305785
670.521 .0305711
671.266 .0305625
672.012 .0305532
672.758 .0305432
673.503 .0305322
674.248 .0305202
674.992 .0305082
675.737 .0304960
676.481 .0304839
677.225 .0304718
677.969 .0304597
678.712 .0304480
679.455 .0304364
680.199 .0304248
680.941 .0304141
681.684 .0304042
682.426 .0303950
683.168 .0303860
683.910 .0303781
684.652 .0303706
685.393 .0303634
686.134 .0303565
686.875 .0303499
687.616 .0303432
688.356 .0303375
689.097 .0303321
689.837 .0303277
690.576 .0303236
691.316 .0303197
692.055 .0303155
692.794 .0303105
693.533 .0303038
694.272 .0302953
695.010 .0302849
695.748 .0302733
696.486 .0302602
697.224 .0302461
697.962 .0302319
698.699 .0302177
699.436 .0302035
700.173 .0301901
700.909 .0301763
701.646 .0301626
702.382 .0301487
703.118 .0301350
703.853 .0301214
704.589 .0301085
705.324 .0300970
706.059 .0300869
706.794 .0300785
707.529 .0300718
708.263 .0300663
708.997 .0300620
709.731 .0300575
710.465 .0300523
711.198 .0300459
711.931 .0300383
712.664 .0300290
713.397 .0300186
714.130 .0300070
714.862 .0299954
715.594 .0299836
716.326 .0299721
717.058 .0299610
717.789 .0299507
718.520 .0299404
719.251 .0299297
719.982 .0299178
720.713 .0299050
721.443 .0298907
722.173 .0298756
722.903 .0298592
723.633 .0298425
724.362 .0298262
725.091 .0298107
725.820 .0297959
726.549 .0297826
727.278 .0297698
728.006 .0297575
728.734 .0297449
729.462 .0297321
730.190 .0297193
730.917 .0297069
731.644 .0296953
732.371 .0296845
733.098 .0296745
733.825 .0296655
734.551 .0296564
735.277 .0296486
736.003 .0296407
736.728 .0296322
737.454 .0296234
738.179 .0296141
738.904 .0296047
739.629 .0295953
740.353 .0295860
741.077 .0295770
741.801 .0295676
742.525 .0295576
743.249 .0295463
743.972 .0295341
744.695 .0295216
745.418 .0295082
746.141 .0294941
746.863 .0294807
747.585 .0294676
748.307 .0294557
749.029 .0294455
749.750 .0294365
750.472 .0294285
751.193 .0294202
751.913 .0294111
752.634 .0294009
753.354 .0293895
754.074 .0293772
754.794 .0293633
755.514 .0293487
756.233 .0293337
756.952 .0293179
757.671 .0293023
758.390 .0292870
759.108 .0292722
759.826 .0292575
760.544 .0292425
761.262 .0292268
761.979 .0292106
762.697 .0291943
763.414 .0291780
764.130 .0291619
764.847 .0291463
765.563 .0291319
766.279 .0291180
766.995 .0291054
767.710 .0290937
768.426 .0290825
769.141 .0290720
769.855 .0290619
770.570 .0290510
771.284 .0290396
771.998 .0290282
772.712 .0290172
773.426 .0290061
774.139 .0289961
774.852 .0289868
775.565 .0289787
776.277 .0289723
776.990 .0289670
777.702 .0289619
778.414 .0289578
779.125 .0289535
779.836 .0289491
780.547 .0289450
781.258 .0289412
781.969 .0289377
782.679 .0289352
783.389 .0289337
784.099 .0289326
784.808 .0289313
785.517 .0289301
786.226 .0289279
786.935 .0289248
787.643 .0289203
788.352 .0289146
789.060 .0289075
789.767 .0288997
790.475 .0288901
791.182 .0288795
791.889 .0288676
792.595 .0288544
793.301 .0288398
794.008 .0288241
794.713 .0288082
795.419 .0287919
796.124 .0287756
796.829 .0287597
797.534 .0287437
798.238 .0287279
798.942 .0287116
799.646 .0286951
800.350 .0286779
801.053 .0286605
801.756 .0286427
802.459 .0286248
803.162 .0286076
803.864 .0285909
804.566 .0285748
805.267 .0285597
805.969 .0285454
806.670 .0285320
807.371 .0285193
808.071 .0285079
808.772 .0284970
809.472 .0284862
810.171 .0284752
810.871 .0284644
811.570 .0284537
812.269 .0284427
812.967 .0284314
813.666 .0284205
814.364 .0284108
815.061 .0284019
815.759 .0283938
816.456 .0283865
817.153 .0283798
817.849 .0283726
818.545 .0283640
819.241 .0283544
819.937 .0283434
820.632 .0283321
821.327 .0283205
822.022 .0283087
822.717 .0282971
823.411 .0282858
824.105 .0282750
824.798 .0282641
825.491 .0282531
826.184 .0282410
826.877 .0282281
827.569 .0282152
828.261 .0282018
828.953 .0281886
829.645 .0281763
830.336 .0281652
831.027 .0281546
831.717 .0281442
832.407 .0281339
833.097 .0281238
833.787 .0281144
834.476 .0281050
835.165 .0280957
835.854 .0280872
836.542 .0280794
837.230 .0280717
837.918 .0280640
838.605 .0280566
839.292 .0280492
839.979 .0280416
840.665 .0280337
841.352 .0280255
842.037 .0280174
842.723 .0280094
843.408 .0280012
844.093 .0279925
844.777 .0279834
845.462 .0279732
846.145 .0279618
846.829 .0279500
847.512 .0279383
848.195 .0279269
848.878 .0279167
849.560 .0279083
850.242 .0279015
850.923 .0278957
851.605 .0278914
852.286 .0278872
852.966 .0278824
853.646 .0278764
854.326 .0278682
855.006 .0278583
855.685 .0278464
856.364 .0278323
857.043 .0278163
857.721 .0277991
858.399 .0277812
859.077 .0277614
859.754 .0277405
860.431 .0277183
861.107 .0276943
861.784 .0276686
862.459 .0276413
863.135 .0276124
863.810 .0275825
864.485 .0275525
865.160 .0275235
865.834 .0274966
866.508 .0274722
867.181 .0274515
867.854 .0274342
868.527 .0274204
869.199 .0274087
869.872 .0273980
870.543 .0273881
871.215 .0273780
871.886 .0273677
872.557 .0273569
873.227 .0273457
873.897 .0273352
874.567 .0273251
875.236 .0273157
875.905 .0273066
876.573 .0272975
877.242 .0272880
877.909 .0272776
878.577 .0272659
879.244 .0272527
879.911 .0272386
880.577 .0272244
881.243 .0272102
881.909 .0271962
882.575 .0271831
883.240 .0271700
883.904 .0271578
884.569 .0271458
885.232 .0271339
885.896 .0271222
886.559 .0271106
887.222 .0270994
887.885 .0270880
888.547 .0270775
889.208 .0270675
889.870 .0270580
890.531 .0270496
891.192 .0270415
891.852 .0270339
892.512 .0270263
893.171 .0270196
893.830 .0270131
894.489 .0270073
895.148 .0270019
895.806 .0269962
896.464 .0269909
897.121 .0269854
897.778 .0269799
898.434 .0269745
899.091 .0269696
899.747 .0269647
900.402 .0269601
901.057 .0269559
901.712 .0269512
902.366 .0269463
903.020 .0269408
903.674 .0269348
904.327 .0269279
904.980 .0269209
905.633 .0269140
906.285 .0269071
906.936 .0269015
907.588 .0268963
908.239 .0268920
908.889 .0268882
909.540 .0268841
910.190 .0268793
910.839 .0268737
911.488 .0268669
912.137 .0268585
912.785 .0268493
913.433 .0268395
914.081 .0268296
914.728 .0268203
915.375 .0268116
916.021 .0268037
916.668 .0267967
917.313 .0267903
917.959 .0267838
918.604 .0267771
919.248 .0267699
919.892 .0267623
920.536 .0267544
921.180 .0267464
921.823 .0267383
922.465 .0267305
923.108 .0267233
923.750 .0267160
924.391 .0267086
925.032 .0267007
925.673 .0266923
926.313 .0266824
926.953 .0266712
927.593 .0266584
928.232 .0266437
928.871 .0266275
929.510 .0266095
930.148 .0265897
930.786 .0265684
931.423 .0265465
932.060 .0265239
932.697 .0265013
933.333 .0264790
933.969 .0264568
934.604 .0264350
935.239 .0264135
935.874 .0263918
936.508 .0263693
937.142 .0263468
937.776 .0263244
938.409 .0263017
939.042 .0262801
939.674 .0262595
940.306 .0262403
940.938 .0262227
941.569 .0262068
942.200 .0261916
942.830 .0261768
943.460 .0261615
944.090 .0261452
944.720 .0261278
945.349 .0261097
945.977 .0260910
946.606 .0260722
947.233 .0260538
947.861 .0260352
948.488 .0260159
949.115 .0259966
949.741 .0259766
950.367 .0259562
950.993 .0259352
951.618 .0259138
952.243 .0258924
952.868 .0258710
953.492 .0258496
954.115 .0258277
954.739 .0258055
955.362 .0257828
955.984 .0257593
956.607 .0257351
957.229 .0257110
957.850 .0256873
958.471 .0256643
959.092 .0256421
959.713 .0256207
960.333 .0255998
960.952 .0255789
961.572 .0255585
962.191 .0255383
962.809 .0255190
963.428 .0255014
964.045 .0254853
964.663 .0254724
965.280 .0254623
965.897 .0254543
966.513 .0254484
967.129 .0254443
967.745 .0254409
968.361 .0254379
968.976 .0254350
969.590 .0254325
970.205 .0254303
970.818 .0254292
971.432 .0254293
972.045 .0254313
972.658 .0254349
973.271 .0254391
973.883 .0254431
974.495 .0254471
975.106 .0254498
975.717 .0254513
976.328 .0254517
976.938 .0254513
977.548 .0254507
978.158 .0254497
978.768 .0254486
979.377 .0254484
979.985 .0254484
980.594 .0254479
981.202 .0254462
981.809 .0254427
982.417 .0254373
983.024 .0254301
983.631 .0254219
984.237 .0254130
984.843 .0254046
985.449 .0253972
986.054 .0253910
986.659 .0253876
987.264 .0253864
987.868 .0253865
988.472 .0253883
989.076 .0253910
989.679 .0253940
990.282 .0253977
990.885 .0254027
991.487 .0254090
992.090 .0254178
992.691 .0254283
993.293 .0254402
993.894 .0254533
994.495 .0254674
995.095 .0254805
995.696 .0254923
996.296 .0255017
996.895 .0255084
997.494 .0255131
998.093 .0255164
998.692 .0255189
999.291 .0255215
999.889 .0255238
1000.487 .0255259
1001.084 .0255270
1001.681 .0255268
1002.278 .0255246
1002.875 .0255207
1003.471 .0255148
1004.067 .0255080
1004.663 .0255007
1005.258 .0254936
1005.854 .0254874
1006.449 .0254829
1007.043 .0254795
1007.638 .0254762
1008.232 .0254732
1008.826 .0254699
1009.419 .0254667
1010.012 .0254641
1010.605 .0254616
1011.198 .0254604
1011.791 .0254606
1012.383 .0254618
1012.975 .0254636
1013.566 .0254662
1014.158 .0254687
1014.749 .0254709
1015.340 .0254730
1015.931 .0254749
1016.521 .0254768
1017.111 .0254790
1017.701 .0254819
1018.291 .0254858
1018.880 .0254899
1019.470 .0254937
1020.059 .0254970
1020.647 .0254993
1021.236 .0255004
1021.824 .0255000
1022.412 .0254992
1023.000 .0254978
1023.588 .0254959
1024.175 .0254932
1024.762 .0254901
1025.349 .0254865
1025.936 .0254825
1026.523 .0254779
1027.109 .0254730
1027.695 .0254678
1028.281 .0254619
1028.867 .0254557
1029.452 .0254498
1030.038 .0254438
1030.623 .0254377
1031.208 .0254310
1031.792 .0254249
1032.377 .0254186
1032.961 .0254129
1033.546 .0254089
1034.130 .0254062
1034.714 .0254046
1035.297 .0254032
1035.881 .0254014
1036.464 .0253992
1037.047 .0253970
1037.630 .0253938
1038.213 .0253900
1038.796 .0253870
1039.378 .0253835
1039.961 .0253800
1040.543 .0253772
1041.125 .0253754
1041.707 .0253727
1042.289 .0253693
1042.871 .0253662
1043.452 .0253620
1044.034 .0253588
1044.615 .0253557
1045.196 .0253544
1045.777 .0253551
1046.358 .0253561
1046.939 .0253557
1047.520 .0253546
1048.101 .0253529
1048.681 .0253491
1049.262 .0253430
1049.842 .0253360
1050.422 .0253280
1051.002 .0253193
1051.582 .0253107
1052.162 .0253020
1052.742 .0252936
1053.322 .0252853
1053.902 .0252747
1054.482 .0252637
1055.061 .0252525
1055.641 .0252407
1056.220 .0252303
1056.800 .0252217
1057.379 .0252147
1057.958 .0252090
1058.538 .0252041
1059.117 .0251994
1059.696 .0251936
1060.275 .0251872
1060.854 .0251792
1061.433 .0251720
1062.012 .0251670
1062.592 .0251623
1063.171 .0251611
1063.750 .0251630
1064.329 .0251667
1064.908 .0251714
1065.487 .0251757
1066.066 .0251785
1066.645 .0251801
1067.224 .0251788
1067.803 .0251745
1068.382 .0251689
1068.961 .0251637
1069.540 .0251572
1070.119 .0251494
1070.698 .0251417
1071.278 .0251330
1071.857 .0251228
1072.436 .0251107
1073.016 .0250940
1073.595 .0250769
1074.175 .0250580
1074.754 .0250378
1075.334 .0250185
1075.913 .0250007
1076.493 .0249846
1077.073 .0249708
1077.653 .0249583
1078.233 .0249477
1078.813 .0249392
1079.393 .0249349
1079.974 .0249353
1080.554 .0249420
1081.135 .0249524
1081.716 .0249664
1082.296 .0249841
1082.877 .0250037
1083.458 .0250214
1084.040 .0250375
1084.621 .0250488
1085.202 .0250562
1085.784 .0250607
1086.366 .0250622
1086.948 .0250621
1087.530 .0250645
1088.112 .0250669
1088.695 .0250698
1089.277 .0250744
1089.860 .0250815
1090.443 .0250880
1091.026 .0250951
1091.610 .0251006
1092.193 .0251050
1092.777 .0251079
1093.361 .0251085
1093.946 .0251061
1094.530 .0251030
1095.115 .0251002
1095.700 .0250961
1096.285 .0250931
1096.871 .0250937
1097.456 .0250964
1098.042 .0251031
1098.628 .0251125
1099.215 .0251228
1099.802 .0251321
1100.389 .0251405
1100.976 .0251454
1101.564 .0251463
1102.152 .0251440
1102.740 .0251413
1103.329 .0251403
1103.917 .0251423
1104.507 .0251489
1105.096 .0251591
1105.686 .0251758
1106.276 .0251950
1106.867 .0252135
1107.457 .0252320
1108.049 .0252483
1108.640 .0252620
1109.232 .0252742
1109.825 .0252863
1110.417 .0252976
1111.010 .0253108
1111.604 .0253284
1112.198 .0253511
1112.792 .0253769
1113.387 .0254028
1113.982 .0254302
1114.577 .0254570
1115.173 .0254804
1115.769 .0254962
1116.366 .0255064
1116.963 .0255111
1117.561 .0255088
1118.159 .0254987
1118.758 .0254841
1119.357 .0254684
1119.957 .0254495
1120.557 .0254279
1121.157 .0254073
1121.758 .0253887
1122.360 .0253688
1122.962 .0253481
1123.564 .0253288
1124.167 .0253075
1124.771 .0252870
1125.375 .0252702
1125.980 .0252622
1126.585 .0252654
1127.191 .0252806
1127.797 .0253084
1128.404 .0253470
1129.012 .0253939
1129.620 .0254400
1130.229 .0254838
1130.838 .0255205
1131.448 .0255479
1132.058 .0255636
1132.669 .0255741
1133.281 .0255865
1133.894 .0256020
1134.507 .0256208
1135.120 .0256441
1135.735 .0256678
1136.350 .0256882
1136.965 .0257025
1137.582 .0257145
1138.199 .0257216
1138.816 .0257285
1139.435 .0257424
1140.054 .0257665
1140.674 .0257955
1141.294 .0258358
1141.916 .0258840
1142.538 .0260394
1143.160 .0261420
1143.784 .0259318
1144.408 .0260306
1145.033 .0261318
