Measurement Sequence started on: 14-45-04-498
Integration time: 36
Scans to Average: 2 
>>>>>Begin Spectral Data<<<<<
433.946 .0447145
434.870 .0481608
435.793 .0439136
436.715 .0410927
437.635 .0409561
438.555 .0404153
439.473 .0396801
440.389 .0390419
441.305 .0386784
442.219 .0384810
443.132 .0383505
444.044 .0383328
444.954 .0383388
445.863 .0383806
446.771 .0384678
447.678 .0385680
448.584 .0386772
449.488 .0387735
450.391 .0388360
451.293 .0388748
452.194 .0388836
453.094 .0388635
453.992 .0388189
454.890 .0387730
455.786 .0387274
456.681 .0386841
457.575 .0386530
458.468 .0386233
459.360 .0385903
460.250 .0385451
461.140 .0384796
462.028 .0384035
462.915 .0383209
463.801 .0382348
464.687 .0381421
465.571 .0380558
466.454 .0379795
467.335 .0379129
468.216 .0378563
469.096 .0378091
469.975 .0377650
470.853 .0377172
471.729 .0376639
472.605 .0376040
473.479 .0375412
474.353 .0374785
475.226 .0374133
476.097 .0373505
476.968 .0372914
477.838 .0372353
478.706 .0371832
479.574 .0371414
480.441 .0371091
481.306 .0370816
482.171 .0370586
483.035 .0370366
483.898 .0370158
484.760 .0369952
485.621 .0369729
486.481 .0369491
487.340 .0369242
488.198 .0368990
489.055 .0368679
489.912 .0368357
490.767 .0368002
491.622 .0367589
492.476 .0367138
493.329 .0366646
494.180 .0366102
495.032 .0365543
495.882 .0364995
496.731 .0364469
497.580 .0363995
498.427 .0363586
499.274 .0363194
500.120 .0362856
500.965 .0362521
501.809 .0362158
502.653 .0361741
503.495 .0361305
504.337 .0360835
505.178 .0360326
506.018 .0359816
506.858 .0359267
507.696 .0358729
508.534 .0358233
509.371 .0357703
510.208 .0357175
511.043 .0356665
511.878 .0356130
512.712 .0355538
513.545 .0354923
514.377 .0354319
515.209 .0353759
516.040 .0353294
516.870 .0352914
517.699 .0352621
518.528 .0352438
519.356 .0352393
520.183 .0352416
521.010 .0352555
521.836 .0352765
522.661 .0352938
523.485 .0353091
524.309 .0353180
525.132 .0353193
525.954 .0353145
526.776 .0353059
527.597 .0352921
528.417 .0352603
529.237 .0352143
530.056 .0351549
530.874 .0350786
531.692 .0349944
532.508 .0349012
533.325 .0348031
534.140 .0347073
534.955 .0346171
535.770 .0345349
536.583 .0344655
537.397 .0344102
538.209 .0343582
539.021 .0343033
539.832 .0342498
540.643 .0341893
541.453 .0341286
542.262 .0340751
543.071 .0340255
543.879 .0339853
544.687 .0339590
545.494 .0339439
546.300 .0339412
547.106 .0339510
547.911 .0339644
548.716 .0339755
549.520 .0339794
550.323 .0339690
551.126 .0339449
551.929 .0339135
552.731 .0338710
553.532 .0338225
554.332 .0337736
555.133 .0337227
555.932 .0336730
556.731 .0336289
557.530 .0335819
558.328 .0335381
559.125 .0334933
559.922 .0334482
560.719 .0334004
561.515 .0333559
562.310 .0333094
563.105 .0332651
563.899 .0332230
564.693 .0331771
565.487 .0331271
566.280 .0330821
567.072 .0330340
567.864 .0329878
568.655 .0329431
569.446 .0329011
570.236 .0328596
571.026 .0328240
571.816 .0327855
572.605 .0327480
573.393 .0327099
574.181 .0326714
574.969 .0326302
575.756 .0325924
576.543 .0325543
577.329 .0325188
578.115 .0324884
578.900 .0324612
579.685 .0324339
580.469 .0324110
581.253 .0323870
582.036 .0323648
582.820 .0323418
583.602 .0323182
584.384 .0322921
585.166 .0322671
585.947 .0322411
586.728 .0322146
587.509 .0321884
588.289 .0321634
589.069 .0321381
589.848 .0321141
590.627 .0320888
591.405 .0320627
592.183 .0320360
592.961 .0320094
593.738 .0319817
594.515 .0319538
595.291 .0319243
596.067 .0318944
596.843 .0318641
597.618 .0318335
598.393 .0318015
599.167 .0317706
599.941 .0317405
600.715 .0317112
601.488 .0316833
602.261 .0316577
603.034 .0316336
603.806 .0316120
604.578 .0315911
605.349 .0315704
606.121 .0315494
606.891 .0315287
607.662 .0315068
608.432 .0314862
609.201 .0314665
609.971 .0314479
610.740 .0314305
611.508 .0314150
612.277 .0313996
613.045 .0313840
613.812 .0313674
614.579 .0313488
615.346 .0313278
616.113 .0313049
616.879 .0312793
617.645 .0312533
618.411 .0312277
619.176 .0312026
619.941 .0311782
620.705 .0311561
621.470 .0311345
622.233 .0311133
622.997 .0310922
623.760 .0310706
624.523 .0310486
625.286 .0310263
626.048 .0310038
626.810 .0309811
627.572 .0309591
628.333 .0309378
629.095 .0309165
629.855 .0308960
630.616 .0308756
631.376 .0308551
632.136 .0308346
632.895 .0308136
633.655 .0307919
634.414 .0307696
635.172 .0307471
635.931 .0307243
636.689 .0307013
637.447 .0306782
638.204 .0306552
638.962 .0306322
639.718 .0306096
640.475 .0305867
641.231 .0305631
641.988 .0305392
642.743 .0305155
643.499 .0304916
644.254 .0304676
645.009 .0304444
645.764 .0304226
646.518 .0304017
647.272 .0303818
648.026 .0303620
648.780 .0303428
649.533 .0303237
650.286 .0303040
651.039 .0302834
651.792 .0302619
652.544 .0302399
653.296 .0302175
654.048 .0301951
654.799 .0301737
655.550 .0301525
656.301 .0301321
657.052 .0301124
657.802 .0300929
658.552 .0300735
659.302 .0300539
660.052 .0300347
660.801 .0300154
661.550 .0299963
662.299 .0299780
663.048 .0299605
663.796 .0299445
664.544 .0299299
665.292 .0299162
666.040 .0299037
666.787 .0298929
667.534 .0298837
668.281 .0298757
669.028 .0298689
669.774 .0298629
670.521 .0298572
671.266 .0298512
672.012 .0298452
672.758 .0298385
673.503 .0298314
674.248 .0298239
674.992 .0298159
675.737 .0298079
676.481 .0297999
677.225 .0297915
677.969 .0297830
678.712 .0297736
679.455 .0297627
680.199 .0297499
680.941 .0297358
681.684 .0297207
682.426 .0297050
683.168 .0296891
683.910 .0296737
684.652 .0296585
685.393 .0296438
686.134 .0296296
686.875 .0296159
687.616 .0296022
688.356 .0295888
689.097 .0295753
689.837 .0295620
690.576 .0295489
691.316 .0295362
692.055 .0295237
692.794 .0295111
693.533 .0294982
694.272 .0294844
695.010 .0294703
695.748 .0294558
696.486 .0294407
697.224 .0294258
697.962 .0294107
698.699 .0293957
699.436 .0293803
700.173 .0293643
700.909 .0293476
701.646 .0293300
702.382 .0293121
703.118 .0292939
703.853 .0292759
704.589 .0292586
705.324 .0292422
706.059 .0292274
706.794 .0292135
707.529 .0292005
708.263 .0291877
708.997 .0291757
709.731 .0291633
710.465 .0291513
711.198 .0291396
711.931 .0291286
712.664 .0291187
713.397 .0291098
714.130 .0291016
714.862 .0290938
715.594 .0290860
716.326 .0290778
717.058 .0290688
717.789 .0290589
718.520 .0290477
719.251 .0290362
719.982 .0290243
720.713 .0290122
721.443 .0290005
722.173 .0289892
722.903 .0289780
723.633 .0289671
724.362 .0289565
725.091 .0289458
725.820 .0289352
726.549 .0289251
727.278 .0289157
728.006 .0289074
728.734 .0289002
729.462 .0288943
730.190 .0288898
730.917 .0288863
731.644 .0288831
732.371 .0288804
733.098 .0288782
733.825 .0288761
734.551 .0288738
735.277 .0288714
736.003 .0288686
736.728 .0288655
737.454 .0288616
738.179 .0288570
738.904 .0288515
739.629 .0288450
740.353 .0288375
741.077 .0288295
741.801 .0288213
742.525 .0288127
743.249 .0288041
743.972 .0287954
744.695 .0287860
745.418 .0287759
746.141 .0287648
746.863 .0287529
747.585 .0287403
748.307 .0287274
749.029 .0287142
749.750 .0287012
750.472 .0286885
751.193 .0286760
751.913 .0286634
752.634 .0286504
753.354 .0286368
754.074 .0286224
754.794 .0286072
755.514 .0285910
756.233 .0285742
756.952 .0285577
757.671 .0285417
758.390 .0285258
759.108 .0285105
759.826 .0284961
760.544 .0284823
761.262 .0284689
761.979 .0284560
762.697 .0284432
763.414 .0284309
764.130 .0284187
764.847 .0284069
765.563 .0283957
766.279 .0283858
766.995 .0283768
767.710 .0283693
768.426 .0283629
769.141 .0283570
769.855 .0283512
770.570 .0283454
771.284 .0283392
771.998 .0283324
772.712 .0283250
773.426 .0283178
774.139 .0283108
774.852 .0283043
775.565 .0282982
776.277 .0282928
776.990 .0282877
777.702 .0282824
778.414 .0282765
779.125 .0282701
779.836 .0282631
780.547 .0282557
781.258 .0282479
781.969 .0282401
782.679 .0282325
783.389 .0282251
784.099 .0282180
784.808 .0282108
785.517 .0282035
786.226 .0281961
786.935 .0281886
787.643 .0281815
788.352 .0281748
789.060 .0281687
789.767 .0281637
790.475 .0281586
791.182 .0281537
791.889 .0281486
792.595 .0281429
793.301 .0281366
794.008 .0281297
794.713 .0281225
795.419 .0281153
796.124 .0281085
796.829 .0281027
797.534 .0280972
798.238 .0280928
798.942 .0280890
799.646 .0280853
800.350 .0280815
801.053 .0280775
801.756 .0280729
802.459 .0280685
803.162 .0280644
803.864 .0280606
804.566 .0280576
805.267 .0280558
805.969 .0280548
806.670 .0280545
807.371 .0280548
808.071 .0280551
808.772 .0280549
809.472 .0280540
810.171 .0280516
810.871 .0280479
811.570 .0280433
812.269 .0280377
812.967 .0280314
813.666 .0280245
814.364 .0280170
815.061 .0280086
815.759 .0280002
816.456 .0279914
817.153 .0279819
817.849 .0279719
818.545 .0279614
819.241 .0279504
819.937 .0279390
820.632 .0279272
821.327 .0279152
822.022 .0279033
822.717 .0278917
823.411 .0278804
824.105 .0278694
824.798 .0278590
825.491 .0278491
826.184 .0278392
826.877 .0278290
827.569 .0278180
828.261 .0278061
828.953 .0277932
829.645 .0277791
830.336 .0277641
831.027 .0277485
831.717 .0277334
832.407 .0277187
833.097 .0277048
833.787 .0276915
834.476 .0276786
835.165 .0276659
835.854 .0276528
836.542 .0276388
837.230 .0276240
837.918 .0276082
838.605 .0275923
839.292 .0275766
839.979 .0275618
840.665 .0275483
841.352 .0275365
842.037 .0275260
842.723 .0275162
843.408 .0275059
844.093 .0274949
844.777 .0274826
845.462 .0274688
846.145 .0274532
846.829 .0274365
847.512 .0274193
848.195 .0274019
848.878 .0273848
849.560 .0273684
850.242 .0273525
850.923 .0273373
851.605 .0273219
852.286 .0273062
852.966 .0272901
853.646 .0272739
854.326 .0272576
855.006 .0272416
855.685 .0272261
856.364 .0272110
857.043 .0271964
857.721 .0271822
858.399 .0271682
859.077 .0271543
859.754 .0271406
860.431 .0271274
861.107 .0271147
861.784 .0271027
862.459 .0270915
863.135 .0270811
863.810 .0270714
864.485 .0270622
865.160 .0270530
865.834 .0270439
866.508 .0270347
867.181 .0270254
867.854 .0270164
868.527 .0270078
869.199 .0269997
869.872 .0269924
870.543 .0269855
871.215 .0269790
871.886 .0269725
872.557 .0269659
873.227 .0269591
873.897 .0269517
874.567 .0269435
875.236 .0269346
875.905 .0269249
876.573 .0269152
877.242 .0269048
877.909 .0268945
878.577 .0268847
879.244 .0268756
879.911 .0268671
880.577 .0268599
881.243 .0268536
881.909 .0268477
882.575 .0268421
883.240 .0268363
883.904 .0268299
884.569 .0268237
885.232 .0268169
885.896 .0268100
886.559 .0268036
887.222 .0267978
887.885 .0267924
888.547 .0267881
889.208 .0267844
889.870 .0267808
890.531 .0267768
891.192 .0267725
891.852 .0267673
892.512 .0267617
893.171 .0267559
893.830 .0267503
894.489 .0267455
895.148 .0267417
895.806 .0267383
896.464 .0267361
897.121 .0267352
897.778 .0267347
898.434 .0267343
899.091 .0267341
899.747 .0267339
900.402 .0267334
901.057 .0267328
901.712 .0267323
902.366 .0267316
903.020 .0267311
903.674 .0267301
904.327 .0267290
904.980 .0267274
905.633 .0267254
906.285 .0267228
906.936 .0267195
907.588 .0267153
908.239 .0267102
908.889 .0267046
909.540 .0266988
910.190 .0266920
910.839 .0266854
911.488 .0266789
912.137 .0266724
912.785 .0266657
913.433 .0266588
914.081 .0266512
914.728 .0266427
915.375 .0266327
916.021 .0266211
916.668 .0266083
917.313 .0265949
917.959 .0265802
918.604 .0265652
919.248 .0265507
919.892 .0265363
920.536 .0265221
921.180 .0265083
921.823 .0264943
922.465 .0264796
923.108 .0264641
923.750 .0264480
924.391 .0264309
925.032 .0264139
925.673 .0263970
926.313 .0263803
926.953 .0263645
927.593 .0263489
928.232 .0263332
928.871 .0263179
929.510 .0263022
930.148 .0262849
930.786 .0262663
931.423 .0262464
932.060 .0262254
932.697 .0262034
933.333 .0261805
933.969 .0261574
934.604 .0261343
935.239 .0261113
935.874 .0260882
936.508 .0260658
937.142 .0260441
937.776 .0260228
938.409 .0260018
939.042 .0259809
939.674 .0259597
940.306 .0259383
940.938 .0259167
941.569 .0258951
942.200 .0258734
942.830 .0258514
943.460 .0258292
944.090 .0258071
944.720 .0257848
945.349 .0257622
945.977 .0257388
946.606 .0257154
947.233 .0256913
947.861 .0256670
948.488 .0256425
949.115 .0256188
949.741 .0255961
950.367 .0255745
950.993 .0255539
951.618 .0255347
952.243 .0255162
952.868 .0254984
953.492 .0254812
954.115 .0254642
954.739 .0254473
955.362 .0254305
955.984 .0254137
956.607 .0253975
957.229 .0253817
957.850 .0253667
958.471 .0253522
959.092 .0253386
959.713 .0253249
960.333 .0253107
960.952 .0252963
961.572 .0252816
962.191 .0252665
962.809 .0252516
963.428 .0252366
964.045 .0252220
964.663 .0252083
965.280 .0251955
965.897 .0251835
966.513 .0251729
967.129 .0251629
967.745 .0251531
968.361 .0251434
968.976 .0251337
969.590 .0251233
970.205 .0251127
970.818 .0251020
971.432 .0250913
972.045 .0250812
972.658 .0250719
973.271 .0250628
973.883 .0250547
974.495 .0250471
975.106 .0250396
975.717 .0250316
976.328 .0250239
976.938 .0250160
977.548 .0250087
978.158 .0250020
978.768 .0249960
979.377 .0249914
979.985 .0249883
980.594 .0249864
981.202 .0249853
981.809 .0249849
982.417 .0249846
983.024 .0249838
983.631 .0249832
984.237 .0249821
984.843 .0249808
985.449 .0249797
986.054 .0249787
986.659 .0249779
987.264 .0249774
987.868 .0249769
988.472 .0249765
989.076 .0249763
989.679 .0249752
990.282 .0249729
990.885 .0249696
991.487 .0249652
992.090 .0249602
992.691 .0249548
993.293 .0249497
993.894 .0249450
994.495 .0249419
995.095 .0249398
995.696 .0249391
996.296 .0249398
996.895 .0249410
997.494 .0249433
998.093 .0249462
998.692 .0249497
999.291 .0249539
999.889 .0249592
1000.487 .0249660
1001.084 .0249743
1001.681 .0249835
1002.278 .0249933
1002.875 .0250034
1003.471 .0250139
1004.067 .0250241
1004.663 .0250339
1005.258 .0250433
1005.854 .0250519
1006.449 .0250598
1007.043 .0250670
1007.638 .0250724
1008.232 .0250766
1008.826 .0250799
1009.419 .0250824
1010.012 .0250842
1010.605 .0250855
1011.198 .0250867
1011.791 .0250882
1012.383 .0250897
1012.975 .0250910
1013.566 .0250919
1014.158 .0250928
1014.749 .0250932
1015.340 .0250927
1015.931 .0250925
1016.521 .0250922
1017.111 .0250925
1017.701 .0250934
1018.291 .0250949
1018.880 .0250960
1019.470 .0250968
1020.059 .0250970
1020.647 .0250970
1021.236 .0250966
1021.824 .0250964
1022.412 .0250965
1023.000 .0250974
1023.588 .0250994
1024.175 .0251022
1024.762 .0251054
1025.349 .0251094
1025.936 .0251130
1026.523 .0251163
1027.109 .0251192
1027.695 .0251226
1028.281 .0251262
1028.867 .0251300
1029.452 .0251344
1030.038 .0251390
1030.623 .0251431
1031.208 .0251467
1031.792 .0251498
1032.377 .0251520
1032.961 .0251533
1033.546 .0251545
1034.130 .0251555
1034.714 .0251567
1035.297 .0251583
1035.881 .0251590
1036.464 .0251593
1037.047 .0251586
1037.630 .0251553
1038.213 .0251503
1038.796 .0251442
1039.378 .0251371
1039.961 .0251300
1040.543 .0251235
1041.125 .0251182
1041.707 .0251139
1042.289 .0251108
1042.871 .0251075
1043.452 .0251032
1044.034 .0250976
1044.615 .0250895
1045.196 .0250793
1045.777 .0250683
1046.358 .0250567
1046.939 .0250462
1047.520 .0250375
1048.101 .0250305
1048.681 .0250262
1049.262 .0250234
1049.842 .0250216
1050.422 .0250199
1051.002 .0250174
1051.582 .0250139
1052.162 .0250089
1052.742 .0250033
1053.322 .0249964
1053.902 .0249888
1054.482 .0249814
1055.061 .0249731
1055.641 .0249645
1056.220 .0249558
1056.800 .0249470
1057.379 .0249387
1057.958 .0249300
1058.538 .0249208
1059.117 .0249127
1059.696 .0249051
1060.275 .0248982
1060.854 .0248913
1061.433 .0248842
1062.012 .0248766
1062.592 .0248670
1063.171 .0248563
1063.750 .0248447
1064.329 .0248320
1064.908 .0248194
1065.487 .0248064
1066.066 .0247941
1066.645 .0247815
1067.224 .0247686
1067.803 .0247556
1068.382 .0247411
1068.961 .0247237
1069.540 .0247034
1070.119 .0246810
1070.698 .0246584
1071.278 .0246359
1071.857 .0246159
1072.436 .0245998
1073.016 .0245885
1073.595 .0245798
1074.175 .0245746
1074.754 .0245716
1075.334 .0245699
1075.913 .0245666
1076.493 .0245613
1077.073 .0245545
1077.653 .0245459
1078.233 .0245366
1078.813 .0245283
1079.393 .0245224
1079.974 .0245196
1080.554 .0245187
1081.135 .0245192
1081.716 .0245208
1082.296 .0245240
1082.877 .0245267
1083.458 .0245291
1084.040 .0245321
1084.621 .0245341
1085.202 .0245363
1085.784 .0245393
1086.366 .0245440
1086.948 .0245477
1087.530 .0245535
1088.112 .0245596
1088.695 .0245652
1089.277 .0245704
1089.860 .0245742
1090.443 .0245754
1091.026 .0245743
1091.610 .0245689
1092.193 .0245594
1092.777 .0245466
1093.361 .0245334
1093.946 .0245167
1094.530 .0244996
1095.115 .0244820
1095.700 .0244649
1096.285 .0244479
1096.871 .0244314
1097.456 .0244143
1098.042 .0243972
1098.628 .0243789
1099.215 .0243591
1099.802 .0243382
1100.389 .0243187
1100.976 .0243013
1101.564 .0242862
1102.152 .0242723
1102.740 .0242599
1103.329 .0242473
1103.917 .0242359
1104.507 .0242238
1105.096 .0242111
1105.686 .0241980
1106.276 .0241851
1106.867 .0241756
1107.457 .0241690
1108.049 .0241659
1108.640 .0241685
1109.232 .0241737
1109.825 .0241821
1110.417 .0241903
1111.010 .0241995
1111.604 .0242096
1112.198 .0242238
1112.792 .0242407
1113.387 .0242625
1113.982 .0242905
1114.577 .0243261
1115.173 .0243686
1115.769 .0244160
1116.366 .0244661
1116.963 .0245159
1117.561 .0245618
1118.159 .0246042
1118.758 .0246392
1119.357 .0246704
1119.957 .0246959
1120.557 .0247188
1121.157 .0247386
1121.758 .0247568
1122.360 .0247720
1122.962 .0247847
1123.564 .0247937
1124.167 .0247974
1124.771 .0247954
1125.375 .0247891
1125.980 .0247815
1126.585 .0247742
1127.191 .0247692
1127.797 .0247713
1128.404 .0247824
1129.012 .0248063
1129.620 .0248386
1130.229 .0248810
1130.838 .0249328
1131.448 .0249887
1132.058 .0250470
1132.669 .0251050
1133.281 .0251639
1133.894 .0252212
1134.507 .0252766
1135.120 .0253293
1135.735 .0253802
1136.350 .0254315
1136.965 .0254787
1137.582 .0255232
1138.199 .0255635
1138.816 .0256019
1139.435 .0256340
1140.054 .0256604
1140.674 .0256837
1141.294 .0257081
1141.916 .0257274
1142.538 .0256998
1143.160 .0257126
1143.784 .0257699
1144.408 .0259414
1145.033 .0257784
