Measurement Sequence started on: 14-45-04-498
Integration time: 36
Scans to Average: 2 
>>>>>Begin Spectral Data<<<<<
433.946 .0548233
434.870 .0486525
435.793 .0476522
436.715 .0501334
437.635 .0503613
438.555 .0501247
439.473 .0500702
440.389 .0501769
441.305 .0502549
442.219 .0502293
443.132 .0501784
444.044 .0500940
444.954 .0500009
445.863 .0498736
446.771 .0497063
447.678 .0495287
448.584 .0493484
449.488 .0491771
450.391 .0490186
451.293 .0488688
452.194 .0487285
453.094 .0485913
453.992 .0484553
454.890 .0483157
455.786 .0481741
456.681 .0480351
457.575 .0479024
458.468 .0477803
459.360 .0476740
460.250 .0475899
461.140 .0475117
462.028 .0474339
462.915 .0473512
463.801 .0472565
464.687 .0471500
465.571 .0470379
466.454 .0469217
467.335 .0468031
468.216 .0466946
469.096 .0465921
469.975 .0464974
470.853 .0464112
471.729 .0463299
472.605 .0462492
473.479 .0461662
474.353 .0460820
475.226 .0459918
476.097 .0459059
476.968 .0458267
477.838 .0457507
478.706 .0456863
479.574 .0456356
480.441 .0455953
481.306 .0455665
482.171 .0455455
483.035 .0455263
483.898 .0455057
484.760 .0454820
485.621 .0454530
486.481 .0454189
487.340 .0453851
488.198 .0453557
489.055 .0453299
489.912 .0453124
490.767 .0452972
491.622 .0452858
492.476 .0452761
493.329 .0452612
494.180 .0452369
495.032 .0452043
495.882 .0451658
496.731 .0451229
497.580 .0450772
498.427 .0450338
499.274 .0449922
500.120 .0449551
500.965 .0449185
501.809 .0448805
502.653 .0448344
503.495 .0447839
504.337 .0447247
505.178 .0446613
506.018 .0445967
506.858 .0445325
507.696 .0444752
508.534 .0444240
509.371 .0443756
510.208 .0443284
511.043 .0442803
511.878 .0442344
512.712 .0441845
513.545 .0441371
514.377 .0440921
515.209 .0440549
516.040 .0440284
516.870 .0440155
517.699 .0440119
518.528 .0440169
519.356 .0440277
520.183 .0440339
521.010 .0440341
521.836 .0440199
522.661 .0439930
523.485 .0439559
524.309 .0439069
525.132 .0438510
525.954 .0437853
526.776 .0437199
527.597 .0436524
528.417 .0435837
529.237 .0435204
530.056 .0434544
530.874 .0433906
531.692 .0433323
532.508 .0432775
533.325 .0432266
534.140 .0431786
534.955 .0431396
535.770 .0431089
536.583 .0430846
537.397 .0430691
538.209 .0430666
539.021 .0430769
539.832 .0430954
540.643 .0431127
541.453 .0431300
542.262 .0431411
543.071 .0431386
543.879 .0431189
544.687 .0430846
545.494 .0430371
546.300 .0429802
547.106 .0429146
547.911 .0428490
548.716 .0427888
549.520 .0427317
550.323 .0426807
551.126 .0426377
551.929 .0425965
552.731 .0425515
553.532 .0425027
554.332 .0424535
555.133 .0423967
555.932 .0423361
556.731 .0422706
557.530 .0422037
558.328 .0421427
559.125 .0420847
559.922 .0420312
560.719 .0419841
561.515 .0419410
562.310 .0418954
563.105 .0418494
563.899 .0418065
564.693 .0417608
565.487 .0417146
566.280 .0416683
567.072 .0416221
567.864 .0415764
568.655 .0415311
569.446 .0414864
570.236 .0414420
571.026 .0413973
571.816 .0413475
572.605 .0412927
573.393 .0412361
574.181 .0411786
574.969 .0411178
575.756 .0410575
576.543 .0410020
577.329 .0409483
578.115 .0408985
578.900 .0408544
579.685 .0408146
580.469 .0407806
581.253 .0407512
582.036 .0407263
582.820 .0407039
583.602 .0406856
584.384 .0406682
585.166 .0406518
585.947 .0406368
586.728 .0406206
587.509 .0406018
588.289 .0405835
589.069 .0405634
589.848 .0405409
590.627 .0405172
591.405 .0404929
592.183 .0404672
592.961 .0404414
593.738 .0404132
594.515 .0403834
595.291 .0403534
596.067 .0403233
596.843 .0402916
597.618 .0402594
598.393 .0402279
599.167 .0401962
599.941 .0401642
600.715 .0401336
601.488 .0401037
602.261 .0400766
603.034 .0400521
603.806 .0400290
604.578 .0400075
605.349 .0399877
606.121 .0399685
606.891 .0399492
607.662 .0399294
608.432 .0399088
609.201 .0398867
609.971 .0398649
610.740 .0398430
611.508 .0398220
612.277 .0398025
613.045 .0397846
613.812 .0397680
614.579 .0397525
615.346 .0397371
616.113 .0397216
616.879 .0397070
617.645 .0396934
618.411 .0396803
619.176 .0396686
619.941 .0396585
620.705 .0396494
621.470 .0396410
622.233 .0396325
622.997 .0396231
623.760 .0396132
624.523 .0396009
625.286 .0395864
626.048 .0395709
626.810 .0395539
627.572 .0395352
628.333 .0395154
629.095 .0394942
629.855 .0394711
630.616 .0394460
631.376 .0394194
632.136 .0393907
632.895 .0393615
633.655 .0393318
634.414 .0393016
635.172 .0392720
635.931 .0392429
636.689 .0392143
637.447 .0391868
638.204 .0391603
638.962 .0391335
639.718 .0391071
640.475 .0390817
641.231 .0390567
641.988 .0390326
642.743 .0390095
643.499 .0389869
644.254 .0389643
645.009 .0389419
645.764 .0389190
646.518 .0388956
647.272 .0388723
648.026 .0388493
648.780 .0388265
649.533 .0388046
650.286 .0387831
651.039 .0387621
651.792 .0387418
652.544 .0387222
653.296 .0387023
654.048 .0386828
654.799 .0386630
655.550 .0386432
656.301 .0386230
657.052 .0386029
657.802 .0385833
658.552 .0385644
659.302 .0385462
660.052 .0385285
660.801 .0385112
661.550 .0384946
662.299 .0384781
663.048 .0384623
663.796 .0384467
664.544 .0384310
665.292 .0384150
666.040 .0383986
666.787 .0383824
667.534 .0383666
668.281 .0383511
669.028 .0383361
669.774 .0383215
670.521 .0383072
671.266 .0382925
672.012 .0382786
672.758 .0382651
673.503 .0382521
674.248 .0382394
674.992 .0382264
675.737 .0382134
676.481 .0382003
677.225 .0381872
677.969 .0381741
678.712 .0381610
679.455 .0381479
680.199 .0381342
680.941 .0381205
681.684 .0381071
682.426 .0380933
683.168 .0380792
683.910 .0380642
684.652 .0380477
685.393 .0380296
686.134 .0380105
686.875 .0379906
687.616 .0379708
688.356 .0379512
689.097 .0379321
689.837 .0379133
690.576 .0378945
691.316 .0378752
692.055 .0378553
692.794 .0378345
693.533 .0378121
694.272 .0377885
695.010 .0377643
695.748 .0377399
696.486 .0377164
697.224 .0376941
697.962 .0376730
698.699 .0376531
699.436 .0376334
700.173 .0376137
700.909 .0375936
701.646 .0375732
702.382 .0375519
703.118 .0375302
703.853 .0375088
704.589 .0374875
705.324 .0374672
706.059 .0374482
706.794 .0374300
707.529 .0374129
708.263 .0373964
708.997 .0373805
709.731 .0373641
710.465 .0373478
711.198 .0373310
711.931 .0373140
712.664 .0372966
713.397 .0372788
714.130 .0372607
714.862 .0372430
715.594 .0372259
716.326 .0372091
717.058 .0371933
717.789 .0371787
718.520 .0371646
719.251 .0371516
719.982 .0371387
720.713 .0371259
721.443 .0371127
722.173 .0370995
722.903 .0370853
723.633 .0370706
724.362 .0370559
725.091 .0370409
725.820 .0370264
726.549 .0370122
727.278 .0369980
728.006 .0369843
728.734 .0369703
729.462 .0369559
730.190 .0369406
730.917 .0369252
731.644 .0369092
732.371 .0368933
733.098 .0368781
733.825 .0368635
734.551 .0368499
735.277 .0368376
736.003 .0368265
736.728 .0368160
737.454 .0368063
738.179 .0367966
738.904 .0367865
739.629 .0367760
740.353 .0367648
741.077 .0367529
741.801 .0367408
742.525 .0367280
743.249 .0367147
743.972 .0367011
744.695 .0366877
745.418 .0366734
746.141 .0366587
746.863 .0366433
747.585 .0366270
748.307 .0366097
749.029 .0365912
749.750 .0365716
750.472 .0365520
751.193 .0365324
751.913 .0365134
752.634 .0364952
753.354 .0364781
754.074 .0364615
754.794 .0364460
755.514 .0364304
756.233 .0364147
756.952 .0363983
757.671 .0363819
758.390 .0363644
759.108 .0363467
759.826 .0363288
760.544 .0363107
761.262 .0362932
761.979 .0362759
762.697 .0362579
763.414 .0362398
764.130 .0362216
764.847 .0362029
765.563 .0361835
766.279 .0361643
766.995 .0361447
767.710 .0361249
768.426 .0361053
769.141 .0360858
769.855 .0360662
770.570 .0360475
771.284 .0360289
771.998 .0360109
772.712 .0359939
773.426 .0359779
774.139 .0359631
774.852 .0359499
775.565 .0359382
776.277 .0359275
776.990 .0359178
777.702 .0359089
778.414 .0359002
779.125 .0358919
779.836 .0358836
780.547 .0358756
781.258 .0358677
781.969 .0358603
782.679 .0358535
783.389 .0358471
784.099 .0358414
784.808 .0358361
785.517 .0358314
786.226 .0358268
786.935 .0358226
787.643 .0358183
788.352 .0358137
789.060 .0358090
789.767 .0358037
790.475 .0357976
791.182 .0357905
791.889 .0357830
792.595 .0357749
793.301 .0357664
794.008 .0357581
794.713 .0357497
795.419 .0357419
796.124 .0357343
796.829 .0357267
797.534 .0357186
798.238 .0357108
798.942 .0357021
799.646 .0356926
800.350 .0356829
801.053 .0356729
801.756 .0356623
802.459 .0356516
803.162 .0356405
803.864 .0356289
804.566 .0356169
805.267 .0356040
805.969 .0355902
806.670 .0355760
807.371 .0355616
808.071 .0355473
808.772 .0355335
809.472 .0355200
810.171 .0355065
810.871 .0354930
811.570 .0354791
812.269 .0354644
812.967 .0354487
813.666 .0354327
814.364 .0354169
815.061 .0354012
815.759 .0353863
816.456 .0353723
817.153 .0353593
817.849 .0353463
818.545 .0353327
819.241 .0353181
819.937 .0353019
820.632 .0352842
821.327 .0352642
822.022 .0352425
822.717 .0352201
823.411 .0351969
824.105 .0351740
824.798 .0351516
825.491 .0351302
826.184 .0351094
826.877 .0350898
827.569 .0350708
828.261 .0350519
828.953 .0350322
829.645 .0350116
830.336 .0349900
831.027 .0349674
831.717 .0349441
832.407 .0349204
833.097 .0348975
833.787 .0348753
834.476 .0348538
835.165 .0348333
835.854 .0348135
836.542 .0347944
837.230 .0347749
837.918 .0347551
838.605 .0347352
839.292 .0347153
839.979 .0346957
840.665 .0346772
841.352 .0346602
842.037 .0346449
842.723 .0346309
843.408 .0346181
844.093 .0346060
844.777 .0345937
845.462 .0345808
846.145 .0345673
846.829 .0345531
847.512 .0345387
848.195 .0345241
848.878 .0345106
849.560 .0344979
850.242 .0344859
850.923 .0344746
851.605 .0344635
852.286 .0344526
852.966 .0344415
853.646 .0344298
854.326 .0344178
855.006 .0344056
855.685 .0343933
856.364 .0343809
857.043 .0343693
857.721 .0343579
858.399 .0343467
859.077 .0343351
859.754 .0343233
860.431 .0343102
861.107 .0342968
861.784 .0342826
862.459 .0342679
863.135 .0342535
863.810 .0342393
864.485 .0342251
865.160 .0342120
865.834 .0341996
866.508 .0341879
867.181 .0341767
867.854 .0341663
868.527 .0341560
869.199 .0341459
869.872 .0341358
870.543 .0341258
871.215 .0341156
871.886 .0341055
872.557 .0340943
873.227 .0340829
873.897 .0340718
874.567 .0340606
875.236 .0340499
875.905 .0340406
876.573 .0340324
877.242 .0340254
877.909 .0340191
878.577 .0340141
879.244 .0340097
879.911 .0340060
880.577 .0340021
881.243 .0339976
881.909 .0339925
882.575 .0339868
883.240 .0339799
883.904 .0339723
884.569 .0339639
885.232 .0339540
885.896 .0339426
886.559 .0339298
887.222 .0339153
887.885 .0338993
888.547 .0338817
889.208 .0338632
889.870 .0338432
890.531 .0338233
891.192 .0338032
891.852 .0337841
892.512 .0337663
893.171 .0337496
893.830 .0337343
894.489 .0337207
895.148 .0337083
895.806 .0336968
896.464 .0336862
897.121 .0336762
897.778 .0336660
898.434 .0336561
899.091 .0336459
899.747 .0336357
900.402 .0336251
901.057 .0336144
901.712 .0336025
902.366 .0335897
903.020 .0335757
903.674 .0335607
904.327 .0335449
904.980 .0335284
905.633 .0335110
906.285 .0334934
906.936 .0334755
907.588 .0334571
908.239 .0334380
908.889 .0334187
909.540 .0333984
910.190 .0333769
910.839 .0333540
911.488 .0333301
912.137 .0333048
912.785 .0332783
913.433 .0332509
914.081 .0332228
914.728 .0331940
915.375 .0331653
916.021 .0331368
916.668 .0331087
917.313 .0330814
917.959 .0330546
918.604 .0330281
919.248 .0330025
919.892 .0329775
920.536 .0329534
921.180 .0329299
921.823 .0329077
922.465 .0328858
923.108 .0328644
923.750 .0328432
924.391 .0328210
925.032 .0327980
925.673 .0327738
926.313 .0327484
926.953 .0327216
927.593 .0326937
928.232 .0326649
928.871 .0326353
929.510 .0326053
930.148 .0325745
930.786 .0325432
931.423 .0325116
932.060 .0324800
932.697 .0324484
933.333 .0324175
933.969 .0323879
934.604 .0323600
935.239 .0323342
935.874 .0323102
936.508 .0322884
937.142 .0322683
937.776 .0322496
938.409 .0322320
939.042 .0322149
939.674 .0321982
940.306 .0321816
940.938 .0321651
941.569 .0321489
942.200 .0321330
942.830 .0321175
943.460 .0321022
944.090 .0320874
944.720 .0320727
945.349 .0320586
945.977 .0320452
946.606 .0320326
947.233 .0320205
947.861 .0320086
948.488 .0319967
949.115 .0319848
949.741 .0319729
950.367 .0319614
950.993 .0319503
951.618 .0319398
952.243 .0319302
952.868 .0319213
953.492 .0319129
954.115 .0319050
954.739 .0318970
955.362 .0318887
955.984 .0318796
956.607 .0318699
957.229 .0318598
957.850 .0318498
958.471 .0318401
959.092 .0318307
959.713 .0318214
960.333 .0318123
960.952 .0318033
961.572 .0317947
962.191 .0317866
962.809 .0317787
963.428 .0317709
964.045 .0317633
964.663 .0317563
965.280 .0317495
965.897 .0317437
966.513 .0317389
967.129 .0317352
967.745 .0317328
968.361 .0317311
968.976 .0317301
969.590 .0317299
970.205 .0317304
970.818 .0317309
971.432 .0317314
972.045 .0317317
972.658 .0317317
973.271 .0317315
973.883 .0317312
974.495 .0317301
975.106 .0317280
975.717 .0317252
976.328 .0317215
976.938 .0317168
977.548 .0317118
978.158 .0317064
978.768 .0317017
979.377 .0316971
979.985 .0316928
980.594 .0316880
981.202 .0316834
981.809 .0316787
982.417 .0316737
983.024 .0316686
983.631 .0316640
984.237 .0316594
984.843 .0316555
985.449 .0316520
986.054 .0316486
986.659 .0316449
987.264 .0316410
987.868 .0316360
988.472 .0316305
989.076 .0316240
989.679 .0316176
990.282 .0316110
990.885 .0316054
991.487 .0316001
992.090 .0315951
992.691 .0315900
993.293 .0315844
993.894 .0315774
994.495 .0315696
995.095 .0315599
995.696 .0315490
996.296 .0315370
996.895 .0315247
997.494 .0315120
998.093 .0314999
998.692 .0314876
999.291 .0314754
999.889 .0314625
1000.487 .0314490
1001.084 .0314340
1001.681 .0314184
1002.278 .0314019
1002.875 .0313855
1003.471 .0313699
1004.067 .0313564
1004.663 .0313450
1005.258 .0313365
1005.854 .0313299
1006.449 .0313245
1007.043 .0313193
1007.638 .0313128
1008.232 .0313046
1008.826 .0312951
1009.419 .0312838
1010.012 .0312717
1010.605 .0312590
1011.198 .0312461
1011.791 .0312331
1012.383 .0312198
1012.975 .0312048
1013.566 .0311880
1014.158 .0311693
1014.749 .0311484
1015.340 .0311260
1015.931 .0311037
1016.521 .0310822
1017.111 .0310627
1017.701 .0310456
1018.291 .0310310
1018.880 .0310180
1019.470 .0310067
1020.059 .0309959
1020.647 .0309855
1021.236 .0309754
1021.824 .0309653
1022.412 .0309552
1023.000 .0309454
1023.588 .0309364
1024.175 .0309275
1024.762 .0309179
1025.349 .0309080
1025.936 .0308974
1026.523 .0308860
1027.109 .0308736
1027.695 .0308606
1028.281 .0308471
1028.867 .0308328
1029.452 .0308179
1030.038 .0308018
1030.623 .0307852
1031.208 .0307682
1031.792 .0307512
1032.377 .0307347
1032.961 .0307197
1033.546 .0307062
1034.130 .0306944
1034.714 .0306853
1035.297 .0306786
1035.881 .0306728
1036.464 .0306677
1037.047 .0306628
1037.630 .0306580
1038.213 .0306533
1038.796 .0306484
1039.378 .0306430
1039.961 .0306384
1040.543 .0306338
1041.125 .0306289
1041.707 .0306231
1042.289 .0306167
1042.871 .0306096
1043.452 .0306011
1044.034 .0305901
1044.615 .0305764
1045.196 .0305611
1045.777 .0305449
1046.358 .0305275
1046.939 .0305099
1047.520 .0304924
1048.101 .0304762
1048.681 .0304618
1049.262 .0304499
1049.842 .0304403
1050.422 .0304339
1051.002 .0304306
1051.582 .0304289
1052.162 .0304290
1052.742 .0304294
1053.322 .0304296
1053.902 .0304303
1054.482 .0304305
1055.061 .0304296
1055.641 .0304285
1056.220 .0304279
1056.800 .0304275
1057.379 .0304270
1057.958 .0304264
1058.538 .0304259
1059.117 .0304255
1059.696 .0304251
1060.275 .0304239
1060.854 .0304219
1061.433 .0304203
1062.012 .0304179
1062.592 .0304165
1063.171 .0304171
1063.750 .0304205
1064.329 .0304272
1064.908 .0304356
1065.487 .0304454
1066.066 .0304557
1066.645 .0304653
1067.224 .0304738
1067.803 .0304788
1068.382 .0304806
1068.961 .0304786
1069.540 .0304726
1070.119 .0304640
1070.698 .0304547
1071.278 .0304463
1071.857 .0304385
1072.436 .0304322
1073.016 .0304268
1073.595 .0304230
1074.175 .0304212
1074.754 .0304215
1075.334 .0304222
1075.913 .0304231
1076.493 .0304246
1077.073 .0304256
1077.653 .0304269
1078.233 .0304288
1078.813 .0304319
1079.393 .0304366
1079.974 .0304413
1080.554 .0304465
1081.135 .0304516
1081.716 .0304581
1082.296 .0304652
1082.877 .0304733
1083.458 .0304796
1084.040 .0304854
1084.621 .0304902
1085.202 .0304931
1085.784 .0304955
1086.366 .0304986
1086.948 .0305028
1087.530 .0305089
1088.112 .0305175
1088.695 .0305273
1089.277 .0305384
1089.860 .0305521
1090.443 .0305646
1091.026 .0305750
1091.610 .0305838
1092.193 .0305901
1092.777 .0305942
1093.361 .0305979
1093.946 .0306012
1094.530 .0306036
1095.115 .0306077
1095.700 .0306113
1096.285 .0306132
1096.871 .0306141
1097.456 .0306154
1098.042 .0306164
1098.628 .0306176
1099.215 .0306205
1099.802 .0306251
1100.389 .0306318
1100.976 .0306410
1101.564 .0306500
1102.152 .0306584
1102.740 .0306662
1103.329 .0306725
1103.917 .0306755
1104.507 .0306775
1105.096 .0306790
1105.686 .0306814
1106.276 .0306843
1106.867 .0306882
1107.457 .0306923
1108.049 .0306967
1108.640 .0307024
1109.232 .0307087
1109.825 .0307170
1110.417 .0307281
1111.010 .0307409
1111.604 .0307563
1112.198 .0307744
1112.792 .0307940
1113.387 .0308143
1113.982 .0308350
1114.577 .0308578
1115.173 .0308836
1115.769 .0309112
1116.366 .0309433
1116.963 .0309806
1117.561 .0310209
1118.159 .0310614
1118.758 .0310995
1119.357 .0311327
1119.957 .0311560
1120.557 .0311701
1121.157 .0311760
1121.758 .0311742
1122.360 .0311696
1122.962 .0311632
1123.564 .0311578
1124.167 .0311559
1124.771 .0311542
1125.375 .0311531
1125.980 .0311537
1126.585 .0311547
1127.191 .0311536
1127.797 .0311531
1128.404 .0311548
1129.012 .0311595
1129.620 .0311667
1130.229 .0311814
1130.838 .0312017
1131.448 .0312260
1132.058 .0312552
1132.669 .0312890
1133.281 .0313280
1133.894 .0313735
1134.507 .0314239
1135.120 .0314834
1135.735 .0315488
1136.350 .0316203
1136.965 .0316958
1137.582 .0317759
1138.199 .0318590
1138.816 .0319455
1139.435 .0320337
1140.054 .0321321
1140.674 .0322354
1141.294 .0323482
1141.916 .0324610
1142.538 .0325409
1143.160 .0328318
1143.784 .0328688
1144.408 .0330143
1145.033 .0329087
