Measurement Sequence started on: 14-45-04-498
Integration time: 36
Scans to Average: 2 
>>>>>Begin Spectral Data<<<<<
433.946 .0523146
434.870 .0503403
435.793 .0504814
436.715 .0499521
437.635 .0481335
438.555 .0484111
439.473 .0478977
440.389 .0474701
441.305 .0470638
442.219 .0466855
443.132 .0463663
444.044 .0460543
444.954 .0457705
445.863 .0455304
446.771 .0453519
447.678 .0452049
448.584 .0451143
449.488 .0450578
450.391 .0450099
451.293 .0449624
452.194 .0449096
453.094 .0448301
453.992 .0447440
454.890 .0446401
455.786 .0445296
456.681 .0444130
457.575 .0443091
458.468 .0441957
459.360 .0440937
460.250 .0439976
461.140 .0438979
462.028 .0437976
462.915 .0437029
463.801 .0435914
464.687 .0434700
465.571 .0433453
466.454 .0432165
467.335 .0430836
468.216 .0429570
469.096 .0428333
469.975 .0427299
470.853 .0426440
471.729 .0425767
472.605 .0425228
473.479 .0424889
474.353 .0424598
475.226 .0424356
476.097 .0424171
476.968 .0424029
477.838 .0423865
478.706 .0423754
479.574 .0423690
480.441 .0423662
481.306 .0423697
482.171 .0423822
483.035 .0423963
483.898 .0424162
484.760 .0424316
485.621 .0424490
486.481 .0424632
487.340 .0424767
488.198 .0424834
489.055 .0424889
489.912 .0424895
490.767 .0424811
491.622 .0424639
492.476 .0424431
493.329 .0424158
494.180 .0423835
495.032 .0423452
495.882 .0423069
496.731 .0422687
497.580 .0422353
498.427 .0421993
499.274 .0421669
500.120 .0421314
500.965 .0420891
501.809 .0420411
502.653 .0419885
503.495 .0419319
504.337 .0418715
505.178 .0418090
506.018 .0417447
506.858 .0416782
507.696 .0416096
508.534 .0415385
509.371 .0414666
510.208 .0413895
511.043 .0413054
511.878 .0412176
512.712 .0411299
513.545 .0410393
514.377 .0409515
515.209 .0408684
516.040 .0407867
516.870 .0407118
517.699 .0406385
518.528 .0405735
519.356 .0405188
520.183 .0404714
521.010 .0404345
521.836 .0404146
522.661 .0404032
523.485 .0403972
524.309 .0403859
525.132 .0403703
525.954 .0403425
526.776 .0403004
527.597 .0402439
528.417 .0401702
529.237 .0400898
530.056 .0400020
530.874 .0398995
531.692 .0397946
532.508 .0396771
533.325 .0395593
534.140 .0394371
534.955 .0393112
535.770 .0391951
536.583 .0390931
537.397 .0390107
538.209 .0389472
539.021 .0388991
539.832 .0388660
540.643 .0388414
541.453 .0388192
542.262 .0388026
543.071 .0387905
543.879 .0387844
544.687 .0387814
545.494 .0387834
546.300 .0387918
547.106 .0387973
547.911 .0388001
548.716 .0388013
549.520 .0387878
550.323 .0387654
551.126 .0387307
551.929 .0386897
552.731 .0386507
553.532 .0386126
554.332 .0385765
555.133 .0385494
555.932 .0385225
556.731 .0384943
557.530 .0384659
558.328 .0384412
559.125 .0384150
559.922 .0383857
560.719 .0383584
561.515 .0383315
562.310 .0383038
563.105 .0382825
563.899 .0382653
564.693 .0382580
565.487 .0382572
566.280 .0382519
567.072 .0382500
567.864 .0382461
568.655 .0382337
569.446 .0382119
570.236 .0381802
571.026 .0381422
571.816 .0380954
572.605 .0380458
573.393 .0379984
574.181 .0379543
574.969 .0379117
575.756 .0378644
576.543 .0378100
577.329 .0377500
578.115 .0376772
578.900 .0375973
579.685 .0375147
580.469 .0374306
581.253 .0373481
582.036 .0372722
582.820 .0372042
583.602 .0371471
584.384 .0370943
585.166 .0370484
585.947 .0370035
586.728 .0369597
587.509 .0369135
588.289 .0368671
589.069 .0368241
589.848 .0367835
590.627 .0367455
591.405 .0367111
592.183 .0366785
592.961 .0366472
593.738 .0366139
594.515 .0365794
595.291 .0365422
596.067 .0365035
596.843 .0364625
597.618 .0364213
598.393 .0363813
599.167 .0363424
599.941 .0363038
600.715 .0362657
601.488 .0362278
602.261 .0361889
603.034 .0361485
603.806 .0361064
604.578 .0360638
605.349 .0360217
606.121 .0359806
606.891 .0359420
607.662 .0359057
608.432 .0358716
609.201 .0358398
609.971 .0358090
610.740 .0357791
611.508 .0357487
612.277 .0357184
613.045 .0356880
613.812 .0356583
614.579 .0356292
615.346 .0356019
616.113 .0355769
616.879 .0355538
617.645 .0355323
618.411 .0355115
619.176 .0354914
619.941 .0354713
620.705 .0354509
621.470 .0354306
622.233 .0354095
622.997 .0353888
623.760 .0353683
624.523 .0353488
625.286 .0353303
626.048 .0353127
626.810 .0352966
627.572 .0352801
628.333 .0352629
629.095 .0352443
629.855 .0352246
630.616 .0352033
631.376 .0351802
632.136 .0351565
632.895 .0351328
633.655 .0351098
634.414 .0350872
635.172 .0350652
635.931 .0350436
636.689 .0350215
637.447 .0349985
638.204 .0349739
638.962 .0349481
639.718 .0349206
640.475 .0348915
641.231 .0348615
641.988 .0348305
642.743 .0347985
643.499 .0347654
644.254 .0347321
645.009 .0346978
645.764 .0346621
646.518 .0346260
647.272 .0345898
648.026 .0345537
648.780 .0345174
649.533 .0344808
650.286 .0344435
651.039 .0344057
651.792 .0343675
652.544 .0343284
653.296 .0342902
654.048 .0342526
654.799 .0342168
655.550 .0341832
656.301 .0341524
657.052 .0341240
657.802 .0340979
658.552 .0340739
659.302 .0340502
660.052 .0340264
660.801 .0340024
661.550 .0339779
662.299 .0339538
663.048 .0339297
663.796 .0339073
664.544 .0338858
665.292 .0338661
666.040 .0338471
666.787 .0338288
667.534 .0338108
668.281 .0337925
669.028 .0337735
669.774 .0337535
670.521 .0337328
671.266 .0337115
672.012 .0336903
672.758 .0336690
673.503 .0336482
674.248 .0336279
674.992 .0336081
675.737 .0335889
676.481 .0335699
677.225 .0335512
677.969 .0335328
678.712 .0335143
679.455 .0334959
680.199 .0334770
680.941 .0334583
681.684 .0334402
682.426 .0334235
683.168 .0334080
683.910 .0333940
684.652 .0333817
685.393 .0333711
686.134 .0333612
686.875 .0333523
687.616 .0333429
688.356 .0333336
689.097 .0333235
689.837 .0333119
690.576 .0332990
691.316 .0332856
692.055 .0332723
692.794 .0332593
693.533 .0332472
694.272 .0332362
695.010 .0332258
695.748 .0332155
696.486 .0332043
697.224 .0331915
697.962 .0331765
698.699 .0331591
699.436 .0331392
700.173 .0331181
700.909 .0330962
701.646 .0330747
702.382 .0330546
703.118 .0330364
703.853 .0330202
704.589 .0330048
705.324 .0329902
706.059 .0329756
706.794 .0329595
707.529 .0329413
708.263 .0329212
708.997 .0328995
709.731 .0328766
710.465 .0328532
711.198 .0328304
711.931 .0328088
712.664 .0327886
713.397 .0327697
714.130 .0327506
714.862 .0327311
715.594 .0327105
716.326 .0326879
717.058 .0326645
717.789 .0326401
718.520 .0326153
719.251 .0325910
719.982 .0325681
720.713 .0325471
721.443 .0325280
722.173 .0325110
722.903 .0324953
723.633 .0324807
724.362 .0324663
725.091 .0324517
725.820 .0324366
726.549 .0324219
727.278 .0324080
728.006 .0323951
728.734 .0323832
729.462 .0323720
730.190 .0323616
730.917 .0323518
731.644 .0323423
732.371 .0323322
733.098 .0323220
733.825 .0323111
734.551 .0322997
735.277 .0322877
736.003 .0322754
736.728 .0322634
737.454 .0322518
738.179 .0322406
738.904 .0322293
739.629 .0322179
740.353 .0322072
741.077 .0321968
741.801 .0321876
742.525 .0321787
743.249 .0321702
743.972 .0321624
744.695 .0321560
745.418 .0321498
746.141 .0321442
746.863 .0321392
747.585 .0321343
748.307 .0321293
749.029 .0321237
749.750 .0321171
750.472 .0321103
751.193 .0321034
751.913 .0320964
752.634 .0320884
753.354 .0320805
754.074 .0320720
754.794 .0320633
755.514 .0320545
756.233 .0320451
756.952 .0320352
757.671 .0320257
758.390 .0320165
759.108 .0320075
759.826 .0319988
760.544 .0319915
761.262 .0319850
761.979 .0319787
762.697 .0319720
763.414 .0319650
764.130 .0319573
764.847 .0319486
765.563 .0319386
766.279 .0319276
766.995 .0319155
767.710 .0319029
768.426 .0318896
769.141 .0318763
769.855 .0318636
770.570 .0318510
771.284 .0318389
771.998 .0318280
772.712 .0318180
773.426 .0318090
774.139 .0318013
774.852 .0317945
775.565 .0317884
776.277 .0317827
776.990 .0317780
777.702 .0317736
778.414 .0317694
779.125 .0317654
779.836 .0317612
780.547 .0317567
781.258 .0317518
781.969 .0317457
782.679 .0317389
783.389 .0317309
784.099 .0317218
784.808 .0317114
785.517 .0317006
786.226 .0316897
786.935 .0316789
787.643 .0316682
788.352 .0316581
789.060 .0316476
789.767 .0316370
790.475 .0316257
791.182 .0316130
791.889 .0315988
792.595 .0315832
793.301 .0315658
794.008 .0315476
794.713 .0315286
795.419 .0315094
796.124 .0314898
796.829 .0314708
797.534 .0314512
798.238 .0314312
798.942 .0314115
799.646 .0313922
800.350 .0313735
801.053 .0313562
801.756 .0313401
802.459 .0313260
803.162 .0313136
803.864 .0313026
804.566 .0312925
805.267 .0312830
805.969 .0312731
806.670 .0312625
807.371 .0312517
808.071 .0312410
808.772 .0312302
809.472 .0312199
810.171 .0312099
810.871 .0312001
811.570 .0311898
812.269 .0311792
812.967 .0311676
813.666 .0311547
814.364 .0311405
815.061 .0311257
815.759 .0311102
816.456 .0310951
817.153 .0310803
817.849 .0310663
818.545 .0310534
819.241 .0310414
819.937 .0310297
820.632 .0310184
821.327 .0310071
822.022 .0309956
822.717 .0309836
823.411 .0309714
824.105 .0309586
824.798 .0309459
825.491 .0309338
826.184 .0309221
826.877 .0309112
827.569 .0309014
828.261 .0308925
828.953 .0308842
829.645 .0308763
830.336 .0308688
831.027 .0308618
831.717 .0308558
832.407 .0308507
833.097 .0308467
833.787 .0308445
834.476 .0308439
835.165 .0308446
835.854 .0308468
836.542 .0308497
837.230 .0308524
837.918 .0308550
838.605 .0308569
839.292 .0308585
839.979 .0308595
840.665 .0308600
841.352 .0308602
842.037 .0308594
842.723 .0308576
843.408 .0308546
844.093 .0308502
844.777 .0308443
845.462 .0308371
846.145 .0308291
846.829 .0308198
847.512 .0308099
848.195 .0307995
848.878 .0307886
849.560 .0307773
850.242 .0307656
850.923 .0307529
851.605 .0307402
852.286 .0307275
852.966 .0307149
853.646 .0307027
854.326 .0306915
855.006 .0306811
855.685 .0306712
856.364 .0306611
857.043 .0306502
857.721 .0306380
858.399 .0306254
859.077 .0306118
859.754 .0305977
860.431 .0305836
861.107 .0305704
861.784 .0305583
862.459 .0305473
863.135 .0305368
863.810 .0305268
864.485 .0305170
865.160 .0305066
865.834 .0304956
866.508 .0304840
867.181 .0304726
867.854 .0304618
868.527 .0304518
869.199 .0304428
869.872 .0304345
870.543 .0304265
871.215 .0304178
871.886 .0304078
872.557 .0303960
873.227 .0303817
873.897 .0303655
874.567 .0303476
875.236 .0303283
875.905 .0303081
876.573 .0302879
877.242 .0302672
877.909 .0302462
878.577 .0302246
879.244 .0302017
879.911 .0301774
880.577 .0301520
881.243 .0301257
881.909 .0300995
882.575 .0300742
883.240 .0300504
883.904 .0300283
884.569 .0300087
885.232 .0299906
885.896 .0299736
886.559 .0299576
887.222 .0299418
887.885 .0299254
888.547 .0299085
889.208 .0298909
889.870 .0298728
890.531 .0298552
891.192 .0298378
891.852 .0298206
892.512 .0298036
893.171 .0297863
893.830 .0297688
894.489 .0297509
895.148 .0297323
895.806 .0297132
896.464 .0296944
897.121 .0296766
897.778 .0296600
898.434 .0296448
899.091 .0296312
899.747 .0296189
900.402 .0296072
901.057 .0295958
901.712 .0295846
902.366 .0295737
903.020 .0295630
903.674 .0295524
904.327 .0295428
904.980 .0295341
905.633 .0295266
906.285 .0295201
906.936 .0295141
907.588 .0295082
908.239 .0295016
908.889 .0294943
909.540 .0294864
910.190 .0294775
910.839 .0294681
911.488 .0294583
912.137 .0294487
912.785 .0294385
913.433 .0294276
914.081 .0294158
914.728 .0294029
915.375 .0293881
916.021 .0293715
916.668 .0293529
917.313 .0293339
917.959 .0293144
918.604 .0292946
919.248 .0292759
919.892 .0292581
920.536 .0292406
921.180 .0292236
921.823 .0292067
922.465 .0291897
923.108 .0291717
923.750 .0291538
924.391 .0291356
925.032 .0291180
925.673 .0291015
926.313 .0290861
926.953 .0290723
927.593 .0290595
928.232 .0290462
928.871 .0290323
929.510 .0290173
930.148 .0290009
930.786 .0289825
931.423 .0289629
932.060 .0289437
932.697 .0289257
933.333 .0289093
933.969 .0288954
934.604 .0288836
935.239 .0288739
935.874 .0288650
936.508 .0288563
937.142 .0288473
937.776 .0288386
938.409 .0288302
939.042 .0288220
939.674 .0288147
940.306 .0288089
940.938 .0288038
941.569 .0287995
942.200 .0287953
942.830 .0287896
943.460 .0287822
944.090 .0287726
944.720 .0287609
945.349 .0287474
945.977 .0287333
946.606 .0287191
947.233 .0287054
947.861 .0286921
948.488 .0286784
949.115 .0286642
949.741 .0286498
950.367 .0286346
950.993 .0286175
951.618 .0285995
952.243 .0285817
952.868 .0285645
953.492 .0285489
954.115 .0285352
954.739 .0285236
955.362 .0285141
955.984 .0285061
956.607 .0284988
957.229 .0284917
957.850 .0284855
958.471 .0284792
959.092 .0284729
959.713 .0284664
960.333 .0284602
960.952 .0284545
961.572 .0284502
962.191 .0284463
962.809 .0284425
963.428 .0284393
964.045 .0284359
964.663 .0284310
965.280 .0284249
965.897 .0284169
966.513 .0284069
967.129 .0283943
967.745 .0283802
968.361 .0283640
968.976 .0283477
969.590 .0283316
970.205 .0283162
970.818 .0283017
971.432 .0282891
972.045 .0282775
972.658 .0282676
973.271 .0282589
973.883 .0282509
974.495 .0282422
975.106 .0282341
975.717 .0282254
976.328 .0282165
976.938 .0282081
977.548 .0282007
978.158 .0281943
978.768 .0281892
979.377 .0281848
979.985 .0281805
980.594 .0281757
981.202 .0281708
981.809 .0281633
982.417 .0281545
983.024 .0281442
983.631 .0281321
984.237 .0281191
984.843 .0281061
985.449 .0280924
986.054 .0280790
986.659 .0280658
987.264 .0280524
987.868 .0280391
988.472 .0280263
989.076 .0280130
989.679 .0279991
990.282 .0279848
990.885 .0279703
991.487 .0279542
992.090 .0279383
992.691 .0279223
993.293 .0279065
993.894 .0278921
994.495 .0278785
995.095 .0278661
995.696 .0278553
996.296 .0278451
996.895 .0278354
997.494 .0278256
998.093 .0278155
998.692 .0278043
999.291 .0277929
999.889 .0277807
1000.487 .0277680
1001.084 .0277551
1001.681 .0277424
1002.278 .0277296
1002.875 .0277173
1003.471 .0277056
1004.067 .0276942
1004.663 .0276834
1005.258 .0276727
1005.854 .0276619
1006.449 .0276511
1007.043 .0276397
1007.638 .0276279
1008.232 .0276158
1008.826 .0276036
1009.419 .0275913
1010.012 .0275798
1010.605 .0275697
1011.198 .0275603
1011.791 .0275512
1012.383 .0275423
1012.975 .0275330
1013.566 .0275220
1014.158 .0275096
1014.749 .0274957
1015.340 .0274807
1015.931 .0274644
1016.521 .0274479
1017.111 .0274312
1017.701 .0274150
1018.291 .0273985
1018.880 .0273818
1019.470 .0273654
1020.059 .0273497
1020.647 .0273341
1021.236 .0273197
1021.824 .0273071
1022.412 .0272961
1023.000 .0272858
1023.588 .0272774
1024.175 .0272691
1024.762 .0272612
1025.349 .0272540
1025.936 .0272486
1026.523 .0272441
1027.109 .0272416
1027.695 .0272403
1028.281 .0272404
1028.867 .0272420
1029.452 .0272432
1030.038 .0272429
1030.623 .0272420
1031.208 .0272398
1031.792 .0272352
1032.377 .0272299
1032.961 .0272243
1033.546 .0272184
1034.130 .0272130
1034.714 .0272078
1035.297 .0272019
1035.881 .0271954
1036.464 .0271892
1037.047 .0271830
1037.630 .0271770
1038.213 .0271727
1038.796 .0271698
1039.378 .0271688
1039.961 .0271705
1040.543 .0271738
1041.125 .0271779
1041.707 .0271838
1042.289 .0271893
1042.871 .0271941
1043.452 .0271985
1044.034 .0272027
1044.615 .0272066
1045.196 .0272111
1045.777 .0272163
1046.358 .0272208
1046.939 .0272263
1047.520 .0272317
1048.101 .0272351
1048.681 .0272378
1049.262 .0272392
1049.842 .0272382
1050.422 .0272350
1051.002 .0272305
1051.582 .0272237
1052.162 .0272169
1052.742 .0272104
1053.322 .0272047
1053.902 .0272006
1054.482 .0271993
1055.061 .0271988
1055.641 .0271998
1056.220 .0272012
1056.800 .0272009
1057.379 .0271985
1057.958 .0271950
1058.538 .0271883
1059.117 .0271798
1059.696 .0271710
1060.275 .0271638
1060.854 .0271573
1061.433 .0271539
1062.012 .0271525
1062.592 .0271539
1063.171 .0271569
1063.750 .0271605
1064.329 .0271636
1064.908 .0271658
1065.487 .0271656
1066.066 .0271629
1066.645 .0271588
1067.224 .0271566
1067.803 .0271553
1068.382 .0271581
1068.961 .0271668
1069.540 .0271808
1070.119 .0271986
1070.698 .0272207
1071.278 .0272453
1071.857 .0272691
1072.436 .0272915
1073.016 .0273099
1073.595 .0273243
1074.175 .0273359
1074.754 .0273447
1075.334 .0273526
1075.913 .0273624
1076.493 .0273748
1077.073 .0273878
1077.653 .0274024
1078.233 .0274175
1078.813 .0274295
1079.393 .0274378
1079.974 .0274410
1080.554 .0274398
1081.135 .0274319
1081.716 .0274213
1082.296 .0274076
1082.877 .0273946
1083.458 .0273821
1084.040 .0273698
1084.621 .0273598
1085.202 .0273514
1085.784 .0273458
1086.366 .0273411
1086.948 .0273377
1087.530 .0273375
1088.112 .0273365
1088.695 .0273357
1089.277 .0273343
1089.860 .0273335
1090.443 .0273320
1091.026 .0273311
1091.610 .0273319
1092.193 .0273337
1092.777 .0273374
1093.361 .0273434
1093.946 .0273490
1094.530 .0273534
1095.115 .0273561
1095.700 .0273531
1096.285 .0273472
1096.871 .0273378
1097.456 .0273237
1098.042 .0273057
1098.628 .0272882
1099.215 .0272710
1099.802 .0272537
1100.389 .0272373
1100.976 .0272214
1101.564 .0272028
1102.152 .0271829
1102.740 .0271600
1103.329 .0271362
1103.917 .0271147
1104.507 .0270971
1105.096 .0270843
1105.686 .0270784
1106.276 .0270782
1106.867 .0270855
1107.457 .0270976
1108.049 .0271149
1108.640 .0271322
1109.232 .0271491
1109.825 .0271690
1110.417 .0271917
1111.010 .0272192
1111.604 .0272507
1112.198 .0272898
1112.792 .0273361
1113.387 .0273840
1113.982 .0274345
1114.577 .0274892
1115.173 .0275445
1115.769 .0275978
1116.366 .0276453
1116.963 .0276893
1117.561 .0277315
1118.159 .0277728
1118.758 .0278110
1119.357 .0278478
1119.957 .0278823
1120.557 .0279123
1121.157 .0279358
1121.758 .0279580
1122.360 .0279781
1122.962 .0279943
1123.564 .0280099
1124.167 .0280229
1124.771 .0280311
1125.375 .0280373
1125.980 .0280381
1126.585 .0280372
1127.191 .0280306
1127.797 .0280217
1128.404 .0280080
1129.012 .0279985
1129.620 .0279937
1130.229 .0279919
1130.838 .0279975
1131.448 .0280071
1132.058 .0280198
1132.669 .0280312
1133.281 .0280394
1133.894 .0280460
1134.507 .0280511
1135.120 .0280627
1135.735 .0280760
1136.350 .0281051
1136.965 .0281518
1137.582 .0282151
1138.199 .0282995
1138.816 .0283956
1139.435 .0285028
1140.054 .0286236
1140.674 .0287649
1141.294 .0289378
1141.916 .0291361
1142.538 .0290149
1143.160 .0294108
1143.784 .0299202
1144.408 .0305227
1145.033 .0306050
