Measurement Sequence started on: 15-12-46-377
Integration time: 28
Scans to Average: 2 
>>>>>Begin Spectral Data<<<<<
432.689 767.3333333
433.621 757.1851852
434.552 760.6222222
435.482 763.5714286
436.410 765.3950617
437.337 769.0909091
438.262 770.2478632
439.187 772.6592593
440.110 774.7777778
441.031 776.7973856
441.952 779.3594771
442.871 780.9019608
443.789 783.6013072
444.705 784.8888889
445.621 785.8758170
446.535 787.8758170
447.447 789.1241830
448.359 791.5555556
449.269 792.6928105
450.178 796.2875817
451.086 799.2026144
451.993 801.3725490
452.898 803.3725490
453.803 806.0718954
454.706 808.9477124
455.608 811.0130719
456.508 812.6862745
457.408 815.9607843
458.306 818.3921569
459.204 819.9869281
460.100 821.8758170
460.995 825.3921569
461.888 827.4640523
462.781 830.7581699
463.673 832.0915033
464.563 833.8169935
465.452 833.9673203
466.340 835.8300654
467.228 837.5294118
468.114 839.8496732
468.999 840.8758170
469.882 841.9477124
470.765 842.5424837
471.647 843.5163399
472.528 843.4509804
473.407 845.5424837
474.286 846.4575163
475.163 847.3660131
476.040 846.7843137
476.915 846.3137255
477.790 845.1895425
478.663 846.0065359
479.535 845.7254902
480.407 846.0653595
481.277 844.8496732
482.147 844.7058824
483.015 842.7450980
483.883 842.5098039
484.749 841.2352941
485.615 840.5947712
486.479 841.4379085
487.343 841.7516340
488.206 840.0000000
489.067 838.3398693
489.928 837.6078431
490.788 837.0457516
491.647 838.6601307
492.505 838.4117647
493.362 837.8627451
494.218 837.1960784
495.073 836.9084967
495.928 836.5882353
496.781 835.5359477
497.634 835.0980392
498.486 835.2549020
499.337 834.8823529
500.187 835.1503268
501.036 832.0588235
501.884 832.5424837
502.731 832.6993464
503.578 832.2222222
504.424 831.5686275
505.268 831.5228758
506.113 829.8235294
506.956 828.6732026
507.798 827.9411765
508.640 827.7450980
509.480 827.1045752
510.320 826.7581699
511.160 826.4313725
511.998 826.5032680
512.836 825.0196078
513.672 825.8562092
514.508 825.5098039
515.344 826.5359477
516.178 824.7581699
517.012 823.8300654
517.845 824.2875817
518.677 824.9019608
519.508 824.1699346
520.339 825.6143791
521.169 826.5098039
521.998 826.6797386
522.826 826.8039216
523.654 825.7777778
524.481 826.6666667
525.307 827.4052288
526.133 827.6993464
526.958 827.6405229
527.782 826.5424837
528.605 826.0653595
529.428 826.2287582
530.250 826.7973856
531.072 826.7320261
531.892 825.8562092
532.712 825.9477124
533.532 826.3921569
534.350 824.0588235
535.168 824.1895425
535.986 824.6601307
536.802 824.9738562
537.618 826.2287582
538.434 826.3986928
539.249 825.6078431
540.063 825.2875817
540.876 824.4509804
541.689 824.8496732
542.501 825.2810458
543.313 824.9542484
544.124 825.6732026
544.934 825.8496732
545.744 827.0653595
546.553 826.7254902
547.361 826.6601307
548.169 827.5555556
548.976 828.1830065
549.783 828.1633987
550.589 829.0980392
551.395 829.4836601
552.200 829.0849673
553.004 830.5294118
553.808 830.4509804
554.611 833.2091503
555.414 833.0784314
556.216 833.9150327
557.018 834.4640523
557.819 833.7843137
558.619 835.1307190
559.419 836.1437908
560.218 837.6535948
561.017 838.2941176
561.815 839.8039216
562.613 838.6470588
563.410 838.9281046
564.207 838.8888889
565.003 839.8366013
565.799 840.9411765
566.594 841.6732026
567.388 843.0457516
568.182 843.0261438
568.976 846.3071895
569.769 848.1960784
570.562 850.4248366
571.354 853.3464052
572.145 856.6666667
572.936 859.6274510
573.727 863.1699346
574.517 868.0392157
575.307 872.4117647
576.096 879.5359477
576.885 886.4444444
577.673 893.8235294
578.461 900.3464052
579.248 908.1503268
580.035 916.5947712
580.821 927.8888889
581.607 938.6862745
582.392 949.6928105
583.177 962.0392157
583.962 976.0000000
584.746 991.2614379
585.529 1007.5032680
586.313 1026.0522876
587.095 1045.7254902
587.878 1065.4509804
588.660 1086.6732026
589.441 1109.7581699
590.222 1134.4313725
591.003 1160.1830065
591.783 1188.5882353
592.563 1217.7908497
593.342 1247.6732026
594.121 1277.2810458
594.899 1309.4640523
595.678 1342.1045752
596.455 1377.1372549
597.233 1411.6339869
598.009 1446.8562092
598.786 1482.8627451
599.562 1518.5424837
600.338 1554.9346405
601.113 1593.5424837
601.888 1631.7450980
602.663 1668.4444444
603.437 1706.9934641
604.211 1743.6601307
604.984 1780.4575163
605.757 1817.7450980
606.530 1855.2679739
607.302 1892.0457516
608.074 1929.1176471
608.845 1964.8039216
609.616 2001.4379085
610.387 2037.1503268
611.158 2072.2026144
611.928 2106.5098039
612.697 2139.9673203
613.467 2172.7385621
614.236 2202.5555556
615.004 2232.6928105
615.773 2261.9215686
616.541 2289.3398693
617.308 2316.9542484
618.076 2343.8235294
618.843 2370.0522876
619.609 2394.5555556
620.375 2418.8888889
621.141 2442.3267974
621.907 2464.9281046
622.672 2484.7254902
623.437 2505.2222222
624.202 2524.1176471
624.966 2542.5163399
625.730 2560.6078431
626.493 2578.6862745
627.257 2596.2418301
628.020 2613.0849673
628.782 2630.7516340
629.545 2647.0849673
630.307 2664.4771242
631.068 2681.6470588
631.830 2697.8431373
632.591 2714.7843137
633.352 2731.3529412
634.112 2748.2614379
634.872 2765.0849673
635.632 2783.1307190
636.392 2802.1633987
637.151 2821.9084967
637.910 2841.4379085
638.668 2862.0196078
639.427 2884.2679739
640.185 2909.9019608
640.943 2933.8888889
641.700 2958.1830065
642.457 2985.4183007
643.214 3011.4705882
643.971 3038.4183007
644.727 3066.5947712
645.483 3097.3594771
646.239 3129.3660131
646.994 3161.9281046
647.750 3196.0457516
648.505 3229.6732026
649.259 3266.3267974
650.014 3302.8431373
650.768 3341.1503268
651.521 3380.7254902
652.275 3419.7581699
653.028 3460.9803922
653.781 3504.8235294
654.534 3550.4313725
655.286 3593.3594771
656.039 3639.7647059
656.791 3688.0980392
657.542 3739.7385621
658.294 3789.5686275
659.045 3840.6274510
659.796 3893.7254902
660.546 3947.6078431
661.297 4003.3464052
662.047 4057.7189542
662.796 4114.2875817
663.546 4172.1111111
664.295 4228.9738562
665.044 4287.9673203
665.793 4345.4444444
666.542 4403.5816993
667.290 4460.3725490
668.038 4519.8235294
668.786 4578.5032680
669.533 4635.3660131
670.281 4690.3660131
671.028 4748.3202614
671.774 4803.9019608
672.521 4858.5947712
673.267 4913.1045752
674.013 4965.2810458
674.759 5016.9411765
675.505 5068.5098039
676.250 5118.2091503
676.995 5168.4248366
677.740 5215.9934641
678.484 5261.5620915
679.229 5307.4379085
679.973 5353.4052288
680.717 5397.8823529
681.460 5439.8758170
682.204 5481.1045752
682.947 5520.3267974
683.690 5557.9281046
684.433 5594.2679739
685.175 5628.5555556
685.917 5662.0849673
686.659 5694.8104575
687.401 5726.0784314
688.142 5754.2941176
688.884 5783.5424837
689.625 5809.3986928
690.365 5835.7843137
691.106 5860.7647059
691.846 5884.0849673
692.586 5906.9346405
693.326 5929.5555556
694.066 5950.4248366
694.805 5971.3594771
695.545 5990.1764706
696.284 6007.3071895
697.022 6025.0915033
697.761 6041.6797386
698.499 6056.5424837
699.237 6071.2418301
699.975 6085.7124183
700.713 6102.8039216
701.450 6114.4771242
702.187 6128.4771242
702.924 6140.5816993
703.661 6153.8954248
704.397 6165.9869281
705.133 6177.3006536
705.869 6187.1895425
706.605 6200.2287582
707.341 6211.1830065
708.076 6223.4771242
708.811 6236.3529412
709.546 6248.4771242
710.281 6261.0065359
711.015 6274.3006536
711.749 6285.8954248
712.483 6296.6535948
713.217 6304.4379085
713.950 6313.6535948
714.684 6321.0718954
715.417 6326.4836601
716.150 6330.3398693
716.882 6334.0588235
717.615 6336.2679739
718.347 6337.5359477
719.079 6334.2810458
719.811 6332.3333333
720.542 6329.2549020
721.273 6324.1307190
722.005 6318.6209150
722.735 6311.5816993
723.466 6304.8235294
724.196 6297.8692810
724.927 6290.4509804
725.656 6283.8888889
726.386 6277.1307190
727.116 6270.0588235
727.845 6263.8169935
728.574 6257.0000000
729.303 6250.2287582
730.031 6244.6732026
730.760 6238.2222222
731.488 6233.3071895
732.216 6226.0457516
732.944 6218.5032680
733.671 6212.8758170
734.398 6205.0392157
735.125 6196.1437908
735.852 6185.9150327
736.579 6176.9477124
737.305 6166.2091503
738.031 6154.5424837
738.757 6141.1437908
739.483 6126.9215686
740.208 6111.5686275
740.933 6095.7058824
741.658 6078.1437908
742.383 6059.8039216
743.108 6039.7712418
743.832 6018.8888889
744.556 5997.1045752
745.280 5975.1111111
746.004 5949.0915033
746.727 5925.3071895
747.450 5900.5490196
748.173 5876.4509804
748.896 5848.2875817
749.618 5822.1503268
750.340 5795.2156863
751.062 5768.7712418
751.784 5744.1633987
752.506 5717.5490196
753.227 5693.3464052
753.948 5669.4313725
754.669 5645.1830065
755.389 5623.0326797
756.110 5602.8169935
756.830 5584.2875817
757.550 5566.7385621
758.269 5551.8235294
758.989 5538.1568627
759.708 5527.6405229
760.427 5516.7450980
761.146 5511.9477124
761.864 5506.5490196
762.582 5502.3333333
763.300 5502.1960784
764.018 5501.2091503
764.736 5504.0718954
765.453 5507.3725490
766.170 5512.4575163
766.887 5517.0915033
767.603 5523.7647059
768.320 5529.8169935
769.036 5537.0718954
769.751 5543.4248366
770.467 5548.3071895
771.182 5553.7777778
771.897 5557.7450980
772.612 5561.6470588
773.327 5562.8823529
774.041 5564.9084967
774.755 5565.5620915
775.469 5563.8039216
776.183 5562.6078431
776.896 5560.9869281
777.609 5556.9869281
778.322 5553.3137255
779.035 5548.8366013
779.747 5545.3006536
780.459 5543.4967320
781.171 5540.1111111
781.882 5540.4444444
782.594 5542.6666667
783.305 5543.6601307
784.016 5547.0326797
784.726 5551.1895425
785.436 5556.1307190
786.147 5561.5294118
786.856 5568.6209150
787.566 5574.5359477
788.275 5579.6143791
788.984 5584.6209150
789.693 5590.6862745
790.401 5596.0392157
791.110 5602.9477124
791.818 5606.6862745
792.525 5608.4379085
793.233 5612.5816993
793.940 5612.2679739
794.647 5612.1503268
795.353 5611.1437908
796.060 5608.1111111
796.766 5602.5686275
797.472 5597.5228758
798.177 5592.8888889
798.883 5585.8627451
799.588 5580.3529412
800.292 5575.2745098
800.997 5570.6993464
801.701 5565.7385621
802.405 5561.2026144
803.109 5554.4836601
803.812 5550.3137255
804.515 5545.8627451
805.218 5540.4901961
805.921 5535.7843137
806.623 5530.6078431
807.325 5525.6013072
808.027 5522.4771242
808.728 5521.2745098
809.429 5518.8627451
810.130 5516.5424837
810.831 5514.1633987
811.531 5510.3986928
812.231 5508.1568627
812.931 5505.9084967
813.630 5504.3071895
814.330 5500.6666667
815.029 5500.3267974
815.727 5497.6993464
816.426 5496.8300654
817.124 5496.5359477
817.821 5497.0457516
818.519 5496.1372549
819.216 5495.8888889
819.913 5494.4444444
820.609 5494.2941176
821.306 5496.0261438
822.002 5496.6666667
822.697 5496.9150327
823.393 5500.9411765
824.088 5504.7973856
824.783 5507.7843137
825.477 5510.4836601
826.171 5514.4509804
826.865 5516.0000000
827.559 5520.7058824
828.252 5526.6209150
828.945 5531.1699346
829.638 5535.8692810
830.330 5542.3267974
831.023 5549.4117647
831.714 5557.1960784
832.406 5571.5032680
833.097 5577.7450980
833.788 5584.0457516
834.479 5592.3267974
835.169 5598.0588235
835.859 5603.4509804
836.548 5611.4183007
837.238 5620.5947712
837.927 5627.6993464
838.615 5636.1895425
839.304 5643.2287582
839.992 5649.7254902
840.680 5658.3202614
841.367 5667.5947712
842.054 5674.9346405
842.741 5681.3725490
843.428 5687.8888889
844.114 5687.9084967
844.800 5695.5032680
845.485 5701.5359477
846.170 5709.9411765
846.855 5717.2810458
847.540 5724.5163399
848.224 5729.6666667
848.908 5735.3725490
849.592 5744.6078431
850.275 5751.8562092
850.958 5758.8823529
851.641 5763.8104575
852.323 5766.8562092
853.005 5769.8104575
853.687 5774.3202614
854.368 5780.2156863
855.049 5783.4117647
855.730 5787.0326797
856.410 5788.6470588
857.090 5791.2679739
857.769 5794.1372549
858.449 5797.0653595
859.128 5800.9084967
859.806 5803.5882353
860.485 5805.0326797
861.163 5806.7973856
861.840 5810.0261438
862.518 5812.9738562
863.195 5817.2352941
863.871 5821.1437908
864.548 5823.3725490
865.224 5825.8496732
865.899 5829.8627451
866.574 5836.8496732
867.249 5842.3921569
867.924 5848.3921569
868.598 5854.2483660
869.272 5859.4901961
869.946 5864.6339869
870.619 5870.0000000
871.292 5876.8758170
871.964 5884.0653595
872.636 5889.7581699
873.308 5895.7973856
873.979 5901.1503268
874.651 5907.4901961
875.321 5914.9738562
875.992 5924.6339869
876.662 5932.9607843
877.331 5936.8562092
878.001 5942.0196078
878.670 5945.2156863
879.338 5949.9934641
880.007 5955.6078431
880.675 5959.0784314
881.342 5964.3071895
882.009 5967.6143791
882.676 5970.3267974
883.343 5971.1830065
884.009 5973.3529412
884.675 5974.5947712
885.340 5977.2679739
886.005 5977.5816993
886.670 5975.5686275
887.334 5972.5816993
887.998 5970.1960784
888.662 5969.7254902
889.325 5968.6535948
889.988 5966.6209150
890.650 5964.8169935
891.312 5962.3594771
891.974 5960.4967320
892.636 5956.2287582
893.297 5952.3267974
893.957 5949.6013072
894.618 5948.6078431
895.278 5946.3790850
895.937 5943.5555556
896.596 5939.4901961
897.255 5936.6078431
897.914 5935.7712418
898.572 5934.6013072
899.230 5933.9150327
899.887 5934.3660131
900.544 5931.9411765
901.201 5930.4052288
901.857 5930.7320261
902.513 5929.6797386
903.168 5927.9150327
903.823 5928.6535948
904.478 5928.5686275
905.132 5927.9281046
905.786 5926.7908497
906.440 5924.2745098
907.093 5923.9215686
907.746 5923.4836601
908.399 5922.2091503
909.051 5920.9607843
909.703 5920.7712418
910.354 5917.1176471
911.005 5913.6797386
911.656 5910.8300654
912.306 5913.3986928
912.956 5909.3725490
913.605 5907.6209150
914.254 5906.7581699
914.903 5904.6601307
915.551 5902.9542484
916.199 5899.4052288
916.847 5895.2026144
917.494 5891.2679739
918.141 5888.7385621
918.788 5887.3398693
919.434 5884.7908497
920.079 5879.8627451
920.725 5873.3921569
921.370 5869.5816993
922.014 5863.2156863
922.658 5857.5882353
923.302 5848.3529412
923.946 5844.1699346
924.589 5836.8039216
925.231 5827.4575163
925.873 5819.3594771
926.515 5810.7647059
927.157 5802.9673203
927.798 5795.9673203
928.439 5787.2091503
929.079 5778.0653595
929.719 5766.4771242
930.359 5754.6470588
930.998 5742.8692810
931.637 5731.4705882
932.275 5719.4248366
932.913 5710.4052288
933.551 5700.6601307
934.188 5688.7058824
934.825 5674.5947712
935.462 5662.5686275
936.098 5650.2875817
936.733 5636.1307190
937.369 5622.5751634
938.004 5610.0588235
938.638 5595.6993464
939.273 5584.8562092
939.907 5571.0522876
940.540 5558.1241830
941.173 5544.0326797
941.806 5532.6405229
942.438 5520.5620915
943.070 5509.6666667
943.702 5496.2352941
944.333 5483.0000000
944.964 5469.5555556
945.594 5457.9673203
946.224 5444.5751634
946.854 5432.2745098
947.483 5421.0784314
948.112 5408.9019608
948.741 5393.6405229
949.369 5381.1830065
949.996 5367.0522876
950.624 5352.7254902
951.251 5337.2679739
951.878 5323.4183007
952.504 5308.3333333
953.130 5293.8104575
953.755 5278.4117647
954.380 5263.2941176
955.005 5245.9673203
955.629 5231.3660131
956.253 5213.4117647
956.877 5196.3790850
957.500 5178.9411765
958.123 5160.6078431
958.746 5143.2483660
959.368 5126.7581699
959.990 5107.0522876
960.611 5087.4444444
961.232 5069.3921569
961.853 5050.0784314
962.473 5030.7058824
963.093 5009.5816993
963.712 4988.7124183
964.331 4966.9738562
964.950 4944.5163399
965.569 4923.1764706
966.187 4901.2026144
966.804 4877.4117647
967.422 4853.2156863
968.039 4828.2875817
968.655 4802.1633987
969.272 4776.4379085
969.887 4750.7973856
970.503 4724.5751634
971.118 4697.4248366
971.733 4669.0457516
972.347 4642.0261438
972.961 4614.5294118
973.575 4586.8823529
974.188 4558.6405229
974.801 4529.0980392
975.414 4500.2679739
976.026 4469.6928105
976.638 4439.1764706
977.250 4411.4771242
977.861 4382.2418301
978.472 4353.1372549
979.083 4324.8758170
979.693 4295.1372549
980.303 4264.1764706
980.912 4234.1372549
981.521 4204.9803922
982.130 4175.5620915
982.738 4146.3790850
983.346 4117.9150327
983.954 4090.5490196
984.562 4061.1830065
985.169 4032.7320261
985.775 4004.0130719
986.382 3977.8496732
986.988 3949.6013072
987.594 3921.3006536
988.199 3896.4379085
988.804 3871.2091503
989.409 3846.2026144
990.013 3821.2091503
990.617 3796.6209150
991.221 3773.4640523
991.824 3748.9281046
992.427 3725.3790850
993.030 3703.0784314
993.632 3680.9542484
994.234 3657.6274510
994.836 3635.2614379
995.438 3613.8627451
996.039 3593.1503268
996.640 3571.7450980
997.240 3550.9411765
997.840 3530.2418301
998.440 3508.8627451
999.040 3487.6993464
999.639 3467.9738562
1000.238 3447.0784314
1000.836 3428.1699346
1001.435 3408.4509804
1002.033 3390.1045752
1002.630 3371.2026144
1003.228 3353.0784314
1003.825 3333.3725490
1004.422 3315.3986928
1005.018 3297.6078431
1005.614 3280.2941176
1006.210 3262.2483660
1006.806 3243.6535948
1007.401 3225.8300654
1007.996 3208.6078431
1008.591 3190.4117647
1009.186 3173.2483660
1009.780 3153.6470588
1010.374 3137.1045752
1010.967 3119.7320261
1011.561 3101.2941176
1012.154 3082.3333333
1012.746 3063.0457516
1013.339 3042.9869281
1013.931 3024.1960784
1014.523 3004.4248366
1015.115 2986.0196078
1015.706 2967.5163399
1016.298 2945.8431373
1016.888 2925.2418301
1017.479 2904.4313725
1018.069 2883.9281046
1018.660 2862.9607843
1019.250 2842.6862745
1019.839 2822.7581699
1020.429 2801.8496732
1021.018 2780.2483660
1021.607 2759.8823529
1022.195 2739.0261438
1022.784 2718.4379085
1023.372 2696.1176471
1023.960 2673.8954248
1024.547 2653.3267974
1025.135 2631.3790850
1025.722 2609.3725490
1026.309 2589.9019608
1026.896 2569.4901961
1027.483 2549.9150327
1028.069 2528.2614379
1028.655 2508.8496732
1029.241 2487.1503268
1029.827 2466.2941176
1030.412 2444.6143791
1030.997 2423.9803922
1031.582 2402.3986928
1032.167 2381.3464052
1032.752 2361.3006536
1033.336 2342.3856209
1033.921 2322.0457516
1034.505 2302.1241830
1035.089 2283.1568627
1035.672 2263.6470588
1036.256 2243.3660131
1036.839 2225.1241830
1037.422 2205.7647059
1038.005 2187.4052288
1038.588 2167.7581699
1039.171 2149.1045752
1039.753 2130.4509804
1040.335 2113.0326797
1040.918 2095.0130719
1041.500 2078.9673203
1042.081 2061.8758170
1042.663 2044.0000000
1043.244 2026.1764706
1043.826 2009.0000000
1044.407 1990.5490196
1044.988 1971.7777778
1045.569 1953.6405229
1046.150 1937.5490196
1046.730 1920.0457516
1047.311 1903.3725490
1047.891 1887.7712418
1048.471 1871.5816993
1049.052 1856.3006536
1049.632 1839.6405229
1050.211 1822.8039216
1050.791 1807.9150327
1051.371 1790.9346405
1051.950 1775.7058824
1052.530 1761.6405229
1053.109 1746.5163399
1053.688 1733.3660131
1054.268 1720.3986928
1054.847 1706.5751634
1055.426 1693.0718954
1056.005 1679.0392157
1056.583 1665.7908497
1057.162 1652.6666667
1057.741 1638.8366013
1058.319 1625.7124183
1058.898 1612.7385621
1059.476 1601.5555556
1060.055 1590.5294118
1060.633 1577.7581699
1061.211 1566.6993464
1061.790 1554.5816993
1062.368 1543.3986928
1062.946 1532.9869281
1063.524 1522.5882353
1064.102 1511.2483660
1064.680 1501.6928105
1065.258 1491.7647059
1065.836 1482.5359477
1066.414 1472.6732026
1066.992 1462.5555556
1067.570 1453.3137255
1068.148 1444.1830065
1068.726 1435.8758170
1069.304 1426.8758170
1069.882 1418.7254902
1070.460 1411.6405229
1071.038 1403.4575163
1071.616 1396.4183007
1072.194 1388.2352941
1072.772 1381.0980392
1073.350 1372.6405229
1073.928 1365.2222222
1074.506 1358.0196078
