Measurement Sequence started on: 09-46-08-630
Integration time: 30
Scans to Average: 2 
>>>>>Begin Spectral Data<<<<<
434.745 .1049000
435.665 .1018681
436.585 .0959177
437.503 .0865555
438.420 .0803125
439.335 .0808088
440.249 .0772762
441.162 .0742763
442.074 .0718402
442.984 .0699692
443.894 .0684787
444.802 .0672112
445.708 .0661939
446.614 .0653715
447.518 .0646933
448.422 .0640940
449.324 .0635856
450.224 .0631451
451.124 .0627517
452.022 .0624132
452.920 .0621113
453.816 .0618455
454.711 .0616156
455.605 .0614100
456.497 .0612169
457.389 .0610389
458.279 .0608612
459.169 .0606830
460.057 .0605198
460.944 .0603804
461.830 .0602668
462.715 .0601794
463.599 .0601194
464.482 .0600739
465.363 .0600352
466.244 .0600044
467.124 .0599624
468.002 .0599195
468.880 .0598728
469.756 .0598197
470.632 .0597757
471.506 .0597467
472.379 .0597327
473.252 .0597376
474.123 .0597574
474.994 .0597851
475.863 .0598138
476.731 .0598397
477.599 .0598538
478.465 .0598597
479.331 .0598587
480.195 .0598485
481.059 .0598323
481.921 .0598246
482.783 .0598250
483.643 .0598360
484.503 .0598668
485.362 .0599085
486.220 .0599570
487.077 .0600104
487.933 .0600568
488.788 .0600965
489.642 .0601272
490.496 .0601463
491.348 .0601549
492.200 .0601628
493.050 .0601767
493.900 .0601954
494.749 .0602318
495.597 .0602836
496.445 .0603422
497.291 .0604040
498.136 .0604639
498.981 .0605167
499.825 .0605608
500.668 .0605993
501.510 .0606321
502.352 .0606712
503.192 .0607176
504.032 .0607749
504.871 .0608502
505.709 .0609468
506.546 .0610614
507.383 .0611886
508.219 .0613357
509.054 .0614923
509.888 .0616664
510.722 .0618564
511.554 .0620666
512.386 .0623024
513.217 .0625587
514.048 .0628354
514.877 .0631267
515.706 .0634290
516.535 .0637414
517.362 .0640649
518.189 .0644009
519.015 .0647385
519.840 .0650793
520.665 .0654158
521.489 .0657448
522.312 .0660556
523.134 .0663609
523.956 .0666514
524.777 .0669427
525.598 .0672228
526.417 .0675000
527.236 .0677796
528.055 .0680596
528.872 .0683449
529.690 .0686306
530.506 .0689169
531.322 .0692059
532.137 .0694794
532.951 .0697538
533.765 .0700023
534.578 .0702260
535.391 .0704029
536.203 .0705145
537.014 .0705551
537.824 .0705197
538.634 .0704093
539.444 .0702384
540.253 .0700048
541.061 .0697207
541.868 .0693933
542.675 .0690331
543.482 .0686496
544.288 .0682397
545.093 .0678187
545.897 .0673916
546.702 .0669552
547.505 .0665222
548.308 .0660930
549.110 .0656794
549.912 .0652827
550.713 .0649022
551.514 .0645450
552.314 .0642057
553.114 .0638888
553.913 .0635910
554.711 .0633048
555.509 .0630357
556.306 .0627798
557.103 .0625329
557.900 .0622916
558.695 .0620467
559.491 .0617961
560.285 .0615459
561.080 .0612954
561.873 .0610508
562.667 .0608146
563.459 .0605993
564.252 .0604016
565.043 .0602145
565.835 .0600349
566.625 .0598601
567.416 .0596787
568.205 .0594850
568.995 .0592769
569.783 .0590561
570.572 .0588321
571.360 .0586114
572.147 .0583905
572.934 .0581816
573.720 .0579828
574.506 .0577928
575.292 .0576088
576.077 .0574354
576.862 .0572650
577.646 .0570981
578.429 .0569393
579.213 .0567809
579.996 .0566229
580.778 .0564684
581.560 .0563156
582.341 .0561639
583.123 .0560131
583.903 .0558631
584.684 .0557164
585.463 .0555774
586.243 .0554426
587.022 .0553156
587.800 .0551988
588.578 .0550919
589.356 .0549932
590.134 .0549028
590.911 .0548198
591.687 .0547397
592.463 .0546641
593.239 .0545922
594.014 .0545245
594.789 .0544614
595.564 .0544026
596.338 .0543497
597.112 .0543024
597.885 .0542603
598.658 .0542234
599.431 .0541916
600.203 .0541652
600.975 .0541424
601.747 .0541222
602.518 .0541056
603.289 .0540914
604.059 .0540786
604.829 .0540680
605.599 .0540590
606.369 .0540508
607.138 .0540421
607.906 .0540326
608.675 .0540216
609.443 .0540086
610.210 .0539943
610.977 .0539785
611.744 .0539621
612.511 .0539452
613.277 .0539255
614.043 .0539038
614.809 .0538795
615.574 .0538515
616.339 .0538212
617.104 .0537890
617.868 .0537557
618.632 .0537227
619.395 .0536912
620.159 .0536618
620.922 .0536353
621.684 .0536114
622.447 .0535890
623.209 .0535654
623.970 .0535419
624.732 .0535164
625.493 .0534897
626.254 .0534624
627.014 .0534347
627.774 .0534072
628.534 .0533796
629.294 .0533518
630.053 .0533243
630.812 .0532964
631.571 .0532695
632.329 .0532423
633.087 .0532160
633.845 .0531909
634.602 .0531679
635.359 .0531466
636.116 .0531276
636.873 .0531099
637.629 .0530931
638.385 .0530763
639.141 .0530597
639.897 .0530427
640.652 .0530265
641.407 .0530119
642.161 .0529984
642.916 .0529854
643.670 .0529734
644.424 .0529611
645.177 .0529479
645.931 .0529333
646.684 .0529170
647.436 .0528987
648.189 .0528790
648.941 .0528579
649.693 .0528366
650.445 .0528150
651.196 .0527934
651.947 .0527707
652.698 .0527472
653.449 .0527222
654.199 .0526952
654.949 .0526668
655.699 .0526371
656.449 .0526063
657.198 .0525735
657.947 .0525390
658.696 .0525026
659.445 .0524639
660.193 .0524236
660.941 .0523822
661.689 .0523408
662.436 .0522985
663.184 .0522561
663.931 .0522141
664.678 .0521725
665.424 .0521309
666.171 .0520877
666.917 .0520441
667.663 .0519991
668.408 .0519530
669.154 .0519057
669.899 .0518582
670.644 .0518120
671.388 .0517670
672.133 .0517233
672.877 .0516812
673.621 .0516404
674.365 .0516012
675.108 .0515631
675.851 .0515254
676.594 .0514881
677.337 .0514514
678.080 .0514160
678.822 .0513826
679.564 .0513510
680.306 .0513221
681.047 .0512954
681.789 .0512712
682.530 .0512486
683.271 .0512261
684.012 .0512043
684.752 .0511825
685.492 .0511609
686.232 .0511395
686.972 .0511185
687.712 .0510986
688.451 .0510803
689.190 .0510632
689.929 .0510474
690.667 .0510319
691.406 .0510165
692.144 .0510004
692.882 .0509833
693.620 .0509648
694.357 .0509450
695.095 .0509244
695.832 .0509037
696.569 .0508822
697.305 .0508602
698.042 .0508366
698.778 .0508108
699.514 .0507830
700.249 .0507516
700.985 .0507164
701.720 .0506781
702.455 .0506374
703.190 .0505944
703.925 .0505505
704.659 .0505062
705.393 .0504617
706.127 .0504174
706.861 .0503730
707.595 .0503274
708.328 .0502814
709.061 .0502348
709.794 .0501878
710.527 .0501408
711.259 .0500947
711.991 .0500492
712.723 .0500051
713.455 .0499619
714.186 .0499193
714.918 .0498760
715.649 .0498326
716.380 .0497882
717.110 .0497432
717.841 .0496975
718.571 .0496515
719.301 .0496055
720.031 .0495600
720.760 .0495147
721.490 .0494695
722.219 .0494238
722.948 .0493783
723.676 .0493325
724.405 .0492871
725.133 .0492424
725.861 .0491992
726.589 .0491576
727.317 .0491183
728.044 .0490807
728.771 .0490454
729.498 .0490122
730.225 .0489814
730.951 .0489521
731.677 .0489248
732.403 .0488994
733.129 .0488759
733.855 .0488546
734.580 .0488360
735.305 .0488193
736.030 .0488043
736.755 .0487902
737.479 .0487772
738.203 .0487649
738.927 .0487528
739.651 .0487407
740.375 .0487288
741.098 .0487172
741.821 .0487053
742.544 .0486931
743.267 .0486814
743.989 .0486692
744.711 .0486570
745.433 .0486431
746.155 .0486280
746.877 .0486121
747.598 .0485947
748.319 .0485763
749.040 .0485566
749.760 .0485357
750.481 .0485137
751.201 .0484911
751.921 .0484682
752.640 .0484447
753.360 .0484208
754.079 .0483962
754.798 .0483706
755.517 .0483445
756.235 .0483176
756.953 .0482902
757.671 .0482634
758.389 .0482370
759.107 .0482106
759.824 .0481849
760.541 .0481593
761.258 .0481339
761.974 .0481077
762.691 .0480809
763.407 .0480532
764.123 .0480248
764.838 .0479960
765.554 .0479664
766.269 .0479365
766.984 .0479066
767.699 .0478762
768.413 .0478451
769.127 .0478130
769.841 .0477798
770.555 .0477447
771.268 .0477084
771.982 .0476711
772.694 .0476329
773.407 .0475942
774.120 .0475553
774.832 .0475163
775.544 .0474775
776.256 .0474389
776.967 .0474004
777.678 .0473623
778.389 .0473245
779.100 .0472869
779.810 .0472497
780.521 .0472134
781.231 .0471781
781.940 .0471440
782.650 .0471110
783.359 .0470786
784.068 .0470468
784.776 .0470161
785.485 .0469858
786.193 .0469568
786.901 .0469288
787.609 .0469018
788.316 .0468761
789.023 .0468515
789.730 .0468278
790.436 .0468051
791.143 .0467832
791.849 .0467619
792.555 .0467409
793.260 .0467208
793.965 .0467019
794.670 .0466842
795.375 .0466682
796.080 .0466534
796.784 .0466397
797.488 .0466271
798.191 .0466145
798.895 .0466022
799.598 .0465895
800.301 .0465764
801.003 .0465629
801.705 .0465489
802.408 .0465347
803.109 .0465207
803.811 .0465068
804.512 .0464931
805.213 .0464798
805.913 .0464663
806.614 .0464530
807.314 .0464399
808.014 .0464266
808.713 .0464131
809.412 .0463993
810.111 .0463852
810.810 .0463706
811.508 .0463559
812.206 .0463410
812.904 .0463256
813.602 .0463102
814.299 .0462947
814.996 .0462786
815.692 .0462627
816.389 .0462470
817.085 .0462311
817.781 .0462156
818.476 .0461996
819.171 .0461832
819.866 .0461668
820.561 .0461504
821.255 .0461336
821.949 .0461163
822.643 .0460991
823.336 .0460810
824.029 .0460622
824.722 .0460423
825.415 .0460208
826.107 .0459974
826.799 .0459721
827.490 .0459446
828.182 .0459150
828.873 .0458835
829.563 .0458494
830.254 .0458138
830.944 .0457771
831.634 .0457394
832.323 .0457010
833.012 .0456623
833.701 .0456244
834.390 .0455869
835.078 .0455503
835.766 .0455149
836.453 .0454817
837.141 .0454504
837.828 .0454208
838.514 .0453929
839.201 .0453665
839.887 .0453415
840.572 .0453171
841.258 .0452932
841.943 .0452694
842.628 .0452450
843.312 .0452201
843.996 .0451943
844.680 .0451681
845.363 .0451405
846.046 .0451116
846.729 .0450813
847.412 .0450491
848.094 .0450149
848.776 .0449784
849.457 .0449404
850.139 .0449016
850.819 .0448616
851.500 .0448206
852.180 .0447795
852.860 .0447388
853.540 .0446989
854.219 .0446601
854.898 .0446222
855.576 .0445854
856.254 .0445494
856.932 .0445141
857.610 .0444795
858.287 .0444459
858.964 .0444140
859.640 .0443836
860.317 .0443553
860.993 .0443296
861.668 .0443064
862.343 .0442855
863.018 .0442670
863.693 .0442504
864.367 .0442348
865.041 .0442201
865.714 .0442063
866.387 .0441933
867.060 .0441814
867.732 .0441705
868.404 .0441607
869.076 .0441529
869.748 .0441467
870.419 .0441418
871.089 .0441376
871.760 .0441343
872.430 .0441309
873.099 .0441269
873.769 .0441217
874.438 .0441153
875.106 .0441076
875.774 .0440989
876.442 .0440890
877.110 .0440789
877.777 .0440690
878.444 .0440594
879.110 .0440505
879.776 .0440426
880.442 .0440350
881.108 .0440278
881.773 .0440207
882.437 .0440134
883.102 .0440054
883.766 .0439965
884.429 .0439865
885.093 .0439762
885.755 .0439661
886.418 .0439563
887.080 .0439468
887.742 .0439382
888.403 .0439295
889.064 .0439205
889.725 .0439109
890.385 .0439005
891.045 .0438888
891.705 .0438763
892.364 .0438622
893.023 .0438478
893.682 .0438335
894.340 .0438203
894.998 .0438079
895.655 .0437969
896.312 .0437866
896.969 .0437772
897.625 .0437676
898.281 .0437583
898.937 .0437481
899.592 .0437372
900.247 .0437250
900.901 .0437115
901.555 .0436963
902.209 .0436800
902.862 .0436617
903.515 .0436420
904.168 .0436202
904.820 .0435965
905.472 .0435704
906.123 .0435427
906.774 .0435137
907.425 .0434841
908.076 .0434536
908.726 .0434232
909.375 .0433923
910.024 .0433616
910.673 .0433303
911.322 .0432989
911.970 .0432675
912.618 .0432360
913.265 .0432042
913.912 .0431724
914.558 .0431403
915.205 .0431081
915.850 .0430754
916.496 .0430423
917.141 .0430085
917.786 .0429732
918.430 .0429365
919.074 .0428986
919.718 .0428589
920.361 .0428180
921.004 .0427763
921.646 .0427339
922.288 .0426913
922.930 .0426486
923.571 .0426057
924.212 .0425634
924.853 .0425219
925.493 .0424811
926.133 .0424416
926.772 .0424040
927.411 .0423674
928.050 .0423316
928.688 .0422969
929.326 .0422625
929.963 .0422278
930.600 .0421931
931.237 .0421580
931.874 .0421225
932.510 .0420872
933.145 .0420515
933.780 .0420156
934.415 .0419804
935.050 .0419449
935.684 .0419089
936.318 .0418729
936.951 .0418366
937.584 .0418000
938.217 .0417637
938.849 .0417277
939.481 .0416922
940.112 .0416571
940.743 .0416229
941.374 .0415889
942.004 .0415556
942.634 .0415227
943.264 .0414900
943.893 .0414579
944.522 .0414264
945.150 .0413951
945.778 .0413646
946.406 .0413353
947.033 .0413071
947.660 .0412793
948.287 .0412519
948.913 .0412246
949.539 .0411973
950.165 .0411696
950.790 .0411420
951.414 .0411148
952.039 .0410893
952.663 .0410654
953.286 .0410438
953.910 .0410245
954.533 .0410080
955.155 .0409934
955.777 .0409803
956.399 .0409684
957.020 .0409578
957.641 .0409486
958.262 .0409407
958.882 .0409342
959.502 .0409300
960.122 .0409273
960.741 .0409270
961.360 .0409287
961.979 .0409320
962.597 .0409366
963.214 .0409419
963.832 .0409482
964.449 .0409547
965.066 .0409616
965.682 .0409692
966.298 .0409772
966.914 .0409862
967.529 .0409955
968.144 .0410049
968.758 .0410152
969.373 .0410251
969.986 .0410342
970.600 .0410427
971.213 .0410507
971.826 .0410579
972.438 .0410646
973.050 .0410708
973.662 .0410773
974.274 .0410834
974.885 .0410895
975.495 .0410952
976.106 .0411010
976.716 .0411064
977.325 .0411107
977.935 .0411147
978.544 .0411176
979.152 .0411191
979.761 .0411194
980.369 .0411183
980.976 .0411159
981.584 .0411122
982.191 .0411075
982.797 .0411022
983.404 .0410965
984.010 .0410899
984.615 .0410824
985.221 .0410744
985.826 .0410651
986.430 .0410543
987.035 .0410428
987.639 .0410312
988.243 .0410193
988.846 .0410075
989.449 .0409957
990.052 .0409847
990.654 .0409742
991.256 .0409641
991.858 .0409544
992.460 .0409460
993.061 .0409383
993.662 .0409309
994.262 .0409235
994.863 .0409158
995.463 .0409066
996.062 .0408960
996.662 .0408828
997.261 .0408670
997.860 .0408493
998.458 .0408303
999.056 .0408103
999.654 .0407912
1000.252 .0407728
1000.849 .0407551
1001.446 .0407379
1002.043 .0407200
1002.639 .0407003
1003.235 .0406784
1003.831 .0406550
1004.427 .0406298
1005.022 .0406035
1005.617 .0405773
1006.212 .0405513
1006.806 .0405262
1007.401 .0405023
1007.995 .0404778
1008.588 .0404526
1009.182 .0404262
1009.775 .0403978
1010.368 .0403673
1010.960 .0403351
1011.553 .0403019
1012.145 .0402691
1012.737 .0402370
1013.328 .0402061
1013.920 .0401757
1014.511 .0401471
1015.102 .0401198
1015.692 .0400930
1016.283 .0400674
1016.873 .0400432
1017.463 .0400201
1018.052 .0399982
1018.642 .0399773
1019.231 .0399577
1019.820 .0399386
1020.409 .0399201
1020.997 .0399013
1021.585 .0398815
1022.173 .0398599
1022.761 .0398366
1023.349 .0398121
1023.936 .0397872
1024.524 .0397609
1025.111 .0397333
1025.697 .0397052
1026.284 .0396758
1026.870 .0396444
1027.457 .0396117
1028.043 .0395779
1028.628 .0395430
1029.214 .0395078
1029.800 .0394729
1030.385 .0394394
1030.970 .0394081
1031.555 .0393795
1032.139 .0393531
1032.724 .0393288
1033.308 .0393050
1033.893 .0392804
1034.477 .0392555
1035.060 .0392304
1035.644 .0392048
1036.228 .0391798
1036.811 .0391565
1037.394 .0391350
1037.977 .0391150
1038.560 .0390975
1039.143 .0390811
1039.726 .0390652
1040.308 .0390485
1040.891 .0390302
1041.473 .0390099
1042.055 .0389880
1042.637 .0389645
1043.219 .0389408
1043.801 .0389180
1044.382 .0388970
1044.964 .0388770
1045.545 .0388583
1046.127 .0388415
1046.708 .0388258
1047.289 .0388099
1047.870 .0387949
1048.451 .0387801
1049.032 .0387655
1049.612 .0387518
1050.193 .0387396
1050.774 .0387291
1051.354 .0387220
1051.935 .0387179
1052.515 .0387169
1053.095 .0387189
1053.675 .0387248
1054.256 .0387320
1054.836 .0387408
1055.416 .0387511
1055.996 .0387605
1056.576 .0387690
1057.156 .0387778
1057.735 .0387864
1058.315 .0387958
1058.895 .0388068
1059.475 .0388182
1060.055 .0388299
1060.634 .0388419
1061.214 .0388521
1061.794 .0388603
1062.373 .0388667
1062.953 .0388702
1063.533 .0388708
1064.113 .0388711
1064.692 .0388704
1065.272 .0388679
1065.852 .0388663
1066.431 .0388646
1067.011 .0388626
1067.591 .0388615
1068.171 .0388610
1068.751 .0388610
1069.331 .0388650
1069.910 .0388708
1070.490 .0388782
1071.071 .0388883
1071.651 .0389012
1072.231 .0389152
1072.811 .0389308
1073.391 .0389481
1073.972 .0389664
1074.552 .0389873
1075.133 .0390121
1075.713 .0390387
1076.294 .0390696
1076.875 .0391032
1077.456 .0391373
1078.037 .0391695
1078.618 .0392002
1079.199 .0392268
1079.780 .0392508
1080.362 .0392737
1080.943 .0392953
1081.525 .0393163
1082.107 .0393377
1082.689 .0393592
1083.271 .0393795
1083.853 .0393974
1084.436 .0394125
1085.018 .0394230
1085.601 .0394299
1086.184 .0394319
1086.767 .0394310
1087.351 .0394288
1087.934 .0394269
1088.518 .0394258
1089.102 .0394252
1089.686 .0394263
1090.270 .0394286
1090.855 .0394312
1091.439 .0394353
1092.024 .0394396
1092.609 .0394441
1093.195 .0394488
1093.780 .0394569
1094.366 .0394659
1094.952 .0394779
1095.539 .0394934
1096.125 .0395118
1096.712 .0395308
1097.299 .0395516
1097.887 .0395708
1098.475 .0395891
1099.063 .0396050
1099.651 .0396174
1100.239 .0396263
1100.828 .0396355
1101.417 .0396430
1102.007 .0396523
1102.597 .0396630
1103.187 .0396760
1103.777 .0396853
1104.368 .0396961
1104.959 .0397047
1105.551 .0397104
1106.143 .0397146
1106.735 .0397191
1107.328 .0397248
1107.921 .0397356
1108.514 .0397484
1109.108 .0397664
1109.702 .0397875
1110.296 .0398085
1110.891 .0398249
1111.486 .0398378
1112.082 .0398453
1112.678 .0398487
1113.275 .0398484
1113.872 .0398485
1114.469 .0398478
1115.067 .0398507
1115.665 .0398564
1116.264 .0398694
1116.864 .0398894
1117.463 .0399142
1118.063 .0399429
1118.664 .0399750
1119.265 .0400066
1119.867 .0400376
1120.469 .0400686
1121.072 .0400978
1121.675 .0401260
1122.279 .0401561
1122.883 .0401872
1123.488 .0402236
1124.093 .0402664
1124.699 .0403145
1125.305 .0403658
1125.912 .0404171
1126.520 .0404635
1127.128 .0405052
1127.737 .0405405
1128.346 .0405709
1128.956 .0406018
1129.567 .0406380
1130.178 .0406816
1130.790 .0407358
1131.402 .0408040
1132.015 .0408817
1132.629 .0409689
1133.243 .0410593
1133.858 .0411503
1134.474 .0412438
1135.090 .0413399
1135.707 .0414348
1136.325 .0415383
1136.943 .0416515
1137.562 .0417692
1138.182 .0418919
1138.802 .0420153
1139.423 .0421411
1140.045 .0422747
1140.668 .0424180
1141.291 .0425674
1141.916 .0427308
1142.540 .0427880
1143.166 .0430912
1143.793 .0434420
1144.420 .0434470
1145.048 .0437520
