Measurement Sequence started on: 15-12-46-377
Integration time: 28
Scans to Average: 2 
>>>>>Begin Spectral Data<<<<<
432.689 .0000100
433.621 .0000100
434.552 .0000100
435.482 .0000100
436.410 .0000100
437.337 .0000100
438.262 .0287764
439.187 .0610116
440.110 .1010195
441.031 .1461661
441.952 .1171036
442.871 .1222771
443.789 .1270881
444.705 .1316148
445.621 .1359082
446.535 .1400074
447.447 .1424258
448.359 .1430029
449.269 .1413481
450.178 .1372064
451.086 .1306566
451.993 .1222031
452.898 .1126770
453.803 .1030224
454.706 .0940432
455.608 .0862391
456.508 .0797789
457.408 .0754042
458.306 .0720468
459.204 .0693178
460.100 .0670250
460.995 .0650608
461.888 .0633488
462.781 .0618401
463.673 .0604978
464.563 .0592969
465.452 .0582181
466.340 .0572453
467.228 .0563653
468.114 .0555682
468.999 .0548450
469.882 .0541877
470.765 .0535891
471.647 .0530428
472.528 .0525436
473.407 .0520867
474.286 .0516689
475.163 .0512876
476.040 .0509411
476.915 .0506282
477.790 .0503470
478.663 .0500964
479.535 .0498748
480.407 .0496800
481.277 .0495106
482.147 .0493645
483.015 .0492404
483.883 .0491374
484.749 .0490547
485.615 .0489923
486.479 .0489496
487.343 .0489261
488.206 .0489216
489.067 .0489347
489.928 .0489652
490.788 .0490122
491.647 .0490763
492.505 .0491582
493.362 .0492593
494.218 .0493815
495.073 .0495269
495.928 .0498333
496.781 .0500451
497.634 .0502840
498.486 .0505498
499.337 .0508434
500.187 .0511660
501.036 .0515189
501.884 .0519037
502.731 .0523248
503.578 .0527858
504.424 .0531056
505.268 .0536402
506.113 .0542272
506.956 .0548703
507.798 .0555750
508.640 .0563469
509.480 .0571927
510.320 .0581203
511.160 .0591392
511.998 .0602612
512.836 .0615012
513.672 .0628765
514.508 .0644074
515.344 .0661161
516.178 .0680264
517.012 .0701628
517.845 .0725481
518.677 .0752026
519.508 .0781411
520.339 .0813707
521.169 .0848921
521.998 .0886780
522.826 .0926892
523.654 .0968706
524.481 .1011556
525.307 .1054678
526.133 .1097207
526.958 .1138297
527.782 .1177134
528.605 .1212976
529.428 .1245182
530.250 .1273186
531.072 .1296633
531.892 .1315177
532.712 .1328580
533.532 .1336686
534.350 .1339404
535.168 .1336712
535.986 .1328624
536.802 .1315197
537.618 .1296524
538.434 .1272723
539.249 .1244198
540.063 .1211454
540.876 .1175112
541.689 .1135888
542.501 .1094572
543.313 .1052025
544.124 .1009073
544.934 .0966482
545.744 .0924937
546.553 .0885003
547.361 .0847151
548.169 .0811606
548.976 .0778572
549.783 .0748116
550.589 .0720207
551.395 .0694725
552.200 .0671486
553.004 .0650280
553.808 .0630898
554.611 .0613153
555.414 .0596889
556.216 .0581943
557.018 .0568156
557.819 .0555411
558.619 .0543614
559.419 .0532684
560.218 .0522556
561.017 .0513164
561.815 .0504455
562.613 .0496362
563.410 .0488811
564.207 .0481730
565.003 .0475047
565.799 .0468695
566.594 .0462604
567.388 .0456724
568.182 .0451010
568.976 .0445431
569.769 .0439969
570.562 .0434617
571.354 .0429366
572.145 .0424219
572.936 .0419180
573.727 .0414253
574.517 .0409444
575.307 .0404763
576.096 .0400217
576.885 .0395815
577.673 .0391569
578.461 .0387491
579.248 .0383595
580.035 .0379900
580.821 .0376415
581.607 .0373148
582.392 .0370103
583.177 .0367284
583.962 .0364686
584.746 .0362304
585.529 .0360125
586.313 .0358135
587.095 .0356323
587.878 .0354677
588.660 .0353182
589.441 .0351831
590.222 .0350610
591.003 .0349509
591.783 .0348514
592.563 .0347611
593.342 .0346786
594.121 .0346027
594.899 .0345323
595.678 .0344666
596.455 .0344045
597.233 .0343458
598.009 .0342899
598.786 .0342368
599.562 .0341861
600.338 .0341377
601.113 .0340914
601.888 .0340281
602.663 .0339861
603.437 .0339457
604.211 .0339066
604.984 .0338687
605.757 .0338317
606.530 .0337956
607.302 .0337602
608.074 .0337255
608.845 .0336914
609.616 .0336581
610.387 .0336426
611.158 .0336102
611.928 .0335784
612.697 .0335471
613.467 .0335163
614.236 .0334857
615.004 .0334552
615.773 .0334247
616.541 .0333943
617.308 .0333638
618.076 .0333332
618.843 .0333026
619.609 .0332719
620.375 .0332410
621.141 .0332100
621.907 .0331787
622.672 .0331471
623.437 .0331151
624.202 .0330827
624.966 .0330499
625.730 .0330168
626.493 .0329834
627.257 .0329496
628.020 .0329155
628.782 .0328811
629.545 .0328463
630.307 .0328111
631.068 .0327757
631.830 .0327400
632.591 .0327042
633.352 .0326684
634.112 .0326327
634.872 .0325973
635.632 .0325621
636.392 .0325273
637.151 .0324929
637.910 .0324589
638.668 .0324253
639.427 .0323922
640.185 .0323596
640.943 .0323277
641.700 .0322966
642.457 .0322663
643.214 .0322367
643.971 .0322080
644.727 .0321800
645.483 .0321526
646.239 .0321259
646.994 .0320998
647.750 .0320741
648.505 .0320489
649.259 .0320240
650.014 .0319995
650.768 .0319753
651.521 .0319513
652.275 .0319276
653.028 .0319041
653.781 .0318808
654.534 .0318575
655.286 .0318341
656.039 .0318107
656.791 .0317872
657.542 .0317636
658.294 .0317399
659.045 .0317160
659.796 .0316921
660.546 .0316682
661.297 .0316443
662.047 .0316205
662.796 .0315970
663.546 .0315736
664.295 .0315504
665.044 .0315276
665.793 .0315052
666.542 .0314834
667.290 .0314621
668.038 .0314413
668.786 .0314212
669.533 .0314017
670.281 .0313826
671.028 .0313641
671.774 .0313460
672.521 .0313284
673.267 .0313113
674.013 .0312946
674.759 .0312783
675.505 .0312625
676.250 .0312470
676.995 .0312318
677.740 .0312167
678.484 .0312016
679.229 .0311865
679.973 .0311712
680.717 .0311558
681.460 .0311401
682.204 .0311242
682.947 .0311080
683.690 .0310915
684.433 .0310747
685.175 .0310575
685.917 .0310398
686.659 .0310216
687.401 .0310028
688.142 .0309835
688.884 .0309637
689.625 .0309434
690.365 .0309226
691.106 .0309014
691.846 .0308797
692.586 .0308575
693.326 .0308349
694.066 .0308119
694.805 .0307886
695.545 .0307653
696.284 .0307418
697.022 .0307184
697.761 .0306951
698.499 .0306721
699.237 .0306493
699.975 .0306267
700.713 .0306043
701.450 .0305821
702.187 .0305601
702.924 .0305382
703.661 .0305164
704.397 .0304948
705.133 .0304732
705.869 .0304519
706.605 .0304306
707.341 .0304096
708.076 .0303887
708.811 .0303680
709.546 .0303475
710.281 .0303271
711.015 .0303068
711.749 .0302865
712.483 .0302663
713.217 .0302462
713.950 .0302260
714.684 .0302059
715.417 .0301857
716.150 .0301655
716.882 .0301454
717.615 .0301253
718.347 .0301053
719.079 .0300853
719.811 .0300656
720.542 .0300459
721.273 .0300264
722.005 .0300071
722.735 .0299881
723.466 .0299692
724.196 .0299506
724.927 .0299323
725.656 .0299143
726.386 .0298968
727.116 .0298797
727.845 .0298632
728.574 .0298473
729.303 .0298319
730.031 .0298171
730.760 .0298028
731.488 .0297889
732.216 .0297755
732.944 .0297624
733.671 .0297495
734.398 .0297370
735.125 .0297248
735.852 .0297129
736.579 .0297013
737.305 .0296901
738.031 .0296792
738.757 .0296686
739.483 .0296582
740.208 .0296480
740.933 .0296380
741.658 .0296281
742.383 .0296183
743.108 .0296084
743.832 .0295985
744.556 .0295886
745.280 .0295785
746.004 .0295683
746.727 .0295580
747.450 .0295476
748.173 .0295369
748.896 .0295261
749.618 .0295151
750.340 .0295040
751.062 .0294926
751.784 .0294810
752.506 .0294692
753.227 .0294570
753.948 .0294446
754.669 .0294320
755.389 .0294191
756.110 .0294061
756.830 .0293930
757.550 .0293798
758.269 .0293665
758.989 .0293532
759.708 .0293398
760.427 .0293263
761.146 .0293126
761.864 .0292988
762.582 .0292847
763.300 .0292705
764.018 .0292561
764.736 .0292416
765.453 .0292270
766.170 .0292124
766.887 .0291978
767.603 .0291833
768.320 .0291689
769.036 .0291548
769.751 .0291408
770.467 .0291270
771.182 .0291136
771.897 .0291004
772.612 .0290876
773.327 .0290751
774.041 .0290630
774.755 .0290513
775.469 .0290401
776.183 .0290293
776.896 .0290190
777.609 .0290092
778.322 .0289999
779.035 .0289910
779.747 .0289825
780.459 .0289743
781.171 .0289664
781.882 .0289587
782.594 .0289510
783.305 .0289433
784.016 .0289356
784.726 .0289278
785.436 .0289199
786.147 .0289070
786.856 .0288984
787.566 .0288894
788.275 .0288802
788.984 .0288705
789.693 .0288605
790.401 .0288500
791.110 .0288391
791.818 .0288279
792.525 .0288164
793.233 .0288046
793.940 .0287926
794.647 .0287860
795.353 .0287739
796.060 .0287616
796.766 .0287490
797.472 .0287363
798.177 .0287233
798.883 .0287100
799.588 .0286966
800.292 .0286831
800.997 .0286695
801.701 .0286558
802.405 .0286420
803.109 .0286283
803.812 .0286145
804.515 .0286007
805.218 .0285868
805.921 .0285728
806.623 .0285588
807.325 .0285447
808.027 .0285305
808.728 .0285163
809.429 .0285019
810.130 .0284873
810.831 .0284727
811.531 .0284579
812.231 .0284430
812.931 .0284281
813.630 .0284132
814.330 .0283983
815.029 .0283835
815.727 .0283690
816.426 .0283546
817.124 .0283404
817.821 .0283265
818.519 .0283129
819.216 .0282997
819.913 .0282867
820.609 .0282741
821.306 .0282619
822.002 .0282503
822.697 .0282391
823.393 .0282285
824.088 .0282185
824.783 .0282091
825.477 .0282003
826.171 .0281920
826.865 .0281843
827.559 .0281770
828.252 .0281702
828.945 .0281637
829.638 .0281576
830.330 .0281517
831.023 .0281462
831.714 .0281410
832.406 .0281360
833.097 .0281313
833.788 .0281269
834.479 .0281226
835.169 .0281186
835.859 .0281147
836.548 .0281110
837.238 .0281074
837.927 .0281038
838.615 .0281002
839.304 .0280965
839.992 .0280927
840.680 .0280887
841.367 .0280844
842.054 .0280799
842.741 .0280751
843.428 .0280700
844.114 .0280646
844.800 .0280590
845.485 .0280531
846.170 .0280468
846.855 .0280402
847.540 .0280331
848.224 .0280256
848.908 .0280176
849.592 .0280090
850.275 .0279999
850.958 .0279903
851.641 .0279802
852.323 .0279697
853.005 .0279589
853.687 .0279477
854.368 .0279363
855.049 .0279247
855.730 .0279129
856.410 .0279009
857.090 .0278888
857.769 .0278766
858.449 .0278643
859.128 .0278521
859.806 .0278399
860.485 .0278279
861.163 .0278161
861.840 .0278045
862.518 .0277932
863.195 .0277821
863.871 .0277713
864.548 .0277608
865.224 .0277504
865.899 .0277403
866.574 .0277304
867.249 .0277207
867.924 .0277111
868.598 .0277017
869.272 .0276925
869.946 .0276833
870.619 .0276741
871.292 .0276649
871.964 .0276556
872.636 .0276463
873.308 .0276370
873.979 .0276276
874.651 .0276181
875.321 .0276087
875.992 .0275992
876.662 .0275896
877.331 .0275798
878.001 .0275699
878.670 .0275599
879.338 .0275496
880.007 .0275392
880.675 .0275287
881.342 .0275182
882.009 .0275078
882.676 .0274975
883.343 .0274874
884.009 .0274774
884.675 .0274675
885.340 .0274577
886.005 .0274481
886.670 .0274386
887.334 .0274292
887.998 .0274201
888.662 .0274113
889.325 .0274028
889.988 .0273947
890.650 .0273869
891.312 .0273793
891.974 .0273720
892.636 .0273648
893.297 .0273575
893.957 .0273503
894.618 .0273430
895.278 .0273357
895.937 .0273282
896.596 .0273207
897.255 .0273130
897.914 .0273050
898.572 .0272967
899.230 .0272880
899.887 .0272788
900.544 .0272690
901.201 .0272586
901.857 .0272403
902.513 .0272284
903.168 .0272160
903.823 .0272031
904.478 .0271897
905.132 .0271758
905.786 .0271613
906.440 .0271461
907.093 .0271303
907.746 .0271138
908.399 .0270968
909.051 .0270793
909.703 .0270614
910.354 .0270514
911.005 .0270331
911.656 .0270146
912.306 .0269959
912.956 .0269769
913.605 .0269579
914.254 .0269386
914.903 .0269192
915.551 .0268997
916.199 .0268802
916.847 .0268606
917.494 .0268410
918.141 .0268214
918.788 .0268019
919.434 .0267824
920.079 .0267629
920.725 .0267434
921.370 .0267239
922.014 .0267041
922.658 .0266842
923.302 .0266640
923.946 .0266436
924.589 .0266230
925.231 .0266022
925.873 .0265812
926.515 .0265602
927.157 .0265391
927.798 .0265179
928.439 .0264968
929.079 .0264757
929.719 .0264547
930.359 .0264337
930.998 .0264129
931.637 .0263922
932.275 .0263719
932.913 .0263520
933.551 .0263326
934.188 .0263138
934.825 .0262958
935.462 .0262785
936.098 .0262620
936.733 .0262463
937.369 .0262312
938.004 .0262169
938.638 .0262034
939.273 .0261907
939.907 .0261788
940.540 .0261678
941.173 .0261578
941.806 .0261486
942.438 .0261404
943.070 .0261329
943.702 .0261262
944.333 .0261201
944.964 .0261145
945.594 .0261093
946.224 .0261043
946.854 .0260996
947.483 .0260950
948.112 .0260905
948.741 .0260861
949.369 .0260816
949.996 .0260772
950.624 .0260726
951.251 .0260678
951.878 .0260628
952.504 .0260575
953.130 .0260518
953.755 .0260457
954.380 .0260394
955.005 .0260327
955.629 .0260256
956.253 .0260184
956.877 .0260108
957.500 .0260031
958.123 .0259952
958.746 .0259872
959.368 .0259791
959.990 .0259710
960.611 .0259630
961.232 .0259552
961.853 .0259476
962.473 .0259403
963.093 .0259334
963.712 .0259268
964.331 .0259205
964.950 .0259148
965.569 .0259095
966.187 .0259046
966.804 .0259003
967.422 .0258964
968.039 .0258929
968.655 .0258899
969.272 .0258872
969.887 .0258849
970.503 .0258828
971.118 .0258810
971.733 .0258793
972.347 .0258779
972.961 .0258766
973.575 .0258754
974.188 .0258744
974.801 .0258735
975.414 .0258727
976.026 .0258717
976.638 .0258707
977.250 .0258694
977.861 .0258678
978.472 .0258660
979.083 .0258638
979.693 .0258614
980.303 .0258586
980.912 .0258530
981.521 .0258497
982.130 .0258463
982.738 .0258426
983.346 .0258386
983.954 .0258344
984.562 .0258301
985.169 .0258256
985.775 .0258212
986.382 .0258168
986.988 .0258127
987.594 .0258088
988.199 .0258053
988.804 .0258021
989.409 .0258016
990.013 .0257989
990.617 .0257966
991.221 .0257945
991.824 .0257926
992.427 .0257911
993.030 .0257899
993.632 .0257890
994.234 .0257886
994.836 .0257887
995.438 .0257892
996.039 .0257903
996.640 .0257919
997.240 .0257940
997.840 .0257966
998.440 .0257998
999.040 .0258035
999.639 .0258076
1000.238 .0258122
1000.836 .0258172
1001.435 .0258225
1002.033 .0258281
1002.630 .0258339
1003.228 .0258397
1003.825 .0258455
1004.422 .0258512
1005.018 .0258566
1005.614 .0258617
1006.210 .0258664
1006.806 .0258707
1007.401 .0258746
1007.996 .0258781
1008.591 .0258811
1009.186 .0258838
1009.780 .0258862
1010.374 .0258882
1010.967 .0258901
1011.561 .0258917
1012.154 .0258932
1012.746 .0258946
1013.339 .0258958
1013.931 .0258970
1014.523 .0258979
1015.115 .0258987
1015.706 .0258994
1016.298 .0258998
1016.888 .0259002
1017.479 .0259005
1018.069 .0259008
1018.660 .0259011
1019.250 .0259016
1019.839 .0259022
1020.429 .0259030
1021.018 .0259041
1021.607 .0259053
1022.195 .0259069
1022.784 .0259087
1023.372 .0259110
1023.960 .0259137
1024.547 .0259171
1025.135 .0259210
1025.722 .0259256
1026.309 .0259308
1026.896 .0259364
1027.483 .0259424
1028.069 .0259486
1028.655 .0259548
1029.241 .0259608
1029.827 .0259665
1030.412 .0259718
1030.997 .0259767
1031.582 .0259812
1032.167 .0259853
1032.752 .0259890
1033.336 .0259923
1033.921 .0259952
1034.505 .0259977
1035.089 .0259996
1035.672 .0260009
1036.256 .0260016
1036.839 .0260016
1037.422 .0260010
1038.005 .0259998
1038.588 .0259982
1039.171 .0259962
1039.753 .0259940
1040.335 .0259914
1040.918 .0259886
1041.500 .0259853
1042.081 .0259815
1042.663 .0259772
1043.244 .0259722
1043.826 .0259667
1044.407 .0259607
1044.988 .0259544
1045.569 .0259479
1046.150 .0259415
1046.730 .0259352
1047.311 .0259291
1047.891 .0259232
1048.471 .0259174
1049.052 .0259118
1049.632 .0259062
1050.211 .0259007
1050.791 .0258952
1051.371 .0258898
1051.950 .0258845
1052.530 .0258794
1053.109 .0258745
1053.688 .0258697
1054.268 .0258649
1054.847 .0258602
1055.426 .0258553
1056.005 .0258502
1056.583 .0258448
1057.162 .0258392
1057.741 .0258333
1058.319 .0258272
1058.898 .0258207
1059.476 .0258140
1060.055 .0258070
1060.633 .0257996
1061.211 .0257919
1061.790 .0257837
1062.368 .0257751
1062.946 .0257662
1063.524 .0257569
1064.102 .0257474
1064.680 .0257377
1065.258 .0257278
1065.836 .0257178
1066.414 .0257078
1066.992 .0256978
1067.570 .0256879
1068.148 .0256780
1068.726 .0256684
1069.304 .0256589
1069.882 .0256499
1070.460 .0256414
1071.038 .0256335
1071.616 .0256262
1072.194 .0256194
1072.772 .0256132
1073.350 .0256073
1073.928 .0256017
1074.506 .0255963
1075.084 .0255913
1075.662 .0255866
1076.240 .0255823
1076.819 .0255785
1077.397 .0255754
1077.976 .0255730
1078.554 .0255714
1079.133 .0255704
1079.711 .0255700
1080.290 .0255702
1080.869 .0255708
1081.448 .0255718
1082.027 .0255734
1082.606 .0255754
1083.185 .0255781
1083.764 .0255814
1084.343 .0255854
1084.923 .0255900
1085.502 .0255951
1086.082 .0256008
1086.662 .0256069
1087.242 .0256133
1087.822 .0256201
1088.402 .0256272
1088.983 .0256347
1089.563 .0256427
1090.144 .0256511
1090.725 .0256600
1091.306 .0256695
1091.887 .0256795
1092.469 .0256901
1093.050 .0257012
1093.632 .0257129
1094.214 .0257251
1094.796 .0257378
1095.379 .0257510
1095.961 .0257645
1096.544 .0257784
1097.127 .0257927
1097.710 .0258072
1098.294 .0258220
1098.877 .0258372
1099.461 .0258526
1100.046 .0258683
1100.630 .0258842
1101.215 .0259002
1101.800 .0259163
1102.385 .0259325
1102.970 .0259486
1103.556 .0259645
1104.142 .0259804
1104.728 .0259962
1105.315 .0260121
1105.902 .0260282
1106.489 .0260446
1107.077 .0260616
1107.664 .0260793
1108.253 .0260979
1108.841 .0261176
1109.430 .0261386
1110.019 .0261610
1110.609 .0261849
1111.198 .0262103
1111.789 .0262373
1112.379 .0262660
1112.970 .0262964
1113.561 .0263283
1114.153 .0263616
1114.745 .0263961
1115.338 .0264316
1115.931 .0264682
1116.524 .0265056
1117.117 .0265440
1117.712 .0265833
1118.306 .0266235
1118.901 .0266647
1119.496 .0267068
1120.092 .0267497
1120.689 .0267933
1121.285 .0268375
1121.882 .0268823
1122.480 .0269277
1123.078 .0269741
1123.677 .0270220
1124.276 .0270720
1124.875 .0271244
1125.476 .0271797
1126.076 .0272380
1126.677 .0272991
1127.279 .0273631
1127.881 .0274295
1128.484 .0274982
1129.087 .0275256
1129.691 .0275967
1130.295 .0276703
1130.900 .0277469
1131.505 .0278271
1132.111 .0279112
1132.718 .0279995
1133.325 .0280924
1133.933 .0281895
1134.541 .0282940
1135.150 .0284020
1135.760 .0285002
1136.370 .0286201
1136.981 .0286608
1137.592 .0287859
1138.204 .0289184
1138.817 .0290592
1139.431 .0292098
1140.045 .0293703
1140.660 .0295294
1141.275 .0297033
1141.891 .0298648
1142.508 .0301156
1143.126 .0302640
1143.744 .0300357
1144.363 .0306949
1144.983 .0304575
