Measurement Sequence started on: 15-12-46-377
Integration time: 28
Scans to Average: 2 
>>>>>Begin Spectral Data<<<<<
432.689 .0000100
433.621 .0000100
434.552 .0000100
435.482 .0000100
436.410 .0000100
437.337 .0000100
438.262 .0292590
439.187 .0618551
440.110 .1023658
441.031 .1479154
441.952 .1175934
442.871 .1227114
443.789 .1274648
444.705 .1319258
445.621 .1361456
446.535 .1401623
447.447 .1424663
448.359 .1429052
449.269 .1410829
450.178 .1367503
451.086 .1299980
451.993 .1213400
452.898 .1116232
453.803 .1018021
454.706 .0926861
455.608 .0847736
456.508 .0782270
457.408 .0737941
458.306 .0703815
459.204 .0676017
460.100 .0652600
460.995 .0632517
461.888 .0615078
462.781 .0599801
463.673 .0586323
464.563 .0574360
465.452 .0563686
466.340 .0554113
467.228 .0545491
468.114 .0537700
468.999 .0530649
469.882 .0524253
470.765 .0518439
471.647 .0513153
472.528 .0508349
473.407 .0503983
474.286 .0500018
475.163 .0496422
476.040 .0493156
476.915 .0490193
477.790 .0487506
478.663 .0485081
479.535 .0482913
480.407 .0481001
481.277 .0479343
482.147 .0477936
483.015 .0476769
483.883 .0475838
484.749 .0475125
485.615 .0474623
486.479 .0474322
487.343 .0474216
488.206 .0474308
489.067 .0474599
489.928 .0475095
490.788 .0475805
491.647 .0476735
492.505 .0477892
493.362 .0479269
494.218 .0480866
495.073 .0482676
495.928 .0486107
496.781 .0488447
497.634 .0491005
498.486 .0493795
499.337 .0496844
500.187 .0500175
501.036 .0503817
501.884 .0507801
502.731 .0512157
503.578 .0516920
504.424 .0520185
505.268 .0525680
506.113 .0531668
506.956 .0538193
507.798 .0545312
508.640 .0553097
509.480 .0561639
510.320 .0571052
511.160 .0581463
511.998 .0593010
512.836 .0605861
513.672 .0620192
514.508 .0636219
515.344 .0654185
516.178 .0674301
517.012 .0696829
517.845 .0721990
518.677 .0749979
519.508 .0780941
520.339 .0814950
521.169 .0852007
521.998 .0891842
522.826 .0934069
523.654 .0978123
524.481 .1023286
525.307 .1068768
526.133 .1113667
526.958 .1157053
527.782 .1198023
528.605 .1235734
529.428 .1269474
530.250 .1298625
531.072 .1322776
531.892 .1341570
532.712 .1354752
533.532 .1362207
534.350 .1363852
535.168 .1359694
535.986 .1349815
536.802 .1334313
537.618 .1313325
538.434 .1287006
539.249 .1255777
540.063 .1220171
540.876 .1180860
541.689 .1138640
542.501 .1094340
543.313 .1048864
544.124 .1003119
544.934 .0957954
545.744 .0914129
546.553 .0872269
547.361 .0832875
548.169 .0796219
548.976 .0762489
549.783 .0731723
550.589 .0703835
551.395 .0678653
552.200 .0655951
553.004 .0635437
553.808 .0616848
554.611 .0599949
555.414 .0584551
556.216 .0570471
557.018 .0557527
557.819 .0545577
558.619 .0534491
559.419 .0524168
560.218 .0514530
561.017 .0505495
561.815 .0497001
562.613 .0488995
563.410 .0481416
564.207 .0474209
565.003 .0467322
565.799 .0460704
566.594 .0454319
567.388 .0448146
568.182 .0442164
568.976 .0436357
569.769 .0430726
570.562 .0425273
571.354 .0420003
572.145 .0414923
572.936 .0410035
573.727 .0405336
574.517 .0400825
575.307 .0396500
576.096 .0392355
576.885 .0388392
577.673 .0384612
578.461 .0381014
579.248 .0377603
580.035 .0374380
580.821 .0371346
581.607 .0368503
582.392 .0365850
583.177 .0363381
583.962 .0361084
584.746 .0358952
585.529 .0356973
586.313 .0355131
587.095 .0353415
587.878 .0351811
588.660 .0350308
589.441 .0348899
590.222 .0347578
591.003 .0346341
591.783 .0345185
592.563 .0344105
593.342 .0343098
594.121 .0342159
594.899 .0341282
595.678 .0340463
596.455 .0339694
597.233 .0338973
598.009 .0338291
598.786 .0337645
599.562 .0337030
600.338 .0336444
601.113 .0335883
601.888 .0335106
602.663 .0334592
603.437 .0334095
604.211 .0333614
604.984 .0333147
605.757 .0332692
606.530 .0332248
607.302 .0331814
608.074 .0331389
608.845 .0330974
609.616 .0330567
610.387 .0330388
611.158 .0329995
611.928 .0329612
612.697 .0329237
613.467 .0328871
614.236 .0328513
615.004 .0328163
615.773 .0327821
616.541 .0327486
617.308 .0327159
618.076 .0326838
618.843 .0326524
619.609 .0326217
620.375 .0325915
621.141 .0325618
621.907 .0325324
622.672 .0325031
623.437 .0324739
624.202 .0324447
624.966 .0324155
625.730 .0323863
626.493 .0323572
627.257 .0323282
628.020 .0322992
628.782 .0322704
629.545 .0322417
630.307 .0322130
631.068 .0321845
631.830 .0321560
632.591 .0321276
633.352 .0320993
634.112 .0320711
634.872 .0320429
635.632 .0320148
636.392 .0319868
637.151 .0319588
637.910 .0319309
638.668 .0319030
639.427 .0318752
640.185 .0318477
640.943 .0318204
641.700 .0317935
642.457 .0317670
643.214 .0317409
643.971 .0317153
644.727 .0316902
645.483 .0316655
646.239 .0316412
646.994 .0316173
647.750 .0315938
648.505 .0315706
649.259 .0315475
650.014 .0315247
650.768 .0315020
651.521 .0314794
652.275 .0314569
653.028 .0314344
653.781 .0314121
654.534 .0313898
655.286 .0313675
656.039 .0313453
656.791 .0313229
657.542 .0313004
658.294 .0312777
659.045 .0312548
659.796 .0312316
660.546 .0312082
661.297 .0311846
662.047 .0311609
662.796 .0311370
663.546 .0311129
664.295 .0310887
665.044 .0310643
665.793 .0310399
666.542 .0310155
667.290 .0309913
668.038 .0309672
668.786 .0309434
669.533 .0309199
670.281 .0308967
671.028 .0308738
671.774 .0308513
672.521 .0308290
673.267 .0308069
674.013 .0307852
674.759 .0307638
675.505 .0307427
676.250 .0307219
676.995 .0307013
677.740 .0306810
678.484 .0306609
679.229 .0306409
679.973 .0306209
680.717 .0306011
681.460 .0305813
682.204 .0305616
682.947 .0305420
683.690 .0305223
684.433 .0305026
685.175 .0304828
685.917 .0304629
686.659 .0304428
687.401 .0304225
688.142 .0304022
688.884 .0303820
689.625 .0303619
690.365 .0303420
691.106 .0303224
691.846 .0303029
692.586 .0302835
693.326 .0302641
694.066 .0302447
694.805 .0302252
695.545 .0302055
696.284 .0301857
697.022 .0301658
697.761 .0301458
698.499 .0301258
699.237 .0301060
699.975 .0300862
700.713 .0300666
701.450 .0300470
702.187 .0300274
702.924 .0300079
703.661 .0299883
704.397 .0299686
705.133 .0299487
705.869 .0299287
706.605 .0299086
707.341 .0298884
708.076 .0298682
708.811 .0298480
709.546 .0298280
710.281 .0298082
711.015 .0297887
711.749 .0297694
712.483 .0297504
713.217 .0297316
713.950 .0297130
714.684 .0296944
715.417 .0296759
716.150 .0296575
716.882 .0296391
717.615 .0296208
718.347 .0296027
719.079 .0295847
719.811 .0295670
720.542 .0295495
721.273 .0295322
722.005 .0295150
722.735 .0294980
723.466 .0294811
724.196 .0294643
724.927 .0294475
725.656 .0294307
726.386 .0294139
727.116 .0293973
727.845 .0293808
728.574 .0293645
729.303 .0293485
730.031 .0293327
730.760 .0293171
731.488 .0293019
732.216 .0292869
732.944 .0292722
733.671 .0292577
734.398 .0292433
735.125 .0292291
735.852 .0292150
736.579 .0292011
737.305 .0291873
738.031 .0291735
738.757 .0291599
739.483 .0291465
740.208 .0291331
740.933 .0291199
741.658 .0291068
742.383 .0290938
743.108 .0290807
743.832 .0290676
744.556 .0290545
745.280 .0290412
746.004 .0290278
746.727 .0290143
747.450 .0290007
748.173 .0289869
748.896 .0289731
749.618 .0289593
750.340 .0289454
751.062 .0289315
751.784 .0289176
752.506 .0289037
753.227 .0288898
753.948 .0288759
754.669 .0288621
755.389 .0288483
756.110 .0288346
756.830 .0288210
757.550 .0288075
758.269 .0287942
758.989 .0287810
759.708 .0287680
760.427 .0287552
761.146 .0287425
761.864 .0287300
762.582 .0287177
763.300 .0287054
764.018 .0286931
764.736 .0286808
765.453 .0286686
766.170 .0286563
766.887 .0286439
767.603 .0286316
768.320 .0286192
769.036 .0286068
769.751 .0285943
770.467 .0285819
771.182 .0285694
771.897 .0285570
772.612 .0285446
773.327 .0285322
774.041 .0285199
774.755 .0285077
775.469 .0284956
776.183 .0284836
776.896 .0284717
777.609 .0284599
778.322 .0284483
779.035 .0284368
779.747 .0284254
780.459 .0284143
781.171 .0284035
781.882 .0283929
782.594 .0283826
783.305 .0283727
784.016 .0283630
784.726 .0283537
785.436 .0283446
786.147 .0283319
786.856 .0283232
787.566 .0283148
788.275 .0283065
788.984 .0282985
789.693 .0282907
790.401 .0282830
791.110 .0282756
791.818 .0282684
792.525 .0282614
793.233 .0282544
793.940 .0282476
794.647 .0282444
795.353 .0282376
796.060 .0282309
796.766 .0282242
797.472 .0282175
798.177 .0282108
798.883 .0282040
799.588 .0281972
800.292 .0281903
800.997 .0281831
801.701 .0281758
802.405 .0281682
803.109 .0281604
803.812 .0281522
804.515 .0281438
805.218 .0281349
805.921 .0281256
806.623 .0281159
807.325 .0281058
808.027 .0280951
808.728 .0280840
809.429 .0280725
810.130 .0280605
810.831 .0280483
811.531 .0280358
812.231 .0280232
812.931 .0280104
813.630 .0279976
814.330 .0279846
815.029 .0279717
815.727 .0279589
816.426 .0279462
817.124 .0279337
817.821 .0279215
818.519 .0279097
819.216 .0278983
819.913 .0278873
820.609 .0278768
821.306 .0278668
822.002 .0278574
822.697 .0278486
823.393 .0278404
824.088 .0278327
824.783 .0278257
825.477 .0278191
826.171 .0278129
826.865 .0278070
827.559 .0278012
828.252 .0277954
828.945 .0277896
829.638 .0277838
830.330 .0277778
831.023 .0277717
831.714 .0277655
832.406 .0277591
833.097 .0277525
833.788 .0277455
834.479 .0277382
835.169 .0277306
835.859 .0277225
836.548 .0277140
837.238 .0277051
837.927 .0276958
838.615 .0276862
839.304 .0276763
839.992 .0276660
840.680 .0276554
841.367 .0276446
842.054 .0276335
842.741 .0276222
843.428 .0276108
844.114 .0275991
844.800 .0275873
845.485 .0275754
846.170 .0275633
846.855 .0275511
847.540 .0275385
848.224 .0275257
848.908 .0275126
849.592 .0274993
850.275 .0274856
850.958 .0274717
851.641 .0274576
852.323 .0274433
853.005 .0274288
853.687 .0274140
854.368 .0273989
855.049 .0273836
855.730 .0273680
856.410 .0273521
857.090 .0273359
857.769 .0273194
858.449 .0273027
859.128 .0272858
859.806 .0272688
860.485 .0272516
861.163 .0272344
861.840 .0272171
862.518 .0272000
863.195 .0271831
863.871 .0271663
864.548 .0271498
865.224 .0271337
865.899 .0271178
866.574 .0271022
867.249 .0270869
867.924 .0270718
868.598 .0270570
869.272 .0270425
869.946 .0270282
870.619 .0270142
871.292 .0270005
871.964 .0269871
872.636 .0269740
873.308 .0269613
873.979 .0269487
874.651 .0269364
875.321 .0269242
875.992 .0269122
876.662 .0269003
877.331 .0268886
878.001 .0268769
878.670 .0268654
879.338 .0268541
880.007 .0268429
880.675 .0268319
881.342 .0268211
882.009 .0268105
882.676 .0268001
883.343 .0267900
884.009 .0267802
884.675 .0267708
885.340 .0267618
886.005 .0267532
886.670 .0267452
887.334 .0267377
887.998 .0267307
888.662 .0267244
889.325 .0267186
889.988 .0267134
890.650 .0267086
891.312 .0267044
891.974 .0267006
892.636 .0266971
893.297 .0266939
893.957 .0266910
894.618 .0266883
895.278 .0266858
895.937 .0266832
896.596 .0266807
897.255 .0266779
897.914 .0266750
898.572 .0266717
899.230 .0266680
899.887 .0266637
900.544 .0266589
901.201 .0266535
901.857 .0266419
902.513 .0266347
903.168 .0266269
903.823 .0266184
904.478 .0266091
905.132 .0265992
905.786 .0265886
906.440 .0265773
907.093 .0265655
907.746 .0265533
908.399 .0265407
909.051 .0265277
909.703 .0265146
910.354 .0265079
911.005 .0264949
911.656 .0264818
912.306 .0264686
912.956 .0264555
913.605 .0264424
914.254 .0264295
914.903 .0264166
915.551 .0264040
916.199 .0263916
916.847 .0263794
917.494 .0263674
918.141 .0263557
918.788 .0263440
919.434 .0263325
920.079 .0263211
920.725 .0263096
921.370 .0262981
922.014 .0262866
922.658 .0262749
923.302 .0262632
923.946 .0262515
924.589 .0262397
925.231 .0262278
925.873 .0262158
926.515 .0262038
927.157 .0261916
927.798 .0261793
928.439 .0261669
929.079 .0261545
929.719 .0261419
930.359 .0261294
930.998 .0261170
931.637 .0261046
932.275 .0260925
932.913 .0260806
933.551 .0260691
934.188 .0260580
934.825 .0260473
935.462 .0260371
936.098 .0260274
936.733 .0260182
937.369 .0260095
938.004 .0260013
938.638 .0259937
939.273 .0259867
939.907 .0259803
940.540 .0259745
941.173 .0259693
941.806 .0259646
942.438 .0259604
943.070 .0259566
943.702 .0259531
944.333 .0259500
944.964 .0259472
945.594 .0259446
946.224 .0259423
946.854 .0259402
947.483 .0259382
948.112 .0259362
948.741 .0259343
949.369 .0259322
949.996 .0259299
950.624 .0259272
951.251 .0259243
951.878 .0259210
952.504 .0259173
953.130 .0259132
953.755 .0259088
954.380 .0259041
955.005 .0258991
955.629 .0258938
956.253 .0258882
956.877 .0258823
957.500 .0258760
958.123 .0258694
958.746 .0258626
959.368 .0258555
959.990 .0258484
960.611 .0258413
961.232 .0258342
961.853 .0258272
962.473 .0258203
963.093 .0258134
963.712 .0258066
964.331 .0257997
964.950 .0257928
965.569 .0257860
966.187 .0257794
966.804 .0257729
967.422 .0257666
968.039 .0257606
968.655 .0257547
969.272 .0257490
969.887 .0257433
970.503 .0257375
971.118 .0257316
971.733 .0257255
972.347 .0257193
972.961 .0257128
973.575 .0257060
974.188 .0256990
974.801 .0256918
975.414 .0256841
976.026 .0256759
976.638 .0256671
977.250 .0256576
977.861 .0256475
978.472 .0256368
979.083 .0256254
979.693 .0256135
980.303 .0256011
980.912 .0255805
981.521 .0255674
982.130 .0255539
982.738 .0255401
983.346 .0255259
983.954 .0255115
984.562 .0254969
985.169 .0254822
985.775 .0254675
986.382 .0254529
986.988 .0254385
987.594 .0254244
988.199 .0254107
988.804 .0253974
989.409 .0253924
990.013 .0253799
990.617 .0253680
991.221 .0253566
991.824 .0253458
992.427 .0253357
993.030 .0253262
993.632 .0253173
994.234 .0253091
994.836 .0253014
995.438 .0252942
996.039 .0252874
996.640 .0252809
997.240 .0252747
997.840 .0252688
998.440 .0252630
999.040 .0252574
999.639 .0252520
1000.238 .0252467
1000.836 .0252416
1001.435 .0252365
1002.033 .0252315
1002.630 .0252264
1003.228 .0252214
1003.825 .0252162
1004.422 .0252108
1005.018 .0252053
1005.614 .0251995
1006.210 .0251935
1006.806 .0251873
1007.401 .0251808
1007.996 .0251741
1008.591 .0251672
1009.186 .0251600
1009.780 .0251526
1010.374 .0251450
1010.967 .0251371
1011.561 .0251289
1012.154 .0251206
1012.746 .0251120
1013.339 .0251034
1013.931 .0250947
1014.523 .0250860
1015.115 .0250775
1015.706 .0250691
1016.298 .0250609
1016.888 .0250529
1017.479 .0250452
1018.069 .0250376
1018.660 .0250303
1019.250 .0250232
1019.839 .0250163
1020.429 .0250097
1021.018 .0250035
1021.607 .0249977
1022.195 .0249925
1022.784 .0249878
1023.372 .0249838
1023.960 .0249804
1024.547 .0249776
1025.135 .0249754
1025.722 .0249737
1026.309 .0249726
1026.896 .0249719
1027.483 .0249717
1028.069 .0249720
1028.655 .0249726
1029.241 .0249735
1029.827 .0249748
1030.412 .0249763
1030.997 .0249781
1031.582 .0249800
1032.167 .0249820
1032.752 .0249840
1033.336 .0249859
1033.921 .0249878
1034.505 .0249896
1035.089 .0249912
1035.672 .0249926
1036.256 .0249937
1036.839 .0249947
1037.422 .0249953
1038.005 .0249957
1038.588 .0249958
1039.171 .0249955
1039.753 .0249949
1040.335 .0249938
1040.918 .0249922
1041.500 .0249899
1042.081 .0249871
1042.663 .0249837
1043.244 .0249798
1043.826 .0249753
1044.407 .0249704
1044.988 .0249651
1045.569 .0249597
1046.150 .0249541
1046.730 .0249486
1047.311 .0249431
1047.891 .0249378
1048.471 .0249327
1049.052 .0249280
1049.632 .0249238
1050.211 .0249200
1050.791 .0249168
1051.371 .0249142
1051.950 .0249123
1052.530 .0249109
1053.109 .0249102
1053.688 .0249101
1054.268 .0249106
1054.847 .0249117
1055.426 .0249135
1056.005 .0249159
1056.583 .0249189
1057.162 .0249225
1057.741 .0249266
1058.319 .0249311
1058.898 .0249359
1059.476 .0249407
1060.055 .0249457
1060.633 .0249505
1061.211 .0249552
1061.790 .0249597
1062.368 .0249640
1062.946 .0249681
1063.524 .0249719
1064.102 .0249754
1064.680 .0249786
1065.258 .0249813
1065.836 .0249834
1066.414 .0249850
1066.992 .0249859
1067.570 .0249862
1068.148 .0249859
1068.726 .0249851
1069.304 .0249841
1069.882 .0249829
1070.460 .0249818
1071.038 .0249808
1071.616 .0249800
1072.194 .0249795
1072.772 .0249792
1073.350 .0249792
1073.928 .0249793
1074.506 .0249796
1075.084 .0249801
1075.662 .0249810
1076.240 .0249825
1076.819 .0249846
1077.397 .0249876
1077.976 .0249916
1078.554 .0249967
1079.133 .0250027
1079.711 .0250097
1080.290 .0250176
1080.869 .0250263
1081.448 .0250355
1082.027 .0250453
1082.606 .0250557
1083.185 .0250667
1083.764 .0250785
1084.343 .0250910
1084.923 .0251045
1085.502 .0251188
1086.082 .0251339
1086.662 .0251495
1087.242 .0251655
1087.822 .0251815
1088.402 .0251975
1088.983 .0252133
1089.563 .0252289
1090.144 .0252445
1090.725 .0252604
1091.306 .0252766
1091.887 .0252934
1092.469 .0253110
1093.050 .0253295
1093.632 .0253489
1094.214 .0253689
1094.796 .0253895
1095.379 .0254106
1095.961 .0254322
1096.544 .0254543
1097.127 .0254771
1097.710 .0255007
1098.294 .0255254
1098.877 .0255513
1099.461 .0255785
1100.046 .0256070
1100.630 .0256366
1101.215 .0256672
1101.800 .0256985
1102.385 .0257301
1102.970 .0257618
1103.556 .0257934
1104.142 .0258249
1104.728 .0258562
1105.315 .0258872
1105.902 .0259180
1106.489 .0259488
1107.077 .0259795
1107.664 .0260100
1108.253 .0260402
1108.841 .0260701
1109.430 .0260996
1110.019 .0261286
1110.609 .0261573
1111.198 .0261860
1111.789 .0262150
1112.379 .0262447
1112.970 .0262755
1113.561 .0263079
1114.153 .0263421
1114.745 .0263781
1115.338 .0264161
1115.931 .0264558
1116.524 .0264970
1117.117 .0265398
1117.712 .0265841
1118.306 .0266299
1118.901 .0266773
1119.496 .0267264
1120.092 .0267773
1120.689 .0268300
1121.285 .0268845
1121.882 .0269406
1122.480 .0269983
1123.078 .0270573
1123.677 .0271176
1124.276 .0271793
1124.875 .0272426
1125.476 .0273078
1126.076 .0273750
1126.677 .0274446
1127.279 .0275167
1127.881 .0275913
1128.484 .0276685
1129.087 .0277078
1129.691 .0277883
1130.295 .0278708
1130.900 .0279554
1131.505 .0280419
1132.111 .0281303
1132.718 .0282209
1133.325 .0283140
1133.933 .0284097
1134.541 .0285064
1135.150 .0286045
1135.760 .0287078
1136.370 .0288208
1136.981 .0287635
1137.592 .0288789
1138.204 .0290028
1138.817 .0291386
1139.431 .0292790
1140.045 .0294257
1140.660 .0295813
1141.275 .0297478
1141.891 .0299116
1142.508 .0300316
1143.126 .0301630
1143.744 .0303926
1144.363 .0307484
1144.983 .0306935
