Measurement Sequence started on: 15-12-46-377
Integration time: 28
Scans to Average: 2 
>>>>>Begin Spectral Data<<<<<
432.689 .0000100
433.621 .0000100
434.552 .0000100
435.482 .0000100
436.410 .0000100
437.337 .0000100
438.262 .0275125
439.187 .0583048
440.110 .0965575
441.031 .1397212
441.952 .1123012
442.871 .1173268
443.789 .1220033
444.705 .1263993
445.621 .1305644
446.535 .1345374
447.447 .1369001
448.359 .1375015
449.269 .1359680
450.178 .1320541
451.086 .1258375
451.993 .1177935
452.898 .1087117
453.803 .0994889
454.706 .0908897
455.608 .0833894
456.508 .0771505
457.408 .0728851
458.306 .0695780
459.204 .0668681
460.100 .0645797
460.995 .0626136
461.888 .0609050
462.781 .0594070
463.673 .0580825
464.563 .0569039
465.452 .0558498
466.340 .0549025
467.228 .0540503
468.114 .0532839
468.999 .0525967
469.882 .0519834
470.765 .0514386
471.647 .0509568
472.528 .0505326
473.407 .0501593
474.286 .0498309
475.163 .0495413
476.040 .0492839
476.915 .0490527
477.790 .0488431
478.663 .0486521
479.535 .0484776
480.407 .0483198
481.277 .0481783
482.147 .0480536
483.015 .0479461
483.883 .0478559
484.749 .0477828
485.615 .0477268
486.479 .0476871
487.343 .0476631
488.206 .0476545
489.067 .0476608
489.928 .0476822
490.788 .0477200
491.647 .0477756
492.505 .0478508
493.362 .0479473
494.218 .0480668
495.073 .0482100
495.928 .0485079
496.781 .0487126
497.634 .0489416
498.486 .0491947
499.337 .0494717
500.187 .0497742
501.036 .0501044
501.884 .0504657
502.731 .0508621
503.578 .0512987
504.424 .0516044
505.268 .0521190
506.113 .0526877
506.956 .0533147
507.798 .0540049
508.640 .0547647
509.480 .0556028
510.320 .0565294
511.160 .0575570
511.998 .0587010
512.836 .0599788
513.672 .0614098
514.508 .0630144
515.344 .0648148
516.178 .0668347
517.012 .0690990
517.845 .0716317
518.677 .0744545
519.508 .0775890
520.339 .0810474
521.169 .0848389
521.998 .0889455
522.826 .0933398
523.654 .0979700
524.481 .1027696
525.307 .1076579
526.133 .1125420
526.958 .1173185
527.782 .1218872
528.605 .1261505
529.428 .1300236
530.250 .1334295
531.072 .1363166
531.892 .1386400
532.712 .1403754
533.532 .1415048
534.350 .1420205
535.168 .1419214
535.986 .1412136
536.802 .1398979
537.618 .1379833
538.434 .1354787
539.249 .1324192
540.063 .1288480
540.876 .1248302
541.689 .1204432
542.501 .1157762
543.313 .1109265
544.124 .1059977
544.934 .1010864
545.744 .0962834
546.553 .0916635
547.361 .0872911
548.169 .0832033
548.976 .0794299
549.783 .0759769
550.589 .0728414
551.395 .0700080
552.200 .0674538
553.004 .0651491
553.808 .0630680
554.611 .0611856
555.414 .0594788
556.216 .0579256
557.018 .0565055
557.819 .0552004
558.619 .0539953
559.419 .0528767
560.218 .0518336
561.017 .0508568
561.815 .0499392
562.613 .0490744
563.410 .0482562
564.207 .0474792
565.003 .0467383
565.799 .0460280
566.594 .0453446
567.388 .0446853
568.182 .0440483
568.976 .0434326
569.769 .0428384
570.562 .0422662
571.354 .0417162
572.145 .0411892
572.936 .0406851
573.727 .0402039
574.517 .0397447
575.307 .0393069
576.096 .0388894
576.885 .0384921
577.673 .0381150
578.461 .0377577
579.248 .0374206
580.035 .0371037
580.821 .0368067
581.607 .0365290
582.392 .0362701
583.177 .0360292
583.962 .0358050
584.746 .0355964
585.529 .0354020
586.313 .0352207
587.095 .0350514
587.878 .0348934
588.660 .0347460
589.441 .0346086
590.222 .0344810
591.003 .0343629
591.783 .0342541
592.563 .0341539
593.342 .0340616
594.121 .0339764
594.899 .0338972
595.678 .0338229
596.455 .0337528
597.233 .0336860
598.009 .0336221
598.786 .0335608
599.562 .0335017
600.338 .0334446
601.113 .0333897
601.888 .0333122
602.663 .0332613
603.437 .0332119
604.211 .0331637
604.984 .0331164
605.757 .0330697
606.530 .0330236
607.302 .0329780
608.074 .0329329
608.845 .0328885
609.616 .0328449
610.387 .0328257
611.158 .0327844
611.928 .0327444
612.697 .0327060
613.467 .0326691
614.236 .0326339
615.004 .0326002
615.773 .0325680
616.541 .0325372
617.308 .0325077
618.076 .0324794
618.843 .0324521
619.609 .0324258
620.375 .0324003
621.141 .0323756
621.907 .0323514
622.672 .0323277
623.437 .0323043
624.202 .0322810
624.966 .0322575
625.730 .0322338
626.493 .0322097
627.257 .0321850
628.020 .0321595
628.782 .0321333
629.545 .0321062
630.307 .0320784
631.068 .0320499
631.830 .0320208
632.591 .0319913
633.352 .0319614
634.112 .0319313
634.872 .0319009
635.632 .0318703
636.392 .0318396
637.151 .0318088
637.910 .0317781
638.668 .0317474
639.427 .0317169
640.185 .0316868
640.943 .0316572
641.700 .0316283
642.457 .0316001
643.214 .0315727
643.971 .0315459
644.727 .0315198
645.483 .0314943
646.239 .0314691
646.994 .0314443
647.750 .0314198
648.505 .0313954
649.259 .0313712
650.014 .0313471
650.768 .0313232
651.521 .0312994
652.275 .0312756
653.028 .0312520
653.781 .0312282
654.534 .0312043
655.286 .0311801
656.039 .0311557
656.791 .0311311
657.542 .0311061
658.294 .0310810
659.045 .0310558
659.796 .0310306
660.546 .0310054
661.297 .0309802
662.047 .0309551
662.796 .0309300
663.546 .0309049
664.295 .0308799
665.044 .0308548
665.793 .0308298
666.542 .0308048
667.290 .0307798
668.038 .0307549
668.786 .0307301
669.533 .0307054
670.281 .0306808
671.028 .0306564
671.774 .0306324
672.521 .0306086
673.267 .0305853
674.013 .0305624
674.759 .0305399
675.505 .0305178
676.250 .0304961
676.995 .0304747
677.740 .0304536
678.484 .0304330
679.229 .0304128
679.973 .0303932
680.717 .0303743
681.460 .0303560
682.204 .0303385
682.947 .0303215
683.690 .0303051
684.433 .0302890
685.175 .0302732
685.917 .0302576
686.659 .0302421
687.401 .0302267
688.142 .0302114
688.884 .0301961
689.625 .0301808
690.365 .0301653
691.106 .0301497
691.846 .0301337
692.586 .0301172
693.326 .0301003
694.066 .0300829
694.805 .0300649
695.545 .0300465
696.284 .0300277
697.022 .0300084
697.761 .0299888
698.499 .0299689
699.237 .0299487
699.975 .0299283
700.713 .0299076
701.450 .0298868
702.187 .0298659
702.924 .0298450
703.661 .0298241
704.397 .0298033
705.133 .0297825
705.869 .0297617
706.605 .0297409
707.341 .0297200
708.076 .0296992
708.811 .0296784
709.546 .0296577
710.281 .0296370
711.015 .0296163
711.749 .0295957
712.483 .0295751
713.217 .0295545
713.950 .0295337
714.684 .0295127
715.417 .0294915
716.150 .0294701
716.882 .0294485
717.615 .0294267
718.347 .0294049
719.079 .0293830
719.811 .0293610
720.542 .0293391
721.273 .0293171
722.005 .0292952
722.735 .0292733
723.466 .0292516
724.196 .0292300
724.927 .0292088
725.656 .0291878
726.386 .0291672
727.116 .0291470
727.845 .0291274
728.574 .0291082
729.303 .0290895
730.031 .0290713
730.760 .0290536
731.488 .0290364
732.216 .0290197
732.944 .0290035
733.671 .0289877
734.398 .0289724
735.125 .0289574
735.852 .0289427
736.579 .0289282
737.305 .0289141
738.031 .0289001
738.757 .0288865
739.483 .0288731
740.208 .0288599
740.933 .0288470
741.658 .0288344
742.383 .0288219
743.108 .0288096
743.832 .0287975
744.556 .0287855
745.280 .0287736
746.004 .0287616
746.727 .0287496
747.450 .0287374
748.173 .0287251
748.896 .0287127
749.618 .0287002
750.340 .0286875
751.062 .0286747
751.784 .0286618
752.506 .0286487
753.227 .0286354
753.948 .0286219
754.669 .0286082
755.389 .0285943
756.110 .0285802
756.830 .0285660
757.550 .0285516
758.269 .0285372
758.989 .0285228
759.708 .0285085
760.427 .0284943
761.146 .0284802
761.864 .0284663
762.582 .0284526
763.300 .0284392
764.018 .0284261
764.736 .0284133
765.453 .0284008
766.170 .0283886
766.887 .0283768
767.603 .0283653
768.320 .0283542
769.036 .0283435
769.751 .0283332
770.467 .0283234
771.182 .0283141
771.897 .0283053
772.612 .0282971
773.327 .0282893
774.041 .0282820
774.755 .0282751
775.469 .0282686
776.183 .0282624
776.896 .0282567
777.609 .0282512
778.322 .0282462
779.035 .0282415
779.747 .0282370
780.459 .0282329
781.171 .0282290
781.882 .0282252
782.594 .0282216
783.305 .0282180
784.016 .0282145
784.726 .0282110
785.436 .0282076
786.147 .0282022
786.856 .0281986
787.566 .0281948
788.275 .0281909
788.984 .0281868
789.693 .0281824
790.401 .0281777
791.110 .0281727
791.818 .0281675
792.525 .0281619
793.233 .0281559
793.940 .0281495
794.647 .0281451
795.353 .0281380
796.060 .0281304
796.766 .0281221
797.472 .0281133
798.177 .0281039
798.883 .0280938
799.588 .0280831
800.292 .0280719
800.997 .0280601
801.701 .0280478
802.405 .0280348
803.109 .0280214
803.812 .0280074
804.515 .0279929
805.218 .0279780
805.921 .0279627
806.623 .0279471
807.325 .0279311
808.027 .0279148
808.728 .0278982
809.429 .0278814
810.130 .0278642
810.831 .0278467
811.531 .0278290
812.231 .0278111
812.931 .0277930
813.630 .0277749
814.330 .0277568
815.029 .0277388
815.727 .0277210
816.426 .0277034
817.124 .0276861
817.821 .0276691
818.519 .0276524
819.216 .0276362
819.913 .0276205
820.609 .0276053
821.306 .0275908
822.002 .0275770
822.697 .0275638
823.393 .0275513
824.088 .0275393
824.783 .0275279
825.477 .0275169
826.171 .0275064
826.865 .0274962
827.559 .0274864
828.252 .0274770
828.945 .0274679
829.638 .0274590
830.330 .0274505
831.023 .0274421
831.714 .0274338
832.406 .0274256
833.097 .0274175
833.788 .0274093
834.479 .0274012
835.169 .0273929
835.859 .0273845
836.548 .0273759
837.238 .0273670
837.927 .0273578
838.615 .0273482
839.304 .0273383
839.992 .0273280
840.680 .0273173
841.367 .0273063
842.054 .0272950
842.741 .0272834
843.428 .0272716
844.114 .0272595
844.800 .0272472
845.485 .0272346
846.170 .0272218
846.855 .0272087
847.540 .0271953
848.224 .0271816
848.908 .0271677
849.592 .0271534
850.275 .0271387
850.958 .0271236
851.641 .0271081
852.323 .0270922
853.005 .0270758
853.687 .0270589
854.368 .0270416
855.049 .0270240
855.730 .0270059
856.410 .0269875
857.090 .0269688
857.769 .0269498
858.449 .0269307
859.128 .0269114
859.806 .0268920
860.485 .0268727
861.163 .0268535
861.840 .0268345
862.518 .0268158
863.195 .0267975
863.871 .0267795
864.548 .0267621
865.224 .0267452
865.899 .0267288
866.574 .0267132
867.249 .0266983
867.924 .0266840
868.598 .0266706
869.272 .0266580
869.946 .0266462
870.619 .0266352
871.292 .0266251
871.964 .0266159
872.636 .0266076
873.308 .0266002
873.979 .0265937
874.651 .0265880
875.321 .0265830
875.992 .0265787
876.662 .0265750
877.331 .0265719
878.001 .0265691
878.670 .0265668
879.338 .0265648
880.007 .0265632
880.675 .0265618
881.342 .0265607
882.009 .0265599
882.676 .0265594
883.343 .0265591
884.009 .0265591
884.675 .0265594
885.340 .0265601
886.005 .0265611
886.670 .0265625
887.334 .0265642
887.998 .0265662
888.662 .0265685
889.325 .0265709
889.988 .0265735
890.650 .0265762
891.312 .0265790
891.974 .0265818
892.636 .0265848
893.297 .0265879
893.957 .0265911
894.618 .0265944
895.278 .0265977
895.937 .0266010
896.596 .0266041
897.255 .0266069
897.914 .0266095
898.572 .0266117
899.230 .0266135
899.887 .0266149
900.544 .0266158
901.201 .0266161
901.857 .0266137
902.513 .0266124
903.168 .0266105
903.823 .0266078
904.478 .0266045
905.132 .0266005
905.786 .0265957
906.440 .0265903
907.093 .0265842
907.746 .0265774
908.399 .0265700
909.051 .0265620
909.703 .0265534
910.354 .0265480
911.005 .0265390
911.656 .0265296
912.306 .0265199
912.956 .0265100
913.605 .0264999
914.254 .0264895
914.903 .0264790
915.551 .0264684
916.199 .0264577
916.847 .0264469
917.494 .0264359
918.141 .0264249
918.788 .0264137
919.434 .0264024
920.079 .0263909
920.725 .0263792
921.370 .0263673
922.014 .0263552
922.658 .0263429
923.302 .0263303
923.946 .0263175
924.589 .0263044
925.231 .0262911
925.873 .0262776
926.515 .0262637
927.157 .0262496
927.798 .0262351
928.439 .0262204
929.079 .0262053
929.719 .0261900
930.359 .0261745
930.998 .0261588
931.637 .0261429
932.275 .0261270
932.913 .0261110
933.551 .0260950
934.188 .0260791
934.825 .0260633
935.462 .0260477
936.098 .0260323
936.733 .0260173
937.369 .0260025
938.004 .0259881
938.638 .0259741
939.273 .0259605
939.907 .0259472
940.540 .0259344
941.173 .0259221
941.806 .0259102
942.438 .0258990
943.070 .0258883
943.702 .0258781
944.333 .0258685
944.964 .0258593
945.594 .0258504
946.224 .0258417
946.854 .0258332
947.483 .0258247
948.112 .0258163
948.741 .0258080
949.369 .0257997
949.996 .0257915
950.624 .0257832
951.251 .0257750
951.878 .0257665
952.504 .0257577
953.130 .0257486
953.755 .0257391
954.380 .0257293
955.005 .0257192
955.629 .0257088
956.253 .0256982
956.877 .0256875
957.500 .0256767
958.123 .0256657
958.746 .0256544
959.368 .0256428
959.990 .0256308
960.611 .0256185
961.232 .0256059
961.853 .0255932
962.473 .0255804
963.093 .0255675
963.712 .0255548
964.331 .0255420
964.950 .0255294
965.569 .0255167
966.187 .0255040
966.804 .0254912
967.422 .0254783
968.039 .0254654
968.655 .0254524
969.272 .0254395
969.887 .0254265
970.503 .0254136
971.118 .0254006
971.733 .0253875
972.347 .0253741
972.961 .0253605
973.575 .0253465
974.188 .0253322
974.801 .0253174
975.414 .0253021
976.026 .0252865
976.638 .0252704
977.250 .0252537
977.861 .0252366
978.472 .0252189
979.083 .0252006
979.693 .0251817
980.303 .0251624
980.912 .0251312
981.521 .0251109
982.130 .0250904
982.738 .0250696
983.346 .0250486
983.954 .0250274
984.562 .0250060
985.169 .0249846
985.775 .0249632
986.382 .0249419
986.988 .0249208
987.594 .0248999
988.199 .0248793
988.804 .0248592
989.409 .0248507
990.013 .0248315
990.617 .0248128
991.221 .0247946
991.824 .0247770
992.427 .0247601
993.030 .0247437
993.632 .0247280
994.234 .0247130
994.836 .0246987
995.438 .0246851
996.039 .0246721
996.640 .0246598
997.240 .0246482
997.840 .0246373
998.440 .0246269
999.040 .0246170
999.639 .0246078
1000.238 .0245991
1000.836 .0245909
1001.435 .0245833
1002.033 .0245763
1002.630 .0245698
1003.228 .0245638
1003.825 .0245582
1004.422 .0245532
1005.018 .0245485
1005.614 .0245442
1006.210 .0245402
1006.806 .0245365
1007.401 .0245332
1007.996 .0245302
1008.591 .0245276
1009.186 .0245255
1009.780 .0245237
1010.374 .0245223
1010.967 .0245212
1011.561 .0245204
1012.154 .0245200
1012.746 .0245198
1013.339 .0245200
1013.931 .0245204
1014.523 .0245212
1015.115 .0245222
1015.706 .0245236
1016.298 .0245253
1016.888 .0245274
1017.479 .0245297
1018.069 .0245322
1018.660 .0245349
1019.250 .0245378
1019.839 .0245408
1020.429 .0245439
1021.018 .0245472
1021.607 .0245508
1022.195 .0245545
1022.784 .0245586
1023.372 .0245630
1023.960 .0245677
1024.547 .0245727
1025.135 .0245780
1025.722 .0245837
1026.309 .0245897
1026.896 .0245960
1027.483 .0246027
1028.069 .0246097
1028.655 .0246172
1029.241 .0246249
1029.827 .0246330
1030.412 .0246413
1030.997 .0246498
1031.582 .0246584
1032.167 .0246670
1032.752 .0246755
1033.336 .0246840
1033.921 .0246923
1034.505 .0247006
1035.089 .0247088
1035.672 .0247169
1036.256 .0247250
1036.839 .0247331
1037.422 .0247412
1038.005 .0247493
1038.588 .0247574
1039.171 .0247655
1039.753 .0247737
1040.335 .0247818
1040.918 .0247897
1041.500 .0247976
1042.081 .0248052
1042.663 .0248126
1043.244 .0248197
1043.826 .0248266
1044.407 .0248334
1044.988 .0248401
1045.569 .0248468
1046.150 .0248534
1046.730 .0248600
1047.311 .0248665
1047.891 .0248729
1048.471 .0248793
1049.052 .0248857
1049.632 .0248921
1050.211 .0248987
1050.791 .0249056
1051.371 .0249128
1051.950 .0249204
1052.530 .0249284
1053.109 .0249368
1053.688 .0249454
1054.268 .0249541
1054.847 .0249628
1055.426 .0249713
1056.005 .0249797
1056.583 .0249880
1057.162 .0249960
1057.741 .0250040
1058.319 .0250120
1058.898 .0250202
1059.476 .0250286
1060.055 .0250372
1060.633 .0250460
1061.211 .0250550
1061.790 .0250642
1062.368 .0250734
1062.946 .0250828
1063.524 .0250924
1064.102 .0251022
1064.680 .0251122
1065.258 .0251226
1065.836 .0251332
1066.414 .0251442
1066.992 .0251553
1067.570 .0251665
1068.148 .0251776
1068.726 .0251884
1069.304 .0251990
1069.882 .0252092
1070.460 .0252194
1071.038 .0252294
1071.616 .0252394
1072.194 .0252496
1072.772 .0252599
1073.350 .0252704
1073.928 .0252810
1074.506 .0252917
1075.084 .0253023
1075.662 .0253129
1076.240 .0253233
1076.819 .0253337
1077.397 .0253442
1077.976 .0253549
1078.554 .0253658
1079.133 .0253771
1079.711 .0253888
1080.290 .0254009
1080.869 .0254135
1081.448 .0254264
1082.027 .0254395
1082.606 .0254528
1083.185 .0254663
1083.764 .0254800
1084.343 .0254941
1084.923 .0255088
1085.502 .0255241
1086.082 .0255404
1086.662 .0255577
1087.242 .0255758
1087.822 .0255948
1088.402 .0256145
1088.983 .0256346
1089.563 .0256551
1090.144 .0256758
1090.725 .0256967
1091.306 .0257180
1091.887 .0257398
1092.469 .0257622
1093.050 .0257852
1093.632 .0258090
1094.214 .0258332
1094.796 .0258577
1095.379 .0258822
1095.961 .0259061
1096.544 .0259294
1097.127 .0259520
1097.710 .0259739
1098.294 .0259950
1098.877 .0260157
1099.461 .0260362
1100.046 .0260567
1100.630 .0260774
1101.215 .0260983
1101.800 .0261194
1102.385 .0261404
1102.970 .0261612
1103.556 .0261815
1104.142 .0262013
1104.728 .0262208
1105.315 .0262400
1105.902 .0262593
1106.489 .0262791
1107.077 .0262996
1107.664 .0263212
1108.253 .0263439
1108.841 .0263675
1109.430 .0263919
1110.019 .0264170
1110.609 .0264424
1111.198 .0264680
1111.789 .0264938
1112.379 .0265201
1112.970 .0265471
1113.561 .0265753
1114.153 .0266047
1114.745 .0266358
1115.338 .0266687
1115.931 .0267033
1116.524 .0267396
1117.117 .0267775
1117.712 .0268169
1118.306 .0268578
1118.901 .0269004
1119.496 .0269449
1120.092 .0269916
1120.689 .0270407
1121.285 .0270925
1121.882 .0271472
1122.480 .0272046
1123.078 .0272650
1123.677 .0273281
1124.276 .0273938
1124.875 .0274619
1125.476 .0275322
1126.076 .0276047
1126.677 .0276793
1127.279 .0277561
1127.881 .0278351
1128.484 .0279166
1129.087 .0279509
1129.691 .0280366
1130.295 .0281248
1130.900 .0282155
1131.505 .0283087
1132.111 .0284041
1132.718 .0285018
1133.325 .0286024
1133.933 .0287053
1134.541 .0288103
1135.150 .0289132
1135.760 .0290262
1136.370 .0291569
1136.981 .0292815
1137.592 .0293887
1138.204 .0294945
1138.817 .0296047
1139.431 .0297184
1140.045 .0298312
1140.660 .0299499
1141.275 .0300914
1141.891 .0302158
1142.508 .0303403
1143.126 .0303512
1143.744 .0307055
1144.363 .0312763
1144.983 .0304656
