Measurement Sequence started on: 15-12-46-377
Integration time: 28
Scans to Average: 2 
>>>>>Begin Spectral Data<<<<<
432.689 .0000100
433.621 .0000100
434.552 .0000100
435.482 .0000100
436.410 .0000100
437.337 .0000100
438.262 .0273737
439.187 .0579393
440.110 .0961535
441.031 .1392962
441.952 .1121340
442.871 .1171186
443.789 .1217530
444.705 .1261110
445.621 .1302431
446.535 .1341889
447.447 .1365367
448.359 .1371414
449.269 .1356204
450.178 .1317295
451.086 .1255431
451.993 .1175357
452.898 .1084952
453.803 .0993182
454.706 .0907710
455.608 .0833326
456.508 .0771685
457.408 .0729883
458.306 .0697756
459.204 .0671733
460.100 .0649935
460.995 .0631299
461.888 .0615103
462.781 .0600860
463.673 .0588189
464.563 .0576820
465.452 .0566533
466.340 .0557152
467.228 .0548550
468.114 .0540641
468.999 .0533360
469.882 .0526647
470.765 .0520465
471.647 .0514776
472.528 .0509550
473.407 .0504749
474.286 .0500345
475.163 .0496315
476.040 .0492632
476.915 .0489280
477.790 .0486238
478.663 .0483506
479.535 .0481079
480.407 .0478951
481.277 .0477116
482.147 .0475554
483.015 .0474243
483.883 .0473153
484.749 .0472258
485.615 .0471535
486.479 .0470964
487.343 .0470539
488.206 .0470261
489.067 .0470130
489.928 .0470154
490.788 .0470342
491.647 .0470697
492.505 .0471224
493.362 .0471916
494.218 .0472766
495.073 .0473775
495.928 .0475904
496.781 .0477373
497.634 .0479048
498.486 .0480954
499.337 .0483122
500.187 .0485584
501.036 .0488375
501.884 .0491526
502.731 .0495087
503.578 .0499098
504.424 .0502084
505.268 .0506965
506.113 .0512456
506.956 .0518624
507.798 .0525539
508.640 .0533292
509.480 .0541982
510.320 .0551721
511.160 .0562650
511.998 .0574909
512.836 .0588652
513.672 .0604035
514.508 .0621260
515.344 .0640512
516.178 .0661975
517.012 .0685854
517.845 .0712322
518.677 .0741550
519.508 .0773664
520.339 .0808696
521.169 .0846646
521.998 .0887287
522.826 .0930245
523.654 .0974976
524.481 .1020826
525.307 .1067031
526.133 .1112720
526.958 .1156977
527.782 .1198894
528.605 .1237590
529.428 .1272304
530.250 .1302331
531.072 .1327183
531.892 .1346454
532.712 .1359878
533.532 .1367320
534.350 .1368759
535.168 .1364263
535.986 .1353952
536.802 .1337965
537.618 .1316499
538.434 .1289722
539.249 .1258021
540.063 .1221905
540.876 .1182005
541.689 .1139055
542.501 .1093881
543.313 .1047361
544.124 .1000413
544.934 .0953913
545.744 .0908669
546.553 .0865353
547.361 .0824554
548.169 .0786620
548.976 .0751769
549.783 .0720088
550.589 .0691519
551.395 .0665872
552.200 .0642895
553.004 .0622284
553.808 .0603761
554.611 .0587066
555.414 .0571991
556.216 .0558328
557.018 .0545886
557.819 .0534510
558.619 .0524046
559.419 .0514355
560.218 .0505333
561.017 .0496876
561.815 .0488909
562.613 .0481366
563.410 .0474193
564.207 .0467342
565.003 .0460780
565.799 .0454476
566.594 .0448401
567.388 .0442538
568.182 .0436876
568.976 .0431400
569.769 .0426095
570.562 .0420954
571.354 .0415967
572.145 .0411130
572.936 .0406441
573.727 .0401900
574.517 .0397501
575.307 .0393244
576.096 .0389131
576.885 .0385165
577.673 .0381347
578.461 .0377678
579.248 .0374158
580.035 .0370789
580.821 .0367570
581.607 .0364505
582.392 .0361593
583.177 .0358840
583.962 .0356245
584.746 .0353803
585.529 .0351514
586.313 .0349373
587.095 .0347374
587.878 .0345512
588.660 .0343779
589.441 .0342169
590.222 .0340674
591.003 .0339289
591.783 .0338009
592.563 .0336824
593.342 .0335727
594.121 .0334708
594.899 .0333760
595.678 .0332874
596.455 .0332042
597.233 .0331260
598.009 .0330523
598.786 .0329828
599.562 .0329170
600.338 .0328550
601.113 .0327964
601.888 .0327196
602.663 .0326683
603.437 .0326199
604.211 .0325738
604.984 .0325299
605.757 .0324880
606.530 .0324479
607.302 .0324095
608.074 .0323726
608.845 .0323371
609.616 .0323030
610.387 .0322885
611.158 .0322562
611.928 .0322251
612.697 .0321952
613.467 .0321663
614.236 .0321383
615.004 .0321110
615.773 .0320845
616.541 .0320586
617.308 .0320332
618.076 .0320083
618.843 .0319837
619.609 .0319593
620.375 .0319350
621.141 .0319109
621.907 .0318867
622.672 .0318626
623.437 .0318383
624.202 .0318139
624.966 .0317895
625.730 .0317649
626.493 .0317401
627.257 .0317151
628.020 .0316898
628.782 .0316642
629.545 .0316382
630.307 .0316117
631.068 .0315849
631.830 .0315578
632.591 .0315305
633.352 .0315033
634.112 .0314761
634.872 .0314492
635.632 .0314225
636.392 .0313961
637.151 .0313701
637.910 .0313445
638.668 .0313194
639.427 .0312948
640.185 .0312710
640.943 .0312480
641.700 .0312258
642.457 .0312045
643.214 .0311840
643.971 .0311643
644.727 .0311453
645.483 .0311268
646.239 .0311088
646.994 .0310911
647.750 .0310737
648.505 .0310566
649.259 .0310395
650.014 .0310225
650.768 .0310054
651.521 .0309879
652.275 .0309701
653.028 .0309518
653.781 .0309329
654.534 .0309134
655.286 .0308932
656.039 .0308723
656.791 .0308505
657.542 .0308279
658.294 .0308044
659.045 .0307799
659.796 .0307544
660.546 .0307280
661.297 .0307008
662.047 .0306731
662.796 .0306448
663.546 .0306162
664.295 .0305874
665.044 .0305584
665.793 .0305293
666.542 .0305002
667.290 .0304712
668.038 .0304423
668.786 .0304137
669.533 .0303855
670.281 .0303578
671.028 .0303307
671.774 .0303041
672.521 .0302782
673.267 .0302528
674.013 .0302279
674.759 .0302035
675.505 .0301794
676.250 .0301556
676.995 .0301322
677.740 .0301091
678.484 .0300862
679.229 .0300637
679.973 .0300415
680.717 .0300196
681.460 .0299978
682.204 .0299764
682.947 .0299551
683.690 .0299339
684.433 .0299128
685.175 .0298919
685.917 .0298711
686.659 .0298504
687.401 .0298300
688.142 .0298097
688.884 .0297897
689.625 .0297699
690.365 .0297502
691.106 .0297307
691.846 .0297114
692.586 .0296922
693.326 .0296732
694.066 .0296544
694.805 .0296358
695.545 .0296174
696.284 .0295992
697.022 .0295812
697.761 .0295634
698.499 .0295458
699.237 .0295283
699.975 .0295110
700.713 .0294938
701.450 .0294769
702.187 .0294600
702.924 .0294433
703.661 .0294266
704.397 .0294099
705.133 .0293932
705.869 .0293764
706.605 .0293596
707.341 .0293428
708.076 .0293261
708.811 .0293094
709.546 .0292928
710.281 .0292762
711.015 .0292595
711.749 .0292428
712.483 .0292260
713.217 .0292091
713.950 .0291922
714.684 .0291752
715.417 .0291582
716.150 .0291413
716.882 .0291244
717.615 .0291074
718.347 .0290904
719.079 .0290732
719.811 .0290558
720.542 .0290383
721.273 .0290208
722.005 .0290032
722.735 .0289857
723.466 .0289685
724.196 .0289515
724.927 .0289349
725.656 .0289187
726.386 .0289028
727.116 .0288873
727.845 .0288723
728.574 .0288576
729.303 .0288436
730.031 .0288300
730.760 .0288170
731.488 .0288045
732.216 .0287925
732.944 .0287809
733.671 .0287697
734.398 .0287587
735.125 .0287480
735.852 .0287376
736.579 .0287273
737.305 .0287172
738.031 .0287072
738.757 .0286972
739.483 .0286871
740.208 .0286768
740.933 .0286662
741.658 .0286553
742.383 .0286440
743.108 .0286323
743.832 .0286202
744.556 .0286077
745.280 .0285949
746.004 .0285817
746.727 .0285681
747.450 .0285541
748.173 .0285398
748.896 .0285250
749.618 .0285098
750.340 .0284943
751.062 .0284785
751.784 .0284625
752.506 .0284462
753.227 .0284296
753.948 .0284128
754.669 .0283958
755.389 .0283787
756.110 .0283613
756.830 .0283439
757.550 .0283263
758.269 .0283087
758.989 .0282910
759.708 .0282732
760.427 .0282553
761.146 .0282373
761.864 .0282190
762.582 .0282006
763.300 .0281820
764.018 .0281632
764.736 .0281443
765.453 .0281253
766.170 .0281064
766.887 .0280877
767.603 .0280692
768.320 .0280509
769.036 .0280330
769.751 .0280154
770.467 .0279981
771.182 .0279810
771.897 .0279643
772.612 .0279479
773.327 .0279317
774.041 .0279160
774.755 .0279006
775.469 .0278858
776.183 .0278715
776.896 .0278576
777.609 .0278444
778.322 .0278316
779.035 .0278193
779.747 .0278073
780.459 .0277958
781.171 .0277846
781.882 .0277737
782.594 .0277631
783.305 .0277528
784.016 .0277429
784.726 .0277333
785.436 .0277240
786.147 .0277116
786.856 .0277028
787.566 .0276942
788.275 .0276857
788.984 .0276771
789.693 .0276685
790.401 .0276599
791.110 .0276511
791.818 .0276422
792.525 .0276332
793.233 .0276240
793.940 .0276146
794.647 .0276092
795.353 .0275996
796.060 .0275899
796.766 .0275802
797.472 .0275703
798.177 .0275603
798.883 .0275501
799.588 .0275397
800.292 .0275290
800.997 .0275181
801.701 .0275070
802.405 .0274955
803.109 .0274839
803.812 .0274720
804.515 .0274599
805.218 .0274475
805.921 .0274349
806.623 .0274221
807.325 .0274091
808.027 .0273958
808.728 .0273822
809.429 .0273684
810.130 .0273544
810.831 .0273403
811.531 .0273260
812.231 .0273118
812.931 .0272975
813.630 .0272834
814.330 .0272695
815.029 .0272558
815.727 .0272424
816.426 .0272294
817.124 .0272168
817.821 .0272046
818.519 .0271927
819.216 .0271813
819.913 .0271702
820.609 .0271595
821.306 .0271494
822.002 .0271398
822.697 .0271308
823.393 .0271224
824.088 .0271147
824.783 .0271076
825.477 .0271011
826.171 .0270951
826.865 .0270896
827.559 .0270844
828.252 .0270796
828.945 .0270751
829.638 .0270708
830.330 .0270668
831.023 .0270630
831.714 .0270594
832.406 .0270558
833.097 .0270522
833.788 .0270485
834.479 .0270445
835.169 .0270404
835.859 .0270361
836.548 .0270316
837.238 .0270269
837.927 .0270220
838.615 .0270170
839.304 .0270119
839.992 .0270065
840.680 .0270010
841.367 .0269953
842.054 .0269893
842.741 .0269832
843.428 .0269769
844.114 .0269705
844.800 .0269640
845.485 .0269574
846.170 .0269506
846.855 .0269437
847.540 .0269365
848.224 .0269290
848.908 .0269211
849.592 .0269130
850.275 .0269045
850.958 .0268958
851.641 .0268868
852.323 .0268777
853.005 .0268685
853.687 .0268592
854.368 .0268497
855.049 .0268402
855.730 .0268305
856.410 .0268207
857.090 .0268108
857.769 .0268009
858.449 .0267909
859.128 .0267809
859.806 .0267710
860.485 .0267611
861.163 .0267512
861.840 .0267413
862.518 .0267313
863.195 .0267213
863.871 .0267111
864.548 .0267009
865.224 .0266906
865.899 .0266802
866.574 .0266697
867.249 .0266593
867.924 .0266489
868.598 .0266385
869.272 .0266281
869.946 .0266177
870.619 .0266074
871.292 .0265970
871.964 .0265866
872.636 .0265762
873.308 .0265658
873.979 .0265555
874.651 .0265453
875.321 .0265352
875.992 .0265254
876.662 .0265157
877.331 .0265062
878.001 .0264970
878.670 .0264879
879.338 .0264790
880.007 .0264703
880.675 .0264619
881.342 .0264536
882.009 .0264455
882.676 .0264376
883.343 .0264300
884.009 .0264226
884.675 .0264154
885.340 .0264084
886.005 .0264016
886.670 .0263949
887.334 .0263884
887.998 .0263820
888.662 .0263758
889.325 .0263697
889.988 .0263637
890.650 .0263579
891.312 .0263522
891.974 .0263466
892.636 .0263411
893.297 .0263356
893.957 .0263302
894.618 .0263248
895.278 .0263194
895.937 .0263139
896.596 .0263082
897.255 .0263024
897.914 .0262962
898.572 .0262898
899.230 .0262829
899.887 .0262755
900.544 .0262676
901.201 .0262590
901.857 .0262432
902.513 .0262329
903.168 .0262220
903.823 .0262105
904.478 .0261983
905.132 .0261856
905.786 .0261722
906.440 .0261583
907.093 .0261436
907.746 .0261283
908.399 .0261123
909.051 .0260956
909.703 .0260783
910.354 .0260685
911.005 .0260507
911.656 .0260325
912.306 .0260139
912.956 .0259951
913.605 .0259762
914.254 .0259570
914.903 .0259378
915.551 .0259186
916.199 .0258993
916.847 .0258800
917.494 .0258608
918.141 .0258416
918.788 .0258225
919.434 .0258035
920.079 .0257844
920.725 .0257654
921.370 .0257463
922.014 .0257269
922.658 .0257074
923.302 .0256877
923.946 .0256676
924.589 .0256474
925.231 .0256270
925.873 .0256063
926.515 .0255855
927.157 .0255645
927.798 .0255433
928.439 .0255218
929.079 .0255002
929.719 .0254784
930.359 .0254564
930.998 .0254345
931.637 .0254125
932.275 .0253908
932.913 .0253693
933.551 .0253481
934.188 .0253274
934.825 .0253070
935.462 .0252871
936.098 .0252676
936.733 .0252484
937.369 .0252296
938.004 .0252112
938.638 .0251932
939.273 .0251758
939.907 .0251589
940.540 .0251427
941.173 .0251271
941.806 .0251122
942.438 .0250980
943.070 .0250843
943.702 .0250713
944.333 .0250586
944.964 .0250465
945.594 .0250348
946.224 .0250235
946.854 .0250127
947.483 .0250022
948.112 .0249920
948.741 .0249822
949.369 .0249726
949.996 .0249631
950.624 .0249537
951.251 .0249444
951.878 .0249350
952.504 .0249256
953.130 .0249163
953.755 .0249070
954.380 .0248977
955.005 .0248886
955.629 .0248795
956.253 .0248706
956.877 .0248617
957.500 .0248530
958.123 .0248443
958.746 .0248357
959.368 .0248273
959.990 .0248190
960.611 .0248109
961.232 .0248031
961.853 .0247955
962.473 .0247881
963.093 .0247809
963.712 .0247738
964.331 .0247667
964.950 .0247597
965.569 .0247526
966.187 .0247454
966.804 .0247382
967.422 .0247310
968.039 .0247237
968.655 .0247163
969.272 .0247089
969.887 .0247014
970.503 .0246938
971.118 .0246861
971.733 .0246784
972.347 .0246706
972.961 .0246627
973.575 .0246548
974.188 .0246470
974.801 .0246391
975.414 .0246313
976.026 .0246235
976.638 .0246156
977.250 .0246075
977.861 .0245994
978.472 .0245911
979.083 .0245826
979.693 .0245741
980.303 .0245656
980.912 .0245532
981.521 .0245449
982.130 .0245368
982.738 .0245288
983.346 .0245210
983.954 .0245133
984.562 .0245059
985.169 .0244988
985.775 .0244919
986.382 .0244856
986.988 .0244797
987.594 .0244743
988.199 .0244696
988.804 .0244655
989.409 .0244650
990.013 .0244620
990.617 .0244596
991.221 .0244578
991.824 .0244566
992.427 .0244559
993.030 .0244556
993.632 .0244559
994.234 .0244566
994.836 .0244579
995.438 .0244596
996.039 .0244619
996.640 .0244646
997.240 .0244678
997.840 .0244713
998.440 .0244751
999.040 .0244793
999.639 .0244836
1000.238 .0244882
1000.836 .0244928
1001.435 .0244976
1002.033 .0245025
1002.630 .0245075
1003.228 .0245126
1003.825 .0245178
1004.422 .0245231
1005.018 .0245283
1005.614 .0245335
1006.210 .0245386
1006.806 .0245436
1007.401 .0245486
1007.996 .0245534
1008.591 .0245582
1009.186 .0245629
1009.780 .0245677
1010.374 .0245725
1010.967 .0245774
1011.561 .0245825
1012.154 .0245876
1012.746 .0245929
1013.339 .0245983
1013.931 .0246039
1014.523 .0246098
1015.115 .0246160
1015.706 .0246226
1016.298 .0246295
1016.888 .0246370
1017.479 .0246450
1018.069 .0246536
1018.660 .0246627
1019.250 .0246725
1019.839 .0246827
1020.429 .0246935
1021.018 .0247047
1021.607 .0247165
1022.195 .0247288
1022.784 .0247415
1023.372 .0247546
1023.960 .0247682
1024.547 .0247821
1025.135 .0247964
1025.722 .0248109
1026.309 .0248257
1026.896 .0248406
1027.483 .0248557
1028.069 .0248708
1028.655 .0248860
1029.241 .0249011
1029.827 .0249162
1030.412 .0249312
1030.997 .0249460
1031.582 .0249606
1032.167 .0249747
1032.752 .0249885
1033.336 .0250017
1033.921 .0250143
1034.505 .0250264
1035.089 .0250379
1035.672 .0250488
1036.256 .0250592
1036.839 .0250691
1037.422 .0250784
1038.005 .0250871
1038.588 .0250951
1039.171 .0251023
1039.753 .0251086
1040.335 .0251142
1040.918 .0251189
1041.500 .0251228
1042.081 .0251261
1042.663 .0251287
1043.244 .0251309
1043.826 .0251326
1044.407 .0251341
1044.988 .0251352
1045.569 .0251359
1046.150 .0251362
1046.730 .0251361
1047.311 .0251356
1047.891 .0251348
1048.471 .0251338
1049.052 .0251327
1049.632 .0251317
1050.211 .0251309
1050.791 .0251304
1051.371 .0251303
1051.950 .0251304
1052.530 .0251308
1053.109 .0251312
1053.688 .0251316
1054.268 .0251320
1054.847 .0251325
1055.426 .0251330
1056.005 .0251337
1056.583 .0251346
1057.162 .0251359
1057.741 .0251375
1058.319 .0251394
1058.898 .0251414
1059.476 .0251435
1060.055 .0251456
1060.633 .0251475
1061.211 .0251492
1061.790 .0251509
1062.368 .0251526
1062.946 .0251544
1063.524 .0251563
1064.102 .0251583
1064.680 .0251606
1065.258 .0251629
1065.836 .0251653
1066.414 .0251678
1066.992 .0251703
1067.570 .0251729
1068.148 .0251756
1068.726 .0251786
1069.304 .0251818
1069.882 .0251854
1070.460 .0251894
1071.038 .0251937
1071.616 .0251984
1072.194 .0252034
1072.772 .0252085
1073.350 .0252135
1073.928 .0252185
1074.506 .0252232
1075.084 .0252275
1075.662 .0252314
1076.240 .0252347
1076.819 .0252375
1077.397 .0252397
1077.976 .0252412
1078.554 .0252421
1079.133 .0252425
1079.711 .0252423
1080.290 .0252418
1080.869 .0252409
1081.448 .0252399
1082.027 .0252388
1082.606 .0252375
1083.185 .0252361
1083.764 .0252348
1084.343 .0252335
1084.923 .0252321
1085.502 .0252310
1086.082 .0252300
1086.662 .0252292
1087.242 .0252287
1087.822 .0252286
1088.402 .0252287
1088.983 .0252293
1089.563 .0252303
1090.144 .0252318
1090.725 .0252338
1091.306 .0252364
1091.887 .0252398
1092.469 .0252442
1093.050 .0252497
1093.632 .0252562
1094.214 .0252639
1094.796 .0252728
1095.379 .0252827
1095.961 .0252936
1096.544 .0253055
1097.127 .0253183
1097.710 .0253318
1098.294 .0253459
1098.877 .0253606
1099.461 .0253757
1100.046 .0253911
1100.630 .0254065
1101.215 .0254219
1101.800 .0254373
1102.385 .0254524
1102.970 .0254674
1103.556 .0254824
1104.142 .0254977
1104.728 .0255134
1105.315 .0255299
1105.902 .0255472
1106.489 .0255655
1107.077 .0255849
1107.664 .0256053
1108.253 .0256267
1108.841 .0256491
1109.430 .0256725
1110.019 .0256968
1110.609 .0257221
1111.198 .0257486
1111.789 .0257762
1112.379 .0258049
1112.970 .0258348
1113.561 .0258656
1114.153 .0258974
1114.745 .0259300
1115.338 .0259636
1115.931 .0259981
1116.524 .0260337
1117.117 .0260704
1117.712 .0261084
1118.306 .0261478
1118.901 .0261886
1119.496 .0262310
1120.092 .0262749
1120.689 .0263201
1121.285 .0263665
1121.882 .0264139
1122.480 .0264622
1123.078 .0265111
1123.677 .0265607
1124.276 .0266107
1124.875 .0266610
1125.476 .0267116
1126.076 .0267625
1126.677 .0268137
1127.279 .0268654
1127.881 .0269180
1128.484 .0269714
1129.087 .0269962
1129.691 .0270512
1130.295 .0271077
1130.900 .0271663
1131.505 .0272270
1132.111 .0272900
1132.718 .0273553
1133.325 .0274233
1133.933 .0274940
1134.541 .0275646
1135.150 .0276389
1135.760 .0277179
1136.370 .0278041
1136.981 .0277812
1137.592 .0278641
1138.204 .0279534
1138.817 .0280528
1139.431 .0281544
1140.045 .0282572
1140.660 .0283635
1141.275 .0284777
1141.891 .0285977
1142.508 .0286357
1143.126 .0287890
1143.744 .0289675
1144.363 .0292243
1144.983 .0293083
