Measurement Sequence started on: 15-12-46-377
Integration time: 28
Scans to Average: 2 
>>>>>Begin Spectral Data<<<<<
432.689 .0000100
433.621 .0000100
434.552 .0000100
435.482 .0000100
436.410 .0000100
437.337 .0000100
438.262 .0288807
439.187 .0610997
440.110 .1011924
441.031 .1463188
441.952 .1164956
442.871 .1215797
443.789 .1263153
444.705 .1307791
445.621 .1350237
446.535 .1390870
447.447 .1414766
448.359 .1420370
449.269 .1403705
450.178 .1362248
451.086 .1296832
451.993 .1212521
452.898 .1117682
453.803 .1021771
454.706 .0932829
455.608 .0855824
456.508 .0792387
457.408 .0749892
458.306 .0717499
459.204 .0691314
460.100 .0669327
460.995 .0650419
461.888 .0633845
462.781 .0619104
463.673 .0605850
464.563 .0593848
465.452 .0582926
466.340 .0572949
467.228 .0563825
468.114 .0555476
468.999 .0547839
469.882 .0540842
470.765 .0534428
471.647 .0528548
472.528 .0523164
473.407 .0518245
474.286 .0513774
475.163 .0509749
476.040 .0506169
476.915 .0503027
477.790 .0500317
478.663 .0498020
479.535 .0496113
480.407 .0494567
481.277 .0493345
482.147 .0492407
483.015 .0491720
483.883 .0491249
484.749 .0490967
485.615 .0490850
486.479 .0490878
487.343 .0491035
488.206 .0491313
489.067 .0491698
489.928 .0492183
490.788 .0492768
491.647 .0493457
492.505 .0494253
493.362 .0495167
494.218 .0496210
495.073 .0497394
495.928 .0499780
496.781 .0501417
497.634 .0503236
498.486 .0505260
499.337 .0507509
500.187 .0510012
501.036 .0512807
501.884 .0515935
502.731 .0519444
503.578 .0523379
504.424 .0526261
505.268 .0530964
506.113 .0536187
506.956 .0541959
507.798 .0548318
508.640 .0555319
509.480 .0563039
510.320 .0571576
511.160 .0581056
511.998 .0591627
512.836 .0603468
513.672 .0616789
514.508 .0631803
515.344 .0648733
516.178 .0667811
517.012 .0689255
517.845 .0713268
518.677 .0740043
519.508 .0769739
520.339 .0802448
521.169 .0838242
521.998 .0876951
522.826 .0918280
523.654 .0961756
524.481 .1006775
525.307 .1052584
526.133 .1098278
526.958 .1142869
527.782 .1185351
528.605 .1224775
529.428 .1260294
530.250 .1291148
531.072 .1316845
531.892 .1337006
532.712 .1351417
533.532 .1359962
534.350 .1362654
535.168 .1359598
535.986 .1350893
536.802 .1336628
537.618 .1316899
538.434 .1291789
539.249 .1261623
540.063 .1226838
540.876 .1188021
541.689 .1145886
542.501 .1101265
543.313 .1055100
544.124 .1008379
544.934 .0962076
545.744 .0917062
546.553 .0874083
547.361 .0833764
548.169 .0796416
548.976 .0762234
549.783 .0731241
550.589 .0703332
551.395 .0678287
552.200 .0655798
553.004 .0635558
553.808 .0617293
554.611 .0600779
555.414 .0585818
556.216 .0572220
557.018 .0559806
557.819 .0548410
558.619 .0537883
559.419 .0528095
560.218 .0518939
561.017 .0510322
561.815 .0502172
562.613 .0494434
563.410 .0487055
564.207 .0479992
565.003 .0473218
565.799 .0466701
566.594 .0460413
567.388 .0454330
568.182 .0448430
568.976 .0442693
569.769 .0437111
570.562 .0431682
571.354 .0426403
572.145 .0421283
572.936 .0416329
573.727 .0411547
574.517 .0406947
575.307 .0402535
576.096 .0398314
576.885 .0394290
577.673 .0390464
578.461 .0386832
579.248 .0383391
580.035 .0380137
580.821 .0377059
581.607 .0374153
582.392 .0371412
583.177 .0368833
583.962 .0366414
584.746 .0364151
585.529 .0362039
586.313 .0360072
587.095 .0358243
587.878 .0356541
588.660 .0354956
589.441 .0353477
590.222 .0352095
591.003 .0350804
591.783 .0349598
592.563 .0348471
593.342 .0347419
594.121 .0346439
594.899 .0345525
595.678 .0344672
596.455 .0343874
597.233 .0343125
598.009 .0342419
598.786 .0341750
599.562 .0341113
600.338 .0340502
601.113 .0339914
601.888 .0339106
602.663 .0338570
603.437 .0338054
604.211 .0337556
604.984 .0337077
605.757 .0336616
606.530 .0336173
607.302 .0335748
608.074 .0335341
608.845 .0334951
609.616 .0334577
610.387 .0334424
611.158 .0334072
611.928 .0333735
612.697 .0333412
613.467 .0333102
614.236 .0332805
615.004 .0332519
615.773 .0332244
616.541 .0331981
617.308 .0331727
618.076 .0331485
618.843 .0331251
619.609 .0331025
620.375 .0330805
621.141 .0330590
621.907 .0330378
622.672 .0330168
623.437 .0329959
624.202 .0329750
624.966 .0329540
625.730 .0329327
626.493 .0329112
627.257 .0328894
628.020 .0328673
628.782 .0328447
629.545 .0328217
630.307 .0327982
631.068 .0327741
631.830 .0327496
632.591 .0327247
633.352 .0326993
634.112 .0326735
634.872 .0326473
635.632 .0326208
636.392 .0325940
637.151 .0325670
637.910 .0325397
638.668 .0325124
639.427 .0324850
640.185 .0324577
640.943 .0324305
641.700 .0324034
642.457 .0323765
643.214 .0323498
643.971 .0323232
644.727 .0322967
645.483 .0322703
646.239 .0322438
646.994 .0322173
647.750 .0321906
648.505 .0321638
649.259 .0321368
650.014 .0321097
650.768 .0320825
651.521 .0320552
652.275 .0320279
653.028 .0320007
653.781 .0319733
654.534 .0319459
655.286 .0319183
656.039 .0318906
656.791 .0318627
657.542 .0318347
658.294 .0318065
659.045 .0317783
659.796 .0317500
660.546 .0317217
661.297 .0316936
662.047 .0316656
662.796 .0316378
663.546 .0316102
664.295 .0315828
665.044 .0315557
665.793 .0315290
666.542 .0315025
667.290 .0314764
668.038 .0314506
668.786 .0314251
669.533 .0313999
670.281 .0313750
671.028 .0313504
671.774 .0313261
672.521 .0313021
673.267 .0312784
674.013 .0312551
674.759 .0312322
675.505 .0312096
676.250 .0311874
676.995 .0311656
677.740 .0311441
678.484 .0311228
679.229 .0311018
679.973 .0310810
680.717 .0310605
681.460 .0310403
682.204 .0310206
682.947 .0310012
683.690 .0309821
684.433 .0309634
685.175 .0309450
685.917 .0309269
686.659 .0309089
687.401 .0308910
688.142 .0308732
688.884 .0308554
689.625 .0308376
690.365 .0308199
691.106 .0308022
691.846 .0307845
692.586 .0307668
693.326 .0307490
694.066 .0307311
694.805 .0307131
695.545 .0306949
696.284 .0306767
697.022 .0306583
697.761 .0306397
698.499 .0306210
699.237 .0306021
699.975 .0305830
700.713 .0305638
701.450 .0305444
702.187 .0305249
702.924 .0305053
703.661 .0304856
704.397 .0304659
705.133 .0304462
705.869 .0304266
706.605 .0304069
707.341 .0303871
708.076 .0303674
708.811 .0303477
709.546 .0303280
710.281 .0303085
711.015 .0302891
711.749 .0302699
712.483 .0302510
713.217 .0302323
713.950 .0302138
714.684 .0301956
715.417 .0301775
716.150 .0301595
716.882 .0301417
717.615 .0301240
718.347 .0301064
719.079 .0300890
719.811 .0300717
720.542 .0300546
721.273 .0300376
722.005 .0300206
722.735 .0300038
723.466 .0299870
724.196 .0299703
724.927 .0299538
725.656 .0299373
726.386 .0299209
727.116 .0299046
727.845 .0298883
728.574 .0298722
729.303 .0298562
730.031 .0298403
730.760 .0298245
731.488 .0298089
732.216 .0297935
732.944 .0297783
733.671 .0297632
734.398 .0297484
735.125 .0297336
735.852 .0297189
736.579 .0297044
737.305 .0296899
738.031 .0296756
738.757 .0296615
739.483 .0296476
740.208 .0296339
740.933 .0296203
741.658 .0296069
742.383 .0295934
743.108 .0295799
743.832 .0295662
744.556 .0295525
745.280 .0295385
746.004 .0295244
746.727 .0295101
747.450 .0294956
748.173 .0294811
748.896 .0294663
749.618 .0294513
750.340 .0294362
751.062 .0294207
751.784 .0294050
752.506 .0293890
753.227 .0293726
753.948 .0293560
754.669 .0293391
755.389 .0293218
756.110 .0293042
756.830 .0292863
757.550 .0292682
758.269 .0292499
758.989 .0292315
759.708 .0292131
760.427 .0291947
761.146 .0291765
761.864 .0291584
762.582 .0291406
763.300 .0291231
764.018 .0291058
764.736 .0290888
765.453 .0290721
766.170 .0290558
766.887 .0290398
767.603 .0290242
768.320 .0290091
769.036 .0289946
769.751 .0289805
770.467 .0289671
771.182 .0289543
771.897 .0289421
772.612 .0289304
773.327 .0289193
774.041 .0289087
774.755 .0288984
775.469 .0288886
776.183 .0288791
776.896 .0288700
777.609 .0288612
778.322 .0288529
779.035 .0288449
779.747 .0288373
780.459 .0288301
781.171 .0288231
781.882 .0288165
782.594 .0288099
783.305 .0288035
784.016 .0287971
784.726 .0287907
785.436 .0287841
786.147 .0287737
786.856 .0287666
787.566 .0287593
788.275 .0287518
788.984 .0287440
789.693 .0287360
790.401 .0287277
791.110 .0287192
791.818 .0287106
792.525 .0287017
793.233 .0286925
793.940 .0286832
794.647 .0286775
795.353 .0286679
796.060 .0286580
796.766 .0286478
797.472 .0286373
798.177 .0286265
798.883 .0286153
799.588 .0286040
800.292 .0285925
800.997 .0285808
801.701 .0285690
802.405 .0285571
803.109 .0285451
803.812 .0285330
804.515 .0285206
805.218 .0285081
805.921 .0284953
806.623 .0284824
807.325 .0284692
808.027 .0284559
808.728 .0284426
809.429 .0284291
810.130 .0284157
810.831 .0284023
811.531 .0283889
812.231 .0283755
812.931 .0283621
813.630 .0283487
814.330 .0283354
815.029 .0283223
815.727 .0283093
816.426 .0282966
817.124 .0282842
817.821 .0282721
818.519 .0282603
819.216 .0282490
819.913 .0282379
820.609 .0282272
821.306 .0282170
822.002 .0282071
822.697 .0281976
823.393 .0281886
824.088 .0281799
824.783 .0281717
825.477 .0281637
826.171 .0281561
826.865 .0281486
827.559 .0281414
828.252 .0281343
828.945 .0281274
829.638 .0281206
830.330 .0281140
831.023 .0281076
831.714 .0281012
832.406 .0280950
833.097 .0280888
833.788 .0280826
834.479 .0280765
835.169 .0280703
835.859 .0280641
836.548 .0280578
837.238 .0280514
837.927 .0280450
838.615 .0280386
839.304 .0280321
839.992 .0280255
840.680 .0280188
841.367 .0280119
842.054 .0280048
842.741 .0279975
843.428 .0279899
844.114 .0279821
844.800 .0279740
845.485 .0279656
846.170 .0279569
846.855 .0279479
847.540 .0279385
848.224 .0279286
848.908 .0279184
849.592 .0279076
850.275 .0278965
850.958 .0278849
851.641 .0278730
852.323 .0278608
853.005 .0278483
853.687 .0278356
854.368 .0278227
855.049 .0278095
855.730 .0277962
856.410 .0277826
857.090 .0277688
857.769 .0277549
858.449 .0277409
859.128 .0277269
859.806 .0277128
860.485 .0276989
861.163 .0276850
861.840 .0276714
862.518 .0276579
863.195 .0276446
863.871 .0276316
864.548 .0276188
865.224 .0276063
865.899 .0275941
866.574 .0275821
867.249 .0275705
867.924 .0275591
868.598 .0275480
869.272 .0275373
869.946 .0275270
870.619 .0275170
871.292 .0275073
871.964 .0274980
872.636 .0274891
873.308 .0274805
873.979 .0274722
874.651 .0274641
875.321 .0274564
875.992 .0274490
876.662 .0274418
877.331 .0274348
878.001 .0274280
878.670 .0274213
879.338 .0274146
880.007 .0274081
880.675 .0274015
881.342 .0273950
882.009 .0273885
882.676 .0273820
883.343 .0273756
884.009 .0273692
884.675 .0273628
885.340 .0273564
886.005 .0273499
886.670 .0273432
887.334 .0273365
887.998 .0273296
888.662 .0273226
889.325 .0273155
889.988 .0273084
890.650 .0273013
891.312 .0272941
891.974 .0272869
892.636 .0272797
893.297 .0272723
893.957 .0272649
894.618 .0272573
895.278 .0272496
895.937 .0272417
896.596 .0272336
897.255 .0272254
897.914 .0272169
898.572 .0272080
899.230 .0271988
899.887 .0271892
900.544 .0271791
901.201 .0271686
901.857 .0271505
902.513 .0271387
903.168 .0271265
903.823 .0271137
904.478 .0271005
905.132 .0270866
905.786 .0270723
906.440 .0270574
907.093 .0270420
907.746 .0270262
908.399 .0270100
909.051 .0269937
909.703 .0269771
910.354 .0269685
911.005 .0269519
911.656 .0269351
912.306 .0269182
912.956 .0269012
913.605 .0268839
914.254 .0268665
914.903 .0268490
915.551 .0268313
916.199 .0268136
916.847 .0267957
917.494 .0267777
918.141 .0267595
918.788 .0267411
919.434 .0267225
920.079 .0267035
920.725 .0266843
921.370 .0266649
922.014 .0266452
922.658 .0266252
923.302 .0266051
923.946 .0265848
924.589 .0265643
925.231 .0265436
925.873 .0265228
926.515 .0265017
927.157 .0264805
927.798 .0264592
928.439 .0264377
929.079 .0264163
929.719 .0263949
930.359 .0263735
930.998 .0263524
931.637 .0263314
932.275 .0263107
932.913 .0262902
933.551 .0262702
934.188 .0262506
934.825 .0262315
935.462 .0262129
936.098 .0261950
936.733 .0261778
937.369 .0261612
938.004 .0261452
938.638 .0261299
939.273 .0261153
939.907 .0261013
940.540 .0260879
941.173 .0260753
941.806 .0260633
942.438 .0260519
943.070 .0260411
943.702 .0260309
944.333 .0260211
944.964 .0260118
945.594 .0260027
946.224 .0259939
946.854 .0259853
947.483 .0259768
948.112 .0259685
948.741 .0259602
949.369 .0259521
949.996 .0259440
950.624 .0259359
951.251 .0259278
951.878 .0259196
952.504 .0259113
953.130 .0259029
953.755 .0258943
954.380 .0258856
955.005 .0258768
955.629 .0258680
956.253 .0258592
956.877 .0258503
957.500 .0258415
958.123 .0258327
958.746 .0258240
959.368 .0258153
959.990 .0258068
960.611 .0257984
961.232 .0257903
961.853 .0257824
962.473 .0257747
963.093 .0257673
963.712 .0257602
964.331 .0257533
964.950 .0257467
965.569 .0257402
966.187 .0257340
966.804 .0257279
967.422 .0257221
968.039 .0257164
968.655 .0257108
969.272 .0257053
969.887 .0257000
970.503 .0256947
971.118 .0256895
971.733 .0256842
972.347 .0256790
972.961 .0256738
973.575 .0256686
974.188 .0256633
974.801 .0256578
975.414 .0256521
976.026 .0256462
976.638 .0256399
977.250 .0256334
977.861 .0256265
978.472 .0256193
979.083 .0256118
979.693 .0256042
980.303 .0255963
980.912 .0255838
981.521 .0255756
982.130 .0255672
982.738 .0255587
983.346 .0255501
983.954 .0255417
984.562 .0255336
985.169 .0255257
985.775 .0255184
986.382 .0255116
986.988 .0255055
987.594 .0255000
988.199 .0254951
988.804 .0254909
989.409 .0254908
990.013 .0254877
990.617 .0254851
991.221 .0254833
991.824 .0254822
992.427 .0254818
993.030 .0254821
993.632 .0254831
994.234 .0254847
994.836 .0254868
995.438 .0254893
996.039 .0254922
996.640 .0254954
997.240 .0254990
997.840 .0255031
998.440 .0255076
999.040 .0255125
999.639 .0255179
1000.238 .0255238
1000.836 .0255300
1001.435 .0255364
1002.033 .0255428
1002.630 .0255493
1003.228 .0255558
1003.825 .0255621
1004.422 .0255683
1005.018 .0255744
1005.614 .0255804
1006.210 .0255863
1006.806 .0255921
1007.401 .0255976
1007.996 .0256030
1008.591 .0256080
1009.186 .0256127
1009.780 .0256170
1010.374 .0256210
1010.967 .0256246
1011.561 .0256281
1012.154 .0256315
1012.746 .0256348
1013.339 .0256381
1013.931 .0256414
1014.523 .0256448
1015.115 .0256483
1015.706 .0256519
1016.298 .0256556
1016.888 .0256595
1017.479 .0256635
1018.069 .0256678
1018.660 .0256725
1019.250 .0256776
1019.839 .0256831
1020.429 .0256892
1021.018 .0256956
1021.607 .0257026
1022.195 .0257098
1022.784 .0257175
1023.372 .0257253
1023.960 .0257335
1024.547 .0257420
1025.135 .0257507
1025.722 .0257597
1026.309 .0257690
1026.896 .0257785
1027.483 .0257882
1028.069 .0257981
1028.655 .0258079
1029.241 .0258176
1029.827 .0258273
1030.412 .0258367
1030.997 .0258461
1031.582 .0258552
1032.167 .0258643
1032.752 .0258731
1033.336 .0258817
1033.921 .0258898
1034.505 .0258975
1035.089 .0259044
1035.672 .0259106
1036.256 .0259158
1036.839 .0259201
1037.422 .0259235
1038.005 .0259261
1038.588 .0259278
1039.171 .0259288
1039.753 .0259291
1040.335 .0259286
1040.918 .0259273
1041.500 .0259252
1042.081 .0259223
1042.663 .0259186
1043.244 .0259143
1043.826 .0259095
1044.407 .0259044
1044.988 .0258991
1045.569 .0258939
1046.150 .0258889
1046.730 .0258839
1047.311 .0258789
1047.891 .0258738
1048.471 .0258685
1049.052 .0258629
1049.632 .0258570
1050.211 .0258508
1050.791 .0258444
1051.371 .0258379
1051.950 .0258314
1052.530 .0258251
1053.109 .0258188
1053.688 .0258126
1054.268 .0258064
1054.847 .0258002
1055.426 .0257940
1056.005 .0257878
1056.583 .0257819
1057.162 .0257762
1057.741 .0257711
1058.319 .0257665
1058.898 .0257625
1059.476 .0257591
1060.055 .0257561
1060.633 .0257535
1061.211 .0257510
1061.790 .0257487
1062.368 .0257465
1062.946 .0257443
1063.524 .0257423
1064.102 .0257405
1064.680 .0257390
1065.258 .0257376
1065.836 .0257365
1066.414 .0257355
1066.992 .0257346
1067.570 .0257337
1068.148 .0257329
1068.726 .0257322
1069.304 .0257317
1069.882 .0257315
1070.460 .0257317
1071.038 .0257322
1071.616 .0257329
1072.194 .0257337
1072.772 .0257344
1073.350 .0257347
1073.928 .0257344
1074.506 .0257334
1075.084 .0257316
1075.662 .0257291
1076.240 .0257260
1076.819 .0257224
1077.397 .0257185
1077.976 .0257142
1078.554 .0257097
1079.133 .0257050
1079.711 .0257001
1080.290 .0256949
1080.869 .0256896
1081.448 .0256843
1082.027 .0256792
1082.606 .0256745
1083.185 .0256704
1083.764 .0256671
1084.343 .0256646
1084.923 .0256630
1085.502 .0256621
1086.082 .0256618
1086.662 .0256621
1087.242 .0256628
1087.822 .0256640
1088.402 .0256657
1088.983 .0256677
1089.563 .0256703
1090.144 .0256735
1090.725 .0256773
1091.306 .0256817
1091.887 .0256868
1092.469 .0256924
1093.050 .0256985
1093.632 .0257049
1094.214 .0257116
1094.796 .0257185
1095.379 .0257254
1095.961 .0257322
1096.544 .0257388
1097.127 .0257453
1097.710 .0257517
1098.294 .0257579
1098.877 .0257641
1099.461 .0257703
1100.046 .0257766
1100.630 .0257830
1101.215 .0257895
1101.800 .0257960
1102.385 .0258025
1102.970 .0258089
1103.556 .0258155
1104.142 .0258221
1104.728 .0258289
1105.315 .0258363
1105.902 .0258444
1106.489 .0258534
1107.077 .0258635
1107.664 .0258748
1108.253 .0258873
1108.841 .0259011
1109.430 .0259164
1110.019 .0259332
1110.609 .0259517
1111.198 .0259720
1111.789 .0259943
1112.379 .0260189
1112.970 .0260459
1113.561 .0260751
1114.153 .0261067
1114.745 .0261405
1115.338 .0261763
1115.931 .0262138
1116.524 .0262530
1117.117 .0262934
1117.712 .0263350
1118.306 .0263779
1118.901 .0264222
1119.496 .0264679
1120.092 .0265151
1120.689 .0265640
1121.285 .0266144
1121.882 .0266664
1122.480 .0267199
1123.078 .0267750
1123.677 .0268318
1124.276 .0268901
1124.875 .0269502
1125.476 .0270125
1126.076 .0270772
1126.677 .0271447
1127.279 .0272153
1127.881 .0272892
1128.484 .0273664
1129.087 .0273989
1129.691 .0274800
1130.295 .0275644
1130.900 .0276519
1131.505 .0277426
1132.111 .0278366
1132.718 .0279340
1133.325 .0280354
1133.933 .0281410
1134.541 .0282494
1135.150 .0283650
1135.760 .0284859
1136.370 .0286147
1136.981 .0286348
1137.592 .0287893
1138.204 .0289434
1138.817 .0290942
1139.431 .0292457
1140.045 .0293983
1140.660 .0295534
1141.275 .0297185
1141.891 .0298941
1142.508 .0300241
1143.126 .0302817
1143.744 .0304874
1144.363 .0307676
1144.983 .0309423
