Measurement Sequence started on: 15-12-46-377
Integration time: 28
Scans to Average: 2 
>>>>>Begin Spectral Data<<<<<
432.689 .0000100
433.621 .0000100
434.552 .0000100
435.482 .0000100
436.410 .0000100
437.337 .0000100
438.262 .0270118
439.187 .0572746
440.110 .0949729
441.031 .1375286
441.952 .1103953
442.871 .1153047
443.789 .1198849
444.705 .1242101
445.621 .1283269
446.535 .1322706
447.447 .1346431
448.359 .1352918
449.269 .1338404
450.178 .1300448
451.086 .1239783
451.993 .1161124
452.898 .1072275
453.803 .0982123
454.706 .0898230
455.608 .0825320
456.508 .0764981
457.408 .0724157
458.306 .0692794
459.204 .0667246
460.100 .0645647
460.995 .0626953
461.888 .0610450
462.781 .0595700
463.673 .0582376
464.563 .0570277
465.452 .0559246
466.340 .0549158
467.228 .0539927
468.114 .0531478
468.999 .0523748
469.882 .0516678
470.765 .0510205
471.647 .0504284
472.528 .0498869
473.407 .0493920
474.286 .0489401
475.163 .0485292
476.040 .0481574
476.915 .0478226
477.790 .0475229
478.663 .0472565
479.535 .0470210
480.407 .0468145
481.277 .0466344
482.147 .0464782
483.015 .0463442
483.883 .0462304
484.749 .0461352
485.615 .0460581
486.479 .0459987
487.343 .0459572
488.206 .0459346
489.067 .0459315
489.928 .0459490
490.788 .0459876
491.647 .0460480
492.505 .0461306
493.362 .0462363
494.218 .0463657
495.073 .0465197
495.928 .0468458
496.781 .0470670
497.634 .0473155
498.486 .0475921
499.337 .0478981
500.187 .0482346
501.036 .0486036
501.884 .0490075
502.731 .0494492
503.578 .0499327
504.424 .0502620
505.268 .0508234
506.113 .0514381
506.956 .0521103
507.798 .0528455
508.640 .0536499
509.480 .0545318
510.320 .0555010
511.160 .0565698
511.998 .0577533
512.836 .0590703
513.672 .0605397
514.508 .0621853
515.344 .0640298
516.178 .0660953
517.012 .0684060
517.845 .0709825
518.677 .0738419
519.508 .0769972
520.339 .0804538
521.169 .0842112
521.998 .0882435
522.826 .0925183
523.654 .0969829
524.481 .1015700
525.307 .1062063
526.133 .1108015
526.958 .1152609
527.782 .1194919
528.605 .1234038
529.428 .1269155
530.250 .1299546
531.072 .1324719
531.892 .1344241
532.712 .1357881
533.532 .1365558
534.350 .1367220
535.168 .1362971
535.986 .1352960
536.802 .1337314
537.618 .1316207
538.434 .1289823
539.249 .1258552
540.063 .1222856
540.876 .1183344
541.689 .1140757
542.501 .1095880
543.313 .1049636
544.124 .1002968
544.934 .0956763
545.744 .0911863
546.553 .0868970
547.361 .0828667
548.169 .0791299
548.976 .0757097
549.783 .0726091
550.589 .0698162
551.395 .0673124
552.200 .0650666
553.004 .0630451
553.808 .0612197
554.611 .0595634
555.414 .0580542
556.216 .0566731
557.018 .0554016
557.819 .0542265
558.619 .0531358
559.419 .0521191
560.218 .0511673
561.017 .0502725
561.815 .0494279
562.613 .0486275
563.410 .0478662
564.207 .0471387
565.003 .0464405
565.799 .0457679
566.594 .0451173
567.388 .0444869
568.182 .0438749
568.976 .0432806
569.769 .0427038
570.562 .0421448
571.354 .0416039
572.145 .0410818
572.936 .0405793
573.727 .0400966
574.517 .0396337
575.307 .0391911
576.096 .0387679
576.885 .0383640
577.673 .0379792
578.461 .0376129
579.248 .0372649
580.035 .0369349
580.821 .0366224
581.607 .0363271
582.392 .0360491
583.177 .0357880
583.962 .0355435
584.746 .0353151
585.529 .0351023
586.313 .0349042
587.095 .0347204
587.878 .0345501
588.660 .0343924
589.441 .0342467
590.222 .0341121
591.003 .0339880
591.783 .0338737
592.563 .0337688
593.342 .0336727
594.121 .0335849
594.899 .0335047
595.678 .0334314
596.455 .0333645
597.233 .0333032
598.009 .0332466
598.786 .0331942
599.562 .0331453
600.338 .0330992
601.113 .0330556
601.888 .0329952
602.663 .0329556
603.437 .0329173
604.211 .0328804
604.984 .0328446
605.757 .0328100
606.530 .0327767
607.302 .0327447
608.074 .0327141
608.845 .0326848
609.616 .0326568
610.387 .0326459
611.158 .0326198
611.928 .0325948
612.697 .0325706
613.467 .0325472
614.236 .0325246
615.004 .0325026
615.773 .0324813
616.541 .0324608
617.308 .0324410
618.076 .0324218
618.843 .0324031
619.609 .0323845
620.375 .0323660
621.141 .0323472
621.907 .0323281
622.672 .0323085
623.437 .0322883
624.202 .0322674
624.966 .0322458
625.730 .0322233
626.493 .0322000
627.257 .0321759
628.020 .0321509
628.782 .0321251
629.545 .0320984
630.307 .0320710
631.068 .0320430
631.830 .0320144
632.591 .0319854
633.352 .0319560
634.112 .0319262
634.872 .0318960
635.632 .0318656
636.392 .0318349
637.151 .0318040
637.910 .0317731
638.668 .0317423
639.427 .0317116
640.185 .0316812
640.943 .0316512
641.700 .0316216
642.457 .0315927
643.214 .0315643
643.971 .0315365
644.727 .0315093
645.483 .0314827
646.239 .0314567
646.994 .0314314
647.750 .0314066
648.505 .0313825
649.259 .0313590
650.014 .0313360
650.768 .0313135
651.521 .0312917
652.275 .0312703
653.028 .0312494
653.781 .0312290
654.534 .0312090
655.286 .0311893
656.039 .0311698
656.791 .0311505
657.542 .0311312
658.294 .0311118
659.045 .0310923
659.796 .0310727
660.546 .0310530
661.297 .0310332
662.047 .0310134
662.796 .0309936
663.546 .0309739
664.295 .0309546
665.044 .0309355
665.793 .0309168
666.542 .0308985
667.290 .0308805
668.038 .0308630
668.786 .0308458
669.533 .0308290
670.281 .0308125
671.028 .0307965
671.774 .0307809
672.521 .0307658
673.267 .0307512
674.013 .0307373
674.759 .0307239
675.505 .0307110
676.250 .0306986
676.995 .0306865
677.740 .0306745
678.484 .0306625
679.229 .0306504
679.973 .0306382
680.717 .0306257
681.460 .0306130
682.204 .0306000
682.947 .0305866
683.690 .0305729
684.433 .0305588
685.175 .0305441
685.917 .0305289
686.659 .0305131
687.401 .0304967
688.142 .0304797
688.884 .0304622
689.625 .0304441
690.365 .0304254
691.106 .0304062
691.846 .0303864
692.586 .0303660
693.326 .0303451
694.066 .0303236
694.805 .0303018
695.545 .0302796
696.284 .0302572
697.022 .0302347
697.761 .0302120
698.499 .0301892
699.237 .0301665
699.975 .0301437
700.713 .0301211
701.450 .0300986
702.187 .0300763
702.924 .0300545
703.661 .0300329
704.397 .0300118
705.133 .0299910
705.869 .0299706
706.605 .0299504
707.341 .0299304
708.076 .0299106
708.811 .0298911
709.546 .0298718
710.281 .0298527
711.015 .0298338
711.749 .0298150
712.483 .0297962
713.217 .0297773
713.950 .0297582
714.684 .0297388
715.417 .0297190
716.150 .0296989
716.882 .0296785
717.615 .0296579
718.347 .0296370
719.079 .0296161
719.811 .0295951
720.542 .0295740
721.273 .0295529
722.005 .0295319
722.735 .0295110
723.466 .0294903
724.196 .0294699
724.927 .0294499
725.656 .0294305
726.386 .0294117
727.116 .0293935
727.845 .0293762
728.574 .0293597
729.303 .0293441
730.031 .0293294
730.760 .0293158
731.488 .0293032
732.216 .0292916
732.944 .0292808
733.671 .0292710
734.398 .0292620
735.125 .0292539
735.852 .0292464
736.579 .0292398
737.305 .0292338
738.031 .0292286
738.757 .0292240
739.483 .0292200
740.208 .0292166
740.933 .0292135
741.658 .0292108
742.383 .0292082
743.108 .0292058
743.832 .0292034
744.556 .0292009
745.280 .0291984
746.004 .0291957
746.727 .0291927
747.450 .0291895
748.173 .0291859
748.896 .0291819
749.618 .0291773
750.340 .0291722
751.062 .0291665
751.784 .0291602
752.506 .0291534
753.227 .0291459
753.948 .0291378
754.669 .0291291
755.389 .0291198
756.110 .0291099
756.830 .0290993
757.550 .0290882
758.269 .0290766
758.989 .0290645
759.708 .0290520
760.427 .0290390
761.146 .0290256
761.864 .0290117
762.582 .0289975
763.300 .0289828
764.018 .0289679
764.736 .0289527
765.453 .0289374
766.170 .0289220
766.887 .0289066
767.603 .0288912
768.320 .0288760
769.036 .0288608
769.751 .0288457
770.467 .0288308
771.182 .0288159
771.897 .0288013
772.612 .0287868
773.327 .0287725
774.041 .0287585
774.755 .0287447
775.469 .0287310
776.183 .0287175
776.896 .0287042
777.609 .0286909
778.322 .0286776
779.035 .0286644
779.747 .0286512
780.459 .0286380
781.171 .0286247
781.882 .0286113
782.594 .0285977
783.305 .0285838
784.016 .0285696
784.726 .0285550
785.436 .0285401
786.147 .0285161
786.856 .0285005
787.566 .0284846
788.275 .0284685
788.984 .0284521
789.693 .0284355
790.401 .0284186
791.110 .0284014
791.818 .0283840
792.525 .0283665
793.233 .0283488
793.940 .0283310
794.647 .0283223
795.353 .0283045
796.060 .0282867
796.766 .0282688
797.472 .0282510
798.177 .0282330
798.883 .0282151
799.588 .0281971
800.292 .0281790
800.997 .0281609
801.701 .0281428
802.405 .0281247
803.109 .0281066
803.812 .0280886
804.515 .0280706
805.218 .0280527
805.921 .0280349
806.623 .0280173
807.325 .0279999
808.027 .0279827
808.728 .0279659
809.429 .0279494
810.130 .0279333
810.831 .0279178
811.531 .0279028
812.231 .0278885
812.931 .0278748
813.630 .0278618
814.330 .0278496
815.029 .0278381
815.727 .0278275
816.426 .0278176
817.124 .0278086
817.821 .0278005
818.519 .0277931
819.216 .0277865
819.913 .0277807
820.609 .0277756
821.306 .0277711
822.002 .0277673
822.697 .0277641
823.393 .0277614
824.088 .0277594
824.783 .0277578
825.477 .0277567
826.171 .0277560
826.865 .0277556
827.559 .0277556
828.252 .0277558
828.945 .0277563
829.638 .0277569
830.330 .0277578
831.023 .0277587
831.714 .0277598
832.406 .0277609
833.097 .0277621
833.788 .0277634
834.479 .0277646
835.169 .0277658
835.859 .0277670
836.548 .0277681
837.238 .0277690
837.927 .0277698
838.615 .0277703
839.304 .0277706
839.992 .0277705
840.680 .0277702
841.367 .0277695
842.054 .0277686
842.741 .0277675
843.428 .0277661
844.114 .0277644
844.800 .0277625
845.485 .0277601
846.170 .0277574
846.855 .0277543
847.540 .0277507
848.224 .0277466
848.908 .0277421
849.592 .0277370
850.275 .0277313
850.958 .0277251
851.641 .0277184
852.323 .0277110
853.005 .0277031
853.687 .0276946
854.368 .0276856
855.049 .0276760
855.730 .0276659
856.410 .0276553
857.090 .0276441
857.769 .0276323
858.449 .0276199
859.128 .0276069
859.806 .0275932
860.485 .0275790
861.163 .0275643
861.840 .0275491
862.518 .0275335
863.195 .0275176
863.871 .0275012
864.548 .0274844
865.224 .0274674
865.899 .0274500
866.574 .0274323
867.249 .0274144
867.924 .0273964
868.598 .0273783
869.272 .0273603
869.946 .0273424
870.619 .0273245
871.292 .0273069
871.964 .0272896
872.636 .0272725
873.308 .0272557
873.979 .0272393
874.651 .0272232
875.321 .0272076
875.992 .0271923
876.662 .0271773
877.331 .0271627
878.001 .0271483
878.670 .0271341
879.338 .0271201
880.007 .0271063
880.675 .0270927
881.342 .0270793
882.009 .0270662
882.676 .0270532
883.343 .0270404
884.009 .0270278
884.675 .0270154
885.340 .0270030
886.005 .0269906
886.670 .0269783
887.334 .0269659
887.998 .0269534
888.662 .0269408
889.325 .0269281
889.988 .0269152
890.650 .0269022
891.312 .0268890
891.974 .0268757
892.636 .0268622
893.297 .0268485
893.957 .0268346
894.618 .0268205
895.278 .0268061
895.937 .0267915
896.596 .0267766
897.255 .0267614
897.914 .0267459
898.572 .0267301
899.230 .0267140
899.887 .0266978
900.544 .0266812
901.201 .0266645
901.857 .0266385
902.513 .0266211
903.168 .0266034
903.823 .0265855
904.478 .0265673
905.132 .0265489
905.786 .0265303
906.440 .0265114
907.093 .0264924
907.746 .0264733
908.399 .0264540
909.051 .0264346
909.703 .0264152
910.354 .0264053
911.005 .0263860
911.656 .0263668
912.306 .0263477
912.956 .0263288
913.605 .0263100
914.254 .0262915
914.903 .0262731
915.551 .0262550
916.199 .0262371
916.847 .0262194
917.494 .0262019
918.141 .0261847
918.788 .0261678
919.434 .0261512
920.079 .0261348
920.725 .0261188
921.370 .0261031
922.014 .0260878
922.658 .0260727
923.302 .0260579
923.946 .0260435
924.589 .0260295
925.231 .0260158
925.873 .0260025
926.515 .0259897
927.157 .0259772
927.798 .0259651
928.439 .0259534
929.079 .0259420
929.719 .0259310
930.359 .0259204
930.998 .0259102
931.637 .0259004
932.275 .0258911
932.913 .0258822
933.551 .0258739
934.188 .0258662
934.825 .0258590
935.462 .0258524
936.098 .0258464
936.733 .0258410
937.369 .0258362
938.004 .0258321
938.638 .0258286
939.273 .0258257
939.907 .0258235
940.540 .0258220
941.173 .0258210
941.806 .0258206
942.438 .0258208
943.070 .0258215
943.702 .0258226
944.333 .0258240
944.964 .0258258
945.594 .0258278
946.224 .0258299
946.854 .0258322
947.483 .0258345
948.112 .0258369
948.741 .0258393
949.369 .0258418
949.996 .0258443
950.624 .0258468
951.251 .0258493
951.878 .0258518
952.504 .0258542
953.130 .0258567
953.755 .0258592
954.380 .0258618
955.005 .0258644
955.629 .0258671
956.253 .0258699
956.877 .0258728
957.500 .0258757
958.123 .0258787
958.746 .0258817
959.368 .0258848
959.990 .0258879
960.611 .0258911
961.232 .0258943
961.853 .0258977
962.473 .0259011
963.093 .0259045
963.712 .0259080
964.331 .0259114
964.950 .0259147
965.569 .0259179
966.187 .0259210
966.804 .0259238
967.422 .0259264
968.039 .0259287
968.655 .0259305
969.272 .0259320
969.887 .0259329
970.503 .0259333
971.118 .0259331
971.733 .0259324
972.347 .0259310
972.961 .0259289
973.575 .0259262
974.188 .0259227
974.801 .0259185
975.414 .0259135
976.026 .0259076
976.638 .0259010
977.250 .0258935
977.861 .0258852
978.472 .0258762
979.083 .0258664
979.693 .0258560
980.303 .0258450
980.912 .0258261
981.521 .0258138
982.130 .0258011
982.738 .0257879
983.346 .0257745
983.954 .0257607
984.562 .0257468
985.169 .0257328
985.775 .0257189
986.382 .0257050
986.988 .0256913
987.594 .0256779
988.199 .0256647
988.804 .0256519
989.409 .0256468
990.013 .0256348
990.617 .0256233
991.221 .0256121
991.824 .0256015
992.427 .0255913
993.030 .0255815
993.632 .0255722
994.234 .0255632
994.836 .0255547
995.438 .0255466
996.039 .0255389
996.640 .0255315
997.240 .0255245
997.840 .0255179
998.440 .0255115
999.040 .0255053
999.639 .0254993
1000.238 .0254933
1000.836 .0254873
1001.435 .0254812
1002.033 .0254749
1002.630 .0254684
1003.228 .0254618
1003.825 .0254549
1004.422 .0254478
1005.018 .0254404
1005.614 .0254326
1006.210 .0254245
1006.806 .0254161
1007.401 .0254072
1007.996 .0253980
1008.591 .0253885
1009.186 .0253788
1009.780 .0253688
1010.374 .0253588
1010.967 .0253487
1011.561 .0253386
1012.154 .0253286
1012.746 .0253186
1013.339 .0253085
1013.931 .0252985
1014.523 .0252884
1015.115 .0252784
1015.706 .0252684
1016.298 .0252585
1016.888 .0252489
1017.479 .0252395
1018.069 .0252305
1018.660 .0252218
1019.250 .0252134
1019.839 .0252054
1020.429 .0251976
1021.018 .0251901
1021.607 .0251829
1022.195 .0251760
1022.784 .0251696
1023.372 .0251636
1023.960 .0251580
1024.547 .0251529
1025.135 .0251482
1025.722 .0251439
1026.309 .0251398
1026.896 .0251359
1027.483 .0251322
1028.069 .0251285
1028.655 .0251250
1029.241 .0251215
1029.827 .0251183
1030.412 .0251152
1030.997 .0251123
1031.582 .0251096
1032.167 .0251071
1032.752 .0251046
1033.336 .0251022
1033.921 .0250997
1034.505 .0250971
1035.089 .0250945
1035.672 .0250916
1036.256 .0250887
1036.839 .0250855
1037.422 .0250821
1038.005 .0250785
1038.588 .0250745
1039.171 .0250702
1039.753 .0250655
1040.335 .0250604
1040.918 .0250550
1041.500 .0250492
1042.081 .0250432
1042.663 .0250369
1043.244 .0250306
1043.826 .0250242
1044.407 .0250179
1044.988 .0250117
1045.569 .0250057
1046.150 .0249999
1046.730 .0249944
1047.311 .0249892
1047.891 .0249842
1048.471 .0249796
1049.052 .0249752
1049.632 .0249711
1050.211 .0249673
1050.791 .0249636
1051.371 .0249603
1051.950 .0249572
1052.530 .0249543
1053.109 .0249517
1053.688 .0249494
1054.268 .0249475
1054.847 .0249460
1055.426 .0249450
1056.005 .0249447
1056.583 .0249450
1057.162 .0249461
1057.741 .0249480
1058.319 .0249507
1058.898 .0249540
1059.476 .0249581
1060.055 .0249628
1060.633 .0249678
1061.211 .0249732
1061.790 .0249788
1062.368 .0249846
1062.946 .0249905
1063.524 .0249963
1064.102 .0250020
1064.680 .0250074
1065.258 .0250126
1065.836 .0250172
1066.414 .0250213
1066.992 .0250248
1067.570 .0250278
1068.148 .0250302
1068.726 .0250323
1069.304 .0250343
1069.882 .0250363
1070.460 .0250385
1071.038 .0250410
1071.616 .0250438
1072.194 .0250469
1072.772 .0250501
1073.350 .0250532
1073.928 .0250561
1074.506 .0250587
1075.084 .0250610
1075.662 .0250631
1076.240 .0250651
1076.819 .0250673
1077.397 .0250699
1077.976 .0250732
1078.554 .0250771
1079.133 .0250818
1079.711 .0250873
1080.290 .0250937
1080.869 .0251010
1081.448 .0251094
1082.027 .0251189
1082.606 .0251299
1083.185 .0251426
1083.764 .0251572
1084.343 .0251739
1084.923 .0251927
1085.502 .0252135
1086.082 .0252359
1086.662 .0252596
1087.242 .0252842
1087.822 .0253094
1088.402 .0253349
1088.983 .0253604
1089.563 .0253859
1090.144 .0254115
1090.725 .0254371
1091.306 .0254629
1091.887 .0254891
1092.469 .0255155
1093.050 .0255422
1093.632 .0255691
1094.214 .0255958
1094.796 .0256223
1095.379 .0256482
1095.961 .0256735
1096.544 .0256983
1097.127 .0257228
1097.710 .0257470
1098.294 .0257713
1098.877 .0257961
1099.461 .0258214
1100.046 .0258472
1100.630 .0258735
1101.215 .0259002
1101.800 .0259269
1102.385 .0259537
1102.970 .0259802
1103.556 .0260068
1104.142 .0260337
1104.728 .0260614
1105.315 .0260900
1105.902 .0261200
1106.489 .0261516
1107.077 .0261845
1107.664 .0262189
1108.253 .0262542
1108.841 .0262903
1109.430 .0263268
1110.019 .0263636
1110.609 .0264008
1111.198 .0264386
1111.789 .0264775
1112.379 .0265178
1112.970 .0265598
1113.561 .0266033
1114.153 .0266481
1114.745 .0266940
1115.338 .0267404
1115.931 .0267869
1116.524 .0268331
1117.117 .0268789
1117.712 .0269245
1118.306 .0269699
1118.901 .0270157
1119.496 .0270622
1120.092 .0271095
1120.689 .0271575
1121.285 .0272059
1121.882 .0272544
1122.480 .0273026
1123.078 .0273504
1123.677 .0273980
1124.276 .0274458
1124.875 .0274943
1125.476 .0275442
1126.076 .0275964
1126.677 .0276512
1127.279 .0277089
1127.881 .0277694
1128.484 .0278324
1129.087 .0278600
1129.691 .0279254
1130.295 .0279924
1130.900 .0280610
1131.505 .0281317
1132.111 .0282048
1132.718 .0282807
1133.325 .0283602
1133.933 .0284441
1134.541 .0285357
1135.150 .0286276
1135.760 .0287177
1136.370 .0288218
1136.981 .0288407
1137.592 .0289499
1138.204 .0290531
1138.817 .0291601
1139.431 .0292780
1140.045 .0294007
1140.660 .0295276
1141.275 .0296718
1141.891 .0298372
1142.508 .0300913
1143.126 .0301498
1143.744 .0301472
1144.363 .0305979
1144.983 .0310129
