Measurement Sequence started on: 15-12-46-377
Integration time: 28
Scans to Average: 2 
>>>>>Begin Spectral Data<<<<<
432.689 .0000100
433.621 .0000100
434.552 .0000100
435.482 .0000100
436.410 .0000100
437.337 .0000100
438.262 .0273340
439.187 .0578892
440.110 .0958544
441.031 .1386446
441.952 .1105917
442.871 .1154180
443.789 .1199025
444.705 .1241161
445.621 .1281098
446.535 .1319202
447.447 .1341372
448.359 .1346128
449.269 .1329760
450.178 .1289874
451.086 .1227282
451.993 .1146773
452.898 .1056268
453.803 .0964718
454.706 .0879735
455.608 .0806033
456.508 .0745172
457.408 .0704150
458.306 .0672765
459.204 .0647335
460.100 .0626007
460.995 .0607737
461.888 .0591836
462.781 .0577822
463.673 .0565353
464.563 .0554171
465.452 .0544080
466.340 .0534917
467.228 .0526562
468.114 .0518918
468.999 .0511905
469.882 .0505458
470.765 .0499525
471.647 .0494071
472.528 .0489073
473.407 .0484509
474.286 .0480367
475.163 .0476635
476.040 .0473298
476.915 .0470340
477.790 .0467745
478.663 .0465498
479.535 .0463581
480.407 .0461979
481.277 .0460668
482.147 .0459623
483.015 .0458821
483.883 .0458233
484.749 .0457839
485.615 .0457615
486.479 .0457541
487.343 .0457602
488.206 .0457787
489.067 .0458090
489.928 .0458510
490.788 .0459053
491.647 .0459721
492.505 .0460510
493.362 .0461423
494.218 .0462457
495.073 .0463616
495.928 .0465846
496.781 .0467366
497.634 .0469048
498.486 .0470910
499.337 .0472976
500.187 .0475278
501.036 .0477847
501.884 .0480718
502.731 .0483937
503.578 .0487550
504.424 .0490208
505.268 .0494597
506.113 .0499514
506.956 .0504999
507.798 .0511105
508.640 .0517887
509.480 .0525428
510.320 .0533808
511.160 .0543131
511.998 .0553518
512.836 .0565122
513.672 .0578096
514.508 .0592622
515.344 .0608885
516.178 .0627059
517.012 .0647309
517.845 .0669783
518.677 .0694608
519.508 .0721919
520.339 .0751795
521.169 .0784277
521.998 .0819198
522.826 .0856322
523.654 .0895236
524.481 .0935409
525.307 .0976205
526.133 .1016865
526.958 .1056540
527.782 .1094424
528.605 .1129725
529.428 .1161746
530.250 .1189862
531.072 .1213630
531.892 .1232667
532.712 .1246728
533.532 .1255651
534.350 .1259388
535.168 .1257973
535.986 .1251500
536.802 .1239999
537.618 .1223549
538.434 .1202243
539.249 .1176365
540.063 .1146273
540.876 .1112472
541.689 .1075568
542.501 .1036263
543.313 .0995346
544.124 .0953682
544.934 .0912078
545.744 .0871297
546.553 .0831983
547.361 .0794661
548.169 .0759667
548.976 .0727247
549.783 .0697484
550.589 .0670387
551.395 .0645841
552.200 .0623654
553.004 .0603588
553.808 .0585455
554.611 .0569060
555.414 .0554221
556.216 .0540771
557.018 .0528533
557.819 .0517354
558.619 .0507105
559.419 .0497660
560.218 .0488924
561.017 .0480802
561.815 .0473211
562.613 .0466082
563.410 .0459347
564.207 .0452951
565.003 .0446839
565.799 .0440965
566.594 .0435293
567.388 .0429790
568.182 .0424432
568.976 .0419207
569.769 .0414108
570.562 .0409132
571.354 .0404285
572.145 .0399574
572.936 .0395003
573.727 .0390580
574.517 .0386314
575.307 .0382212
576.096 .0378274
576.885 .0374508
577.673 .0370911
578.461 .0367484
579.248 .0364224
580.035 .0361129
580.821 .0358194
581.607 .0355419
582.392 .0352802
583.177 .0350338
583.962 .0348028
584.746 .0345869
585.529 .0343856
586.313 .0341985
587.095 .0340249
587.878 .0338638
588.660 .0337144
589.441 .0335759
590.222 .0334475
591.003 .0333286
591.783 .0332186
592.563 .0331168
593.342 .0330227
594.121 .0329355
594.899 .0328545
595.678 .0327791
596.455 .0327086
597.233 .0326425
598.009 .0325801
598.786 .0325211
599.562 .0324650
600.338 .0324116
601.113 .0323607
601.888 .0322911
602.663 .0322450
603.437 .0322009
604.211 .0321584
604.984 .0321174
605.757 .0320778
606.530 .0320394
607.302 .0320024
608.074 .0319667
608.845 .0319324
609.616 .0318997
610.387 .0318872
611.158 .0318572
611.928 .0318287
612.697 .0318019
613.467 .0317765
614.236 .0317525
615.004 .0317297
615.773 .0317080
616.541 .0316872
617.308 .0316674
618.076 .0316484
618.843 .0316302
619.609 .0316126
620.375 .0315955
621.141 .0315786
621.907 .0315616
622.672 .0315445
623.437 .0315271
624.202 .0315091
624.966 .0314904
625.730 .0314708
626.493 .0314504
627.257 .0314290
628.020 .0314065
628.782 .0313830
629.545 .0313584
630.307 .0313330
631.068 .0313067
631.830 .0312798
632.591 .0312523
633.352 .0312243
634.112 .0311959
634.872 .0311672
635.632 .0311380
636.392 .0311086
637.151 .0310790
637.910 .0310495
638.668 .0310203
639.427 .0309915
640.185 .0309633
640.943 .0309358
641.700 .0309091
642.457 .0308831
643.214 .0308577
643.971 .0308327
644.727 .0308081
645.483 .0307838
646.239 .0307598
646.994 .0307360
647.750 .0307124
648.505 .0306891
649.259 .0306658
650.014 .0306427
650.768 .0306196
651.521 .0305966
652.275 .0305734
653.028 .0305503
653.781 .0305270
654.534 .0305035
655.286 .0304798
656.039 .0304559
656.791 .0304319
657.542 .0304076
658.294 .0303833
659.045 .0303588
659.796 .0303344
660.546 .0303102
661.297 .0302862
662.047 .0302627
662.796 .0302395
663.546 .0302166
664.295 .0301942
665.044 .0301723
665.793 .0301507
666.542 .0301296
667.290 .0301090
668.038 .0300888
668.786 .0300691
669.533 .0300500
670.281 .0300314
671.028 .0300134
671.774 .0299960
672.521 .0299790
673.267 .0299624
674.013 .0299462
674.759 .0299300
675.505 .0299140
676.250 .0298979
676.995 .0298818
677.740 .0298656
678.484 .0298494
679.229 .0298332
679.973 .0298170
680.717 .0298009
681.460 .0297850
682.204 .0297692
682.947 .0297535
683.690 .0297380
684.433 .0297227
685.175 .0297074
685.917 .0296923
686.659 .0296773
687.401 .0296624
688.142 .0296476
688.884 .0296328
689.625 .0296180
690.365 .0296032
691.106 .0295884
691.846 .0295734
692.586 .0295584
693.326 .0295432
694.066 .0295278
694.805 .0295121
695.545 .0294962
696.284 .0294798
697.022 .0294631
697.761 .0294460
698.499 .0294284
699.237 .0294104
699.975 .0293921
700.713 .0293734
701.450 .0293546
702.187 .0293358
702.924 .0293169
703.661 .0292981
704.397 .0292794
705.133 .0292608
705.869 .0292424
706.605 .0292241
707.341 .0292059
708.076 .0291879
708.811 .0291699
709.546 .0291521
710.281 .0291345
711.015 .0291170
711.749 .0290998
712.483 .0290829
713.217 .0290663
713.950 .0290498
714.684 .0290336
715.417 .0290174
716.150 .0290012
716.882 .0289848
717.615 .0289681
718.347 .0289511
719.079 .0289337
719.811 .0289160
720.542 .0288980
721.273 .0288798
722.005 .0288614
722.735 .0288430
723.466 .0288247
724.196 .0288065
724.927 .0287885
725.656 .0287706
726.386 .0287530
727.116 .0287356
727.845 .0287184
728.574 .0287015
729.303 .0286847
730.031 .0286682
730.760 .0286521
731.488 .0286363
732.216 .0286210
732.944 .0286061
733.671 .0285918
734.398 .0285778
735.125 .0285643
735.852 .0285511
736.579 .0285380
737.305 .0285251
738.031 .0285122
738.757 .0284993
739.483 .0284864
740.208 .0284734
740.933 .0284605
741.658 .0284475
742.383 .0284346
743.108 .0284217
743.832 .0284089
744.556 .0283961
745.280 .0283833
746.004 .0283704
746.727 .0283574
747.450 .0283443
748.173 .0283310
748.896 .0283176
749.618 .0283040
750.340 .0282905
751.062 .0282769
751.784 .0282635
752.506 .0282502
753.227 .0282372
753.948 .0282242
754.669 .0282114
755.389 .0281987
756.110 .0281861
756.830 .0281734
757.550 .0281607
758.269 .0281481
758.989 .0281354
759.708 .0281228
760.427 .0281102
761.146 .0280976
761.864 .0280850
762.582 .0280724
763.300 .0280599
764.018 .0280473
764.736 .0280348
765.453 .0280222
766.170 .0280096
766.887 .0279971
767.603 .0279845
768.320 .0279719
769.036 .0279594
769.751 .0279469
770.467 .0279345
771.182 .0279223
771.897 .0279103
772.612 .0278985
773.327 .0278871
774.041 .0278758
774.755 .0278648
775.469 .0278541
776.183 .0278435
776.896 .0278332
777.609 .0278232
778.322 .0278136
779.035 .0278042
779.747 .0277952
780.459 .0277866
781.171 .0277783
781.882 .0277703
782.594 .0277625
783.305 .0277548
784.016 .0277472
784.726 .0277396
785.436 .0277321
786.147 .0277206
786.856 .0277130
787.566 .0277053
788.275 .0276976
788.984 .0276896
789.693 .0276816
790.401 .0276733
791.110 .0276648
791.818 .0276561
792.525 .0276472
793.233 .0276382
793.940 .0276289
794.647 .0276239
795.353 .0276144
796.060 .0276046
796.766 .0275947
797.472 .0275845
798.177 .0275742
798.883 .0275636
799.588 .0275530
800.292 .0275421
800.997 .0275311
801.701 .0275199
802.405 .0275085
803.109 .0274968
803.812 .0274848
804.515 .0274726
805.218 .0274600
805.921 .0274471
806.623 .0274339
807.325 .0274205
808.027 .0274068
808.728 .0273929
809.429 .0273788
810.130 .0273643
810.831 .0273497
811.531 .0273347
812.231 .0273196
812.931 .0273043
813.630 .0272890
814.330 .0272738
815.029 .0272587
815.727 .0272439
816.426 .0272294
817.124 .0272153
817.821 .0272016
818.519 .0271883
819.216 .0271754
819.913 .0271630
820.609 .0271511
821.306 .0271398
822.002 .0271291
822.697 .0271191
823.393 .0271099
824.088 .0271014
824.783 .0270936
825.477 .0270864
826.171 .0270798
826.865 .0270737
827.559 .0270681
828.252 .0270629
828.945 .0270583
829.638 .0270541
830.330 .0270503
831.023 .0270469
831.714 .0270438
832.406 .0270407
833.097 .0270377
833.788 .0270346
834.479 .0270313
835.169 .0270279
835.859 .0270243
836.548 .0270205
837.238 .0270165
837.927 .0270124
838.615 .0270080
839.304 .0270034
839.992 .0269984
840.680 .0269930
841.367 .0269871
842.054 .0269809
842.741 .0269743
843.428 .0269673
844.114 .0269600
844.800 .0269525
845.485 .0269446
846.170 .0269364
846.855 .0269278
847.540 .0269188
848.224 .0269093
848.908 .0268992
849.592 .0268886
850.275 .0268776
850.958 .0268661
851.641 .0268541
852.323 .0268416
853.005 .0268287
853.687 .0268152
854.368 .0268012
855.049 .0267867
855.730 .0267717
856.410 .0267562
857.090 .0267404
857.769 .0267243
858.449 .0267078
859.128 .0266911
859.806 .0266741
860.485 .0266570
861.163 .0266396
861.840 .0266221
862.518 .0266046
863.195 .0265871
863.871 .0265696
864.548 .0265523
865.224 .0265352
865.899 .0265183
866.574 .0265017
867.249 .0264854
867.924 .0264693
868.598 .0264536
869.272 .0264382
869.946 .0264233
870.619 .0264088
871.292 .0263948
871.964 .0263812
872.636 .0263680
873.308 .0263551
873.979 .0263425
874.651 .0263302
875.321 .0263180
875.992 .0263061
876.662 .0262945
877.331 .0262831
878.001 .0262719
878.670 .0262611
879.338 .0262505
880.007 .0262403
880.675 .0262303
881.342 .0262207
882.009 .0262114
882.676 .0262024
883.343 .0261938
884.009 .0261856
884.675 .0261777
885.340 .0261704
886.005 .0261634
886.670 .0261569
887.334 .0261508
887.998 .0261452
888.662 .0261400
889.325 .0261353
889.988 .0261310
890.650 .0261271
891.312 .0261237
891.974 .0261205
892.636 .0261176
893.297 .0261149
893.957 .0261122
894.618 .0261095
895.278 .0261066
895.937 .0261035
896.596 .0261001
897.255 .0260964
897.914 .0260921
898.572 .0260873
899.230 .0260819
899.887 .0260757
900.544 .0260688
901.201 .0260611
901.857 .0260453
902.513 .0260353
903.168 .0260244
903.823 .0260127
904.478 .0260002
905.132 .0259870
905.786 .0259731
906.440 .0259587
907.093 .0259438
907.746 .0259284
908.399 .0259127
909.051 .0258969
909.703 .0258809
910.354 .0258732
911.005 .0258575
911.656 .0258419
912.306 .0258266
912.956 .0258115
913.605 .0257967
914.254 .0257822
914.903 .0257681
915.551 .0257544
916.199 .0257411
916.847 .0257283
917.494 .0257160
918.141 .0257041
918.788 .0256927
919.434 .0256817
920.079 .0256711
920.725 .0256608
921.370 .0256506
922.014 .0256405
922.658 .0256304
923.302 .0256202
923.946 .0256099
924.589 .0255993
925.231 .0255886
925.873 .0255775
926.515 .0255662
927.157 .0255547
927.798 .0255428
928.439 .0255308
929.079 .0255185
929.719 .0255060
930.359 .0254934
930.998 .0254807
931.637 .0254680
932.275 .0254553
932.913 .0254426
933.551 .0254302
934.188 .0254180
934.825 .0254061
935.462 .0253946
936.098 .0253834
936.733 .0253727
937.369 .0253625
938.004 .0253527
938.638 .0253435
939.273 .0253348
939.907 .0253268
940.540 .0253193
941.173 .0253125
941.806 .0253063
942.438 .0253007
943.070 .0252956
943.702 .0252911
944.333 .0252870
944.964 .0252833
945.594 .0252799
946.224 .0252767
946.854 .0252737
947.483 .0252709
948.112 .0252681
948.741 .0252654
949.369 .0252627
949.996 .0252598
950.624 .0252568
951.251 .0252535
951.878 .0252499
952.504 .0252460
953.130 .0252417
953.755 .0252372
954.380 .0252324
955.005 .0252275
955.629 .0252223
956.253 .0252170
956.877 .0252115
957.500 .0252059
958.123 .0252000
958.746 .0251939
959.368 .0251877
959.990 .0251814
960.611 .0251751
961.232 .0251688
961.853 .0251626
962.473 .0251565
963.093 .0251504
963.712 .0251444
964.331 .0251385
964.950 .0251325
965.569 .0251265
966.187 .0251206
966.804 .0251146
967.422 .0251088
968.039 .0251030
968.655 .0250972
969.272 .0250914
969.887 .0250855
970.503 .0250795
971.118 .0250731
971.733 .0250664
972.347 .0250593
972.961 .0250517
973.575 .0250437
974.188 .0250352
974.801 .0250263
975.414 .0250171
976.026 .0250074
976.638 .0249973
977.250 .0249867
977.861 .0249756
978.472 .0249641
979.083 .0249521
979.693 .0249396
980.303 .0249268
980.912 .0249061
981.521 .0248927
982.130 .0248792
982.738 .0248655
983.346 .0248517
983.954 .0248377
984.562 .0248237
985.169 .0248096
985.775 .0247956
986.382 .0247818
986.988 .0247682
987.594 .0247549
988.199 .0247420
988.804 .0247294
989.409 .0247246
990.013 .0247126
990.617 .0247010
991.221 .0246899
991.824 .0246791
992.427 .0246688
993.030 .0246590
993.632 .0246498
994.234 .0246410
994.836 .0246327
995.438 .0246248
996.039 .0246173
996.640 .0246101
997.240 .0246032
997.840 .0245965
998.440 .0245901
999.040 .0245838
999.639 .0245777
1000.238 .0245718
1000.836 .0245660
1001.435 .0245602
1002.033 .0245543
1002.630 .0245483
1003.228 .0245421
1003.825 .0245356
1004.422 .0245288
1005.018 .0245218
1005.614 .0245145
1006.210 .0245071
1006.806 .0244995
1007.401 .0244917
1007.996 .0244838
1008.591 .0244758
1009.186 .0244677
1009.780 .0244595
1010.374 .0244514
1010.967 .0244434
1011.561 .0244355
1012.154 .0244278
1012.746 .0244205
1013.339 .0244135
1013.931 .0244068
1014.523 .0244006
1015.115 .0243946
1015.706 .0243891
1016.298 .0243838
1016.888 .0243789
1017.479 .0243745
1018.069 .0243706
1018.660 .0243671
1019.250 .0243643
1019.839 .0243620
1020.429 .0243603
1021.018 .0243592
1021.607 .0243588
1022.195 .0243589
1022.784 .0243596
1023.372 .0243608
1023.960 .0243627
1024.547 .0243651
1025.135 .0243681
1025.722 .0243715
1026.309 .0243755
1026.896 .0243798
1027.483 .0243844
1028.069 .0243893
1028.655 .0243943
1029.241 .0243994
1029.827 .0244046
1030.412 .0244099
1030.997 .0244152
1031.582 .0244207
1032.167 .0244262
1032.752 .0244319
1033.336 .0244377
1033.921 .0244434
1034.505 .0244492
1035.089 .0244549
1035.672 .0244605
1036.256 .0244661
1036.839 .0244716
1037.422 .0244770
1038.005 .0244824
1038.588 .0244876
1039.171 .0244926
1039.753 .0244974
1040.335 .0245020
1040.918 .0245061
1041.500 .0245097
1042.081 .0245130
1042.663 .0245158
1043.244 .0245183
1043.826 .0245206
1044.407 .0245226
1044.988 .0245245
1045.569 .0245262
1046.150 .0245277
1046.730 .0245289
1047.311 .0245299
1047.891 .0245307
1048.471 .0245312
1049.052 .0245315
1049.632 .0245317
1050.211 .0245320
1050.791 .0245324
1051.371 .0245329
1051.950 .0245337
1052.530 .0245348
1053.109 .0245362
1053.688 .0245379
1054.268 .0245400
1054.847 .0245425
1055.426 .0245456
1056.005 .0245491
1056.583 .0245533
1057.162 .0245580
1057.741 .0245634
1058.319 .0245695
1058.898 .0245763
1059.476 .0245837
1060.055 .0245917
1060.633 .0246002
1061.211 .0246091
1061.790 .0246183
1062.368 .0246277
1062.946 .0246372
1063.524 .0246467
1064.102 .0246561
1064.680 .0246654
1065.258 .0246746
1065.836 .0246835
1066.414 .0246921
1066.992 .0247003
1067.570 .0247080
1068.148 .0247152
1068.726 .0247218
1069.304 .0247278
1069.882 .0247330
1070.460 .0247375
1071.038 .0247414
1071.616 .0247448
1072.194 .0247477
1072.772 .0247504
1073.350 .0247529
1073.928 .0247554
1074.506 .0247580
1075.084 .0247607
1075.662 .0247637
1076.240 .0247669
1076.819 .0247703
1077.397 .0247741
1077.976 .0247783
1078.554 .0247829
1079.133 .0247883
1079.711 .0247943
1080.290 .0248011
1080.869 .0248087
1081.448 .0248172
1082.027 .0248263
1082.606 .0248361
1083.185 .0248462
1083.764 .0248567
1084.343 .0248674
1084.923 .0248784
1085.502 .0248897
1086.082 .0249015
1086.662 .0249140
1087.242 .0249274
1087.822 .0249418
1088.402 .0249573
1088.983 .0249740
1089.563 .0249918
1090.144 .0250105
1090.725 .0250300
1091.306 .0250501
1091.887 .0250708
1092.469 .0250918
1093.050 .0251133
1093.632 .0251351
1094.214 .0251573
1094.796 .0251800
1095.379 .0252031
1095.961 .0252266
1096.544 .0252503
1097.127 .0252741
1097.710 .0252979
1098.294 .0253216
1098.877 .0253454
1099.461 .0253693
1100.046 .0253935
1100.630 .0254183
1101.215 .0254439
1101.800 .0254703
1102.385 .0254975
1102.970 .0255257
1103.556 .0255546
1104.142 .0255842
1104.728 .0256142
1105.315 .0256446
1105.902 .0256754
1106.489 .0257066
1107.077 .0257382
1107.664 .0257703
1108.253 .0258028
1108.841 .0258358
1109.430 .0258692
1110.019 .0259028
1110.609 .0259369
1111.198 .0259713
1111.789 .0260060
1112.379 .0260412
1112.970 .0260768
1113.561 .0261131
1114.153 .0261501
1114.745 .0261880
1115.338 .0262269
1115.931 .0262669
1116.524 .0263081
1117.117 .0263503
1117.712 .0263937
1118.306 .0264382
1118.901 .0264838
1119.496 .0265305
1120.092 .0265783
1120.689 .0266269
1121.285 .0266764
1121.882 .0267269
1122.480 .0267785
1123.078 .0268314
1123.677 .0268857
1124.276 .0269416
1124.875 .0269993
1125.476 .0270588
1126.076 .0271203
1126.677 .0271835
1127.279 .0272487
1127.881 .0273158
1128.484 .0273848
1129.087 .0274142
1129.691 .0274862
1130.295 .0275605
1130.900 .0276374
1131.505 .0277171
1132.111 .0277996
1132.718 .0278851
1133.325 .0279744
1133.933 .0280673
1134.541 .0281588
1135.150 .0282560
1135.760 .0283612
1136.370 .0284849
1136.981 .0285163
1137.592 .0286219
1138.204 .0287379
1138.817 .0288597
1139.431 .0289846
1140.045 .0291117
1140.660 .0292449
1141.275 .0293971
1141.891 .0295469
1142.508 .0295559
1143.126 .0297704
1143.744 .0300525
1144.363 .0306295
1144.983 .0302416
