Measurement Sequence started on: 15-12-46-377
Integration time: 28
Scans to Average: 2 
>>>>>Begin Spectral Data<<<<<
432.689 .0000100
433.621 .0000100
434.552 .0000100
435.482 .0000100
436.410 .0000100
437.337 .0000100
438.262 .0272919
439.187 .0579133
440.110 .0960902
441.031 .1392086
441.952 .1126443
442.871 .1177678
443.789 .1225582
444.705 .1270881
445.621 .1314079
446.535 .1355520
447.447 .1381085
448.359 .1389184
449.269 .1375960
450.178 .1338913
451.086 .1278745
451.993 .1200145
452.898 .1110991
453.803 .1020240
454.706 .0935568
455.608 .0861788
456.508 .0800559
457.408 .0758943
458.306 .0726848
459.204 .0700625
460.100 .0678398
460.995 .0659116
461.888 .0642087
462.781 .0626843
463.673 .0613078
464.563 .0600592
465.452 .0589244
466.340 .0578942
467.228 .0569609
468.114 .0561159
468.999 .0553514
469.882 .0546591
470.765 .0540313
471.647 .0534610
472.528 .0529430
473.407 .0524721
474.286 .0520457
475.163 .0516622
476.040 .0513190
476.915 .0510143
477.790 .0507460
478.663 .0505111
479.535 .0503070
480.407 .0501304
481.277 .0499782
482.147 .0498477
483.015 .0497375
483.883 .0496463
484.749 .0495737
485.615 .0495200
486.479 .0494855
487.343 .0494704
488.206 .0494754
489.067 .0494996
489.928 .0495433
490.788 .0496067
491.647 .0496898
492.505 .0497931
493.362 .0499177
494.218 .0500647
495.073 .0502360
495.928 .0505866
496.781 .0508271
497.634 .0510957
498.486 .0513925
499.337 .0517180
500.187 .0520726
501.036 .0524577
501.884 .0528752
502.731 .0533291
503.578 .0538231
504.424 .0541563
505.268 .0547260
506.113 .0553488
506.956 .0560292
507.798 .0567724
508.640 .0575840
509.480 .0584726
510.320 .0594478
511.160 .0605223
511.998 .0617118
512.836 .0630358
513.672 .0645156
514.508 .0661742
515.344 .0680347
516.178 .0701215
517.012 .0724576
517.845 .0750636
518.677 .0779572
519.508 .0811517
520.339 .0846509
521.169 .0884543
521.998 .0925368
522.826 .0968624
523.654 .1013783
524.481 .1060167
525.307 .1106959
526.133 .1153252
526.958 .1198081
527.782 .1240488
528.605 .1279581
529.428 .1314593
530.250 .1344834
531.072 .1369836
531.892 .1389229
532.712 .1402782
533.532 .1410382
534.350 .1412005
535.168 .1407680
535.986 .1397481
536.802 .1381508
537.618 .1359909
538.434 .1332839
539.249 .1300715
540.063 .1264058
540.876 .1223506
541.689 .1179834
542.501 .1133921
543.313 .1086703
544.124 .1039146
544.934 .0992166
545.744 .0946563
546.553 .0902989
547.361 .0861980
548.169 .0823815
548.976 .0788678
549.783 .0756602
550.589 .0727491
551.395 .0701150
552.200 .0677350
553.004 .0655831
553.808 .0636337
554.611 .0618648
555.414 .0602563
556.216 .0587875
557.018 .0574386
557.819 .0561934
558.619 .0550377
559.419 .0539602
560.218 .0529522
561.017 .0520046
561.815 .0511106
562.613 .0502657
563.410 .0494647
564.207 .0487025
565.003 .0479752
565.799 .0472786
566.594 .0466091
567.388 .0459638
568.182 .0453411
568.976 .0447400
569.769 .0441601
570.562 .0436012
571.354 .0430631
572.145 .0425464
572.936 .0420508
573.727 .0415756
574.517 .0411204
575.307 .0406851
576.096 .0402690
576.885 .0398720
577.673 .0394941
578.461 .0391358
579.248 .0387969
580.035 .0384770
580.821 .0381756
581.607 .0378924
582.392 .0376263
583.177 .0373766
583.962 .0371425
584.746 .0369232
585.529 .0367179
586.313 .0365255
587.095 .0363458
587.878 .0361778
588.660 .0360211
589.441 .0358748
590.222 .0357384
591.003 .0356114
591.783 .0354930
592.563 .0353825
593.342 .0352792
594.121 .0351825
594.899 .0350913
595.678 .0350050
596.455 .0349230
597.233 .0348448
598.009 .0347700
598.786 .0346986
599.562 .0346303
600.338 .0345650
601.113 .0345026
601.888 .0344176
602.663 .0343613
603.437 .0343074
604.211 .0342554
604.984 .0342051
605.757 .0341563
606.530 .0341088
607.302 .0340627
608.074 .0340180
608.845 .0339747
609.616 .0339331
610.387 .0339160
611.158 .0338768
611.928 .0338393
612.697 .0338033
613.467 .0337690
614.236 .0337360
615.004 .0337042
615.773 .0336735
616.541 .0336436
617.308 .0336145
618.076 .0335860
618.843 .0335581
619.609 .0335307
620.375 .0335038
621.141 .0334773
621.907 .0334513
622.672 .0334255
623.437 .0333998
624.202 .0333741
624.966 .0333483
625.730 .0333221
626.493 .0332956
627.257 .0332685
628.020 .0332410
628.782 .0332129
629.545 .0331844
630.307 .0331555
631.068 .0331262
631.830 .0330967
632.591 .0330670
633.352 .0330371
634.112 .0330071
634.872 .0329770
635.632 .0329467
636.392 .0329164
637.151 .0328858
637.910 .0328552
638.668 .0328244
639.427 .0327936
640.185 .0327629
640.943 .0327325
641.700 .0327026
642.457 .0326733
643.214 .0326447
643.971 .0326167
644.727 .0325894
645.483 .0325626
646.239 .0325362
646.994 .0325101
647.750 .0324841
648.505 .0324583
649.259 .0324326
650.014 .0324072
650.768 .0323819
651.521 .0323571
652.275 .0323325
653.028 .0323081
653.781 .0322840
654.534 .0322601
655.286 .0322361
656.039 .0322121
656.791 .0321878
657.542 .0321633
658.294 .0321384
659.045 .0321131
659.796 .0320873
660.546 .0320610
661.297 .0320342
662.047 .0320069
662.796 .0319793
663.546 .0319512
664.295 .0319228
665.044 .0318941
665.793 .0318652
666.542 .0318359
667.290 .0318065
668.038 .0317768
668.786 .0317470
669.533 .0317172
670.281 .0316875
671.028 .0316580
671.774 .0316287
672.521 .0315998
673.267 .0315714
674.013 .0315434
674.759 .0315160
675.505 .0314892
676.250 .0314629
676.995 .0314371
677.740 .0314119
678.484 .0313872
679.229 .0313630
679.973 .0313394
680.717 .0313163
681.460 .0312937
682.204 .0312716
682.947 .0312498
683.690 .0312283
684.433 .0312072
685.175 .0311863
685.917 .0311657
686.659 .0311453
687.401 .0311251
688.142 .0311050
688.884 .0310851
689.625 .0310654
690.365 .0310458
691.106 .0310263
691.846 .0310070
692.586 .0309878
693.326 .0309686
694.066 .0309495
694.805 .0309305
695.545 .0309115
696.284 .0308926
697.022 .0308739
697.761 .0308553
698.499 .0308369
699.237 .0308188
699.975 .0308009
700.713 .0307834
701.450 .0307662
702.187 .0307492
702.924 .0307323
703.661 .0307156
704.397 .0306990
705.133 .0306825
705.869 .0306659
706.605 .0306493
707.341 .0306326
708.076 .0306159
708.811 .0305991
709.546 .0305822
710.281 .0305653
711.015 .0305483
711.749 .0305311
712.483 .0305138
713.217 .0304963
713.950 .0304787
714.684 .0304608
715.417 .0304426
716.150 .0304242
716.882 .0304055
717.615 .0303864
718.347 .0303671
719.079 .0303476
719.811 .0303280
720.542 .0303081
721.273 .0302881
722.005 .0302681
722.735 .0302479
723.466 .0302277
724.196 .0302075
724.927 .0301873
725.656 .0301671
726.386 .0301471
727.116 .0301271
727.845 .0301075
728.574 .0300882
729.303 .0300692
730.031 .0300507
730.760 .0300327
731.488 .0300151
732.216 .0299979
732.944 .0299812
733.671 .0299648
734.398 .0299488
735.125 .0299330
735.852 .0299176
736.579 .0299023
737.305 .0298871
738.031 .0298721
738.757 .0298572
739.483 .0298424
740.208 .0298275
740.933 .0298127
741.658 .0297978
742.383 .0297828
743.108 .0297677
743.832 .0297524
744.556 .0297369
745.280 .0297212
746.004 .0297052
746.727 .0296889
747.450 .0296723
748.173 .0296554
748.896 .0296383
749.618 .0296210
750.340 .0296036
751.062 .0295861
751.784 .0295685
752.506 .0295509
753.227 .0295332
753.948 .0295155
754.669 .0294977
755.389 .0294799
756.110 .0294621
756.830 .0294444
757.550 .0294268
758.269 .0294094
758.989 .0293924
759.708 .0293757
760.427 .0293592
761.146 .0293431
761.864 .0293272
762.582 .0293115
763.300 .0292960
764.018 .0292806
764.736 .0292655
765.453 .0292507
766.170 .0292360
766.887 .0292216
767.603 .0292074
768.320 .0291936
769.036 .0291800
769.751 .0291667
770.467 .0291538
771.182 .0291412
771.897 .0291292
772.612 .0291177
773.327 .0291068
774.041 .0290965
774.755 .0290868
775.469 .0290776
776.183 .0290688
776.896 .0290605
777.609 .0290527
778.322 .0290454
779.035 .0290387
779.747 .0290327
780.459 .0290272
781.171 .0290225
781.882 .0290184
782.594 .0290149
783.305 .0290119
784.016 .0290094
784.726 .0290073
785.436 .0290055
786.147 .0290041
786.856 .0290029
787.566 .0290018
788.275 .0290010
788.984 .0290001
789.693 .0289992
790.401 .0289982
791.110 .0289970
791.818 .0289955
792.525 .0289938
793.233 .0289918
793.940 .0289896
794.647 .0289873
795.353 .0289848
796.060 .0289820
796.766 .0289790
797.472 .0289757
798.177 .0289720
798.883 .0289679
799.588 .0289633
800.292 .0289582
800.997 .0289528
801.701 .0289469
802.405 .0289406
803.109 .0289340
803.812 .0289269
804.515 .0289194
805.218 .0289114
805.921 .0289030
806.623 .0288940
807.325 .0288845
808.027 .0288745
808.728 .0288641
809.429 .0288531
810.130 .0288417
810.831 .0288298
811.531 .0288174
812.231 .0288046
812.931 .0287913
813.630 .0287777
814.330 .0287637
815.029 .0287494
815.727 .0287350
816.426 .0287204
817.124 .0287057
817.821 .0286909
818.519 .0286760
819.216 .0286610
819.913 .0286460
820.609 .0286310
821.306 .0286160
822.002 .0286011
822.697 .0285865
823.393 .0285721
824.088 .0285580
824.783 .0285443
825.477 .0285309
826.171 .0285177
826.865 .0285047
827.559 .0284919
828.252 .0284793
828.945 .0284668
829.638 .0284544
830.330 .0284420
831.023 .0284296
831.714 .0284172
832.406 .0284047
833.097 .0283921
833.788 .0283793
834.479 .0283664
835.169 .0283533
835.859 .0283401
836.548 .0283268
837.238 .0283135
837.927 .0283000
838.615 .0282864
839.304 .0282726
839.992 .0282584
840.680 .0282439
841.367 .0282290
842.054 .0282138
842.741 .0281983
843.428 .0281825
844.114 .0281666
844.800 .0281505
845.485 .0281342
846.170 .0281176
846.855 .0281008
847.540 .0280837
848.224 .0280662
848.908 .0280483
849.592 .0280301
850.275 .0280116
850.958 .0279930
851.641 .0279741
852.323 .0279552
853.005 .0279363
853.687 .0279175
854.368 .0278986
855.049 .0278799
855.730 .0278613
856.410 .0278429
857.090 .0278248
857.769 .0278071
858.449 .0277898
859.128 .0277730
859.806 .0277567
860.485 .0277410
861.163 .0277260
861.840 .0277115
862.518 .0276976
863.195 .0276844
863.871 .0276717
864.548 .0276596
865.224 .0276481
865.899 .0276371
866.574 .0276266
867.249 .0276165
867.924 .0276069
868.598 .0275975
869.272 .0275885
869.946 .0275797
870.619 .0275711
871.292 .0275626
871.964 .0275543
872.636 .0275461
873.308 .0275379
873.979 .0275299
874.651 .0275219
875.321 .0275139
875.992 .0275060
876.662 .0274982
877.331 .0274904
878.001 .0274827
878.670 .0274751
879.338 .0274677
880.007 .0274605
880.675 .0274535
881.342 .0274469
882.009 .0274407
882.676 .0274349
883.343 .0274296
884.009 .0274249
884.675 .0274207
885.340 .0274171
886.005 .0274141
886.670 .0274117
887.334 .0274100
887.998 .0274089
888.662 .0274084
889.325 .0274086
889.988 .0274093
890.650 .0274107
891.312 .0274127
891.974 .0274151
892.636 .0274179
893.297 .0274212
893.957 .0274248
894.618 .0274287
895.278 .0274328
895.937 .0274372
896.596 .0274416
897.255 .0274460
897.914 .0274504
898.572 .0274545
899.230 .0274582
899.887 .0274615
900.544 .0274642
901.201 .0274664
901.857 .0274669
902.513 .0274674
903.168 .0274673
903.823 .0274665
904.478 .0274650
905.132 .0274628
905.786 .0274598
906.440 .0274560
907.093 .0274516
907.746 .0274465
908.399 .0274407
909.051 .0274345
909.703 .0274278
910.354 .0274231
911.005 .0274162
911.656 .0274089
912.306 .0274012
912.956 .0273933
913.605 .0273850
914.254 .0273764
914.903 .0273676
915.551 .0273585
916.199 .0273493
916.847 .0273400
917.494 .0273305
918.141 .0273208
918.788 .0273109
919.434 .0273008
920.079 .0272904
920.725 .0272797
921.370 .0272685
922.014 .0272570
922.658 .0272451
923.302 .0272328
923.946 .0272202
924.589 .0272071
925.231 .0271937
925.873 .0271799
926.515 .0271655
927.157 .0271507
927.798 .0271353
928.439 .0271195
929.079 .0271031
929.719 .0270863
930.359 .0270691
930.998 .0270517
931.637 .0270341
932.275 .0270163
932.913 .0269986
933.551 .0269809
934.188 .0269632
934.825 .0269458
935.462 .0269285
936.098 .0269114
936.733 .0268945
937.369 .0268780
938.004 .0268618
938.638 .0268459
939.273 .0268305
939.907 .0268155
940.540 .0268009
941.173 .0267868
941.806 .0267731
942.438 .0267597
943.070 .0267466
943.702 .0267338
944.333 .0267211
944.964 .0267085
945.594 .0266960
946.224 .0266835
946.854 .0266709
947.483 .0266583
948.112 .0266455
948.741 .0266326
949.369 .0266194
949.996 .0266059
950.624 .0265920
951.251 .0265777
951.878 .0265629
952.504 .0265476
953.130 .0265318
953.755 .0265156
954.380 .0264990
955.005 .0264822
955.629 .0264651
956.253 .0264478
956.877 .0264303
957.500 .0264126
958.123 .0263947
958.746 .0263766
959.368 .0263585
959.990 .0263403
960.611 .0263222
961.232 .0263042
961.853 .0262864
962.473 .0262688
963.093 .0262513
963.712 .0262340
964.331 .0262167
964.950 .0261994
965.569 .0261820
966.187 .0261646
966.804 .0261470
967.422 .0261293
968.039 .0261117
968.655 .0260940
969.272 .0260762
969.887 .0260584
970.503 .0260406
971.118 .0260225
971.733 .0260042
972.347 .0259857
972.961 .0259668
973.575 .0259477
974.188 .0259283
974.801 .0259087
975.414 .0258889
976.026 .0258689
976.638 .0258487
977.250 .0258282
977.861 .0258075
978.472 .0257864
979.083 .0257651
979.693 .0257434
980.303 .0257216
980.912 .0256891
981.521 .0256675
982.130 .0256460
982.738 .0256249
983.346 .0256042
983.954 .0255840
984.562 .0255644
985.169 .0255453
985.775 .0255269
986.382 .0255091
986.988 .0254919
987.594 .0254754
988.199 .0254597
988.804 .0254447
989.409 .0254394
990.013 .0254257
990.617 .0254129
991.221 .0254009
991.824 .0253897
992.427 .0253793
993.030 .0253695
993.632 .0253603
994.234 .0253516
994.836 .0253434
995.438 .0253356
996.039 .0253284
996.640 .0253217
997.240 .0253155
997.840 .0253100
998.440 .0253050
999.040 .0253004
999.639 .0252962
1000.238 .0252923
1000.836 .0252884
1001.435 .0252847
1002.033 .0252810
1002.630 .0252774
1003.228 .0252738
1003.825 .0252704
1004.422 .0252671
1005.018 .0252641
1005.614 .0252613
1006.210 .0252586
1006.806 .0252562
1007.401 .0252538
1007.996 .0252514
1008.591 .0252491
1009.186 .0252469
1009.780 .0252449
1010.374 .0252432
1010.967 .0252419
1011.561 .0252411
1012.154 .0252409
1012.746 .0252413
1013.339 .0252425
1013.931 .0252442
1014.523 .0252466
1015.115 .0252495
1015.706 .0252529
1016.298 .0252569
1016.888 .0252615
1017.479 .0252667
1018.069 .0252727
1018.660 .0252794
1019.250 .0252870
1019.839 .0252955
1020.429 .0253049
1021.018 .0253151
1021.607 .0253261
1022.195 .0253378
1022.784 .0253501
1023.372 .0253630
1023.960 .0253766
1024.547 .0253906
1025.135 .0254054
1025.722 .0254208
1026.309 .0254368
1026.896 .0254534
1027.483 .0254705
1028.069 .0254880
1028.655 .0255058
1029.241 .0255236
1029.827 .0255413
1030.412 .0255588
1030.997 .0255761
1031.582 .0255931
1032.167 .0256100
1032.752 .0256267
1033.336 .0256434
1033.921 .0256600
1034.505 .0256764
1035.089 .0256927
1035.672 .0257088
1036.256 .0257245
1036.839 .0257399
1037.422 .0257547
1038.005 .0257692
1038.588 .0257832
1039.171 .0257968
1039.753 .0258102
1040.335 .0258233
1040.918 .0258361
1041.500 .0258487
1042.081 .0258610
1042.663 .0258730
1043.244 .0258847
1043.826 .0258960
1044.407 .0259070
1044.988 .0259176
1045.569 .0259281
1046.150 .0259384
1046.730 .0259488
1047.311 .0259592
1047.891 .0259698
1048.471 .0259806
1049.052 .0259917
1049.632 .0260029
1050.211 .0260144
1050.791 .0260260
1051.371 .0260378
1051.950 .0260497
1052.530 .0260617
1053.109 .0260739
1053.688 .0260861
1054.268 .0260986
1054.847 .0261111
1055.426 .0261238
1056.005 .0261367
1056.583 .0261499
1057.162 .0261633
1057.741 .0261770
1058.319 .0261909
1058.898 .0262050
1059.476 .0262192
1060.055 .0262333
1060.633 .0262474
1061.211 .0262613
1061.790 .0262750
1062.368 .0262887
1062.946 .0263022
1063.524 .0263156
1064.102 .0263291
1064.680 .0263424
1065.258 .0263556
1065.836 .0263685
1066.414 .0263810
1066.992 .0263930
1067.570 .0264045
1068.148 .0264155
1068.726 .0264259
1069.304 .0264360
1069.882 .0264460
1070.460 .0264558
1071.038 .0264655
1071.616 .0264752
1072.194 .0264848
1072.772 .0264942
1073.350 .0265032
1073.928 .0265118
1074.506 .0265200
1075.084 .0265277
1075.662 .0265351
1076.240 .0265423
1076.819 .0265495
1077.397 .0265568
1077.976 .0265643
1078.554 .0265721
1079.133 .0265802
1079.711 .0265883
1080.290 .0265966
1080.869 .0266049
1081.448 .0266132
1082.027 .0266215
1082.606 .0266298
1083.185 .0266382
1083.764 .0266466
1084.343 .0266552
1084.923 .0266638
1085.502 .0266723
1086.082 .0266807
1086.662 .0266888
1087.242 .0266966
1087.822 .0267040
1088.402 .0267112
1088.983 .0267184
1089.563 .0267256
1090.144 .0267329
1090.725 .0267405
1091.306 .0267484
1091.887 .0267566
1092.469 .0267650
1093.050 .0267737
1093.632 .0267825
1094.214 .0267915
1094.796 .0268006
1095.379 .0268101
1095.961 .0268198
1096.544 .0268300
1097.127 .0268404
1097.710 .0268510
1098.294 .0268616
1098.877 .0268721
1099.461 .0268824
1100.046 .0268925
1100.630 .0269026
1101.215 .0269127
1101.800 .0269230
1102.385 .0269337
1102.970 .0269449
1103.556 .0269568
1104.142 .0269695
1104.728 .0269829
1105.315 .0269971
1105.902 .0270121
1106.489 .0270278
1107.077 .0270443
1107.664 .0270617
1108.253 .0270799
1108.841 .0270987
1109.430 .0271182
1110.019 .0271381
1110.609 .0271582
1111.198 .0271784
1111.789 .0271987
1112.379 .0272192
1112.970 .0272397
1113.561 .0272604
1114.153 .0272816
1114.745 .0273034
1115.338 .0273262
1115.931 .0273499
1116.524 .0273747
1117.117 .0274007
1117.712 .0274279
1118.306 .0274561
1118.901 .0274856
1119.496 .0275163
1120.092 .0275484
1120.689 .0275820
1121.285 .0276176
1121.882 .0276553
1122.480 .0276953
1123.078 .0277376
1123.677 .0277820
1124.276 .0278284
1124.875 .0278764
1125.476 .0279257
1126.076 .0279764
1126.677 .0280286
1127.279 .0280825
1127.881 .0281386
1128.484 .0281975
1129.087 .0282211
1129.691 .0282848
1130.295 .0283523
1130.900 .0284237
1131.505 .0284989
1132.111 .0285779
1132.718 .0286607
1133.325 .0287477
1133.933 .0288396
1134.541 .0289321
1135.150 .0290305
1135.760 .0291348
1136.370 .0292537
1136.981 .0292233
1137.592 .0293438
1138.204 .0294758
1138.817 .0296114
1139.431 .0297524
1140.045 .0298946
1140.660 .0300375
1141.275 .0301905
1141.891 .0303610
1142.508 .0304128
1143.126 .0306162
1143.744 .0308143
1144.363 .0312658
1144.983 .0316841
