Measurement Sequence started on: 15-12-46-377
Integration time: 28
Scans to Average: 2 
>>>>>Begin Spectral Data<<<<<
432.689 .0000100
433.621 .0000100
434.552 .0000100
435.482 .0000100
436.410 .0000100
437.337 .0000100
438.262 .0284128
439.187 .0600363
440.110 .0992609
441.031 .1434342
441.952 .1139090
442.871 .1188507
443.789 .1234447
444.705 .1277636
445.621 .1318585
446.535 .1357685
447.447 .1380257
448.359 .1384819
449.269 .1367550
450.178 .1325986
451.086 .1261002
451.993 .1177587
452.898 .1083950
453.803 .0989361
454.706 .0901673
455.608 .0825713
456.508 .0763050
457.408 .0720931
458.306 .0688692
459.204 .0662519
460.100 .0640521
460.995 .0621618
461.888 .0605111
462.781 .0590515
463.673 .0577467
464.563 .0565722
465.452 .0555092
466.340 .0545417
467.228 .0536571
468.114 .0528460
468.999 .0520991
469.882 .0514074
470.765 .0507645
471.647 .0501651
472.528 .0496062
473.407 .0490859
474.286 .0486031
475.163 .0481581
476.040 .0477504
476.915 .0473794
477.790 .0470441
478.663 .0467434
479.535 .0464761
480.407 .0462407
481.277 .0460359
482.147 .0458604
483.015 .0457129
483.883 .0455933
484.749 .0455010
485.615 .0454356
486.479 .0453968
487.343 .0453832
488.206 .0453942
489.067 .0454283
489.928 .0454842
490.788 .0455610
491.647 .0456577
492.505 .0457738
493.362 .0459088
494.218 .0460620
495.073 .0462334
495.928 .0465499
496.781 .0467658
497.634 .0469999
498.486 .0472528
499.337 .0475263
500.187 .0478229
501.036 .0481460
501.884 .0484994
502.731 .0488877
503.578 .0493155
504.424 .0496180
505.268 .0501233
506.113 .0506804
506.956 .0512942
507.798 .0519712
508.640 .0527189
509.480 .0535468
510.320 .0544669
511.160 .0554927
511.998 .0566388
512.836 .0579241
513.672 .0593677
514.508 .0609908
515.344 .0628152
516.178 .0648627
517.012 .0671544
517.845 .0697128
518.677 .0725533
519.508 .0756881
520.339 .0791228
521.169 .0828590
521.998 .0868698
522.826 .0911218
523.654 .0955623
524.481 .1001227
525.307 .1047241
526.133 .1092760
526.958 .1136802
527.782 .1178433
528.605 .1216775
529.428 .1251060
530.250 .1280615
531.072 .1305030
531.892 .1323932
532.712 .1337127
533.532 .1344532
534.350 .1346116
535.168 .1341894
535.986 .1331961
536.802 .1316398
537.618 .1295312
538.434 .1268844
539.249 .1237391
540.063 .1201418
540.876 .1161566
541.689 .1118611
542.501 .1073403
543.313 .1026888
544.124 .0980047
544.934 .0933774
545.744 .0888882
546.553 .0846056
547.361 .0805824
548.169 .0768451
548.976 .0734141
549.783 .0702902
550.589 .0674619
551.395 .0649123
552.200 .0626169
553.004 .0605492
553.808 .0586855
554.611 .0570054
555.414 .0554886
556.216 .0541179
557.018 .0528755
557.819 .0517453
558.619 .0507126
559.419 .0497652
560.218 .0488914
561.017 .0480814
561.815 .0473268
562.613 .0466198
563.410 .0459531
564.207 .0453211
565.003 .0447183
565.799 .0441399
566.594 .0435814
567.388 .0430404
568.182 .0425135
568.976 .0419992
569.769 .0414955
570.562 .0410023
571.354 .0405197
572.145 .0400487
572.936 .0395897
573.727 .0391433
574.517 .0387103
575.307 .0382919
576.096 .0378881
576.885 .0374994
577.673 .0371259
578.461 .0367681
579.248 .0364264
580.035 .0361014
580.821 .0357935
581.607 .0355032
582.392 .0352309
583.177 .0349767
583.962 .0347400
584.746 .0345204
585.529 .0343172
586.313 .0341296
587.095 .0339569
587.878 .0337983
588.660 .0336526
589.441 .0335192
590.222 .0333973
591.003 .0332860
591.783 .0331843
592.563 .0330915
593.342 .0330065
594.121 .0329285
594.899 .0328566
595.678 .0327900
596.455 .0327278
597.233 .0326697
598.009 .0326150
598.786 .0325634
599.562 .0325144
600.338 .0324679
601.113 .0324237
601.888 .0323639
602.663 .0323245
603.437 .0322869
604.211 .0322508
604.984 .0322160
605.757 .0321825
606.530 .0321500
607.302 .0321184
608.074 .0320879
608.845 .0320582
609.616 .0320294
610.387 .0320173
611.158 .0319898
611.928 .0319632
612.697 .0319376
613.467 .0319128
614.236 .0318889
615.004 .0318657
615.773 .0318430
616.541 .0318208
617.308 .0317989
618.076 .0317772
618.843 .0317557
619.609 .0317343
620.375 .0317130
621.141 .0316917
621.907 .0316707
622.672 .0316497
623.437 .0316289
624.202 .0316082
624.966 .0315874
625.730 .0315663
626.493 .0315448
627.257 .0315229
628.020 .0315003
628.782 .0314773
629.545 .0314536
630.307 .0314295
631.068 .0314050
631.830 .0313801
632.591 .0313549
633.352 .0313293
634.112 .0313034
634.872 .0312770
635.632 .0312501
636.392 .0312226
637.151 .0311945
637.910 .0311659
638.668 .0311369
639.427 .0311075
640.185 .0310780
640.943 .0310483
641.700 .0310187
642.457 .0309891
643.214 .0309597
643.971 .0309305
644.727 .0309015
645.483 .0308726
646.239 .0308439
646.994 .0308153
647.750 .0307870
648.505 .0307588
649.259 .0307308
650.014 .0307031
650.768 .0306755
651.521 .0306482
652.275 .0306209
653.028 .0305938
653.781 .0305668
654.534 .0305397
655.286 .0305127
656.039 .0304855
656.791 .0304582
657.542 .0304308
658.294 .0304032
659.045 .0303754
659.796 .0303476
660.546 .0303196
661.297 .0302917
662.047 .0302638
662.796 .0302361
663.546 .0302084
664.295 .0301810
665.044 .0301538
665.793 .0301269
666.542 .0301003
667.290 .0300741
668.038 .0300486
668.786 .0300238
669.533 .0299997
670.281 .0299766
671.028 .0299546
671.774 .0299335
672.521 .0299135
673.267 .0298946
674.013 .0298766
674.759 .0298596
675.505 .0298434
676.250 .0298280
676.995 .0298133
677.740 .0297993
678.484 .0297860
679.229 .0297733
679.973 .0297610
680.717 .0297492
681.460 .0297377
682.204 .0297264
682.947 .0297152
683.690 .0297040
684.433 .0296926
685.175 .0296809
685.917 .0296690
686.659 .0296567
687.401 .0296442
688.142 .0296313
688.884 .0296181
689.625 .0296045
690.365 .0295905
691.106 .0295762
691.846 .0295615
692.586 .0295466
693.326 .0295314
694.066 .0295160
694.805 .0295004
695.545 .0294849
696.284 .0294693
697.022 .0294539
697.761 .0294385
698.499 .0294232
699.237 .0294081
699.975 .0293932
700.713 .0293785
701.450 .0293641
702.187 .0293499
702.924 .0293361
703.661 .0293225
704.397 .0293091
705.133 .0292960
705.869 .0292829
706.605 .0292700
707.341 .0292570
708.076 .0292439
708.811 .0292307
709.546 .0292172
710.281 .0292035
711.015 .0291895
711.749 .0291752
712.483 .0291605
713.217 .0291455
713.950 .0291301
714.684 .0291144
715.417 .0290982
716.150 .0290818
716.882 .0290649
717.615 .0290477
718.347 .0290302
719.079 .0290122
719.811 .0289939
720.542 .0289754
721.273 .0289566
722.005 .0289376
722.735 .0289185
723.466 .0288993
724.196 .0288801
724.927 .0288609
725.656 .0288418
726.386 .0288227
727.116 .0288038
727.845 .0287849
728.574 .0287662
729.303 .0287477
730.031 .0287293
730.760 .0287111
731.488 .0286931
732.216 .0286753
732.944 .0286577
733.671 .0286402
734.398 .0286230
735.125 .0286061
735.852 .0285894
736.579 .0285729
737.305 .0285566
738.031 .0285404
738.757 .0285244
739.483 .0285085
740.208 .0284927
740.933 .0284770
741.658 .0284614
742.383 .0284459
743.108 .0284304
743.832 .0284149
744.556 .0283995
745.280 .0283841
746.004 .0283686
746.727 .0283530
747.450 .0283373
748.173 .0283215
748.896 .0283054
749.618 .0282892
750.340 .0282727
751.062 .0282560
751.784 .0282389
752.506 .0282215
753.227 .0282038
753.948 .0281856
754.669 .0281671
755.389 .0281482
756.110 .0281289
756.830 .0281092
757.550 .0280894
758.269 .0280693
758.989 .0280491
759.708 .0280289
760.427 .0280087
761.146 .0279884
761.864 .0279682
762.582 .0279481
763.300 .0279280
764.018 .0279081
764.736 .0278884
765.453 .0278690
766.170 .0278500
766.887 .0278314
767.603 .0278132
768.320 .0277957
769.036 .0277788
769.751 .0277626
770.467 .0277472
771.182 .0277325
771.897 .0277186
772.612 .0277055
773.327 .0276931
774.041 .0276816
774.755 .0276709
775.469 .0276609
776.183 .0276516
776.896 .0276430
777.609 .0276351
778.322 .0276279
779.035 .0276213
779.747 .0276153
780.459 .0276099
781.171 .0276049
781.882 .0276004
782.594 .0275962
783.305 .0275924
784.016 .0275887
784.726 .0275851
785.436 .0275816
786.147 .0275762
786.856 .0275724
787.566 .0275686
788.275 .0275647
788.984 .0275606
789.693 .0275565
790.401 .0275522
791.110 .0275476
791.818 .0275429
792.525 .0275379
793.233 .0275327
793.940 .0275272
794.647 .0275240
795.353 .0275184
796.060 .0275128
796.766 .0275072
797.472 .0275016
798.177 .0274961
798.883 .0274907
799.588 .0274854
800.292 .0274801
800.997 .0274748
801.701 .0274695
802.405 .0274643
803.109 .0274591
803.812 .0274540
804.515 .0274489
805.218 .0274438
805.921 .0274387
806.623 .0274334
807.325 .0274279
808.027 .0274222
808.728 .0274164
809.429 .0274103
810.130 .0274041
810.831 .0273977
811.531 .0273913
812.231 .0273848
812.931 .0273783
813.630 .0273717
814.330 .0273651
815.029 .0273584
815.727 .0273519
816.426 .0273455
817.124 .0273394
817.821 .0273337
818.519 .0273284
819.216 .0273236
819.913 .0273194
820.609 .0273158
821.306 .0273127
822.002 .0273103
822.697 .0273085
823.393 .0273072
824.088 .0273065
824.783 .0273063
825.477 .0273067
826.171 .0273074
826.865 .0273085
827.559 .0273097
828.252 .0273112
828.945 .0273126
829.638 .0273139
830.330 .0273152
831.023 .0273162
831.714 .0273170
832.406 .0273175
833.097 .0273176
833.788 .0273174
834.479 .0273167
835.169 .0273155
835.859 .0273139
836.548 .0273118
837.238 .0273092
837.927 .0273062
838.615 .0273028
839.304 .0272991
839.992 .0272950
840.680 .0272906
841.367 .0272859
842.054 .0272807
842.741 .0272752
843.428 .0272692
844.114 .0272629
844.800 .0272561
845.485 .0272489
846.170 .0272413
846.855 .0272333
847.540 .0272249
848.224 .0272161
848.908 .0272068
849.592 .0271969
850.275 .0271864
850.958 .0271751
851.641 .0271631
852.323 .0271502
853.005 .0271363
853.687 .0271216
854.368 .0271059
855.049 .0270893
855.730 .0270717
856.410 .0270533
857.090 .0270340
857.769 .0270140
858.449 .0269932
859.128 .0269720
859.806 .0269502
860.485 .0269282
861.163 .0269059
861.840 .0268835
862.518 .0268610
863.195 .0268385
863.871 .0268162
864.548 .0267939
865.224 .0267719
865.899 .0267502
866.574 .0267287
867.249 .0267076
867.924 .0266868
868.598 .0266665
869.272 .0266465
869.946 .0266269
870.619 .0266077
871.292 .0265888
871.964 .0265702
872.636 .0265519
873.308 .0265339
873.979 .0265163
874.651 .0264989
875.321 .0264819
875.992 .0264651
876.662 .0264486
877.331 .0264323
878.001 .0264162
878.670 .0264004
879.338 .0263847
880.007 .0263692
880.675 .0263538
881.342 .0263386
882.009 .0263236
882.676 .0263088
883.343 .0262941
884.009 .0262796
884.675 .0262653
885.340 .0262513
886.005 .0262376
886.670 .0262242
887.334 .0262112
887.998 .0261985
888.662 .0261861
889.325 .0261741
889.988 .0261623
890.650 .0261507
891.312 .0261393
891.974 .0261281
892.636 .0261170
893.297 .0261060
893.957 .0260951
894.618 .0260844
895.278 .0260737
895.937 .0260630
896.596 .0260522
897.255 .0260412
897.914 .0260299
898.572 .0260182
899.230 .0260061
899.887 .0259934
900.544 .0259803
901.201 .0259667
901.857 .0259435
902.513 .0259284
903.168 .0259126
903.823 .0258962
904.478 .0258793
905.132 .0258616
905.786 .0258435
906.440 .0258247
907.093 .0258056
907.746 .0257861
908.399 .0257664
909.051 .0257466
909.703 .0257267
910.354 .0257168
911.005 .0256974
911.656 .0256782
912.306 .0256592
912.956 .0256405
913.605 .0256221
914.254 .0256040
914.903 .0255863
915.551 .0255692
916.199 .0255525
916.847 .0255364
917.494 .0255207
918.141 .0255055
918.788 .0254907
919.434 .0254763
920.079 .0254621
920.725 .0254482
921.370 .0254345
922.014 .0254210
922.658 .0254076
923.302 .0253944
923.946 .0253813
924.589 .0253681
925.231 .0253548
925.873 .0253414
926.515 .0253278
927.157 .0253139
927.798 .0252997
928.439 .0252854
929.079 .0252708
929.719 .0252562
930.359 .0252414
930.998 .0252267
931.637 .0252120
932.275 .0251975
932.913 .0251830
933.551 .0251688
934.188 .0251549
934.825 .0251414
935.462 .0251284
936.098 .0251161
936.733 .0251044
937.369 .0250936
938.004 .0250836
938.638 .0250744
939.273 .0250661
939.907 .0250585
940.540 .0250517
941.173 .0250457
941.806 .0250405
942.438 .0250361
943.070 .0250325
943.702 .0250296
944.333 .0250275
944.964 .0250260
945.594 .0250252
946.224 .0250248
946.854 .0250248
947.483 .0250252
948.112 .0250260
948.741 .0250271
949.369 .0250287
949.996 .0250305
950.624 .0250327
951.251 .0250352
951.878 .0250378
952.504 .0250405
953.130 .0250432
953.755 .0250459
954.380 .0250486
955.005 .0250511
955.629 .0250537
956.253 .0250563
956.877 .0250590
957.500 .0250616
958.123 .0250643
958.746 .0250671
959.368 .0250698
959.990 .0250726
960.611 .0250753
961.232 .0250782
961.853 .0250811
962.473 .0250843
963.093 .0250876
963.712 .0250912
964.331 .0250950
964.950 .0250989
965.569 .0251030
966.187 .0251072
966.804 .0251113
967.422 .0251154
968.039 .0251194
968.655 .0251233
969.272 .0251271
969.887 .0251308
970.503 .0251344
971.118 .0251379
971.733 .0251413
972.347 .0251445
972.961 .0251475
973.575 .0251503
974.188 .0251530
974.801 .0251555
975.414 .0251579
976.026 .0251603
976.638 .0251626
977.250 .0251648
977.861 .0251670
978.472 .0251692
979.083 .0251711
979.693 .0251729
980.303 .0251744
980.912 .0251757
981.521 .0251766
982.130 .0251773
982.738 .0251778
983.346 .0251781
983.954 .0251785
984.562 .0251789
985.169 .0251794
985.775 .0251801
986.382 .0251810
986.988 .0251821
987.594 .0251834
988.199 .0251850
988.804 .0251869
989.409 .0251888
990.013 .0251911
990.617 .0251937
991.221 .0251967
991.824 .0251999
992.427 .0252034
993.030 .0252071
993.632 .0252109
994.234 .0252148
994.836 .0252186
995.438 .0252224
996.039 .0252261
996.640 .0252298
997.240 .0252334
997.840 .0252369
998.440 .0252406
999.040 .0252443
999.639 .0252480
1000.238 .0252518
1000.836 .0252556
1001.435 .0252593
1002.033 .0252628
1002.630 .0252663
1003.228 .0252696
1003.825 .0252727
1004.422 .0252757
1005.018 .0252786
1005.614 .0252815
1006.210 .0252842
1006.806 .0252868
1007.401 .0252893
1007.996 .0252917
1008.591 .0252940
1009.186 .0252963
1009.780 .0252985
1010.374 .0253007
1010.967 .0253030
1011.561 .0253054
1012.154 .0253080
1012.746 .0253108
1013.339 .0253139
1013.931 .0253172
1014.523 .0253208
1015.115 .0253244
1015.706 .0253283
1016.298 .0253322
1016.888 .0253363
1017.479 .0253404
1018.069 .0253447
1018.660 .0253491
1019.250 .0253537
1019.839 .0253585
1020.429 .0253634
1021.018 .0253686
1021.607 .0253740
1022.195 .0253795
1022.784 .0253850
1023.372 .0253905
1023.960 .0253959
1024.547 .0254012
1025.135 .0254063
1025.722 .0254112
1026.309 .0254160
1026.896 .0254205
1027.483 .0254248
1028.069 .0254287
1028.655 .0254324
1029.241 .0254356
1029.827 .0254383
1030.412 .0254406
1030.997 .0254423
1031.582 .0254437
1032.167 .0254446
1032.752 .0254451
1033.336 .0254453
1033.921 .0254450
1034.505 .0254444
1035.089 .0254433
1035.672 .0254418
1036.256 .0254398
1036.839 .0254371
1037.422 .0254339
1038.005 .0254300
1038.588 .0254253
1039.171 .0254199
1039.753 .0254138
1040.335 .0254070
1040.918 .0253995
1041.500 .0253914
1042.081 .0253826
1042.663 .0253734
1043.244 .0253637
1043.826 .0253536
1044.407 .0253432
1044.988 .0253325
1045.569 .0253215
1046.150 .0253102
1046.730 .0252987
1047.311 .0252870
1047.891 .0252751
1048.471 .0252630
1049.052 .0252509
1049.632 .0252386
1050.211 .0252265
1050.791 .0252143
1051.371 .0252022
1051.950 .0251902
1052.530 .0251781
1053.109 .0251660
1053.688 .0251538
1054.268 .0251416
1054.847 .0251295
1055.426 .0251175
1056.005 .0251059
1056.583 .0250948
1057.162 .0250844
1057.741 .0250747
1058.319 .0250657
1058.898 .0250574
1059.476 .0250497
1060.055 .0250423
1060.633 .0250352
1061.211 .0250283
1061.790 .0250214
1062.368 .0250148
1062.946 .0250083
1063.524 .0250019
1064.102 .0249958
1064.680 .0249899
1065.258 .0249840
1065.836 .0249780
1066.414 .0249717
1066.992 .0249651
1067.570 .0249581
1068.148 .0249506
1068.726 .0249428
1069.304 .0249347
1069.882 .0249264
1070.460 .0249181
1071.038 .0249099
1071.616 .0249018
1072.194 .0248939
1072.772 .0248860
1073.350 .0248782
1073.928 .0248703
1074.506 .0248622
1075.084 .0248538
1075.662 .0248453
1076.240 .0248367
1076.819 .0248280
1077.397 .0248192
1077.976 .0248106
1078.554 .0248020
1079.133 .0247935
1079.711 .0247851
1080.290 .0247767
1080.869 .0247682
1081.448 .0247596
1082.027 .0247510
1082.606 .0247424
1083.185 .0247340
1083.764 .0247259
1084.343 .0247183
1084.923 .0247113
1085.502 .0247050
1086.082 .0246994
1086.662 .0246948
1087.242 .0246910
1087.822 .0246881
1088.402 .0246859
1088.983 .0246843
1089.563 .0246833
1090.144 .0246828
1090.725 .0246829
1091.306 .0246836
1091.887 .0246850
1092.469 .0246872
1093.050 .0246901
1093.632 .0246939
1094.214 .0246985
1094.796 .0247038
1095.379 .0247097
1095.961 .0247160
1096.544 .0247227
1097.127 .0247297
1097.710 .0247371
1098.294 .0247452
1098.877 .0247541
1099.461 .0247641
1100.046 .0247754
1100.630 .0247880
1101.215 .0248018
1101.800 .0248169
1102.385 .0248330
1102.970 .0248498
1103.556 .0248672
1104.142 .0248851
1104.728 .0249034
1105.315 .0249224
1105.902 .0249423
1106.489 .0249633
1107.077 .0249856
1107.664 .0250092
1108.253 .0250341
1108.841 .0250601
1109.430 .0250871
1110.019 .0251150
1110.609 .0251434
1111.198 .0251724
1111.789 .0252019
1112.379 .0252321
1112.970 .0252629
1113.561 .0252946
1114.153 .0253271
1114.745 .0253606
1115.338 .0253948
1115.931 .0254295
1116.524 .0254644
1117.117 .0254992
1117.712 .0255339
1118.306 .0255686
1118.901 .0256032
1119.496 .0256378
1120.092 .0256729
1120.689 .0257085
1121.285 .0257448
1121.882 .0257819
1122.480 .0258199
1123.078 .0258588
1123.677 .0258988
1124.276 .0259398
1124.875 .0259819
1125.476 .0260255
1126.076 .0260707
1126.677 .0261176
1127.279 .0261664
1127.881 .0262171
1128.484 .0262697
1129.087 .0262893
1129.691 .0263446
1130.295 .0264020
1130.900 .0264614
1131.505 .0265231
1132.111 .0265868
1132.718 .0266528
1133.325 .0267216
1133.933 .0267924
1134.541 .0268690
1135.150 .0269422
1135.760 .0270202
1136.370 .0271098
1136.981 .0272159
1137.592 .0272996
1138.204 .0273818
1138.817 .0274673
1139.431 .0275571
1140.045 .0276446
1140.660 .0277354
1141.275 .0278393
1141.891 .0279264
1142.508 .0281127
1143.126 .0280431
1143.744 .0282108
1144.363 .0285680
1144.983 .0279871
