Measurement Sequence started on: 15-12-46-377
Integration time: 28
Scans to Average: 2 
>>>>>Begin Spectral Data<<<<<
432.689 .0000100
433.621 .0000100
434.552 .0000100
435.482 .0000100
436.410 .0000100
437.337 .0000100
438.262 .0266875
439.187 .0563504
440.110 .0931915
441.031 .1346689
441.952 .1073563
442.871 .1120994
443.789 .1165267
444.705 .1207056
445.621 .1246836
446.535 .1284951
447.447 .1307584
448.359 .1313343
449.269 .1298601
450.178 .1261044
451.086 .1201456
451.993 .1124486
452.898 .1037818
453.803 .0950139
454.706 .0868792
455.608 .0798299
456.508 .0740124
457.408 .0701070
458.306 .0671113
459.204 .0646703
460.100 .0626059
460.995 .0608202
461.888 .0592494
462.781 .0578500
463.673 .0565914
464.563 .0554547
465.452 .0544248
466.340 .0534890
467.228 .0526365
468.114 .0518590
468.999 .0511489
469.882 .0504998
470.765 .0499067
471.647 .0493657
472.528 .0488740
473.407 .0484287
474.286 .0480280
475.163 .0476709
476.040 .0473552
476.915 .0470789
477.790 .0468389
478.663 .0466324
479.535 .0464560
480.407 .0463064
481.277 .0461804
482.147 .0460758
483.015 .0459904
483.883 .0459230
484.749 .0458727
485.615 .0458393
486.479 .0458227
487.343 .0458227
488.206 .0458397
489.067 .0458731
489.928 .0459232
490.788 .0459900
491.647 .0460733
492.505 .0461739
493.362 .0462926
494.218 .0464300
495.073 .0465876
495.928 .0469042
496.781 .0471211
497.634 .0473635
498.486 .0476320
499.337 .0479284
500.187 .0482545
501.036 .0486118
501.884 .0490025
502.731 .0494299
503.578 .0498967
504.424 .0502166
505.268 .0507566
506.113 .0513485
506.956 .0519959
507.798 .0527058
508.640 .0534856
509.480 .0543450
510.320 .0552955
511.160 .0563511
511.998 .0575273
512.836 .0588434
513.672 .0603186
514.508 .0619751
515.344 .0638353
516.178 .0659227
517.012 .0682602
517.845 .0708674
518.677 .0737607
519.508 .0769531
520.339 .0804479
521.169 .0842462
521.998 .0883212
522.826 .0926391
523.654 .0971453
524.481 .1017708
525.307 .1064370
526.133 .1110538
526.958 .1155251
527.782 .1197562
528.605 .1236581
529.428 .1271541
530.250 .1301743
531.072 .1326742
531.892 .1346139
532.712 .1359714
533.532 .1367344
534.350 .1368968
535.168 .1364631
535.986 .1354451
536.802 .1338535
537.618 .1317051
538.434 .1290179
539.249 .1258346
540.063 .1222050
540.876 .1181953
541.689 .1138848
542.501 .1093580
543.313 .1047059
544.124 .1000222
544.934 .0953953
545.744 .0909054
546.553 .0866174
547.361 .0825857
548.169 .0788394
548.976 .0754002
549.783 .0722701
550.589 .0694404
551.395 .0668945
552.200 .0646069
553.004 .0625474
553.808 .0606887
554.611 .0590066
555.414 .0574785
556.216 .0560837
557.018 .0548023
557.819 .0536180
558.619 .0525164
559.419 .0514854
560.218 .0505172
561.017 .0496043
561.815 .0487406
562.613 .0479209
563.410 .0471406
564.207 .0463952
565.003 .0456802
565.799 .0449915
566.594 .0443261
567.388 .0436826
568.182 .0430600
568.976 .0424582
569.769 .0418785
570.562 .0413223
571.354 .0407902
572.145 .0402827
572.936 .0398003
573.727 .0393422
574.517 .0389078
575.307 .0384967
576.096 .0381079
576.885 .0377409
577.673 .0373952
578.461 .0370705
579.248 .0367663
580.035 .0364825
580.821 .0362180
581.607 .0359721
582.392 .0357434
583.177 .0355307
583.962 .0353324
584.746 .0351476
585.529 .0349754
586.313 .0348148
587.095 .0346652
587.878 .0345259
588.660 .0343965
589.441 .0342765
590.222 .0341654
591.003 .0340627
591.783 .0339677
592.563 .0338797
593.342 .0337978
594.121 .0337212
594.899 .0336493
595.678 .0335817
596.455 .0335178
597.233 .0334574
598.009 .0334002
598.786 .0333458
599.562 .0332940
600.338 .0332448
601.113 .0331979
601.888 .0331340
602.663 .0330916
603.437 .0330509
604.211 .0330115
604.984 .0329734
605.757 .0329363
606.530 .0329003
607.302 .0328652
608.074 .0328308
608.845 .0327972
609.616 .0327644
610.387 .0327498
611.158 .0327185
611.928 .0326879
612.697 .0326582
613.467 .0326291
614.236 .0326008
615.004 .0325729
615.773 .0325455
616.541 .0325185
617.308 .0324917
618.076 .0324650
618.843 .0324384
619.609 .0324117
620.375 .0323850
621.141 .0323582
621.907 .0323313
622.672 .0323042
623.437 .0322769
624.202 .0322494
624.966 .0322216
625.730 .0321936
626.493 .0321652
627.257 .0321364
628.020 .0321072
628.782 .0320775
629.545 .0320473
630.307 .0320167
631.068 .0319858
631.830 .0319546
632.591 .0319234
633.352 .0318922
634.112 .0318613
634.872 .0318306
635.632 .0318003
636.392 .0317705
637.151 .0317412
637.910 .0317124
638.668 .0316843
639.427 .0316568
640.185 .0316300
640.943 .0316041
641.700 .0315790
642.457 .0315546
643.214 .0315311
643.971 .0315082
644.727 .0314859
645.483 .0314642
646.239 .0314431
646.994 .0314223
647.750 .0314021
648.505 .0313822
649.259 .0313626
650.014 .0313434
650.768 .0313244
651.521 .0313055
652.275 .0312867
653.028 .0312680
653.781 .0312492
654.534 .0312304
655.286 .0312115
656.039 .0311925
656.791 .0311732
657.542 .0311538
658.294 .0311341
659.045 .0311141
659.796 .0310939
660.546 .0310736
661.297 .0310530
662.047 .0310323
662.796 .0310116
663.546 .0309908
664.295 .0309699
665.044 .0309490
665.793 .0309281
666.542 .0309073
667.290 .0308866
668.038 .0308662
668.786 .0308460
669.533 .0308261
670.281 .0308066
671.028 .0307873
671.774 .0307685
672.521 .0307499
673.267 .0307318
674.013 .0307140
674.759 .0306967
675.505 .0306798
676.250 .0306633
676.995 .0306473
677.740 .0306316
678.484 .0306162
679.229 .0306011
679.973 .0305861
680.717 .0305715
681.460 .0305571
682.204 .0305428
682.947 .0305288
683.690 .0305150
684.433 .0305012
685.175 .0304875
685.917 .0304736
686.659 .0304594
687.401 .0304449
688.142 .0304299
688.884 .0304145
689.625 .0303985
690.365 .0303820
691.106 .0303648
691.846 .0303471
692.586 .0303288
693.326 .0303100
694.066 .0302908
694.805 .0302712
695.545 .0302513
696.284 .0302311
697.022 .0302108
697.761 .0301902
698.499 .0301693
699.237 .0301483
699.975 .0301272
700.713 .0301059
701.450 .0300846
702.187 .0300634
702.924 .0300424
703.661 .0300218
704.397 .0300016
705.133 .0299818
705.869 .0299625
706.605 .0299436
707.341 .0299249
708.076 .0299065
708.811 .0298883
709.546 .0298702
710.281 .0298522
711.015 .0298343
711.749 .0298165
712.483 .0297988
713.217 .0297812
713.950 .0297637
714.684 .0297462
715.417 .0297287
716.150 .0297112
716.882 .0296936
717.615 .0296758
718.347 .0296579
719.079 .0296398
719.811 .0296213
720.542 .0296026
721.273 .0295837
722.005 .0295646
722.735 .0295455
723.466 .0295265
724.196 .0295078
724.927 .0294895
725.656 .0294717
726.386 .0294545
727.116 .0294379
727.845 .0294219
728.574 .0294064
729.303 .0293915
730.031 .0293772
730.760 .0293634
731.488 .0293502
732.216 .0293377
732.944 .0293259
733.671 .0293148
734.398 .0293044
735.125 .0292946
735.852 .0292854
736.579 .0292767
737.305 .0292685
738.031 .0292607
738.757 .0292533
739.483 .0292462
740.208 .0292394
740.933 .0292328
741.658 .0292263
742.383 .0292200
743.108 .0292137
743.832 .0292075
744.556 .0292011
745.280 .0291946
746.004 .0291881
746.727 .0291814
747.450 .0291746
748.173 .0291675
748.896 .0291602
749.618 .0291525
750.340 .0291444
751.062 .0291359
751.784 .0291268
752.506 .0291173
753.227 .0291073
753.948 .0290967
754.669 .0290857
755.389 .0290742
756.110 .0290623
756.830 .0290498
757.550 .0290369
758.269 .0290235
758.989 .0290095
759.708 .0289951
760.427 .0289803
761.146 .0289650
761.864 .0289492
762.582 .0289330
763.300 .0289163
764.018 .0288991
764.736 .0288815
765.453 .0288637
766.170 .0288456
766.887 .0288274
767.603 .0288092
768.320 .0287912
769.036 .0287734
769.751 .0287560
770.467 .0287388
771.182 .0287221
771.897 .0287057
772.612 .0286898
773.327 .0286743
774.041 .0286593
774.755 .0286448
775.469 .0286309
776.183 .0286176
776.896 .0286049
777.609 .0285929
778.322 .0285814
779.035 .0285705
779.747 .0285602
780.459 .0285502
781.171 .0285407
781.882 .0285314
782.594 .0285225
783.305 .0285136
784.016 .0285049
784.726 .0284962
785.436 .0284874
786.147 .0284735
786.856 .0284643
787.566 .0284549
788.275 .0284454
788.984 .0284356
789.693 .0284255
790.401 .0284151
791.110 .0284043
791.818 .0283932
792.525 .0283817
793.233 .0283697
793.940 .0283574
794.647 .0283505
795.353 .0283376
796.060 .0283245
796.766 .0283110
797.472 .0282972
798.177 .0282832
798.883 .0282690
799.588 .0282547
800.292 .0282402
800.997 .0282256
801.701 .0282109
802.405 .0281961
803.109 .0281814
803.812 .0281665
804.515 .0281517
805.218 .0281368
805.921 .0281219
806.623 .0281071
807.325 .0280923
808.027 .0280776
808.728 .0280630
809.429 .0280485
810.130 .0280342
810.831 .0280202
811.531 .0280064
812.231 .0279928
812.931 .0279795
813.630 .0279665
814.330 .0279538
815.029 .0279416
815.727 .0279297
816.426 .0279184
817.124 .0279076
817.821 .0278973
818.519 .0278875
819.216 .0278783
819.913 .0278696
820.609 .0278614
821.306 .0278539
822.002 .0278469
822.697 .0278406
823.393 .0278351
824.088 .0278302
824.783 .0278261
825.477 .0278226
826.171 .0278197
826.865 .0278174
827.559 .0278155
828.252 .0278141
828.945 .0278130
829.638 .0278124
830.330 .0278121
831.023 .0278121
831.714 .0278124
832.406 .0278130
833.097 .0278137
833.788 .0278144
834.479 .0278152
835.169 .0278158
835.859 .0278164
836.548 .0278167
837.238 .0278168
837.927 .0278167
838.615 .0278162
839.304 .0278153
839.992 .0278140
840.680 .0278120
841.367 .0278095
842.054 .0278062
842.741 .0278024
843.428 .0277979
844.114 .0277928
844.800 .0277872
845.485 .0277810
846.170 .0277742
846.855 .0277669
847.540 .0277589
848.224 .0277502
848.908 .0277408
849.592 .0277307
850.275 .0277201
850.958 .0277089
851.641 .0276972
852.323 .0276851
853.005 .0276727
853.687 .0276600
854.368 .0276470
855.049 .0276337
855.730 .0276201
856.410 .0276062
857.090 .0275919
857.769 .0275772
858.449 .0275622
859.128 .0275470
859.806 .0275315
860.485 .0275157
861.163 .0274997
861.840 .0274836
862.518 .0274673
863.195 .0274508
863.871 .0274342
864.548 .0274175
865.224 .0274008
865.899 .0273840
866.574 .0273671
867.249 .0273501
867.924 .0273331
868.598 .0273160
869.272 .0272988
869.946 .0272816
870.619 .0272643
871.292 .0272469
871.964 .0272295
872.636 .0272122
873.308 .0271950
873.979 .0271781
874.651 .0271614
875.321 .0271450
875.992 .0271290
876.662 .0271132
877.331 .0270977
878.001 .0270825
878.670 .0270675
879.338 .0270528
880.007 .0270384
880.675 .0270244
881.342 .0270108
882.009 .0269978
882.676 .0269853
883.343 .0269733
884.009 .0269619
884.675 .0269511
885.340 .0269407
886.005 .0269307
886.670 .0269212
887.334 .0269120
887.998 .0269032
888.662 .0268947
889.325 .0268865
889.988 .0268786
890.650 .0268708
891.312 .0268633
891.974 .0268557
892.636 .0268482
893.297 .0268406
893.957 .0268329
894.618 .0268251
895.278 .0268170
895.937 .0268087
896.596 .0268001
897.255 .0267911
897.914 .0267817
898.572 .0267719
899.230 .0267616
899.887 .0267508
900.544 .0267394
901.201 .0267277
901.857 .0267079
902.513 .0266951
903.168 .0266819
903.823 .0266684
904.478 .0266545
905.132 .0266404
905.786 .0266259
906.440 .0266112
907.093 .0265962
907.746 .0265809
908.399 .0265655
909.051 .0265498
909.703 .0265341
910.354 .0265264
911.005 .0265107
911.656 .0264951
912.306 .0264797
912.956 .0264644
913.605 .0264494
914.254 .0264344
914.903 .0264197
915.551 .0264051
916.199 .0263906
916.847 .0263762
917.494 .0263620
918.141 .0263479
918.788 .0263340
919.434 .0263203
920.079 .0263068
920.725 .0262934
921.370 .0262802
922.014 .0262671
922.658 .0262542
923.302 .0262414
923.946 .0262288
924.589 .0262164
925.231 .0262043
925.873 .0261924
926.515 .0261808
927.157 .0261696
927.798 .0261586
928.439 .0261481
929.079 .0261378
929.719 .0261280
930.359 .0261186
930.998 .0261096
931.637 .0261011
932.275 .0260930
932.913 .0260855
933.551 .0260785
934.188 .0260721
934.825 .0260662
935.462 .0260610
936.098 .0260563
936.733 .0260523
937.369 .0260489
938.004 .0260460
938.638 .0260437
939.273 .0260418
939.907 .0260402
940.540 .0260390
941.173 .0260381
941.806 .0260374
942.438 .0260369
943.070 .0260367
943.702 .0260365
944.333 .0260365
944.964 .0260365
945.594 .0260366
946.224 .0260366
946.854 .0260364
947.483 .0260361
948.112 .0260356
948.741 .0260349
949.369 .0260341
949.996 .0260333
950.624 .0260324
951.251 .0260314
951.878 .0260305
952.504 .0260296
953.130 .0260286
953.755 .0260276
954.380 .0260265
955.005 .0260253
955.629 .0260240
956.253 .0260225
956.877 .0260210
957.500 .0260195
958.123 .0260178
958.746 .0260161
959.368 .0260143
959.990 .0260124
960.611 .0260104
961.232 .0260083
961.853 .0260062
962.473 .0260039
963.093 .0260014
963.712 .0259989
964.331 .0259962
964.950 .0259934
965.569 .0259904
966.187 .0259873
966.804 .0259839
967.422 .0259804
968.039 .0259766
968.655 .0259725
969.272 .0259681
969.887 .0259633
970.503 .0259580
971.118 .0259522
971.733 .0259459
972.347 .0259391
972.961 .0259318
973.575 .0259239
974.188 .0259156
974.801 .0259067
975.414 .0258973
976.026 .0258873
976.638 .0258768
977.250 .0258659
977.861 .0258544
978.472 .0258426
979.083 .0258303
979.693 .0258178
980.303 .0258048
980.912 .0257834
981.521 .0257697
982.130 .0257556
982.738 .0257412
983.346 .0257266
983.954 .0257117
984.562 .0256966
985.169 .0256814
985.775 .0256660
986.382 .0256506
986.988 .0256351
987.594 .0256196
988.199 .0256040
988.804 .0255885
989.409 .0255816
990.013 .0255663
990.617 .0255511
991.221 .0255362
991.824 .0255217
992.427 .0255075
993.030 .0254937
993.632 .0254803
994.234 .0254672
994.836 .0254544
995.438 .0254420
996.039 .0254298
996.640 .0254180
997.240 .0254065
997.840 .0253954
998.440 .0253847
999.040 .0253744
999.639 .0253644
1000.238 .0253547
1000.836 .0253452
1001.435 .0253360
1002.033 .0253269
1002.630 .0253179
1003.228 .0253091
1003.825 .0253005
1004.422 .0252921
1005.018 .0252839
1005.614 .0252760
1006.210 .0252683
1006.806 .0252608
1007.401 .0252535
1007.996 .0252465
1008.591 .0252396
1009.186 .0252328
1009.780 .0252263
1010.374 .0252198
1010.967 .0252135
1011.561 .0252073
1012.154 .0252013
1012.746 .0251954
1013.339 .0251897
1013.931 .0251840
1014.523 .0251784
1015.115 .0251729
1015.706 .0251675
1016.298 .0251621
1016.888 .0251568
1017.479 .0251516
1018.069 .0251465
1018.660 .0251414
1019.250 .0251364
1019.839 .0251316
1020.429 .0251268
1021.018 .0251222
1021.607 .0251178
1022.195 .0251136
1022.784 .0251097
1023.372 .0251060
1023.960 .0251027
1024.547 .0250997
1025.135 .0250971
1025.722 .0250949
1026.309 .0250929
1026.896 .0250912
1027.483 .0250898
1028.069 .0250887
1028.655 .0250878
1029.241 .0250871
1029.827 .0250866
1030.412 .0250864
1030.997 .0250864
1031.582 .0250867
1032.167 .0250873
1032.752 .0250882
1033.336 .0250894
1033.921 .0250907
1034.505 .0250922
1035.089 .0250938
1035.672 .0250954
1036.256 .0250970
1036.839 .0250985
1037.422 .0250998
1038.005 .0251010
1038.588 .0251021
1039.171 .0251030
1039.753 .0251039
1040.335 .0251047
1040.918 .0251053
1041.500 .0251056
1042.081 .0251057
1042.663 .0251055
1043.244 .0251050
1043.826 .0251044
1044.407 .0251038
1044.988 .0251033
1045.569 .0251030
1046.150 .0251031
1046.730 .0251034
1047.311 .0251041
1047.891 .0251049
1048.471 .0251059
1049.052 .0251068
1049.632 .0251078
1050.211 .0251089
1050.791 .0251100
1051.371 .0251114
1051.950 .0251130
1052.530 .0251149
1053.109 .0251172
1053.688 .0251198
1054.268 .0251226
1054.847 .0251256
1055.426 .0251287
1056.005 .0251320
1056.583 .0251356
1057.162 .0251395
1057.741 .0251437
1058.319 .0251485
1058.898 .0251538
1059.476 .0251595
1060.055 .0251657
1060.633 .0251721
1061.211 .0251787
1061.790 .0251854
1062.368 .0251920
1062.946 .0251984
1063.524 .0252046
1064.102 .0252106
1064.680 .0252165
1065.258 .0252222
1065.836 .0252277
1066.414 .0252331
1066.992 .0252385
1067.570 .0252438
1068.148 .0252492
1068.726 .0252548
1069.304 .0252607
1069.882 .0252669
1070.460 .0252737
1071.038 .0252811
1071.616 .0252891
1072.194 .0252978
1072.772 .0253071
1073.350 .0253169
1073.928 .0253271
1074.506 .0253377
1075.084 .0253484
1075.662 .0253594
1076.240 .0253704
1076.819 .0253816
1077.397 .0253930
1077.976 .0254047
1078.554 .0254167
1079.133 .0254291
1079.711 .0254418
1080.290 .0254549
1080.869 .0254684
1081.448 .0254823
1082.027 .0254966
1082.606 .0255113
1083.185 .0255263
1083.764 .0255417
1084.343 .0255575
1084.923 .0255736
1085.502 .0255901
1086.082 .0256068
1086.662 .0256238
1087.242 .0256410
1087.822 .0256583
1088.402 .0256755
1088.983 .0256927
1089.563 .0257097
1090.144 .0257264
1090.725 .0257430
1091.306 .0257595
1091.887 .0257760
1092.469 .0257925
1093.050 .0258093
1093.632 .0258263
1094.214 .0258436
1094.796 .0258612
1095.379 .0258791
1095.961 .0258971
1096.544 .0259154
1097.127 .0259339
1097.710 .0259528
1098.294 .0259721
1098.877 .0259919
1099.461 .0260122
1100.046 .0260330
1100.630 .0260542
1101.215 .0260757
1101.800 .0260975
1102.385 .0261195
1102.970 .0261417
1103.556 .0261643
1104.142 .0261873
1104.728 .0262110
1105.315 .0262355
1105.902 .0262609
1106.489 .0262871
1107.077 .0263142
1107.664 .0263421
1108.253 .0263706
1108.841 .0263998
1109.430 .0264298
1110.019 .0264609
1110.609 .0264932
1111.198 .0265269
1111.789 .0265622
1112.379 .0265992
1112.970 .0266381
1113.561 .0266788
1114.153 .0267214
1114.745 .0267659
1115.338 .0268122
1115.931 .0268603
1116.524 .0269103
1117.117 .0269621
1117.712 .0270160
1118.306 .0270719
1118.901 .0271297
1119.496 .0271894
1120.092 .0272507
1120.689 .0273136
1121.285 .0273778
1121.882 .0274433
1122.480 .0275100
1123.078 .0275778
1123.677 .0276469
1124.276 .0277175
1124.875 .0277899
1125.476 .0278643
1126.076 .0279412
1126.677 .0280206
1127.279 .0281029
1127.881 .0281880
1128.484 .0282760
1129.087 .0283163
1129.691 .0284079
1130.295 .0285026
1130.900 .0286004
1131.505 .0287013
1132.111 .0288053
1132.718 .0289125
1133.325 .0290225
1133.933 .0291350
1134.541 .0292547
1135.150 .0293740
1135.760 .0294958
1136.370 .0296123
1136.981 .0296301
1137.592 .0297855
1138.204 .0299462
1138.817 .0301107
1139.431 .0302771
1140.045 .0304426
1140.660 .0306103
1141.275 .0307683
1141.891 .0309210
1142.508 .0312037
1143.126 .0312775
1143.744 .0314280
1144.363 .0313608
1144.983 .0314811
