Measurement Sequence started on: 15-12-46-377
Integration time: 28
Scans to Average: 2 
>>>>>Begin Spectral Data<<<<<
432.689 .0000100
433.621 .0000100
434.552 .0000100
435.482 .0000100
436.410 .0000100
437.337 .0000100
438.262 .0297739
439.187 .0630562
440.110 .1044551
441.031 .1511290
441.952 .1209660
442.871 .1263048
443.789 .1312690
444.705 .1359363
445.621 .1403609
446.535 .1445846
447.447 .1470724
448.359 .1476632
449.269 .1459507
450.178 .1416713
451.086 .1349095
451.993 .1261837
452.898 .1163525
453.803 .1063888
454.706 .0971213
455.608 .0890633
456.508 .0823888
457.408 .0778636
458.306 .0743803
459.204 .0715430
460.100 .0691516
460.995 .0670940
461.888 .0652955
462.781 .0637042
463.673 .0622813
464.563 .0609979
465.452 .0598330
466.340 .0587690
467.228 .0577942
468.114 .0569001
468.999 .0560794
469.882 .0553255
470.765 .0546326
471.647 .0539954
472.528 .0534104
473.407 .0528733
474.286 .0523815
475.163 .0519325
476.040 .0515241
476.915 .0511550
477.790 .0508236
478.663 .0505286
479.535 .0502684
480.407 .0500416
481.277 .0498470
482.147 .0496824
483.015 .0495460
483.883 .0494369
484.749 .0493537
485.615 .0492962
486.479 .0492635
487.343 .0492551
488.206 .0492707
489.067 .0493094
489.928 .0493707
490.788 .0494543
491.647 .0495594
492.505 .0496856
493.362 .0498322
494.218 .0499991
495.073 .0501860
495.928 .0505336
496.781 .0507695
497.634 .0510253
498.486 .0513014
499.337 .0515985
500.187 .0519170
501.036 .0522591
501.884 .0526273
502.731 .0530254
503.578 .0534582
504.424 .0537486
505.268 .0542531
506.113 .0548074
506.956 .0554172
507.798 .0560894
508.640 .0568324
509.480 .0576575
510.320 .0585772
511.160 .0596056
511.998 .0607611
512.836 .0620654
513.672 .0635401
514.508 .0652094
515.344 .0670976
516.178 .0692288
517.012 .0716254
517.845 .0743080
518.677 .0772954
519.508 .0806031
520.339 .0842377
521.169 .0881998
521.998 .0924651
522.826 .0969989
523.654 .1017441
524.481 .1066328
525.307 .1115832
526.133 .1164963
526.958 .1212691
527.782 .1258000
528.605 .1299936
529.428 .1337654
530.250 .1370394
531.072 .1397661
531.892 .1419039
532.712 .1434288
533.532 .1443258
534.350 .1445934
535.168 .1442405
535.986 .1432738
536.802 .1417008
537.618 .1395344
538.434 .1367893
539.249 .1335043
540.063 .1297274
540.876 .1255263
541.689 .1209781
542.501 .1161713
543.313 .1112071
544.124 .1061880
544.934 .1012135
545.744 .0963732
546.553 .0917403
547.361 .0873769
548.169 .0833164
548.976 .0795812
549.783 .0761751
550.589 .0730923
551.395 .0703132
552.200 .0678089
553.004 .0655529
553.808 .0635199
554.611 .0616863
555.414 .0600324
556.216 .0585377
557.018 .0571828
557.819 .0559506
558.619 .0548250
559.419 .0537916
560.218 .0528393
561.017 .0519564
561.815 .0511323
562.613 .0503587
563.410 .0496279
564.207 .0489319
565.003 .0482647
565.799 .0476211
566.594 .0469961
567.388 .0463867
568.182 .0457910
568.976 .0452076
569.769 .0446366
570.562 .0440784
571.354 .0435339
572.145 .0430038
572.936 .0424893
573.727 .0419911
574.517 .0415097
575.307 .0410462
576.096 .0406010
576.885 .0401748
577.673 .0397685
578.461 .0393829
579.248 .0390184
580.035 .0386748
580.821 .0383523
581.607 .0380503
582.392 .0377684
583.177 .0375059
583.962 .0372621
584.746 .0370357
585.529 .0368258
586.313 .0366309
587.095 .0364497
587.878 .0362811
588.660 .0361237
589.441 .0359766
590.222 .0358390
591.003 .0357101
591.783 .0355893
592.563 .0354760
593.342 .0353699
594.121 .0352700
594.899 .0351759
595.678 .0350868
596.455 .0350021
597.233 .0349214
598.009 .0348443
598.786 .0347706
599.562 .0347000
600.338 .0346324
601.113 .0345676
601.888 .0344790
602.663 .0344202
603.437 .0343637
604.211 .0343095
604.984 .0342572
605.757 .0342068
606.530 .0341582
607.302 .0341115
608.074 .0340665
608.845 .0340233
609.616 .0339816
610.387 .0339641
611.158 .0339247
611.928 .0338869
612.697 .0338504
613.467 .0338152
614.236 .0337811
615.004 .0337481
615.773 .0337159
616.541 .0336846
617.308 .0336540
618.076 .0336240
618.843 .0335944
619.609 .0335652
620.375 .0335362
621.141 .0335074
621.907 .0334787
622.672 .0334502
623.437 .0334218
624.202 .0333936
624.966 .0333654
625.730 .0333372
626.493 .0333090
627.257 .0332806
628.020 .0332520
628.782 .0332232
629.545 .0331941
630.307 .0331648
631.068 .0331353
631.830 .0331057
632.591 .0330760
633.352 .0330464
634.112 .0330169
634.872 .0329876
635.632 .0329584
636.392 .0329294
637.151 .0329005
637.910 .0328716
638.668 .0328428
639.427 .0328141
640.185 .0327856
640.943 .0327572
641.700 .0327291
642.457 .0327012
643.214 .0326735
643.971 .0326461
644.727 .0326190
645.483 .0325921
646.239 .0325652
646.994 .0325383
647.750 .0325113
648.505 .0324841
649.259 .0324567
650.014 .0324291
650.768 .0324013
651.521 .0323735
652.275 .0323456
653.028 .0323177
653.781 .0322898
654.534 .0322619
655.286 .0322341
656.039 .0322061
656.791 .0321779
657.542 .0321495
658.294 .0321208
659.045 .0320918
659.796 .0320625
660.546 .0320330
661.297 .0320033
662.047 .0319735
662.796 .0319437
663.546 .0319138
664.295 .0318840
665.044 .0318543
665.793 .0318249
666.542 .0317958
667.290 .0317669
668.038 .0317385
668.786 .0317104
669.533 .0316828
670.281 .0316555
671.028 .0316287
671.774 .0316023
672.521 .0315763
673.267 .0315508
674.013 .0315258
674.759 .0315014
675.505 .0314775
676.250 .0314540
676.995 .0314311
677.740 .0314085
678.484 .0313862
679.229 .0313643
679.973 .0313426
680.717 .0313213
681.460 .0313002
682.204 .0312793
682.947 .0312587
683.690 .0312383
684.433 .0312181
685.175 .0311981
685.917 .0311782
686.659 .0311584
687.401 .0311388
688.142 .0311194
688.884 .0311002
689.625 .0310812
690.365 .0310623
691.106 .0310435
691.846 .0310249
692.586 .0310062
693.326 .0309876
694.066 .0309689
694.805 .0309505
695.545 .0309321
696.284 .0309140
697.022 .0308962
697.761 .0308786
698.499 .0308613
699.237 .0308441
699.975 .0308271
700.713 .0308103
701.450 .0307935
702.187 .0307767
702.924 .0307601
703.661 .0307435
704.397 .0307269
705.133 .0307102
705.869 .0306935
706.605 .0306765
707.341 .0306593
708.076 .0306418
708.811 .0306241
709.546 .0306060
710.281 .0305876
711.015 .0305689
711.749 .0305500
712.483 .0305307
713.217 .0305112
713.950 .0304914
714.684 .0304712
715.417 .0304508
716.150 .0304301
716.882 .0304091
717.615 .0303880
718.347 .0303666
719.079 .0303451
719.811 .0303235
720.542 .0303017
721.273 .0302798
722.005 .0302579
722.735 .0302359
723.466 .0302139
724.196 .0301921
724.927 .0301704
725.656 .0301490
726.386 .0301278
727.116 .0301070
727.845 .0300864
728.574 .0300661
729.303 .0300460
730.031 .0300262
730.760 .0300065
731.488 .0299871
732.216 .0299680
732.944 .0299491
733.671 .0299306
734.398 .0299124
735.125 .0298946
735.852 .0298772
736.579 .0298602
737.305 .0298434
738.031 .0298270
738.757 .0298108
739.483 .0297948
740.208 .0297791
740.933 .0297637
741.658 .0297486
742.383 .0297339
743.108 .0297195
743.832 .0297054
744.556 .0296916
745.280 .0296780
746.004 .0296646
746.727 .0296513
747.450 .0296380
748.173 .0296247
748.896 .0296114
749.618 .0295981
750.340 .0295846
751.062 .0295711
751.784 .0295574
752.506 .0295434
753.227 .0295293
753.948 .0295150
754.669 .0295005
755.389 .0294859
756.110 .0294711
756.830 .0294563
757.550 .0294414
758.269 .0294264
758.989 .0294114
759.708 .0293963
760.427 .0293811
761.146 .0293660
761.864 .0293509
762.582 .0293360
763.300 .0293212
764.018 .0293068
764.736 .0292928
765.453 .0292791
766.170 .0292658
766.887 .0292529
767.603 .0292405
768.320 .0292286
769.036 .0292172
769.751 .0292063
770.467 .0291961
771.182 .0291863
771.897 .0291771
772.612 .0291683
773.327 .0291600
774.041 .0291520
774.755 .0291444
775.469 .0291372
776.183 .0291302
776.896 .0291237
777.609 .0291175
778.322 .0291117
779.035 .0291063
779.747 .0291011
780.459 .0290963
781.171 .0290918
781.882 .0290874
782.594 .0290833
783.305 .0290793
784.016 .0290755
784.726 .0290718
785.436 .0290681
786.147 .0290631
786.856 .0290595
787.566 .0290559
788.275 .0290522
788.984 .0290484
789.693 .0290446
790.401 .0290407
791.110 .0290367
791.818 .0290325
792.525 .0290282
793.233 .0290236
793.940 .0290187
794.647 .0290152
795.353 .0290097
796.060 .0290040
796.766 .0289980
797.472 .0289918
798.177 .0289852
798.883 .0289784
799.588 .0289713
800.292 .0289639
800.997 .0289560
801.701 .0289478
802.405 .0289391
803.109 .0289299
803.812 .0289203
804.515 .0289103
805.218 .0288999
805.921 .0288890
806.623 .0288778
807.325 .0288661
808.027 .0288539
808.728 .0288412
809.429 .0288281
810.130 .0288145
810.831 .0288005
811.531 .0287860
812.231 .0287712
812.931 .0287560
813.630 .0287406
814.330 .0287248
815.029 .0287088
815.727 .0286926
816.426 .0286762
817.124 .0286596
817.821 .0286431
818.519 .0286266
819.216 .0286102
819.913 .0285939
820.609 .0285779
821.306 .0285622
822.002 .0285467
822.697 .0285315
823.393 .0285165
824.088 .0285018
824.783 .0284874
825.477 .0284733
826.171 .0284595
826.865 .0284460
827.559 .0284327
828.252 .0284197
828.945 .0284070
829.638 .0283945
830.330 .0283821
831.023 .0283699
831.714 .0283577
832.406 .0283455
833.097 .0283333
833.788 .0283211
834.479 .0283088
835.169 .0282964
835.859 .0282841
836.548 .0282717
837.238 .0282592
837.927 .0282468
838.615 .0282342
839.304 .0282215
839.992 .0282085
840.680 .0281953
841.367 .0281819
842.054 .0281682
842.741 .0281544
843.428 .0281405
844.114 .0281266
844.800 .0281126
845.485 .0280985
846.170 .0280844
846.855 .0280700
847.540 .0280554
848.224 .0280406
848.908 .0280255
849.592 .0280103
850.275 .0279948
850.958 .0279793
851.641 .0279637
852.323 .0279482
853.005 .0279326
853.687 .0279171
854.368 .0279016
855.049 .0278862
855.730 .0278709
856.410 .0278558
857.090 .0278410
857.769 .0278265
858.449 .0278123
859.128 .0277986
859.806 .0277854
860.485 .0277726
861.163 .0277602
861.840 .0277483
862.518 .0277369
863.195 .0277261
863.871 .0277159
864.548 .0277064
865.224 .0276975
865.899 .0276892
866.574 .0276815
867.249 .0276743
867.924 .0276676
868.598 .0276613
869.272 .0276553
869.946 .0276495
870.619 .0276441
871.292 .0276389
871.964 .0276338
872.636 .0276290
873.308 .0276244
873.979 .0276199
874.651 .0276155
875.321 .0276113
875.992 .0276072
876.662 .0276033
877.331 .0275994
878.001 .0275957
878.670 .0275922
879.338 .0275887
880.007 .0275853
880.675 .0275821
881.342 .0275790
882.009 .0275761
882.676 .0275735
883.343 .0275713
884.009 .0275694
884.675 .0275678
885.340 .0275667
886.005 .0275658
886.670 .0275653
887.334 .0275651
887.998 .0275651
888.662 .0275654
889.325 .0275660
889.988 .0275669
890.650 .0275681
891.312 .0275697
891.974 .0275715
892.636 .0275736
893.297 .0275759
893.957 .0275784
894.618 .0275809
895.278 .0275835
895.937 .0275860
896.596 .0275884
897.255 .0275907
897.914 .0275929
898.572 .0275949
899.230 .0275966
899.887 .0275979
900.544 .0275989
901.201 .0275994
901.857 .0275979
902.513 .0275970
903.168 .0275956
903.823 .0275936
904.478 .0275911
905.132 .0275879
905.786 .0275841
906.440 .0275797
907.093 .0275746
907.746 .0275688
908.399 .0275623
909.051 .0275553
909.703 .0275475
910.354 .0275421
911.005 .0275336
911.656 .0275245
912.306 .0275149
912.956 .0275047
913.605 .0274940
914.254 .0274828
914.903 .0274711
915.551 .0274589
916.199 .0274463
916.847 .0274331
917.494 .0274195
918.141 .0274053
918.788 .0273906
919.434 .0273754
920.079 .0273596
920.725 .0273433
921.370 .0273265
922.014 .0273090
922.658 .0272911
923.302 .0272728
923.946 .0272540
924.589 .0272347
925.231 .0272151
925.873 .0271950
926.515 .0271746
927.157 .0271538
927.798 .0271326
928.439 .0271112
929.079 .0270894
929.719 .0270675
930.359 .0270455
930.998 .0270234
931.637 .0270013
932.275 .0269792
932.913 .0269572
933.551 .0269354
934.188 .0269137
934.825 .0268923
935.462 .0268711
936.098 .0268502
936.733 .0268296
937.369 .0268092
938.004 .0267892
938.638 .0267696
939.273 .0267505
939.907 .0267317
940.540 .0267135
941.173 .0266958
941.806 .0266786
942.438 .0266618
943.070 .0266455
943.702 .0266296
944.333 .0266140
944.964 .0265988
945.594 .0265838
946.224 .0265691
946.854 .0265546
947.483 .0265402
948.112 .0265259
948.741 .0265117
949.369 .0264974
949.996 .0264830
950.624 .0264684
951.251 .0264536
951.878 .0264385
952.504 .0264232
953.130 .0264076
953.755 .0263918
954.380 .0263758
955.005 .0263596
955.629 .0263432
956.253 .0263266
956.877 .0263097
957.500 .0262926
958.123 .0262751
958.746 .0262575
959.368 .0262397
959.990 .0262218
960.611 .0262038
961.232 .0261858
961.853 .0261678
962.473 .0261499
963.093 .0261320
963.712 .0261142
964.331 .0260964
964.950 .0260787
965.569 .0260611
966.187 .0260436
966.804 .0260262
967.422 .0260090
968.039 .0259919
968.655 .0259751
969.272 .0259585
969.887 .0259422
970.503 .0259261
971.118 .0259101
971.733 .0258943
972.347 .0258786
972.961 .0258629
973.575 .0258473
974.188 .0258316
974.801 .0258159
975.414 .0258000
976.026 .0257840
976.638 .0257678
977.250 .0257514
977.861 .0257349
978.472 .0257182
979.083 .0257014
979.693 .0256846
980.303 .0256678
980.912 .0256422
981.521 .0256254
982.130 .0256086
982.738 .0255920
983.346 .0255755
983.954 .0255594
984.562 .0255436
985.169 .0255284
985.775 .0255136
986.382 .0254995
986.988 .0254858
987.594 .0254727
988.199 .0254601
988.804 .0254480
989.409 .0254441
990.013 .0254328
990.617 .0254220
991.221 .0254118
991.824 .0254023
992.427 .0253934
993.030 .0253853
993.632 .0253779
994.234 .0253710
994.836 .0253648
995.438 .0253590
996.039 .0253538
996.640 .0253492
997.240 .0253452
997.840 .0253418
998.440 .0253391
999.040 .0253372
999.639 .0253360
1000.238 .0253356
1000.836 .0253357
1001.435 .0253364
1002.033 .0253375
1002.630 .0253389
1003.228 .0253405
1003.825 .0253422
1004.422 .0253442
1005.018 .0253464
1005.614 .0253489
1006.210 .0253517
1006.806 .0253549
1007.401 .0253583
1007.996 .0253621
1008.591 .0253661
1009.186 .0253705
1009.780 .0253751
1010.374 .0253800
1010.967 .0253854
1011.561 .0253912
1012.154 .0253976
1012.746 .0254046
1013.339 .0254123
1013.931 .0254207
1014.523 .0254297
1015.115 .0254392
1015.706 .0254492
1016.298 .0254596
1016.888 .0254703
1017.479 .0254813
1018.069 .0254926
1018.660 .0255042
1019.250 .0255162
1019.839 .0255285
1020.429 .0255412
1021.018 .0255542
1021.607 .0255675
1022.195 .0255811
1022.784 .0255950
1023.372 .0256093
1023.960 .0256238
1024.547 .0256386
1025.135 .0256539
1025.722 .0256694
1026.309 .0256854
1026.896 .0257016
1027.483 .0257182
1028.069 .0257349
1028.655 .0257518
1029.241 .0257687
1029.827 .0257856
1030.412 .0258025
1030.997 .0258193
1031.582 .0258361
1032.167 .0258527
1032.752 .0258693
1033.336 .0258858
1033.921 .0259022
1034.505 .0259184
1035.089 .0259345
1035.672 .0259504
1036.256 .0259661
1036.839 .0259816
1037.422 .0259970
1038.005 .0260124
1038.588 .0260278
1039.171 .0260431
1039.753 .0260584
1040.335 .0260737
1040.918 .0260890
1041.500 .0261041
1042.081 .0261192
1042.663 .0261341
1043.244 .0261489
1043.826 .0261634
1044.407 .0261776
1044.988 .0261916
1045.569 .0262052
1046.150 .0262184
1046.730 .0262311
1047.311 .0262433
1047.891 .0262549
1048.471 .0262658
1049.052 .0262762
1049.632 .0262861
1050.211 .0262955
1050.791 .0263045
1051.371 .0263131
1051.950 .0263214
1052.530 .0263293
1053.109 .0263369
1053.688 .0263442
1054.268 .0263512
1054.847 .0263580
1055.426 .0263646
1056.005 .0263711
1056.583 .0263777
1057.162 .0263844
1057.741 .0263912
1058.319 .0263982
1058.898 .0264053
1059.476 .0264124
1060.055 .0264195
1060.633 .0264265
1061.211 .0264334
1061.790 .0264403
1062.368 .0264471
1062.946 .0264541
1063.524 .0264613
1064.102 .0264687
1064.680 .0264765
1065.258 .0264847
1065.836 .0264931
1066.414 .0265019
1066.992 .0265108
1067.570 .0265198
1068.148 .0265289
1068.726 .0265380
1069.304 .0265473
1069.882 .0265566
1070.460 .0265659
1071.038 .0265752
1071.616 .0265843
1072.194 .0265930
1072.772 .0266012
1073.350 .0266086
1073.928 .0266151
1074.506 .0266206
1075.084 .0266251
1075.662 .0266287
1076.240 .0266314
1076.819 .0266335
1077.397 .0266351
1077.976 .0266364
1078.554 .0266376
1079.133 .0266385
1079.711 .0266393
1080.290 .0266400
1080.869 .0266406
1081.448 .0266412
1082.027 .0266418
1082.606 .0266427
1083.185 .0266440
1083.764 .0266458
1084.343 .0266481
1084.923 .0266509
1085.502 .0266542
1086.082 .0266579
1086.662 .0266616
1087.242 .0266653
1087.822 .0266689
1088.402 .0266722
1088.983 .0266754
1089.563 .0266785
1090.144 .0266817
1090.725 .0266852
1091.306 .0266891
1091.887 .0266934
1092.469 .0266983
1093.050 .0267035
1093.632 .0267092
1094.214 .0267150
1094.796 .0267209
1095.379 .0267270
1095.961 .0267331
1096.544 .0267395
1097.127 .0267459
1097.710 .0267524
1098.294 .0267589
1098.877 .0267653
1099.461 .0267713
1100.046 .0267770
1100.630 .0267820
1101.215 .0267865
1101.800 .0267903
1102.385 .0267934
1102.970 .0267962
1103.556 .0267988
1104.142 .0268015
1104.728 .0268047
1105.315 .0268085
1105.902 .0268133
1106.489 .0268193
1107.077 .0268266
1107.664 .0268352
1108.253 .0268454
1108.841 .0268572
1109.430 .0268704
1110.019 .0268851
1110.609 .0269014
1111.198 .0269190
1111.789 .0269382
1112.379 .0269585
1112.970 .0269799
1113.561 .0270021
1114.153 .0270249
1114.745 .0270481
1115.338 .0270715
1115.931 .0270951
1116.524 .0271187
1117.117 .0271424
1117.712 .0271663
1118.306 .0271904
1118.901 .0272151
1119.496 .0272404
1120.092 .0272663
1120.689 .0272929
1121.285 .0273204
1121.882 .0273487
1122.480 .0273777
1123.078 .0274073
1123.677 .0274378
1124.276 .0274692
1124.875 .0275019
1125.476 .0275361
1126.076 .0275725
1126.677 .0276119
1127.279 .0276549
1127.881 .0277020
1128.484 .0277537
1129.087 .0277690
1129.691 .0278264
1130.295 .0278895
1130.900 .0279585
1131.505 .0280343
1132.111 .0281176
1132.718 .0282089
1133.325 .0283086
1133.933 .0284164
1134.541 .0285441
1135.150 .0286760
1135.760 .0288133
1136.370 .0289544
1136.981 .0287847
1137.592 .0289731
1138.204 .0291666
1138.817 .0293634
1139.431 .0295808
1140.045 .0298099
1140.660 .0300515
1141.275 .0303010
1141.891 .0305376
1142.508 .0311059
1143.126 .0312321
1143.744 .0313955
1144.363 .0315178
1144.983 .0311460
