Measurement Sequence started on: 15-12-46-377
Integration time: 28
Scans to Average: 2 
>>>>>Begin Spectral Data<<<<<
432.689 .0000100
433.621 .0000100
434.552 .0000100
435.482 .0000100
436.410 .0000100
437.337 .0000100
438.262 .0274789
439.187 .0583888
440.110 .0968443
441.031 .1402298
441.952 .1126564
442.871 .1176823
443.789 .1223731
444.705 .1268015
445.621 .1310157
446.535 .1350531
447.447 .1374930
448.359 .1381730
449.269 .1367090
450.178 .1328514
451.086 .1266754
451.993 .1186594
452.898 .1095965
453.803 .1003922
454.706 .0918185
455.608 .0843573
456.508 .0781708
457.408 .0739649
458.306 .0707212
459.204 .0680653
460.100 .0658073
460.995 .0638401
461.888 .0620946
462.781 .0605267
463.673 .0591029
464.563 .0578027
465.452 .0566116
466.340 .0555205
467.228 .0545225
468.114 .0536113
468.999 .0527805
469.882 .0520235
470.765 .0513335
471.647 .0507048
472.528 .0501329
473.407 .0496141
474.286 .0491463
475.163 .0487281
476.040 .0483577
476.915 .0480334
477.790 .0477526
478.663 .0475123
479.535 .0473091
480.407 .0471394
481.277 .0469989
482.147 .0468835
483.015 .0467897
483.883 .0467150
484.749 .0466576
485.615 .0466161
486.479 .0465897
487.343 .0465780
488.206 .0465809
489.067 .0465973
489.928 .0466271
490.788 .0466700
491.647 .0467262
492.505 .0467952
493.362 .0468777
494.218 .0469740
495.073 .0470855
495.928 .0473116
496.781 .0474672
497.634 .0476422
498.486 .0478381
499.337 .0480571
500.187 .0483016
501.036 .0485742
501.884 .0488781
502.731 .0492173
503.578 .0495945
504.424 .0498683
505.268 .0503159
506.113 .0508118
506.956 .0513601
507.798 .0519674
508.640 .0526408
509.480 .0533909
510.320 .0542293
511.160 .0551703
511.998 .0562295
512.836 .0574250
513.672 .0587740
514.508 .0602964
515.344 .0620122
516.178 .0639432
517.012 .0661118
517.845 .0685414
518.677 .0712525
519.508 .0742637
520.339 .0775829
521.169 .0812143
521.998 .0851344
522.826 .0893101
523.654 .0936853
524.481 .0981913
525.307 .1027474
526.133 .1072615
526.958 .1116380
527.782 .1157869
528.605 .1196234
529.428 .1230758
530.250 .1260786
531.072 .1285917
531.892 .1305789
532.712 .1320190
533.532 .1328963
534.350 .1332028
535.168 .1329362
535.986 .1320979
536.802 .1306887
537.618 .1287180
538.434 .1261994
539.249 .1231730
540.063 .1196875
540.876 .1158101
541.689 .1116197
542.501 .1072045
543.313 .1026597
544.124 .0980801
544.934 .0935517
545.744 .0891515
546.553 .0849419
547.361 .0809755
548.169 .0772797
548.976 .0738755
549.783 .0707676
550.589 .0679525
551.395 .0654164
552.200 .0631379
553.004 .0610929
553.808 .0592584
554.611 .0576125
555.414 .0561335
556.216 .0548001
557.018 .0535930
557.819 .0524967
558.619 .0514958
559.419 .0505766
560.218 .0497281
561.017 .0489397
561.815 .0482031
562.613 .0475108
563.410 .0468554
564.207 .0462310
565.003 .0456325
565.799 .0450547
566.594 .0444934
567.388 .0439460
568.182 .0434101
568.976 .0428842
569.769 .0423680
570.562 .0418625
571.354 .0413681
572.145 .0408861
572.936 .0404178
573.727 .0399634
574.517 .0395236
575.307 .0390988
576.096 .0386891
576.885 .0382953
577.673 .0379178
578.461 .0375569
579.248 .0372131
580.035 .0368870
580.821 .0365783
581.607 .0362865
582.392 .0360118
583.177 .0357534
583.962 .0355103
584.746 .0352820
585.529 .0350680
586.313 .0348679
587.095 .0346811
587.878 .0345074
588.660 .0343461
589.441 .0341967
590.222 .0340584
591.003 .0339304
591.783 .0338118
592.563 .0337017
593.342 .0335992
594.121 .0335038
594.899 .0334149
595.678 .0333319
596.455 .0332545
597.233 .0331822
598.009 .0331147
598.786 .0330514
599.562 .0329919
600.338 .0329358
601.113 .0328826
601.888 .0328127
602.663 .0327661
603.437 .0327219
604.211 .0326801
604.984 .0326407
605.757 .0326035
606.530 .0325685
607.302 .0325355
608.074 .0325044
608.845 .0324752
609.616 .0324476
610.387 .0324370
611.158 .0324112
611.928 .0323868
612.697 .0323636
613.467 .0323415
614.236 .0323204
615.004 .0323000
615.773 .0322804
616.541 .0322614
617.308 .0322429
618.076 .0322248
618.843 .0322071
619.609 .0321896
620.375 .0321722
621.141 .0321549
621.907 .0321374
622.672 .0321196
623.437 .0321015
624.202 .0320830
624.966 .0320642
625.730 .0320450
626.493 .0320255
627.257 .0320056
628.020 .0319853
628.782 .0319647
629.545 .0319435
630.307 .0319219
631.068 .0318999
631.830 .0318773
632.591 .0318543
633.352 .0318308
634.112 .0318068
634.872 .0317825
635.632 .0317578
636.392 .0317325
637.151 .0317068
637.910 .0316805
638.668 .0316538
639.427 .0316267
640.185 .0315992
640.943 .0315715
641.700 .0315436
642.457 .0315157
643.214 .0314878
643.971 .0314598
644.727 .0314317
645.483 .0314037
646.239 .0313756
646.994 .0313475
647.750 .0313193
648.505 .0312911
649.259 .0312629
650.014 .0312346
650.768 .0312063
651.521 .0311779
652.275 .0311495
653.028 .0311211
653.781 .0310927
654.534 .0310644
655.286 .0310363
656.039 .0310086
656.791 .0309811
657.542 .0309540
658.294 .0309273
659.045 .0309009
659.796 .0308749
660.546 .0308494
661.297 .0308245
662.047 .0308001
662.796 .0307764
663.546 .0307533
664.295 .0307308
665.044 .0307090
665.793 .0306877
666.542 .0306670
667.290 .0306468
668.038 .0306271
668.786 .0306078
669.533 .0305891
670.281 .0305710
671.028 .0305535
671.774 .0305365
672.521 .0305201
673.267 .0305041
674.013 .0304886
674.759 .0304736
675.505 .0304589
676.250 .0304445
676.995 .0304305
677.740 .0304168
678.484 .0304035
679.229 .0303905
679.973 .0303779
680.717 .0303656
681.460 .0303537
682.204 .0303421
682.947 .0303308
683.690 .0303197
684.433 .0303088
685.175 .0302980
685.917 .0302874
686.659 .0302767
687.401 .0302662
688.142 .0302556
688.884 .0302450
689.625 .0302344
690.365 .0302235
691.106 .0302125
691.846 .0302011
692.586 .0301895
693.326 .0301774
694.066 .0301651
694.805 .0301523
695.545 .0301393
696.284 .0301258
697.022 .0301120
697.761 .0300978
698.499 .0300831
699.237 .0300680
699.975 .0300524
700.713 .0300364
701.450 .0300201
702.187 .0300035
702.924 .0299866
703.661 .0299696
704.397 .0299522
705.133 .0299346
705.869 .0299165
706.605 .0298981
707.341 .0298792
708.076 .0298597
708.811 .0298399
709.546 .0298195
710.281 .0297987
711.015 .0297775
711.749 .0297559
712.483 .0297339
713.217 .0297114
713.950 .0296885
714.684 .0296652
715.417 .0296415
716.150 .0296174
716.882 .0295930
717.615 .0295682
718.347 .0295430
719.079 .0295175
719.811 .0294916
720.542 .0294654
721.273 .0294389
722.005 .0294122
722.735 .0293855
723.466 .0293587
724.196 .0293320
724.927 .0293055
725.656 .0292792
726.386 .0292531
727.116 .0292274
727.845 .0292019
728.574 .0291768
729.303 .0291520
730.031 .0291276
730.760 .0291036
731.488 .0290802
732.216 .0290574
732.944 .0290351
733.671 .0290135
734.398 .0289926
735.125 .0289723
735.852 .0289526
736.579 .0289337
737.305 .0289154
738.031 .0288979
738.757 .0288811
739.483 .0288650
740.208 .0288497
740.933 .0288351
741.658 .0288213
742.383 .0288082
743.108 .0287959
743.832 .0287843
744.556 .0287735
745.280 .0287635
746.004 .0287543
746.727 .0287459
747.450 .0287383
748.173 .0287315
748.896 .0287254
749.618 .0287200
750.340 .0287152
751.062 .0287111
751.784 .0287076
752.506 .0287047
753.227 .0287023
753.948 .0287004
754.669 .0286989
755.389 .0286978
756.110 .0286969
756.830 .0286961
757.550 .0286955
758.269 .0286950
758.989 .0286945
759.708 .0286940
760.427 .0286934
761.146 .0286927
761.864 .0286919
762.582 .0286909
763.300 .0286896
764.018 .0286881
764.736 .0286864
765.453 .0286844
766.170 .0286822
766.887 .0286797
767.603 .0286770
768.320 .0286741
769.036 .0286710
769.751 .0286676
770.467 .0286641
771.182 .0286604
771.897 .0286566
772.612 .0286526
773.327 .0286484
774.041 .0286440
774.755 .0286393
775.469 .0286344
776.183 .0286292
776.896 .0286236
777.609 .0286177
778.322 .0286114
779.035 .0286047
779.747 .0285976
780.459 .0285900
781.171 .0285819
781.882 .0285732
782.594 .0285640
783.305 .0285540
784.016 .0285434
784.726 .0285319
785.436 .0285196
786.147 .0284980
786.856 .0284835
787.566 .0284682
788.275 .0284520
788.984 .0284350
789.693 .0284173
790.401 .0283987
791.110 .0283794
791.818 .0283595
792.525 .0283388
793.233 .0283176
793.940 .0282957
794.647 .0282832
795.353 .0282607
796.060 .0282378
796.766 .0282144
797.472 .0281907
798.177 .0281667
798.883 .0281423
799.588 .0281176
800.292 .0280927
800.997 .0280675
801.701 .0280421
802.405 .0280166
803.109 .0279910
803.812 .0279653
804.515 .0279395
805.218 .0279137
805.921 .0278878
806.623 .0278620
807.325 .0278363
808.027 .0278107
808.728 .0277852
809.429 .0277599
810.130 .0277348
810.831 .0277098
811.531 .0276850
812.231 .0276604
812.931 .0276359
813.630 .0276116
814.330 .0275874
815.029 .0275635
815.727 .0275399
816.426 .0275166
817.124 .0274937
817.821 .0274711
818.519 .0274489
819.216 .0274272
819.913 .0274059
820.609 .0273850
821.306 .0273648
822.002 .0273450
822.697 .0273259
823.393 .0273075
824.088 .0272897
824.783 .0272726
825.477 .0272563
826.171 .0272406
826.865 .0272256
827.559 .0272113
828.252 .0271976
828.945 .0271845
829.638 .0271721
830.330 .0271604
831.023 .0271493
831.714 .0271388
832.406 .0271290
833.097 .0271198
833.788 .0271113
834.479 .0271034
835.169 .0270963
835.859 .0270899
836.548 .0270843
837.238 .0270794
837.927 .0270754
838.615 .0270721
839.304 .0270697
839.992 .0270680
840.680 .0270670
841.367 .0270667
842.054 .0270671
842.741 .0270682
843.428 .0270701
844.114 .0270726
844.800 .0270759
845.485 .0270799
846.170 .0270845
846.855 .0270897
847.540 .0270955
848.224 .0271018
848.908 .0271085
849.592 .0271156
850.275 .0271231
850.958 .0271310
851.641 .0271391
852.323 .0271474
853.005 .0271560
853.687 .0271647
854.368 .0271735
855.049 .0271823
855.730 .0271912
856.410 .0272001
857.090 .0272090
857.769 .0272179
858.449 .0272268
859.128 .0272356
859.806 .0272444
860.485 .0272530
861.163 .0272615
861.840 .0272698
862.518 .0272780
863.195 .0272860
863.871 .0272938
864.548 .0273015
865.224 .0273090
865.899 .0273162
866.574 .0273231
867.249 .0273296
867.924 .0273356
868.598 .0273409
869.272 .0273457
869.946 .0273497
870.619 .0273531
871.292 .0273557
871.964 .0273575
872.636 .0273587
873.308 .0273590
873.979 .0273586
874.651 .0273574
875.321 .0273552
875.992 .0273522
876.662 .0273482
877.331 .0273434
878.001 .0273377
878.670 .0273311
879.338 .0273237
880.007 .0273154
880.675 .0273064
881.342 .0272965
882.009 .0272859
882.676 .0272745
883.343 .0272623
884.009 .0272494
884.675 .0272358
885.340 .0272215
886.005 .0272067
886.670 .0271913
887.334 .0271755
887.998 .0271591
888.662 .0271423
889.325 .0271250
889.988 .0271073
890.650 .0270891
891.312 .0270704
891.974 .0270512
892.636 .0270316
893.297 .0270115
893.957 .0269910
894.618 .0269700
895.278 .0269485
895.937 .0269264
896.596 .0269038
897.255 .0268806
897.914 .0268567
898.572 .0268321
899.230 .0268068
899.887 .0267808
900.544 .0267542
901.201 .0267269
901.857 .0266833
902.513 .0266544
903.168 .0266251
903.823 .0265952
904.478 .0265648
905.132 .0265339
905.786 .0265025
906.440 .0264708
907.093 .0264387
907.746 .0264063
908.399 .0263737
909.051 .0263408
909.703 .0263079
910.354 .0262913
911.005 .0262584
911.656 .0262256
912.306 .0261927
912.956 .0261598
913.605 .0261270
914.254 .0260943
914.903 .0260619
915.551 .0260297
916.199 .0259978
916.847 .0259662
917.494 .0259351
918.141 .0259042
918.788 .0258737
919.434 .0258435
920.079 .0258135
920.725 .0257838
921.370 .0257544
922.014 .0257252
922.658 .0256962
923.302 .0256675
923.946 .0256391
924.589 .0256110
925.231 .0255831
925.873 .0255554
926.515 .0255280
927.157 .0255007
927.798 .0254736
928.439 .0254468
929.079 .0254201
929.719 .0253938
930.359 .0253678
930.998 .0253422
931.637 .0253171
932.275 .0252924
932.913 .0252683
933.551 .0252447
934.188 .0252217
934.825 .0251994
935.462 .0251778
936.098 .0251569
936.733 .0251369
937.369 .0251176
938.004 .0250992
938.638 .0250817
939.273 .0250649
939.907 .0250490
940.540 .0250339
941.173 .0250195
941.806 .0250060
942.438 .0249931
943.070 .0249810
943.702 .0249697
944.333 .0249591
944.964 .0249492
945.594 .0249400
946.224 .0249314
946.854 .0249236
947.483 .0249164
948.112 .0249099
948.741 .0249040
949.369 .0248988
949.996 .0248942
950.624 .0248903
951.251 .0248870
951.878 .0248844
952.504 .0248825
953.130 .0248813
953.755 .0248808
954.380 .0248811
955.005 .0248821
955.629 .0248839
956.253 .0248864
956.877 .0248897
957.500 .0248936
958.123 .0248983
958.746 .0249037
959.368 .0249100
959.990 .0249170
960.611 .0249250
961.232 .0249339
961.853 .0249438
962.473 .0249546
963.093 .0249662
963.712 .0249787
964.331 .0249919
964.950 .0250058
965.569 .0250204
966.187 .0250356
966.804 .0250514
967.422 .0250677
968.039 .0250844
968.655 .0251014
969.272 .0251187
969.887 .0251361
970.503 .0251534
971.118 .0251707
971.733 .0251878
972.347 .0252049
972.961 .0252217
973.575 .0252385
974.188 .0252551
974.801 .0252715
975.414 .0252877
976.026 .0253036
976.638 .0253191
977.250 .0253341
977.861 .0253487
978.472 .0253627
979.083 .0253763
979.693 .0253895
980.303 .0254022
980.912 .0254197
981.521 .0254317
982.130 .0254435
982.738 .0254550
983.346 .0254662
983.954 .0254771
984.562 .0254878
985.169 .0254984
985.775 .0255089
986.382 .0255194
986.988 .0255300
987.594 .0255408
988.199 .0255517
988.804 .0255627
989.409 .0255688
990.013 .0255801
990.617 .0255913
991.221 .0256026
991.824 .0256138
992.427 .0256250
993.030 .0256361
993.632 .0256471
994.234 .0256580
994.836 .0256687
995.438 .0256792
996.039 .0256894
996.640 .0256992
997.240 .0257085
997.840 .0257172
998.440 .0257254
999.040 .0257330
999.639 .0257400
1000.238 .0257464
1000.836 .0257523
1001.435 .0257576
1002.033 .0257624
1002.630 .0257665
1003.228 .0257700
1003.825 .0257727
1004.422 .0257747
1005.018 .0257759
1005.614 .0257762
1006.210 .0257758
1006.806 .0257746
1007.401 .0257725
1007.996 .0257697
1008.591 .0257662
1009.186 .0257619
1009.780 .0257569
1010.374 .0257512
1010.967 .0257449
1011.561 .0257379
1012.154 .0257304
1012.746 .0257223
1013.339 .0257138
1013.931 .0257050
1014.523 .0256958
1015.115 .0256863
1015.706 .0256766
1016.298 .0256666
1016.888 .0256565
1017.479 .0256462
1018.069 .0256357
1018.660 .0256252
1019.250 .0256146
1019.839 .0256038
1020.429 .0255929
1021.018 .0255819
1021.607 .0255707
1022.195 .0255593
1022.784 .0255477
1023.372 .0255359
1023.960 .0255239
1024.547 .0255119
1025.135 .0254998
1025.722 .0254877
1026.309 .0254757
1026.896 .0254637
1027.483 .0254517
1028.069 .0254398
1028.655 .0254277
1029.241 .0254154
1029.827 .0254030
1030.412 .0253905
1030.997 .0253779
1031.582 .0253653
1032.167 .0253527
1032.752 .0253402
1033.336 .0253277
1033.921 .0253151
1034.505 .0253022
1035.089 .0252889
1035.672 .0252751
1036.256 .0252605
1036.839 .0252453
1037.422 .0252295
1038.005 .0252132
1038.588 .0251965
1039.171 .0251795
1039.753 .0251621
1040.335 .0251444
1040.918 .0251263
1041.500 .0251075
1042.081 .0250882
1042.663 .0250682
1043.244 .0250476
1043.826 .0250266
1044.407 .0250053
1044.988 .0249839
1045.569 .0249626
1046.150 .0249415
1046.730 .0249205
1047.311 .0248996
1047.891 .0248787
1048.471 .0248577
1049.052 .0248365
1049.632 .0248151
1050.211 .0247936
1050.791 .0247720
1051.371 .0247506
1051.950 .0247293
1052.530 .0247083
1053.109 .0246877
1053.688 .0246672
1054.268 .0246470
1054.847 .0246271
1055.426 .0246075
1056.005 .0245882
1056.583 .0245695
1057.162 .0245514
1057.741 .0245341
1058.319 .0245178
1058.898 .0245024
1059.476 .0244880
1060.055 .0244745
1060.633 .0244617
1061.211 .0244496
1061.790 .0244380
1062.368 .0244268
1062.946 .0244160
1063.524 .0244055
1064.102 .0243955
1064.680 .0243858
1065.258 .0243766
1065.836 .0243676
1066.414 .0243590
1066.992 .0243505
1067.570 .0243420
1068.148 .0243337
1068.726 .0243254
1069.304 .0243172
1069.882 .0243093
1070.460 .0243019
1071.038 .0242950
1071.616 .0242889
1072.194 .0242837
1072.772 .0242791
1073.350 .0242752
1073.928 .0242718
1074.506 .0242688
1075.084 .0242660
1075.662 .0242634
1076.240 .0242609
1076.819 .0242585
1077.397 .0242564
1077.976 .0242546
1078.554 .0242531
1079.133 .0242521
1079.711 .0242515
1080.290 .0242512
1080.869 .0242511
1081.448 .0242512
1082.027 .0242513
1082.606 .0242515
1083.185 .0242518
1083.764 .0242523
1084.343 .0242530
1084.923 .0242542
1085.502 .0242560
1086.082 .0242582
1086.662 .0242611
1087.242 .0242645
1087.822 .0242683
1088.402 .0242724
1088.983 .0242768
1089.563 .0242815
1090.144 .0242866
1090.725 .0242923
1091.306 .0242989
1091.887 .0243067
1092.469 .0243157
1093.050 .0243260
1093.632 .0243380
1094.214 .0243514
1094.796 .0243663
1095.379 .0243824
1095.961 .0243999
1096.544 .0244188
1097.127 .0244391
1097.710 .0244608
1098.294 .0244840
1098.877 .0245088
1099.461 .0245351
1100.046 .0245626
1100.630 .0245914
1101.215 .0246214
1101.800 .0246522
1102.385 .0246837
1102.970 .0247160
1103.556 .0247489
1104.142 .0247826
1104.728 .0248171
1105.315 .0248527
1105.902 .0248893
1106.489 .0249270
1107.077 .0249657
1107.664 .0250055
1108.253 .0250461
1108.841 .0250873
1109.430 .0251292
1110.019 .0251716
1110.609 .0252142
1111.198 .0252570
1111.789 .0253000
1112.379 .0253433
1112.970 .0253866
1113.561 .0254296
1114.153 .0254722
1114.745 .0255144
1115.338 .0255559
1115.931 .0255971
1116.524 .0256380
1117.117 .0256794
1117.712 .0257215
1118.306 .0257647
1118.901 .0258095
1119.496 .0258561
1120.092 .0259047
1120.689 .0259551
1121.285 .0260071
1121.882 .0260606
1122.480 .0261154
1123.078 .0261716
1123.677 .0262292
1124.276 .0262886
1124.875 .0263499
1125.476 .0264133
1126.076 .0264789
1126.677 .0265467
1127.279 .0266166
1127.881 .0266885
1128.484 .0267624
1129.087 .0267917
1129.691 .0268683
1130.295 .0269471
1130.900 .0270285
1131.505 .0271132
1132.111 .0272016
1132.718 .0272942
1133.325 .0273910
1133.933 .0274927
1134.541 .0276022
1135.150 .0277143
1135.760 .0278278
1136.370 .0279370
1136.981 .0280313
1137.592 .0281424
1138.204 .0282512
1138.817 .0283636
1139.431 .0284907
1140.045 .0286266
1140.660 .0287721
1141.275 .0289178
1141.891 .0290896
1142.508 .0293487
1143.126 .0294755
1143.744 .0295782
1144.363 .0295248
1144.983 .0303147
