Measurement Sequence started on: 15-12-46-377
Integration time: 28
Scans to Average: 2 
>>>>>Begin Spectral Data<<<<<
432.689 .0000100
433.621 .0000100
434.552 .0000100
435.482 .0000100
436.410 .0000100
437.337 .0000100
438.262 .0277497
439.187 .0588096
440.110 .0974468
441.031 .1410799
441.952 .1132429
442.871 .1182494
443.789 .1229043
444.705 .1272841
445.621 .1314415
446.535 .1354159
447.447 .1377769
448.359 .1383717
449.269 .1368191
450.178 .1328683
451.086 .1265951
451.993 .1184819
452.898 .1093290
453.803 .1000452
454.706 .0914080
455.608 .0839017
456.508 .0776922
457.408 .0734961
458.306 .0702836
459.204 .0676831
460.100 .0655060
460.995 .0636432
461.888 .0620196
462.781 .0605839
463.673 .0592995
464.563 .0581396
465.452 .0570855
466.340 .0561226
467.228 .0552413
468.114 .0544335
468.999 .0536923
469.882 .0530113
470.765 .0523836
471.647 .0518039
472.528 .0512683
473.407 .0507732
474.286 .0503166
475.163 .0498976
476.040 .0495155
476.915 .0491698
477.790 .0488595
478.663 .0485836
479.535 .0483411
480.407 .0481299
481.277 .0479478
482.147 .0477925
483.015 .0476620
483.883 .0475553
484.749 .0474710
485.615 .0474085
486.479 .0473670
487.343 .0473461
488.206 .0473458
489.067 .0473655
489.928 .0474053
490.788 .0474656
491.647 .0475461
492.505 .0476479
493.362 .0477711
494.218 .0479165
495.073 .0480847
495.928 .0484239
496.781 .0486524
497.634 .0489050
498.486 .0491809
499.337 .0494811
500.187 .0498058
501.036 .0501558
501.884 .0505322
502.731 .0509379
503.578 .0513757
504.424 .0516596
505.268 .0521566
506.113 .0526968
506.956 .0532851
507.798 .0539282
508.640 .0546343
509.480 .0554138
510.320 .0562805
511.160 .0572507
511.998 .0583434
512.836 .0595805
513.672 .0609835
514.508 .0625771
515.344 .0643838
516.178 .0664260
517.012 .0687262
517.845 .0713049
518.677 .0741800
519.508 .0773676
520.339 .0808776
521.169 .0847119
521.998 .0888476
522.826 .0932491
523.654 .0978575
524.481 .1025992
525.307 .1073866
526.133 .1121185
526.958 .1166885
527.782 .1209963
528.605 .1249461
529.428 .1284559
530.250 .1314575
531.072 .1339077
531.892 .1357705
532.712 .1370300
533.532 .1376800
534.350 .1377211
535.168 .1371625
535.986 .1360177
536.802 .1342937
537.618 .1320028
538.434 .1291600
539.249 .1258043
540.063 .1219856
540.876 .1177753
541.689 .1132561
542.501 .1085230
543.313 .1036807
544.124 .0988345
544.934 .0940783
545.744 .0894971
546.553 .0851576
547.361 .0811094
548.169 .0773760
548.976 .0739713
549.783 .0708901
550.589 .0681185
551.395 .0656345
552.200 .0634097
553.004 .0614132
553.808 .0596209
554.611 .0580085
555.414 .0565557
556.216 .0552429
557.018 .0540509
557.819 .0529622
558.619 .0519616
559.419 .0510351
560.218 .0501708
561.017 .0493586
561.815 .0485912
562.613 .0478627
563.410 .0471692
564.207 .0465068
565.003 .0458730
565.799 .0452653
566.594 .0446820
567.388 .0441205
568.182 .0435785
568.976 .0430540
569.769 .0425456
570.562 .0420525
571.354 .0415744
572.145 .0411115
572.936 .0406644
573.727 .0402328
574.517 .0398172
575.307 .0394174
576.096 .0390330
576.885 .0386635
577.673 .0383087
578.461 .0379682
579.248 .0376417
580.035 .0373291
580.821 .0370305
581.607 .0367460
582.392 .0364759
583.177 .0362202
583.962 .0359789
584.746 .0357521
585.529 .0355395
586.313 .0353407
587.095 .0351554
587.878 .0349831
588.660 .0348232
589.441 .0346750
590.222 .0345381
591.003 .0344118
591.783 .0342955
592.563 .0341885
593.342 .0340899
594.121 .0339990
594.899 .0339149
595.678 .0338366
596.455 .0337636
597.233 .0336953
598.009 .0336309
598.786 .0335699
599.562 .0335118
600.338 .0334561
601.113 .0334023
601.888 .0333260
602.663 .0332756
603.437 .0332265
604.211 .0331785
604.984 .0331315
605.757 .0330855
606.530 .0330404
607.302 .0329962
608.074 .0329527
608.845 .0329101
609.616 .0328683
610.387 .0328495
611.158 .0328090
611.928 .0327695
612.697 .0327311
613.467 .0326939
614.236 .0326578
615.004 .0326230
615.773 .0325894
616.541 .0325571
617.308 .0325261
618.076 .0324964
618.843 .0324679
619.609 .0324406
620.375 .0324143
621.141 .0323889
621.907 .0323644
622.672 .0323404
623.437 .0323170
624.202 .0322939
624.966 .0322711
625.730 .0322486
626.493 .0322264
627.257 .0322044
628.020 .0321823
628.782 .0321602
629.545 .0321377
630.307 .0321148
631.068 .0320911
631.830 .0320667
632.591 .0320414
633.352 .0320153
634.112 .0319884
634.872 .0319609
635.632 .0319327
636.392 .0319039
637.151 .0318744
637.910 .0318443
638.668 .0318136
639.427 .0317823
640.185 .0317505
640.943 .0317184
641.700 .0316862
642.457 .0316539
643.214 .0316217
643.971 .0315898
644.727 .0315583
645.483 .0315273
646.239 .0314969
646.994 .0314672
647.750 .0314384
648.505 .0314104
649.259 .0313833
650.014 .0313570
650.768 .0313315
651.521 .0313066
652.275 .0312822
653.028 .0312582
653.781 .0312347
654.534 .0312116
655.286 .0311888
656.039 .0311665
656.791 .0311445
657.542 .0311229
658.294 .0311016
659.045 .0310805
659.796 .0310596
660.546 .0310387
661.297 .0310177
662.047 .0309966
662.796 .0309752
663.546 .0309536
664.295 .0309317
665.044 .0309096
665.793 .0308872
666.542 .0308647
667.290 .0308420
668.038 .0308192
668.786 .0307964
669.533 .0307736
670.281 .0307507
671.028 .0307279
671.774 .0307052
672.521 .0306824
673.267 .0306597
674.013 .0306371
674.759 .0306146
675.505 .0305922
676.250 .0305699
676.995 .0305477
677.740 .0305258
678.484 .0305041
679.229 .0304827
679.973 .0304615
680.717 .0304407
681.460 .0304201
682.204 .0303997
682.947 .0303794
683.690 .0303594
684.433 .0303394
685.175 .0303197
685.917 .0303002
686.659 .0302810
687.401 .0302621
688.142 .0302436
688.884 .0302255
689.625 .0302078
690.365 .0301906
691.106 .0301738
691.846 .0301572
692.586 .0301409
693.326 .0301248
694.066 .0301088
694.805 .0300929
695.545 .0300771
696.284 .0300614
697.022 .0300457
697.761 .0300301
698.499 .0300146
699.237 .0299992
699.975 .0299839
700.713 .0299687
701.450 .0299535
702.187 .0299381
702.924 .0299226
703.661 .0299069
704.397 .0298908
705.133 .0298744
705.869 .0298576
706.605 .0298404
707.341 .0298227
708.076 .0298047
708.811 .0297862
709.546 .0297674
710.281 .0297483
711.015 .0297287
711.749 .0297088
712.483 .0296885
713.217 .0296679
713.950 .0296469
714.684 .0296256
715.417 .0296040
716.150 .0295821
716.882 .0295599
717.615 .0295373
718.347 .0295145
719.079 .0294915
719.811 .0294683
720.542 .0294450
721.273 .0294216
722.005 .0293983
722.735 .0293750
723.466 .0293518
724.196 .0293288
724.927 .0293059
725.656 .0292832
726.386 .0292608
727.116 .0292388
727.845 .0292171
728.574 .0291959
729.303 .0291753
730.031 .0291552
730.760 .0291357
731.488 .0291168
732.216 .0290985
732.944 .0290809
733.671 .0290640
734.398 .0290477
735.125 .0290320
735.852 .0290170
736.579 .0290025
737.305 .0289886
738.031 .0289752
738.757 .0289621
739.483 .0289494
740.208 .0289369
740.933 .0289246
741.658 .0289126
742.383 .0289006
743.108 .0288888
743.832 .0288771
744.556 .0288655
745.280 .0288538
746.004 .0288421
746.727 .0288301
747.450 .0288178
748.173 .0288051
748.896 .0287920
749.618 .0287785
750.340 .0287645
751.062 .0287503
751.784 .0287357
752.506 .0287210
753.227 .0287060
753.948 .0286909
754.669 .0286756
755.389 .0286601
756.110 .0286445
756.830 .0286287
757.550 .0286127
758.269 .0285968
758.989 .0285808
759.708 .0285650
760.427 .0285491
761.146 .0285334
761.864 .0285177
762.582 .0285021
763.300 .0284866
764.018 .0284713
764.736 .0284560
765.453 .0284411
766.170 .0284264
766.887 .0284120
767.603 .0283979
768.320 .0283843
769.036 .0283710
769.751 .0283582
770.467 .0283459
771.182 .0283341
771.897 .0283228
772.612 .0283123
773.327 .0283025
774.041 .0282934
774.755 .0282851
775.469 .0282775
776.183 .0282706
776.896 .0282645
777.609 .0282592
778.322 .0282546
779.035 .0282509
779.747 .0282479
780.459 .0282457
781.171 .0282443
781.882 .0282435
782.594 .0282433
783.305 .0282436
784.016 .0282441
784.726 .0282449
785.436 .0282457
786.147 .0282465
786.856 .0282468
787.566 .0282469
788.275 .0282468
788.984 .0282463
789.693 .0282454
790.401 .0282439
791.110 .0282419
791.818 .0282392
792.525 .0282357
793.233 .0282315
793.940 .0282264
794.647 .0282216
795.353 .0282155
796.060 .0282087
796.766 .0282013
797.472 .0281932
798.177 .0281844
798.883 .0281750
799.588 .0281650
800.292 .0281543
800.997 .0281430
801.701 .0281312
802.405 .0281190
803.109 .0281064
803.812 .0280935
804.515 .0280802
805.218 .0280668
805.921 .0280531
806.623 .0280391
807.325 .0280249
808.027 .0280106
808.728 .0279960
809.429 .0279814
810.130 .0279666
810.831 .0279519
811.531 .0279371
812.231 .0279223
812.931 .0279075
813.630 .0278927
814.330 .0278778
815.029 .0278629
815.727 .0278480
816.426 .0278332
817.124 .0278185
817.821 .0278040
818.519 .0277896
819.216 .0277755
819.913 .0277617
820.609 .0277481
821.306 .0277348
822.002 .0277219
822.697 .0277092
823.393 .0276969
824.088 .0276849
824.783 .0276733
825.477 .0276621
826.171 .0276511
826.865 .0276404
827.559 .0276300
828.252 .0276197
828.945 .0276096
829.638 .0275995
830.330 .0275896
831.023 .0275797
831.714 .0275698
832.406 .0275598
833.097 .0275497
833.788 .0275396
834.479 .0275293
835.169 .0275188
835.859 .0275082
836.548 .0274975
837.238 .0274866
837.927 .0274756
838.615 .0274643
839.304 .0274527
839.992 .0274409
840.680 .0274288
841.367 .0274164
842.054 .0274037
842.741 .0273907
843.428 .0273775
844.114 .0273641
844.800 .0273505
845.485 .0273367
846.170 .0273226
846.855 .0273083
847.540 .0272938
848.224 .0272788
848.908 .0272635
849.592 .0272479
850.275 .0272318
850.958 .0272154
851.641 .0271986
852.323 .0271814
853.005 .0271638
853.687 .0271458
854.368 .0271273
855.049 .0271084
855.730 .0270890
856.410 .0270691
857.090 .0270490
857.769 .0270285
858.449 .0270077
859.128 .0269868
859.806 .0269657
860.485 .0269445
861.163 .0269233
861.840 .0269022
862.518 .0268812
863.195 .0268605
863.871 .0268402
864.548 .0268202
865.224 .0268008
865.899 .0267820
866.574 .0267638
867.249 .0267462
867.924 .0267293
868.598 .0267131
869.272 .0266975
869.946 .0266827
870.619 .0266686
871.292 .0266553
871.964 .0266428
872.636 .0266311
873.308 .0266202
873.979 .0266101
874.651 .0266007
875.321 .0265921
875.992 .0265841
876.662 .0265767
877.331 .0265699
878.001 .0265636
878.670 .0265577
879.338 .0265523
880.007 .0265472
880.675 .0265425
881.342 .0265382
882.009 .0265343
882.676 .0265309
883.343 .0265278
884.009 .0265252
884.675 .0265230
885.340 .0265214
886.005 .0265203
886.670 .0265197
887.334 .0265196
887.998 .0265201
888.662 .0265211
889.325 .0265226
889.988 .0265246
890.650 .0265270
891.312 .0265298
891.974 .0265329
892.636 .0265362
893.297 .0265397
893.957 .0265433
894.618 .0265469
895.278 .0265505
895.937 .0265540
896.596 .0265573
897.255 .0265602
897.914 .0265629
898.572 .0265651
899.230 .0265668
899.887 .0265680
900.544 .0265686
901.201 .0265686
901.857 .0265656
902.513 .0265642
903.168 .0265622
903.823 .0265597
904.478 .0265567
905.132 .0265532
905.786 .0265492
906.440 .0265445
907.093 .0265394
907.746 .0265336
908.399 .0265274
909.051 .0265208
909.703 .0265137
910.354 .0265098
911.005 .0265024
911.656 .0264948
912.306 .0264871
912.956 .0264794
913.605 .0264716
914.254 .0264639
914.903 .0264562
915.551 .0264484
916.199 .0264407
916.847 .0264330
917.494 .0264253
918.141 .0264176
918.788 .0264098
919.434 .0264021
920.079 .0263943
920.725 .0263864
921.370 .0263784
922.014 .0263701
922.658 .0263615
923.302 .0263526
923.946 .0263432
924.589 .0263335
925.231 .0263235
925.873 .0263131
926.515 .0263024
927.157 .0262914
927.798 .0262803
928.439 .0262689
929.079 .0262572
929.719 .0262453
930.359 .0262332
930.998 .0262208
931.637 .0262083
932.275 .0261957
932.913 .0261831
933.551 .0261705
934.188 .0261582
934.825 .0261461
935.462 .0261343
936.098 .0261228
936.733 .0261117
937.369 .0261009
938.004 .0260904
938.638 .0260803
939.273 .0260705
939.907 .0260612
940.540 .0260524
941.173 .0260441
941.806 .0260363
942.438 .0260290
943.070 .0260222
943.702 .0260158
944.333 .0260097
944.964 .0260039
945.594 .0259981
946.224 .0259923
946.854 .0259865
947.483 .0259807
948.112 .0259747
948.741 .0259685
949.369 .0259621
949.996 .0259555
950.624 .0259486
951.251 .0259413
951.878 .0259335
952.504 .0259253
953.130 .0259165
953.755 .0259072
954.380 .0258974
955.005 .0258871
955.629 .0258764
956.253 .0258653
956.877 .0258538
957.500 .0258419
958.123 .0258298
958.746 .0258173
959.368 .0258046
959.990 .0257918
960.611 .0257788
961.232 .0257659
961.853 .0257530
962.473 .0257401
963.093 .0257275
963.712 .0257150
964.331 .0257028
964.950 .0256907
965.569 .0256789
966.187 .0256672
966.804 .0256557
967.422 .0256444
968.039 .0256333
968.655 .0256223
969.272 .0256113
969.887 .0256004
970.503 .0255894
971.118 .0255783
971.733 .0255668
972.347 .0255551
972.961 .0255429
973.575 .0255303
974.188 .0255171
974.801 .0255035
975.414 .0254892
976.026 .0254743
976.638 .0254587
977.250 .0254424
977.861 .0254253
978.472 .0254074
979.083 .0253886
979.693 .0253688
980.303 .0253482
980.912 .0253136
981.521 .0252913
982.130 .0252684
982.738 .0252451
983.346 .0252216
983.954 .0251978
984.562 .0251740
985.169 .0251502
985.775 .0251265
986.382 .0251031
986.988 .0250800
987.594 .0250573
988.199 .0250352
988.804 .0250137
989.409 .0250056
990.013 .0249854
990.617 .0249658
991.221 .0249470
991.824 .0249289
992.427 .0249115
993.030 .0248947
993.632 .0248786
994.234 .0248630
994.836 .0248480
995.438 .0248336
996.039 .0248198
996.640 .0248066
997.240 .0247941
997.840 .0247822
998.440 .0247710
999.040 .0247605
999.639 .0247506
1000.238 .0247412
1000.836 .0247322
1001.435 .0247237
1002.033 .0247154
1002.630 .0247073
1003.228 .0246994
1003.825 .0246915
1004.422 .0246835
1005.018 .0246756
1005.614 .0246675
1006.210 .0246593
1006.806 .0246510
1007.401 .0246426
1007.996 .0246342
1008.591 .0246257
1009.186 .0246172
1009.780 .0246088
1010.374 .0246005
1010.967 .0245926
1011.561 .0245851
1012.154 .0245781
1012.746 .0245716
1013.339 .0245657
1013.931 .0245605
1014.523 .0245559
1015.115 .0245520
1015.706 .0245487
1016.298 .0245460
1016.888 .0245438
1017.479 .0245422
1018.069 .0245411
1018.660 .0245404
1019.250 .0245402
1019.839 .0245405
1020.429 .0245412
1021.018 .0245424
1021.607 .0245441
1022.195 .0245464
1022.784 .0245493
1023.372 .0245528
1023.960 .0245569
1024.547 .0245617
1025.135 .0245670
1025.722 .0245729
1026.309 .0245792
1026.896 .0245859
1027.483 .0245928
1028.069 .0245998
1028.655 .0246070
1029.241 .0246142
1029.827 .0246214
1030.412 .0246285
1030.997 .0246355
1031.582 .0246423
1032.167 .0246490
1032.752 .0246555
1033.336 .0246619
1033.921 .0246679
1034.505 .0246737
1035.089 .0246793
1035.672 .0246848
1036.256 .0246901
1036.839 .0246953
1037.422 .0247006
1038.005 .0247058
1038.588 .0247111
1039.171 .0247164
1039.753 .0247217
1040.335 .0247269
1040.918 .0247319
1041.500 .0247366
1042.081 .0247411
1042.663 .0247452
1043.244 .0247489
1043.826 .0247523
1044.407 .0247553
1044.988 .0247580
1045.569 .0247605
1046.150 .0247628
1046.730 .0247650
1047.311 .0247670
1047.891 .0247691
1048.471 .0247711
1049.052 .0247733
1049.632 .0247756
1050.211 .0247782
1050.791 .0247811
1051.371 .0247843
1051.950 .0247879
1052.530 .0247919
1053.109 .0247964
1053.688 .0248012
1054.268 .0248065
1054.847 .0248122
1055.426 .0248183
1056.005 .0248247
1056.583 .0248316
1057.162 .0248389
1057.741 .0248467
1058.319 .0248549
1058.898 .0248635
1059.476 .0248726
1060.055 .0248821
1060.633 .0248920
1061.211 .0249023
1061.790 .0249130
1062.368 .0249239
1062.946 .0249350
1063.524 .0249464
1064.102 .0249579
1064.680 .0249696
1065.258 .0249813
1065.836 .0249930
1066.414 .0250046
1066.992 .0250161
1067.570 .0250272
1068.148 .0250381
1068.726 .0250485
1069.304 .0250586
1069.882 .0250682
1070.460 .0250776
1071.038 .0250868
1071.616 .0250960
1072.194 .0251051
1072.772 .0251143
1073.350 .0251237
1073.928 .0251332
1074.506 .0251431
1075.084 .0251532
1075.662 .0251639
1076.240 .0251750
1076.819 .0251868
1077.397 .0251992
1077.976 .0252125
1078.554 .0252265
1079.133 .0252415
1079.711 .0252573
1080.290 .0252740
1080.869 .0252913
1081.448 .0253092
1082.027 .0253276
1082.606 .0253463
1083.185 .0253653
1083.764 .0253846
1084.343 .0254041
1084.923 .0254239
1085.502 .0254442
1086.082 .0254651
1086.662 .0254866
1087.242 .0255088
1087.822 .0255317
1088.402 .0255550
1088.983 .0255787
1089.563 .0256025
1090.144 .0256265
1090.725 .0256505
1091.306 .0256747
1091.887 .0256991
1092.469 .0257238
1093.050 .0257488
1093.632 .0257743
1094.214 .0258000
1094.796 .0258259
1095.379 .0258515
1095.961 .0258768
1096.544 .0259017
1097.127 .0259262
1097.710 .0259504
1098.294 .0259746
1098.877 .0259990
1099.461 .0260239
1100.046 .0260495
1100.630 .0260758
1101.215 .0261030
1101.800 .0261307
1102.385 .0261587
1102.970 .0261869
1103.556 .0262149
1104.142 .0262427
1104.728 .0262703
1105.315 .0262980
1105.902 .0263258
1106.489 .0263540
1107.077 .0263825
1107.664 .0264114
1108.253 .0264407
1108.841 .0264701
1109.430 .0264996
1110.019 .0265290
1110.609 .0265584
1111.198 .0265879
1111.789 .0266180
1112.379 .0266491
1112.970 .0266814
1113.561 .0267152
1114.153 .0267507
1114.745 .0267878
1115.338 .0268264
1115.931 .0268664
1116.524 .0269076
1117.117 .0269500
1117.712 .0269938
1118.306 .0270388
1118.901 .0270853
1119.496 .0271335
1120.092 .0271832
1120.689 .0272344
1121.285 .0272869
1121.882 .0273405
1122.480 .0273951
1123.078 .0274509
1123.677 .0275080
1124.276 .0275668
1124.875 .0276274
1125.476 .0276899
1126.076 .0277547
1126.677 .0278216
1127.279 .0278903
1127.881 .0279606
1128.484 .0280325
1129.087 .0280659
1129.691 .0281399
1130.295 .0282151
1130.900 .0282918
1131.505 .0283704
1132.111 .0284513
1132.718 .0285345
1133.325 .0286202
1133.933 .0287089
1134.541 .0288048
1135.150 .0288956
1135.760 .0289899
1136.370 .0290842
1136.981 .0291354
1137.592 .0292231
1138.204 .0293132
1138.817 .0294122
1139.431 .0295301
1140.045 .0296544
1140.660 .0297863
1141.275 .0299183
1141.891 .0300710
1142.508 .0303373
1143.126 .0302695
1143.744 .0304374
1144.363 .0305114
1144.983 .0311959
