Measurement Sequence started on: 15-12-46-377
Integration time: 28
Scans to Average: 2 
>>>>>Begin Spectral Data<<<<<
432.689 .0000100
433.621 .0000100
434.552 .0000100
435.482 .0000100
436.410 .0000100
437.337 .0000100
438.262 .0294756
439.187 .0624883
440.110 .1035068
441.031 .1497001
441.952 .1193175
442.871 .1245088
443.789 .1293288
444.705 .1338535
445.621 .1381356
446.535 .1422159
447.447 .1445733
448.359 .1450445
449.269 .1432285
450.178 .1388690
451.086 .1320534
451.993 .1232999
452.898 .1134624
453.803 .1035097
454.706 .0942650
455.608 .0862377
456.508 .0795975
457.408 .0751001
458.306 .0716484
459.204 .0688453
460.100 .0664903
460.995 .0644730
461.888 .0627203
462.781 .0611821
463.673 .0598202
464.563 .0586074
465.452 .0575229
466.340 .0565487
467.228 .0556716
468.114 .0548809
468.999 .0541678
469.882 .0535254
470.765 .0529473
471.647 .0524282
472.528 .0519633
473.407 .0515478
474.286 .0511777
475.163 .0508498
476.040 .0505608
476.915 .0503077
477.790 .0500882
478.663 .0498998
479.535 .0497405
480.407 .0496077
481.277 .0494987
482.147 .0494104
483.015 .0493403
483.883 .0492854
484.749 .0492437
485.615 .0492142
486.479 .0491962
487.343 .0491898
488.206 .0491962
489.067 .0492160
489.928 .0492504
490.788 .0493002
491.647 .0493662
492.505 .0494486
493.362 .0495488
494.218 .0496676
495.073 .0498064
495.928 .0501007
496.781 .0503003
497.634 .0505250
498.486 .0507756
499.337 .0510533
500.187 .0513594
501.036 .0516960
501.884 .0520651
502.731 .0524701
503.578 .0529148
504.424 .0532176
505.268 .0537351
506.113 .0543031
506.956 .0549254
507.798 .0556074
508.640 .0563560
509.480 .0571813
510.320 .0580952
511.160 .0591124
511.998 .0602496
512.836 .0615263
513.672 .0629622
514.508 .0645789
515.344 .0663975
516.178 .0684406
517.012 .0707317
517.845 .0732929
518.677 .0761447
519.508 .0793042
520.339 .0827808
521.169 .0865751
521.998 .0906648
522.826 .0950145
523.654 .0995677
524.481 .1042553
525.307 .1089957
526.133 .1136972
526.958 .1182612
527.782 .1225916
528.605 .1265974
529.428 .1301972
530.250 .1333181
531.072 .1359077
531.892 .1379240
532.712 .1393418
533.532 .1401467
534.350 .1403346
535.168 .1399113
535.986 .1388874
536.802 .1372737
537.618 .1350845
538.434 .1323394
539.249 .1290788
540.063 .1253535
540.876 .1212322
541.689 .1167942
542.501 .1121269
543.313 .1073244
544.124 .1024832
544.934 .0976942
545.744 .0930390
546.553 .0885866
547.361 .0843949
548.169 .0804999
548.976 .0769267
549.783 .0736823
550.589 .0707615
551.395 .0681461
552.200 .0658081
553.004 .0637146
553.808 .0618347
554.611 .0601401
555.414 .0586057
556.216 .0572090
557.018 .0559308
557.819 .0547552
558.619 .0536684
559.419 .0526596
560.218 .0517203
561.017 .0508420
561.815 .0500176
562.613 .0492407
563.410 .0485053
564.207 .0478053
565.003 .0471358
565.799 .0464920
566.594 .0458700
567.388 .0452674
568.182 .0446829
568.976 .0441161
569.769 .0435673
570.562 .0430374
571.354 .0425274
572.145 .0420378
572.936 .0415681
573.727 .0411172
574.517 .0406840
575.307 .0402674
576.096 .0398660
576.885 .0394790
577.673 .0391064
578.461 .0387482
579.248 .0384048
580.035 .0380769
580.821 .0377649
581.607 .0374691
582.392 .0371892
583.177 .0369253
583.962 .0366766
584.746 .0364428
585.529 .0362234
586.313 .0360174
587.095 .0358247
587.878 .0356444
588.660 .0354760
589.441 .0353191
590.222 .0351737
591.003 .0350389
591.783 .0349144
592.563 .0347995
593.342 .0346936
594.121 .0345954
594.899 .0345041
595.678 .0344188
596.455 .0343385
597.233 .0342625
598.009 .0341904
598.786 .0341216
599.562 .0340561
600.338 .0339936
601.113 .0339341
601.888 .0338533
602.663 .0338004
603.437 .0337497
604.211 .0337012
604.984 .0336545
605.757 .0336094
606.530 .0335658
607.302 .0335237
608.074 .0334831
608.845 .0334442
609.616 .0334068
610.387 .0333924
611.158 .0333577
611.928 .0333246
612.697 .0332932
613.467 .0332632
614.236 .0332347
615.004 .0332075
615.773 .0331815
616.541 .0331566
617.308 .0331326
618.076 .0331094
618.843 .0330869
619.609 .0330649
620.375 .0330435
621.141 .0330224
621.907 .0330015
622.672 .0329809
623.437 .0329604
624.202 .0329399
624.966 .0329191
625.730 .0328980
626.493 .0328765
627.257 .0328542
628.020 .0328312
628.782 .0328074
629.545 .0327827
630.307 .0327570
631.068 .0327304
631.830 .0327029
632.591 .0326745
633.352 .0326452
634.112 .0326150
634.872 .0325839
635.632 .0325518
636.392 .0325187
637.151 .0324847
637.910 .0324498
638.668 .0324140
639.427 .0323775
640.185 .0323404
640.943 .0323029
641.700 .0322651
642.457 .0322273
643.214 .0321895
643.971 .0321519
644.727 .0321146
645.483 .0320775
646.239 .0320408
646.994 .0320045
647.750 .0319687
648.505 .0319334
649.259 .0318987
650.014 .0318646
650.768 .0318311
651.521 .0317982
652.275 .0317659
653.028 .0317341
653.781 .0317027
654.534 .0316717
655.286 .0316409
656.039 .0316104
656.791 .0315800
657.542 .0315496
658.294 .0315194
659.045 .0314890
659.796 .0314587
660.546 .0314282
661.297 .0313977
662.047 .0313670
662.796 .0313362
663.546 .0313054
664.295 .0312745
665.044 .0312436
665.793 .0312128
666.542 .0311822
667.290 .0311520
668.038 .0311222
668.786 .0310929
669.533 .0310641
670.281 .0310360
671.028 .0310085
671.774 .0309819
672.521 .0309561
673.267 .0309314
674.013 .0309078
674.759 .0308855
675.505 .0308646
676.250 .0308450
676.995 .0308266
677.740 .0308095
678.484 .0307934
679.229 .0307783
679.973 .0307639
680.717 .0307503
681.460 .0307373
682.204 .0307250
682.947 .0307133
683.690 .0307022
684.433 .0306916
685.175 .0306815
685.917 .0306717
686.659 .0306621
687.401 .0306526
688.142 .0306431
688.884 .0306335
689.625 .0306237
690.365 .0306137
691.106 .0306033
691.846 .0305925
692.586 .0305812
693.326 .0305694
694.066 .0305571
694.805 .0305443
695.545 .0305310
696.284 .0305173
697.022 .0305031
697.761 .0304886
698.499 .0304736
699.237 .0304580
699.975 .0304420
700.713 .0304254
701.450 .0304082
702.187 .0303905
702.924 .0303724
703.661 .0303539
704.397 .0303351
705.133 .0303161
705.869 .0302969
706.605 .0302775
707.341 .0302578
708.076 .0302378
708.811 .0302175
709.546 .0301967
710.281 .0301754
711.015 .0301537
711.749 .0301315
712.483 .0301089
713.217 .0300860
713.950 .0300627
714.684 .0300390
715.417 .0300151
716.150 .0299908
716.882 .0299662
717.615 .0299413
718.347 .0299160
719.079 .0298903
719.811 .0298643
720.542 .0298379
721.273 .0298113
722.005 .0297845
722.735 .0297575
723.466 .0297305
724.196 .0297034
724.927 .0296763
725.656 .0296492
726.386 .0296222
727.116 .0295953
727.845 .0295685
728.574 .0295420
729.303 .0295158
730.031 .0294899
730.760 .0294646
731.488 .0294397
732.216 .0294153
732.944 .0293915
733.671 .0293682
734.398 .0293454
735.125 .0293231
735.852 .0293014
736.579 .0292802
737.305 .0292596
738.031 .0292395
738.757 .0292200
739.483 .0292009
740.208 .0291824
740.933 .0291644
741.658 .0291469
742.383 .0291298
743.108 .0291130
743.832 .0290966
744.556 .0290805
745.280 .0290648
746.004 .0290493
746.727 .0290342
747.450 .0290193
748.173 .0290048
748.896 .0289907
749.618 .0289769
750.340 .0289635
751.062 .0289504
751.784 .0289376
752.506 .0289250
753.227 .0289125
753.948 .0289002
754.669 .0288880
755.389 .0288759
756.110 .0288639
756.830 .0288521
757.550 .0288405
758.269 .0288292
758.989 .0288181
759.708 .0288074
760.427 .0287970
761.146 .0287869
761.864 .0287771
762.582 .0287676
763.300 .0287584
764.018 .0287494
764.736 .0287409
765.453 .0287326
766.170 .0287247
766.887 .0287171
767.603 .0287100
768.320 .0287033
769.036 .0286970
769.751 .0286913
770.467 .0286861
771.182 .0286815
771.897 .0286774
772.612 .0286739
773.327 .0286707
774.041 .0286680
774.755 .0286656
775.469 .0286634
776.183 .0286616
776.896 .0286600
777.609 .0286588
778.322 .0286578
779.035 .0286571
779.747 .0286567
780.459 .0286565
781.171 .0286564
781.882 .0286564
782.594 .0286563
783.305 .0286563
784.016 .0286561
784.726 .0286558
785.436 .0286553
786.147 .0286533
786.856 .0286519
787.566 .0286502
788.275 .0286480
788.984 .0286454
789.693 .0286423
790.401 .0286388
791.110 .0286348
791.818 .0286302
792.525 .0286251
793.233 .0286195
793.940 .0286131
794.647 .0286081
795.353 .0286005
796.060 .0285923
796.766 .0285832
797.472 .0285734
798.177 .0285628
798.883 .0285515
799.588 .0285394
800.292 .0285266
800.997 .0285132
801.701 .0284990
802.405 .0284842
803.109 .0284686
803.812 .0284523
804.515 .0284354
805.218 .0284177
805.921 .0283993
806.623 .0283801
807.325 .0283602
808.027 .0283396
808.728 .0283182
809.429 .0282961
810.130 .0282734
810.831 .0282500
811.531 .0282262
812.231 .0282019
812.931 .0281772
813.630 .0281523
814.330 .0281272
815.029 .0281019
815.727 .0280766
816.426 .0280512
817.124 .0280259
817.821 .0280008
818.519 .0279759
819.216 .0279514
819.913 .0279273
820.609 .0279038
821.306 .0278810
822.002 .0278588
822.697 .0278373
823.393 .0278165
824.088 .0277964
824.783 .0277770
825.477 .0277584
826.171 .0277404
826.865 .0277231
827.559 .0277065
828.252 .0276905
828.945 .0276751
829.638 .0276602
830.330 .0276459
831.023 .0276319
831.714 .0276182
832.406 .0276048
833.097 .0275916
833.788 .0275785
834.479 .0275655
835.169 .0275527
835.859 .0275399
836.548 .0275272
837.238 .0275146
837.927 .0275019
838.615 .0274892
839.304 .0274764
839.992 .0274634
840.680 .0274504
841.367 .0274372
842.054 .0274239
842.741 .0274106
843.428 .0273972
844.114 .0273839
844.800 .0273706
845.485 .0273574
846.170 .0273442
846.855 .0273310
847.540 .0273178
848.224 .0273046
848.908 .0272913
849.592 .0272781
850.275 .0272648
850.958 .0272516
851.641 .0272383
852.323 .0272251
853.005 .0272119
853.687 .0271986
854.368 .0271853
855.049 .0271720
855.730 .0271586
856.410 .0271452
857.090 .0271318
857.769 .0271186
858.449 .0271054
859.128 .0270923
859.806 .0270793
860.485 .0270665
861.163 .0270539
861.840 .0270414
862.518 .0270292
863.195 .0270172
863.871 .0270057
864.548 .0269945
865.224 .0269839
865.899 .0269739
866.574 .0269644
867.249 .0269556
867.924 .0269473
868.598 .0269394
869.272 .0269322
869.946 .0269254
870.619 .0269193
871.292 .0269137
871.964 .0269088
872.636 .0269047
873.308 .0269013
873.979 .0268986
874.651 .0268967
875.321 .0268954
875.992 .0268947
876.662 .0268947
877.331 .0268953
878.001 .0268965
878.670 .0268985
879.338 .0269012
880.007 .0269046
880.675 .0269089
881.342 .0269139
882.009 .0269197
882.676 .0269261
883.343 .0269332
884.009 .0269408
884.675 .0269490
885.340 .0269578
886.005 .0269671
886.670 .0269769
887.334 .0269873
887.998 .0269981
888.662 .0270093
889.325 .0270207
889.988 .0270324
890.650 .0270442
891.312 .0270561
891.974 .0270680
892.636 .0270800
893.297 .0270919
893.957 .0271038
894.618 .0271155
895.278 .0271269
895.937 .0271378
896.596 .0271482
897.255 .0271578
897.914 .0271665
898.572 .0271743
899.230 .0271810
899.887 .0271866
900.544 .0271911
901.201 .0271946
901.857 .0271945
902.513 .0271949
903.168 .0271941
903.823 .0271920
904.478 .0271885
905.132 .0271836
905.786 .0271774
906.440 .0271698
907.093 .0271611
907.746 .0271512
908.399 .0271404
909.051 .0271287
909.703 .0271161
910.354 .0271077
911.005 .0270943
911.656 .0270802
912.306 .0270654
912.956 .0270500
913.605 .0270341
914.254 .0270176
914.903 .0270006
915.551 .0269834
916.199 .0269658
916.847 .0269479
917.494 .0269299
918.141 .0269115
918.788 .0268929
919.434 .0268740
920.079 .0268548
920.725 .0268352
921.370 .0268153
922.014 .0267949
922.658 .0267741
923.302 .0267528
923.946 .0267310
924.589 .0267087
925.231 .0266859
925.873 .0266627
926.515 .0266389
927.157 .0266146
927.798 .0265899
928.439 .0265648
929.079 .0265393
929.719 .0265134
930.359 .0264873
930.998 .0264610
931.637 .0264345
932.275 .0264080
932.913 .0263816
933.551 .0263552
934.188 .0263290
934.825 .0263030
935.462 .0262772
936.098 .0262516
936.733 .0262263
937.369 .0262013
938.004 .0261765
938.638 .0261521
939.273 .0261282
939.907 .0261047
940.540 .0260817
941.173 .0260593
941.806 .0260375
942.438 .0260163
943.070 .0259956
943.702 .0259753
944.333 .0259554
944.964 .0259358
945.594 .0259164
946.224 .0258973
946.854 .0258782
947.483 .0258593
948.112 .0258403
948.741 .0258213
949.369 .0258022
949.996 .0257830
950.624 .0257634
951.251 .0257435
951.878 .0257233
952.504 .0257028
953.130 .0256819
953.755 .0256607
954.380 .0256393
955.005 .0256177
955.629 .0255959
956.253 .0255740
956.877 .0255519
957.500 .0255298
958.123 .0255075
958.746 .0254852
959.368 .0254629
959.990 .0254406
960.611 .0254185
961.232 .0253964
961.853 .0253745
962.473 .0253528
963.093 .0253312
963.712 .0253097
964.331 .0252884
964.950 .0252673
965.569 .0252464
966.187 .0252257
966.804 .0252053
967.422 .0251852
968.039 .0251654
968.655 .0251460
969.272 .0251268
969.887 .0251080
970.503 .0250895
971.118 .0250712
971.733 .0250533
972.347 .0250356
972.961 .0250183
973.575 .0250013
974.188 .0249845
974.801 .0249680
975.414 .0249516
976.026 .0249353
976.638 .0249191
977.250 .0249029
977.861 .0248867
978.472 .0248704
979.083 .0248542
979.693 .0248380
980.303 .0248220
980.912 .0247984
981.521 .0247829
982.130 .0247677
982.738 .0247527
983.346 .0247381
983.954 .0247239
984.562 .0247100
985.169 .0246967
985.775 .0246839
986.382 .0246718
986.988 .0246606
987.594 .0246501
988.199 .0246407
988.804 .0246322
989.409 .0246307
990.013 .0246238
990.617 .0246178
991.221 .0246127
991.824 .0246085
992.427 .0246051
993.030 .0246026
993.632 .0246009
994.234 .0246001
994.836 .0246002
995.438 .0246010
996.039 .0246027
996.640 .0246051
997.240 .0246083
997.840 .0246123
998.440 .0246170
999.040 .0246224
999.639 .0246285
1000.238 .0246353
1000.836 .0246427
1001.435 .0246508
1002.033 .0246594
1002.630 .0246684
1003.228 .0246779
1003.825 .0246877
1004.422 .0246978
1005.018 .0247081
1005.614 .0247186
1006.210 .0247293
1006.806 .0247400
1007.401 .0247509
1007.996 .0247617
1008.591 .0247726
1009.186 .0247835
1009.780 .0247944
1010.374 .0248053
1010.967 .0248163
1011.561 .0248275
1012.154 .0248389
1012.746 .0248507
1013.339 .0248628
1013.931 .0248754
1014.523 .0248885
1015.115 .0249021
1015.706 .0249161
1016.298 .0249306
1016.888 .0249455
1017.479 .0249610
1018.069 .0249769
1018.660 .0249934
1019.250 .0250104
1019.839 .0250281
1020.429 .0250462
1021.018 .0250649
1021.607 .0250841
1022.195 .0251037
1022.784 .0251235
1023.372 .0251437
1023.960 .0251641
1024.547 .0251849
1025.135 .0252060
1025.722 .0252274
1026.309 .0252491
1026.896 .0252710
1027.483 .0252931
1028.069 .0253154
1028.655 .0253377
1029.241 .0253599
1029.827 .0253821
1030.412 .0254043
1030.997 .0254264
1031.582 .0254485
1032.167 .0254706
1032.752 .0254927
1033.336 .0255147
1033.921 .0255366
1034.505 .0255584
1035.089 .0255799
1035.672 .0256013
1036.256 .0256223
1036.839 .0256430
1037.422 .0256635
1038.005 .0256836
1038.588 .0257034
1039.171 .0257229
1039.753 .0257419
1040.335 .0257604
1040.918 .0257783
1041.500 .0257956
1042.081 .0258123
1042.663 .0258283
1043.244 .0258437
1043.826 .0258587
1044.407 .0258732
1044.988 .0258872
1045.569 .0259010
1046.150 .0259144
1046.730 .0259275
1047.311 .0259404
1047.891 .0259529
1048.471 .0259652
1049.052 .0259772
1049.632 .0259889
1050.211 .0260005
1050.791 .0260118
1051.371 .0260230
1051.950 .0260339
1052.530 .0260445
1053.109 .0260548
1053.688 .0260646
1054.268 .0260740
1054.847 .0260829
1055.426 .0260914
1056.005 .0260995
1056.583 .0261073
1057.162 .0261150
1057.741 .0261224
1058.319 .0261297
1058.898 .0261367
1059.476 .0261433
1060.055 .0261495
1060.633 .0261552
1061.211 .0261603
1061.790 .0261649
1062.368 .0261689
1062.946 .0261724
1063.524 .0261752
1064.102 .0261774
1064.680 .0261790
1065.258 .0261798
1065.836 .0261799
1066.414 .0261792
1066.992 .0261779
1067.570 .0261758
1068.148 .0261732
1068.726 .0261702
1069.304 .0261669
1069.882 .0261635
1070.460 .0261599
1071.038 .0261562
1071.616 .0261525
1072.194 .0261488
1072.772 .0261449
1073.350 .0261411
1073.928 .0261374
1074.506 .0261336
1075.084 .0261301
1075.662 .0261267
1076.240 .0261234
1076.819 .0261205
1077.397 .0261178
1077.976 .0261154
1078.554 .0261133
1079.133 .0261118
1079.711 .0261108
1080.290 .0261106
1080.869 .0261112
1081.448 .0261126
1082.027 .0261147
1082.606 .0261176
1083.185 .0261210
1083.764 .0261247
1084.343 .0261285
1084.923 .0261323
1085.502 .0261359
1086.082 .0261393
1086.662 .0261426
1087.242 .0261459
1087.822 .0261493
1088.402 .0261529
1088.983 .0261566
1089.563 .0261605
1090.144 .0261645
1090.725 .0261684
1091.306 .0261724
1091.887 .0261763
1092.469 .0261801
1093.050 .0261841
1093.632 .0261883
1094.214 .0261930
1094.796 .0261981
1095.379 .0262036
1095.961 .0262092
1096.544 .0262148
1097.127 .0262201
1097.710 .0262248
1098.294 .0262289
1098.877 .0262324
1099.461 .0262354
1100.046 .0262381
1100.630 .0262408
1101.215 .0262438
1101.800 .0262474
1102.385 .0262516
1102.970 .0262566
1103.556 .0262621
1104.142 .0262682
1104.728 .0262748
1105.315 .0262818
1105.902 .0262892
1106.489 .0262969
1107.077 .0263052
1107.664 .0263140
1108.253 .0263234
1108.841 .0263336
1109.430 .0263446
1110.019 .0263566
1110.609 .0263693
1111.198 .0263829
1111.789 .0263972
1112.379 .0264121
1112.970 .0264276
1113.561 .0264439
1114.153 .0264610
1114.745 .0264793
1115.338 .0264990
1115.931 .0265205
1116.524 .0265440
1117.117 .0265696
1117.712 .0265973
1118.306 .0266269
1118.901 .0266583
1119.496 .0266912
1120.092 .0267255
1120.689 .0267611
1121.285 .0267979
1121.882 .0268362
1122.480 .0268763
1123.078 .0269182
1123.677 .0269623
1124.276 .0270087
1124.875 .0270572
1125.476 .0271080
1126.076 .0271611
1126.677 .0272163
1127.279 .0272735
1127.881 .0273327
1128.484 .0273938
1129.087 .0274196
1129.691 .0274840
1130.295 .0275507
1130.900 .0276197
1131.505 .0276913
1132.111 .0277656
1132.718 .0278424
1133.325 .0279220
1133.933 .0280056
1134.541 .0280933
1135.150 .0281845
1135.760 .0282722
1136.370 .0283696
1136.981 .0284162
1137.592 .0285047
1138.204 .0285937
1138.817 .0286844
1139.431 .0287843
1140.045 .0288897
1140.660 .0290016
1141.275 .0291261
1141.891 .0292959
1142.508 .0294695
1143.126 .0296327
1143.744 .0296049
1144.363 .0299362
1144.983 .0309831
