Measurement Sequence started on: 15-12-46-377
Integration time: 28
Scans to Average: 2 
>>>>>Begin Spectral Data<<<<<
432.689 .0000100
433.621 .0000100
434.552 .0000100
435.482 .0000100
436.410 .0000100
437.337 .0000100
438.262 .0284993
439.187 .0602209
440.110 .0996584
441.031 .1441053
441.952 .1150332
442.871 .1201228
443.789 .1248706
444.705 .1293493
445.621 .1336068
446.535 .1376812
447.447 .1400999
448.359 .1407144
449.269 .1391359
450.178 .1351148
451.086 .1287350
451.993 .1204946
452.898 .1112115
453.803 .1018137
454.706 .0930872
455.608 .0855174
456.508 .0792620
457.408 .0750493
458.306 .0718123
459.204 .0691728
460.100 .0669405
460.995 .0650089
461.888 .0633076
462.781 .0617914
463.673 .0604247
464.563 .0591840
465.452 .0580510
466.340 .0570123
467.228 .0560573
468.114 .0551789
468.999 .0543711
469.882 .0536290
470.765 .0529476
471.647 .0523235
472.528 .0517537
473.407 .0512353
474.286 .0507654
475.163 .0503424
476.040 .0499638
476.915 .0496284
477.790 .0493335
478.663 .0490777
479.535 .0488593
480.407 .0486758
481.277 .0485243
482.147 .0484019
483.015 .0483049
483.883 .0482307
484.749 .0481761
485.615 .0481395
486.479 .0481195
487.343 .0481154
488.206 .0481272
489.067 .0481544
489.928 .0481971
490.788 .0482559
491.647 .0483308
492.505 .0484228
493.362 .0485325
494.218 .0486606
495.073 .0488076
495.928 .0491011
496.781 .0492992
497.634 .0495171
498.486 .0497551
499.337 .0500140
500.187 .0502949
501.036 .0505995
501.884 .0509305
502.731 .0512920
503.578 .0516881
504.424 .0519567
505.268 .0524190
506.113 .0529285
506.956 .0534899
507.798 .0541093
508.640 .0547950
509.480 .0555567
510.320 .0564075
511.160 .0573627
511.998 .0584404
512.836 .0596608
513.672 .0610450
514.508 .0626168
515.344 .0644007
516.178 .0664218
517.012 .0687066
517.845 .0712815
518.677 .0741724
519.508 .0774025
520.339 .0809824
521.169 .0849174
521.998 .0891864
522.826 .0937526
523.654 .0985545
524.481 .1035145
525.307 .1085408
526.133 .1135305
526.958 .1183787
527.782 .1229821
528.605 .1272435
529.428 .1310845
530.250 .1344319
531.072 .1372377
531.892 .1394617
532.712 .1410778
533.532 .1420690
534.350 .1424289
535.168 .1421562
535.986 .1412530
536.802 .1397240
537.618 .1375836
538.434 .1348458
539.249 .1315518
540.063 .1277545
540.876 .1235262
541.689 .1189546
542.501 .1141377
543.313 .1091780
544.124 .1041791
544.934 .0992383
545.744 .0944442
546.553 .0898645
547.361 .0855591
548.169 .0815611
548.976 .0778931
549.783 .0745617
550.589 .0715617
551.395 .0688735
552.200 .0664721
553.004 .0643276
553.808 .0624090
554.611 .0606868
555.414 .0591367
556.216 .0577343
557.018 .0564592
557.819 .0552953
558.619 .0542271
559.419 .0532413
560.218 .0523285
561.017 .0514781
561.815 .0506811
562.613 .0499293
563.410 .0492138
564.207 .0485268
565.003 .0478621
565.799 .0472137
566.594 .0465775
567.388 .0459517
568.182 .0453364
568.976 .0447318
569.769 .0441394
570.562 .0435610
571.354 .0429976
572.145 .0424507
572.936 .0419209
573.727 .0414076
574.517 .0409108
575.307 .0404305
576.096 .0399670
576.885 .0395210
577.673 .0390939
578.461 .0386866
579.248 .0383002
580.035 .0379358
580.821 .0375937
581.607 .0372737
582.392 .0369755
583.177 .0366981
583.962 .0364401
584.746 .0362003
585.529 .0359772
586.313 .0357693
587.095 .0355755
587.878 .0353948
588.660 .0352265
589.441 .0350698
590.222 .0349244
591.003 .0347900
591.783 .0346661
592.563 .0345524
593.342 .0344478
594.121 .0343516
594.899 .0342629
595.678 .0341809
596.455 .0341049
597.233 .0340341
598.009 .0339681
598.786 .0339065
599.562 .0338489
600.338 .0337951
601.113 .0337447
601.888 .0336785
602.663 .0336350
603.437 .0335939
604.211 .0335549
604.984 .0335175
605.757 .0334815
606.530 .0334466
607.302 .0334125
608.074 .0333792
608.845 .0333464
609.616 .0333142
610.387 .0332999
611.158 .0332687
611.928 .0332382
612.697 .0332084
613.467 .0331793
614.236 .0331508
615.004 .0331228
615.773 .0330952
616.541 .0330678
617.308 .0330404
618.076 .0330130
618.843 .0329855
619.609 .0329577
620.375 .0329296
621.141 .0329014
621.907 .0328728
622.672 .0328441
623.437 .0328150
624.202 .0327857
624.966 .0327561
625.730 .0327261
626.493 .0326956
627.257 .0326646
628.020 .0326332
628.782 .0326014
629.545 .0325692
630.307 .0325367
631.068 .0325042
631.830 .0324717
632.591 .0324394
633.352 .0324074
634.112 .0323759
634.872 .0323450
635.632 .0323146
636.392 .0322849
637.151 .0322559
637.910 .0322275
638.668 .0321997
639.427 .0321726
640.185 .0321460
640.943 .0321199
641.700 .0320944
642.457 .0320694
643.214 .0320448
643.971 .0320206
644.727 .0319967
645.483 .0319731
646.239 .0319497
646.994 .0319263
647.750 .0319029
648.505 .0318792
649.259 .0318553
650.014 .0318310
650.768 .0318062
651.521 .0317810
652.275 .0317554
653.028 .0317294
653.781 .0317031
654.534 .0316766
655.286 .0316499
656.039 .0316231
656.791 .0315962
657.542 .0315692
658.294 .0315423
659.045 .0315155
659.796 .0314888
660.546 .0314625
661.297 .0314365
662.047 .0314110
662.796 .0313859
663.546 .0313613
664.295 .0313373
665.044 .0313138
665.793 .0312909
666.542 .0312687
667.290 .0312470
668.038 .0312260
668.786 .0312057
669.533 .0311860
670.281 .0311669
671.028 .0311484
671.774 .0311303
672.521 .0311126
673.267 .0310951
674.013 .0310778
674.759 .0310606
675.505 .0310434
676.250 .0310263
676.995 .0310091
677.740 .0309918
678.484 .0309743
679.229 .0309566
679.973 .0309387
680.717 .0309205
681.460 .0309019
682.204 .0308830
682.947 .0308636
683.690 .0308439
684.433 .0308236
685.175 .0308029
685.917 .0307818
686.659 .0307602
687.401 .0307382
688.142 .0307158
688.884 .0306932
689.625 .0306703
690.365 .0306473
691.106 .0306241
691.846 .0306009
692.586 .0305776
693.326 .0305543
694.066 .0305312
694.805 .0305083
695.545 .0304856
696.284 .0304633
697.022 .0304413
697.761 .0304198
698.499 .0303987
699.237 .0303781
699.975 .0303580
700.713 .0303384
701.450 .0303193
702.187 .0303006
702.924 .0302823
703.661 .0302645
704.397 .0302470
705.133 .0302297
705.869 .0302127
706.605 .0301958
707.341 .0301790
708.076 .0301623
708.811 .0301457
709.546 .0301293
710.281 .0301129
711.015 .0300966
711.749 .0300804
712.483 .0300643
713.217 .0300482
713.950 .0300321
714.684 .0300160
715.417 .0299998
716.150 .0299835
716.882 .0299671
717.615 .0299506
718.347 .0299337
719.079 .0299167
719.811 .0298992
720.542 .0298815
721.273 .0298635
722.005 .0298452
722.735 .0298268
723.466 .0298083
724.196 .0297898
724.927 .0297713
725.656 .0297530
726.386 .0297348
727.116 .0297166
727.845 .0296987
728.574 .0296809
729.303 .0296632
730.031 .0296459
730.760 .0296289
731.488 .0296123
732.216 .0295963
732.944 .0295808
733.671 .0295659
734.398 .0295516
735.125 .0295379
735.852 .0295247
736.579 .0295120
737.305 .0294998
738.031 .0294882
738.757 .0294769
739.483 .0294660
740.208 .0294553
740.933 .0294449
741.658 .0294346
742.383 .0294244
743.108 .0294142
743.832 .0294039
744.556 .0293935
745.280 .0293831
746.004 .0293725
746.727 .0293617
747.450 .0293507
748.173 .0293393
748.896 .0293275
749.618 .0293153
750.340 .0293027
751.062 .0292897
751.784 .0292764
752.506 .0292628
753.227 .0292491
753.948 .0292352
754.669 .0292212
755.389 .0292072
756.110 .0291930
756.830 .0291788
757.550 .0291645
758.269 .0291501
758.989 .0291358
759.708 .0291215
760.427 .0291072
761.146 .0290929
761.864 .0290788
762.582 .0290646
763.300 .0290505
764.018 .0290364
764.736 .0290224
765.453 .0290086
766.170 .0289949
766.887 .0289813
767.603 .0289680
768.320 .0289549
769.036 .0289420
769.751 .0289294
770.467 .0289169
771.182 .0289046
771.897 .0288925
772.612 .0288806
773.327 .0288688
774.041 .0288573
774.755 .0288460
775.469 .0288350
776.183 .0288241
776.896 .0288136
777.609 .0288034
778.322 .0287934
779.035 .0287837
779.747 .0287743
780.459 .0287651
781.171 .0287560
781.882 .0287470
782.594 .0287381
783.305 .0287292
784.016 .0287202
784.726 .0287111
785.436 .0287019
786.147 .0286875
786.856 .0286778
787.566 .0286678
788.275 .0286575
788.984 .0286468
789.693 .0286358
790.401 .0286243
791.110 .0286124
791.818 .0286001
792.525 .0285874
793.233 .0285744
793.940 .0285610
794.647 .0285532
795.353 .0285395
796.060 .0285256
796.766 .0285114
797.472 .0284971
798.177 .0284826
798.883 .0284681
799.588 .0284536
800.292 .0284390
800.997 .0284245
801.701 .0284100
802.405 .0283956
803.109 .0283813
803.812 .0283670
804.515 .0283528
805.218 .0283387
805.921 .0283247
806.623 .0283107
807.325 .0282969
808.027 .0282831
808.728 .0282694
809.429 .0282556
810.130 .0282420
810.831 .0282283
811.531 .0282146
812.231 .0282009
812.931 .0281872
813.630 .0281735
814.330 .0281598
815.029 .0281463
815.727 .0281329
816.426 .0281197
817.124 .0281067
817.821 .0280940
818.519 .0280815
819.216 .0280694
819.913 .0280576
820.609 .0280460
821.306 .0280348
822.002 .0280240
822.697 .0280136
823.393 .0280037
824.088 .0279942
824.783 .0279853
825.477 .0279769
826.171 .0279691
826.865 .0279618
827.559 .0279549
828.252 .0279485
828.945 .0279426
829.638 .0279371
830.330 .0279320
831.023 .0279272
831.714 .0279228
832.406 .0279187
833.097 .0279148
833.788 .0279111
834.479 .0279075
835.169 .0279040
835.859 .0279004
836.548 .0278968
837.238 .0278932
837.927 .0278895
838.615 .0278857
839.304 .0278818
839.992 .0278778
840.680 .0278736
841.367 .0278693
842.054 .0278648
842.741 .0278601
843.428 .0278551
844.114 .0278500
844.800 .0278445
845.485 .0278388
846.170 .0278327
846.855 .0278263
847.540 .0278197
848.224 .0278126
848.908 .0278053
849.592 .0277976
850.275 .0277896
850.958 .0277812
851.641 .0277725
852.323 .0277634
853.005 .0277539
853.687 .0277440
854.368 .0277338
855.049 .0277234
855.730 .0277127
856.410 .0277019
857.090 .0276911
857.769 .0276801
858.449 .0276691
859.128 .0276581
859.806 .0276470
860.485 .0276359
861.163 .0276248
861.840 .0276138
862.518 .0276029
863.195 .0275921
863.871 .0275815
864.548 .0275710
865.224 .0275605
865.899 .0275501
866.574 .0275398
867.249 .0275295
867.924 .0275193
868.598 .0275092
869.272 .0274992
869.946 .0274893
870.619 .0274795
871.292 .0274697
871.964 .0274600
872.636 .0274503
873.308 .0274404
873.979 .0274304
874.651 .0274203
875.321 .0274099
875.992 .0273995
876.662 .0273889
877.331 .0273781
878.001 .0273673
878.670 .0273564
879.338 .0273453
880.007 .0273342
880.675 .0273230
881.342 .0273117
882.009 .0273005
882.676 .0272893
883.343 .0272782
884.009 .0272672
884.675 .0272565
885.340 .0272460
886.005 .0272356
886.670 .0272255
887.334 .0272155
887.998 .0272057
888.662 .0271962
889.325 .0271869
889.988 .0271778
890.650 .0271689
891.312 .0271603
891.974 .0271518
892.636 .0271434
893.297 .0271351
893.957 .0271267
894.618 .0271182
895.278 .0271095
895.937 .0271006
896.596 .0270914
897.255 .0270819
897.914 .0270721
898.572 .0270619
899.230 .0270513
899.887 .0270402
900.544 .0270287
901.201 .0270166
901.857 .0269958
902.513 .0269822
903.168 .0269681
903.823 .0269534
904.478 .0269382
905.132 .0269226
905.786 .0269065
906.440 .0268900
907.093 .0268731
907.746 .0268559
908.399 .0268384
909.051 .0268206
909.703 .0268027
910.354 .0267937
911.005 .0267757
911.656 .0267577
912.306 .0267396
912.956 .0267215
913.605 .0267034
914.254 .0266853
914.903 .0266672
915.551 .0266490
916.199 .0266308
916.847 .0266124
917.494 .0265939
918.141 .0265752
918.788 .0265563
919.434 .0265372
920.079 .0265179
920.725 .0264983
921.370 .0264785
922.014 .0264585
922.658 .0264382
923.302 .0264176
923.946 .0263967
924.589 .0263756
925.231 .0263542
925.873 .0263326
926.515 .0263109
927.157 .0262891
927.798 .0262673
928.439 .0262455
929.079 .0262239
929.719 .0262025
930.359 .0261814
930.998 .0261607
931.637 .0261404
932.275 .0261206
932.913 .0261013
933.551 .0260827
934.188 .0260648
934.825 .0260477
935.462 .0260315
936.098 .0260163
936.733 .0260021
937.369 .0259889
938.004 .0259767
938.638 .0259654
939.273 .0259550
939.907 .0259456
940.540 .0259369
941.173 .0259291
941.806 .0259220
942.438 .0259155
943.070 .0259096
943.702 .0259041
944.333 .0258991
944.964 .0258943
945.594 .0258898
946.224 .0258854
946.854 .0258811
947.483 .0258769
948.112 .0258727
948.741 .0258685
949.369 .0258642
949.996 .0258599
950.624 .0258553
951.251 .0258505
951.878 .0258454
952.504 .0258400
953.130 .0258342
953.755 .0258281
954.380 .0258217
955.005 .0258151
955.629 .0258083
956.253 .0258013
956.877 .0257941
957.500 .0257868
958.123 .0257795
958.746 .0257721
959.368 .0257648
959.990 .0257577
960.611 .0257509
961.232 .0257446
961.853 .0257387
962.473 .0257333
963.093 .0257283
963.712 .0257238
964.331 .0257195
964.950 .0257156
965.569 .0257120
966.187 .0257086
966.804 .0257054
967.422 .0257026
968.039 .0256999
968.655 .0256976
969.272 .0256954
969.887 .0256934
970.503 .0256915
971.118 .0256896
971.733 .0256876
972.347 .0256856
972.961 .0256836
973.575 .0256815
974.188 .0256793
974.801 .0256772
975.414 .0256749
976.026 .0256726
976.638 .0256700
977.250 .0256672
977.861 .0256640
978.472 .0256603
979.083 .0256561
979.693 .0256515
980.303 .0256464
980.912 .0256373
981.521 .0256316
982.130 .0256257
982.738 .0256197
983.346 .0256138
983.954 .0256079
984.562 .0256022
985.169 .0255966
985.775 .0255914
986.382 .0255866
986.988 .0255821
987.594 .0255783
988.199 .0255749
988.804 .0255722
989.409 .0255729
990.013 .0255712
990.617 .0255702
991.221 .0255699
991.824 .0255702
992.427 .0255712
993.030 .0255727
993.632 .0255749
994.234 .0255776
994.836 .0255808
995.438 .0255847
996.039 .0255891
996.640 .0255942
997.240 .0255998
997.840 .0256059
998.440 .0256126
999.040 .0256197
999.639 .0256272
1000.238 .0256348
1000.836 .0256425
1001.435 .0256503
1002.033 .0256579
1002.630 .0256654
1003.228 .0256726
1003.825 .0256796
1004.422 .0256862
1005.018 .0256924
1005.614 .0256983
1006.210 .0257037
1006.806 .0257087
1007.401 .0257133
1007.996 .0257173
1008.591 .0257210
1009.186 .0257243
1009.780 .0257272
1010.374 .0257298
1010.967 .0257320
1011.561 .0257339
1012.154 .0257356
1012.746 .0257369
1013.339 .0257379
1013.931 .0257386
1014.523 .0257391
1015.115 .0257394
1015.706 .0257396
1016.298 .0257396
1016.888 .0257396
1017.479 .0257395
1018.069 .0257394
1018.660 .0257392
1019.250 .0257389
1019.839 .0257386
1020.429 .0257382
1021.018 .0257379
1021.607 .0257376
1022.195 .0257374
1022.784 .0257373
1023.372 .0257375
1023.960 .0257378
1024.547 .0257384
1025.135 .0257392
1025.722 .0257400
1026.309 .0257409
1026.896 .0257418
1027.483 .0257428
1028.069 .0257438
1028.655 .0257449
1029.241 .0257462
1029.827 .0257476
1030.412 .0257492
1030.997 .0257509
1031.582 .0257526
1032.167 .0257543
1032.752 .0257559
1033.336 .0257573
1033.921 .0257585
1034.505 .0257594
1035.089 .0257600
1035.672 .0257604
1036.256 .0257606
1036.839 .0257605
1037.422 .0257601
1038.005 .0257594
1038.588 .0257583
1039.171 .0257568
1039.753 .0257549
1040.335 .0257524
1040.918 .0257494
1041.500 .0257460
1042.081 .0257422
1042.663 .0257382
1043.244 .0257341
1043.826 .0257299
1044.407 .0257257
1044.988 .0257216
1045.569 .0257173
1046.150 .0257131
1046.730 .0257087
1047.311 .0257041
1047.891 .0256993
1048.471 .0256943
1049.052 .0256889
1049.632 .0256833
1050.211 .0256774
1050.791 .0256713
1051.371 .0256648
1051.950 .0256579
1052.530 .0256506
1053.109 .0256427
1053.688 .0256342
1054.268 .0256251
1054.847 .0256155
1055.426 .0256055
1056.005 .0255952
1056.583 .0255849
1057.162 .0255746
1057.741 .0255645
1058.319 .0255545
1058.898 .0255446
1059.476 .0255349
1060.055 .0255251
1060.633 .0255154
1061.211 .0255056
1061.790 .0254960
1062.368 .0254865
1062.946 .0254772
1063.524 .0254683
1064.102 .0254598
1064.680 .0254516
1065.258 .0254437
1065.836 .0254361
1066.414 .0254286
1066.992 .0254211
1067.570 .0254136
1068.148 .0254064
1068.726 .0253993
1069.304 .0253928
1069.882 .0253868
1070.460 .0253815
1071.038 .0253770
1071.616 .0253732
1072.194 .0253700
1072.772 .0253673
1073.350 .0253648
1073.928 .0253623
1074.506 .0253598
1075.084 .0253573
1075.662 .0253547
1076.240 .0253521
1076.819 .0253496
1077.397 .0253472
1077.976 .0253450
1078.554 .0253428
1079.133 .0253407
1079.711 .0253385
1080.290 .0253362
1080.869 .0253337
1081.448 .0253311
1082.027 .0253285
1082.606 .0253262
1083.185 .0253242
1083.764 .0253229
1084.343 .0253223
1084.923 .0253225
1085.502 .0253238
1086.082 .0253260
1086.662 .0253293
1087.242 .0253336
1087.822 .0253389
1088.402 .0253450
1088.983 .0253519
1089.563 .0253594
1090.144 .0253676
1090.725 .0253764
1091.306 .0253856
1091.887 .0253954
1092.469 .0254056
1093.050 .0254163
1093.632 .0254276
1094.214 .0254394
1094.796 .0254517
1095.379 .0254644
1095.961 .0254775
1096.544 .0254908
1097.127 .0255042
1097.710 .0255176
1098.294 .0255310
1098.877 .0255444
1099.461 .0255579
1100.046 .0255715
1100.630 .0255853
1101.215 .0255993
1101.800 .0256135
1102.385 .0256275
1102.970 .0256413
1103.556 .0256546
1104.142 .0256675
1104.728 .0256799
1105.315 .0256921
1105.902 .0257045
1106.489 .0257175
1107.077 .0257314
1107.664 .0257466
1108.253 .0257632
1108.841 .0257811
1109.430 .0258004
1110.019 .0258209
1110.609 .0258425
1111.198 .0258651
1111.789 .0258888
1112.379 .0259137
1112.970 .0259401
1113.561 .0259682
1114.153 .0259983
1114.745 .0260306
1115.338 .0260652
1115.931 .0261020
1116.524 .0261410
1117.117 .0261819
1117.712 .0262246
1118.306 .0262688
1118.901 .0263146
1119.496 .0263620
1120.092 .0264112
1120.689 .0264623
1121.285 .0265158
1121.882 .0265717
1122.480 .0266306
1123.078 .0266922
1123.677 .0267566
1124.276 .0268234
1124.875 .0268923
1125.476 .0269631
1126.076 .0270355
1126.677 .0271094
1127.279 .0271847
1127.881 .0272618
1128.484 .0273413
1129.087 .0273771
1129.691 .0274604
1130.295 .0275472
1130.900 .0276380
1131.505 .0277332
1132.111 .0278327
1132.718 .0279365
1133.325 .0280449
1133.933 .0281596
1134.541 .0282752
1135.150 .0283947
1135.760 .0285143
1136.370 .0286523
1136.981 .0285897
1137.592 .0287246
1138.204 .0288819
1138.817 .0290570
1139.431 .0292449
1140.045 .0294372
1140.660 .0296260
1141.275 .0298225
1141.891 .0300716
1142.508 .0301636
1143.126 .0303380
1143.744 .0304069
1144.363 .0309825
1144.983 .0326020
