Measurement Sequence started on: 15-12-46-377
Integration time: 28
Scans to Average: 2 
>>>>>Begin Spectral Data<<<<<
432.689 .0000100
433.621 .0000100
434.552 .0000100
435.482 .0000100
436.410 .0000100
437.337 .0000100
438.262 .0265666
439.187 .0563407
440.110 .0934682
441.031 .1354084
441.952 .1099221
442.871 .1149395
443.789 .1196085
444.705 .1239982
445.621 .1281559
446.535 .1321207
447.447 .1345226
448.359 .1352139
449.269 .1338257
450.178 .1301186
451.086 .1241603
451.993 .1164083
452.898 .1076235
453.803 .0986750
454.706 .0903065
455.608 .0829848
456.508 .0768746
457.408 .0726707
458.306 .0693981
459.204 .0667120
460.100 .0644387
460.995 .0624826
461.888 .0607764
462.781 .0592748
463.673 .0579405
464.563 .0567473
465.452 .0556747
466.340 .0547066
467.228 .0538307
468.114 .0530374
468.999 .0523183
469.882 .0516659
470.765 .0510733
471.647 .0505345
472.528 .0500450
473.407 .0495992
474.286 .0491932
475.163 .0488238
476.040 .0484872
476.915 .0481811
477.790 .0479036
478.663 .0476536
479.535 .0474305
480.407 .0472339
481.277 .0470638
482.147 .0469190
483.015 .0467991
483.883 .0467027
484.749 .0466281
485.615 .0465741
486.479 .0465391
487.343 .0465217
488.206 .0465220
489.067 .0465396
489.928 .0465755
490.788 .0466315
491.647 .0467087
492.505 .0468082
493.362 .0469312
494.218 .0470779
495.073 .0472483
495.928 .0475879
496.781 .0478160
497.634 .0480660
498.486 .0483387
499.337 .0486345
500.187 .0489550
501.036 .0493025
501.884 .0496788
502.731 .0500868
503.578 .0505304
504.424 .0508224
505.268 .0513312
506.113 .0518882
506.956 .0524983
507.798 .0531672
508.640 .0539026
509.480 .0547143
510.320 .0556120
511.160 .0566092
511.998 .0577207
512.836 .0589651
513.672 .0603625
514.508 .0619361
515.344 .0637094
516.178 .0657064
517.012 .0679509
517.845 .0704626
518.677 .0732561
519.508 .0763460
520.339 .0797380
521.169 .0834319
521.998 .0874023
522.826 .0916151
523.654 .0960187
524.481 .1005508
525.307 .1051370
526.133 .1096896
526.958 .1141176
527.782 .1183314
528.605 .1222413
529.428 .1257705
530.250 .1288496
531.072 .1314312
531.892 .1334727
532.712 .1349466
533.532 .1358345
534.350 .1361282
535.168 .1358310
535.986 .1349521
536.802 .1334990
537.618 .1314850
538.434 .1289260
539.249 .1258637
540.063 .1223468
540.876 .1184379
541.689 .1142105
542.501 .1097464
543.313 .1051351
544.124 .1004671
544.934 .0958296
545.744 .0913044
546.553 .0869595
547.361 .0828509
548.169 .0790107
548.976 .0754637
549.783 .0722187
550.589 .0692726
551.395 .0666122
552.200 .0642168
553.004 .0620620
553.808 .0601238
554.611 .0583800
555.414 .0568094
556.216 .0553908
557.018 .0541031
557.819 .0529288
558.619 .0518505
559.419 .0508546
560.218 .0499302
561.017 .0490677
561.815 .0482594
562.613 .0474995
563.410 .0467818
564.207 .0461014
565.003 .0454526
565.799 .0448301
566.594 .0442288
567.388 .0436464
568.182 .0430797
568.976 .0425263
569.769 .0419857
570.562 .0414587
571.354 .0409465
572.145 .0404516
572.936 .0399750
573.727 .0395180
574.517 .0390811
575.307 .0386647
576.096 .0382674
576.885 .0378891
577.673 .0375295
578.461 .0371882
579.248 .0368648
580.035 .0365595
580.821 .0362717
581.607 .0360019
582.392 .0357501
583.177 .0355160
583.962 .0352987
584.746 .0350973
585.529 .0349104
586.313 .0347367
587.095 .0345754
587.878 .0344252
588.660 .0342853
589.441 .0341552
590.222 .0340340
591.003 .0339210
591.783 .0338158
592.563 .0337176
593.342 .0336258
594.121 .0335397
594.899 .0334587
595.678 .0333819
596.455 .0333088
597.233 .0332389
598.009 .0331718
598.786 .0331072
599.562 .0330449
600.338 .0329848
601.113 .0329270
601.888 .0328484
602.663 .0327963
603.437 .0327465
604.211 .0326989
604.984 .0326534
605.757 .0326101
606.530 .0325688
607.302 .0325294
608.074 .0324919
608.845 .0324561
609.616 .0324221
610.387 .0324092
611.158 .0323775
611.928 .0323473
612.697 .0323184
613.467 .0322907
614.236 .0322641
615.004 .0322383
615.773 .0322131
616.541 .0321884
617.308 .0321641
618.076 .0321399
618.843 .0321159
619.609 .0320919
620.375 .0320679
621.141 .0320437
621.907 .0320192
622.672 .0319944
623.437 .0319692
624.202 .0319434
624.966 .0319171
625.730 .0318902
626.493 .0318625
627.257 .0318342
628.020 .0318053
628.782 .0317759
629.545 .0317461
630.307 .0317159
631.068 .0316857
631.830 .0316553
632.591 .0316249
633.352 .0315946
634.112 .0315643
634.872 .0315341
635.632 .0315040
636.392 .0314741
637.151 .0314445
637.910 .0314153
638.668 .0313868
639.427 .0313589
640.185 .0313319
640.943 .0313057
641.700 .0312805
642.457 .0312563
643.214 .0312330
643.971 .0312106
644.727 .0311892
645.483 .0311685
646.239 .0311485
646.994 .0311291
647.750 .0311103
648.505 .0310921
649.259 .0310743
650.014 .0310570
650.768 .0310401
651.521 .0310237
652.275 .0310075
653.028 .0309916
653.781 .0309758
654.534 .0309597
655.286 .0309433
656.039 .0309264
656.791 .0309088
657.542 .0308905
658.294 .0308716
659.045 .0308522
659.796 .0308323
660.546 .0308119
661.297 .0307910
662.047 .0307698
662.796 .0307482
663.546 .0307262
664.295 .0307038
665.044 .0306812
665.793 .0306585
666.542 .0306358
667.290 .0306133
668.038 .0305910
668.786 .0305689
669.533 .0305471
670.281 .0305256
671.028 .0305042
671.774 .0304830
672.521 .0304621
673.267 .0304414
674.013 .0304210
674.759 .0304009
675.505 .0303810
676.250 .0303614
676.995 .0303419
677.740 .0303225
678.484 .0303031
679.229 .0302836
679.973 .0302641
680.717 .0302444
681.460 .0302247
682.204 .0302047
682.947 .0301845
683.690 .0301640
684.433 .0301432
685.175 .0301219
685.917 .0301003
686.659 .0300785
687.401 .0300564
688.142 .0300342
688.884 .0300119
689.625 .0299896
690.365 .0299672
691.106 .0299449
691.846 .0299225
692.586 .0299001
693.326 .0298777
694.066 .0298554
694.805 .0298332
695.545 .0298113
696.284 .0297897
697.022 .0297685
697.761 .0297476
698.499 .0297271
699.237 .0297070
699.975 .0296873
700.713 .0296679
701.450 .0296488
702.187 .0296300
702.924 .0296114
703.661 .0295930
704.397 .0295747
705.133 .0295564
705.869 .0295381
706.605 .0295196
707.341 .0295011
708.076 .0294824
708.811 .0294637
709.546 .0294450
710.281 .0294263
711.015 .0294075
711.749 .0293888
712.483 .0293701
713.217 .0293513
713.950 .0293325
714.684 .0293136
715.417 .0292947
716.150 .0292759
716.882 .0292570
717.615 .0292381
718.347 .0292192
719.079 .0292003
719.811 .0291815
720.542 .0291628
721.273 .0291442
722.005 .0291257
722.735 .0291074
723.466 .0290893
724.196 .0290714
724.927 .0290537
725.656 .0290362
726.386 .0290187
727.116 .0290014
727.845 .0289842
728.574 .0289671
729.303 .0289502
730.031 .0289335
730.760 .0289170
731.488 .0289009
732.216 .0288850
732.944 .0288694
733.671 .0288542
734.398 .0288392
735.125 .0288245
735.852 .0288101
736.579 .0287959
737.305 .0287820
738.031 .0287684
738.757 .0287552
739.483 .0287423
740.208 .0287297
740.933 .0287175
741.658 .0287056
742.383 .0286942
743.108 .0286831
743.832 .0286723
744.556 .0286619
745.280 .0286517
746.004 .0286416
746.727 .0286316
747.450 .0286216
748.173 .0286115
748.896 .0286012
749.618 .0285907
750.340 .0285800
751.062 .0285690
751.784 .0285577
752.506 .0285461
753.227 .0285341
753.948 .0285216
754.669 .0285087
755.389 .0284953
756.110 .0284813
756.830 .0284668
757.550 .0284518
758.269 .0284364
758.989 .0284206
759.708 .0284045
760.427 .0283880
761.146 .0283712
761.864 .0283542
762.582 .0283369
763.300 .0283194
764.018 .0283016
764.736 .0282837
765.453 .0282657
766.170 .0282476
766.887 .0282296
767.603 .0282117
768.320 .0281940
769.036 .0281766
769.751 .0281595
770.467 .0281430
771.182 .0281270
771.897 .0281115
772.612 .0280967
773.327 .0280825
774.041 .0280690
774.755 .0280560
775.469 .0280436
776.183 .0280319
776.896 .0280207
777.609 .0280101
778.322 .0280001
779.035 .0279907
779.747 .0279819
780.459 .0279738
781.171 .0279661
781.882 .0279590
782.594 .0279522
783.305 .0279457
784.016 .0279393
784.726 .0279329
785.436 .0279264
786.147 .0279162
786.856 .0279091
787.566 .0279018
788.275 .0278941
788.984 .0278861
789.693 .0278778
790.401 .0278691
791.110 .0278600
791.818 .0278505
792.525 .0278404
793.233 .0278298
793.940 .0278184
794.647 .0278110
795.353 .0277988
796.060 .0277859
796.766 .0277725
797.472 .0277586
798.177 .0277444
798.883 .0277298
799.588 .0277150
800.292 .0276999
800.997 .0276846
801.701 .0276690
802.405 .0276532
803.109 .0276372
803.812 .0276209
804.515 .0276045
805.218 .0275879
805.921 .0275711
806.623 .0275542
807.325 .0275372
808.027 .0275201
808.728 .0275030
809.429 .0274859
810.130 .0274687
810.831 .0274516
811.531 .0274345
812.231 .0274176
812.931 .0274007
813.630 .0273841
814.330 .0273676
815.029 .0273513
815.727 .0273353
816.426 .0273197
817.124 .0273045
817.821 .0272897
818.519 .0272754
819.216 .0272617
819.913 .0272485
820.609 .0272358
821.306 .0272238
822.002 .0272124
822.697 .0272017
823.393 .0271917
824.088 .0271824
824.783 .0271738
825.477 .0271659
826.171 .0271585
826.865 .0271517
827.559 .0271454
828.252 .0271395
828.945 .0271342
829.638 .0271293
830.330 .0271249
831.023 .0271210
831.714 .0271176
832.406 .0271145
833.097 .0271118
833.788 .0271092
834.479 .0271067
835.169 .0271042
835.859 .0271017
836.548 .0270992
837.238 .0270967
837.927 .0270941
838.615 .0270916
839.304 .0270889
839.992 .0270860
840.680 .0270829
841.367 .0270795
842.054 .0270756
842.741 .0270714
843.428 .0270667
844.114 .0270617
844.800 .0270564
845.485 .0270506
846.170 .0270443
846.855 .0270376
847.540 .0270302
848.224 .0270221
848.908 .0270133
849.592 .0270037
850.275 .0269935
850.958 .0269826
851.641 .0269711
852.323 .0269590
853.005 .0269464
853.687 .0269331
854.368 .0269193
855.049 .0269048
855.730 .0268897
856.410 .0268739
857.090 .0268576
857.769 .0268409
858.449 .0268239
859.128 .0268066
859.806 .0267893
860.485 .0267719
861.163 .0267546
861.840 .0267375
862.518 .0267205
863.195 .0267039
863.871 .0266876
864.548 .0266718
865.224 .0266564
865.899 .0266416
866.574 .0266272
867.249 .0266134
867.924 .0266001
868.598 .0265874
869.272 .0265752
869.946 .0265636
870.619 .0265526
871.292 .0265421
871.964 .0265322
872.636 .0265228
873.308 .0265140
873.979 .0265055
874.651 .0264976
875.321 .0264899
875.992 .0264827
876.662 .0264758
877.331 .0264692
878.001 .0264629
878.670 .0264569
879.338 .0264512
880.007 .0264458
880.675 .0264406
881.342 .0264358
882.009 .0264311
882.676 .0264267
883.343 .0264226
884.009 .0264187
884.675 .0264151
885.340 .0264117
886.005 .0264085
886.670 .0264056
887.334 .0264028
887.998 .0264002
888.662 .0263977
889.325 .0263954
889.988 .0263933
890.650 .0263914
891.312 .0263897
891.974 .0263881
892.636 .0263866
893.297 .0263850
893.957 .0263832
894.618 .0263811
895.278 .0263786
895.937 .0263756
896.596 .0263719
897.255 .0263674
897.914 .0263622
898.572 .0263561
899.230 .0263491
899.887 .0263412
900.544 .0263323
901.201 .0263224
901.857 .0263030
902.513 .0262906
903.168 .0262774
903.823 .0262634
904.478 .0262486
905.132 .0262332
905.786 .0262172
906.440 .0262006
907.093 .0261836
907.746 .0261660
908.399 .0261480
909.051 .0261296
909.703 .0261108
910.354 .0261015
911.005 .0260825
911.656 .0260633
912.306 .0260441
912.956 .0260248
913.605 .0260055
914.254 .0259862
914.903 .0259670
915.551 .0259478
916.199 .0259287
916.847 .0259097
917.494 .0258907
918.141 .0258717
918.788 .0258527
919.434 .0258337
920.079 .0258147
920.725 .0257956
921.370 .0257763
922.014 .0257568
922.658 .0257370
923.302 .0257169
923.946 .0256966
924.589 .0256759
925.231 .0256550
925.873 .0256339
926.515 .0256127
927.157 .0255913
927.798 .0255698
928.439 .0255482
929.079 .0255266
929.719 .0255050
930.359 .0254835
930.998 .0254621
931.637 .0254410
932.275 .0254202
932.913 .0253998
933.551 .0253797
934.188 .0253602
934.825 .0253411
935.462 .0253225
936.098 .0253045
936.733 .0252870
937.369 .0252700
938.004 .0252537
938.638 .0252381
939.273 .0252232
939.907 .0252092
940.540 .0251960
941.173 .0251837
941.806 .0251722
942.438 .0251616
943.070 .0251517
943.702 .0251425
944.333 .0251340
944.964 .0251260
945.594 .0251186
946.224 .0251116
946.854 .0251051
947.483 .0250989
948.112 .0250931
948.741 .0250875
949.369 .0250821
949.996 .0250768
950.624 .0250716
951.251 .0250664
951.878 .0250613
952.504 .0250562
953.130 .0250511
953.755 .0250459
954.380 .0250407
955.005 .0250355
955.629 .0250301
956.253 .0250246
956.877 .0250189
957.500 .0250130
958.123 .0250067
958.746 .0250000
959.368 .0249931
959.990 .0249858
960.611 .0249783
961.232 .0249705
961.853 .0249627
962.473 .0249547
963.093 .0249467
963.712 .0249388
964.331 .0249308
964.950 .0249227
965.569 .0249147
966.187 .0249065
966.804 .0248982
967.422 .0248899
968.039 .0248814
968.655 .0248729
969.272 .0248642
969.887 .0248555
970.503 .0248467
971.118 .0248378
971.733 .0248287
972.347 .0248193
972.961 .0248096
973.575 .0247997
974.188 .0247895
974.801 .0247790
975.414 .0247685
976.026 .0247578
976.638 .0247472
977.250 .0247365
977.861 .0247259
978.472 .0247152
979.083 .0247046
979.693 .0246939
980.303 .0246833
980.912 .0246676
981.521 .0246572
982.130 .0246469
982.738 .0246368
983.346 .0246269
983.954 .0246172
984.562 .0246078
985.169 .0245986
985.775 .0245896
986.382 .0245811
986.988 .0245729
987.594 .0245653
988.199 .0245583
988.804 .0245520
989.409 .0245509
990.013 .0245457
990.617 .0245414
991.221 .0245377
991.824 .0245348
992.427 .0245324
993.030 .0245306
993.632 .0245293
994.234 .0245285
994.836 .0245282
995.438 .0245283
996.039 .0245288
996.640 .0245296
997.240 .0245308
997.840 .0245323
998.440 .0245340
999.040 .0245360
999.639 .0245383
1000.238 .0245408
1000.836 .0245437
1001.435 .0245469
1002.033 .0245506
1002.630 .0245546
1003.228 .0245590
1003.825 .0245636
1004.422 .0245685
1005.018 .0245735
1005.614 .0245787
1006.210 .0245839
1006.806 .0245892
1007.401 .0245943
1007.996 .0245995
1008.591 .0246045
1009.186 .0246094
1009.780 .0246141
1010.374 .0246187
1010.967 .0246231
1011.561 .0246273
1012.154 .0246313
1012.746 .0246351
1013.339 .0246387
1013.931 .0246423
1014.523 .0246457
1015.115 .0246490
1015.706 .0246523
1016.298 .0246558
1016.888 .0246594
1017.479 .0246632
1018.069 .0246674
1018.660 .0246719
1019.250 .0246768
1019.839 .0246821
1020.429 .0246879
1021.018 .0246941
1021.607 .0247007
1022.195 .0247076
1022.784 .0247150
1023.372 .0247227
1023.960 .0247309
1024.547 .0247396
1025.135 .0247489
1025.722 .0247586
1026.309 .0247689
1026.896 .0247797
1027.483 .0247909
1028.069 .0248025
1028.655 .0248146
1029.241 .0248269
1029.827 .0248395
1030.412 .0248523
1030.997 .0248654
1031.582 .0248787
1032.167 .0248922
1032.752 .0249059
1033.336 .0249197
1033.921 .0249336
1034.505 .0249474
1035.089 .0249610
1035.672 .0249743
1036.256 .0249872
1036.839 .0249995
1037.422 .0250111
1038.005 .0250218
1038.588 .0250317
1039.171 .0250406
1039.753 .0250486
1040.335 .0250555
1040.918 .0250616
1041.500 .0250667
1042.081 .0250709
1042.663 .0250741
1043.244 .0250765
1043.826 .0250779
1044.407 .0250785
1044.988 .0250783
1045.569 .0250773
1046.150 .0250757
1046.730 .0250736
1047.311 .0250711
1047.891 .0250684
1048.471 .0250656
1049.052 .0250626
1049.632 .0250594
1050.211 .0250562
1050.791 .0250528
1051.371 .0250493
1051.950 .0250457
1052.530 .0250420
1053.109 .0250385
1053.688 .0250352
1054.268 .0250322
1054.847 .0250296
1055.426 .0250275
1056.005 .0250260
1056.583 .0250250
1057.162 .0250245
1057.741 .0250244
1058.319 .0250247
1058.898 .0250253
1059.476 .0250263
1060.055 .0250274
1060.633 .0250289
1061.211 .0250307
1061.790 .0250328
1062.368 .0250352
1062.946 .0250378
1063.524 .0250407
1064.102 .0250435
1064.680 .0250463
1065.258 .0250489
1065.836 .0250511
1066.414 .0250529
1066.992 .0250542
1067.570 .0250550
1068.148 .0250553
1068.726 .0250551
1069.304 .0250545
1069.882 .0250535
1070.460 .0250521
1071.038 .0250504
1071.616 .0250483
1072.194 .0250458
1072.772 .0250431
1073.350 .0250401
1073.928 .0250370
1074.506 .0250339
1075.084 .0250309
1075.662 .0250282
1076.240 .0250259
1076.819 .0250240
1077.397 .0250227
1077.976 .0250219
1078.554 .0250214
1079.133 .0250214
1079.711 .0250217
1080.290 .0250224
1080.869 .0250236
1081.448 .0250251
1082.027 .0250270
1082.606 .0250294
1083.185 .0250321
1083.764 .0250349
1084.343 .0250381
1084.923 .0250413
1085.502 .0250446
1086.082 .0250479
1086.662 .0250512
1087.242 .0250545
1087.822 .0250581
1088.402 .0250619
1088.983 .0250661
1089.563 .0250707
1090.144 .0250759
1090.725 .0250815
1091.306 .0250875
1091.887 .0250940
1092.469 .0251008
1093.050 .0251080
1093.632 .0251156
1094.214 .0251234
1094.796 .0251316
1095.379 .0251400
1095.961 .0251487
1096.544 .0251574
1097.127 .0251661
1097.710 .0251746
1098.294 .0251827
1098.877 .0251903
1099.461 .0251973
1100.046 .0252039
1100.630 .0252101
1101.215 .0252162
1101.800 .0252223
1102.385 .0252285
1102.970 .0252350
1103.556 .0252419
1104.142 .0252494
1104.728 .0252574
1105.315 .0252663
1105.902 .0252761
1106.489 .0252869
1107.077 .0252992
1107.664 .0253130
1108.253 .0253286
1108.841 .0253460
1109.430 .0253653
1110.019 .0253863
1110.609 .0254088
1111.198 .0254327
1111.789 .0254579
1112.379 .0254842
1112.970 .0255115
1113.561 .0255396
1114.153 .0255687
1114.745 .0255988
1115.338 .0256303
1115.931 .0256632
1116.524 .0256981
1117.117 .0257351
1117.712 .0257744
1118.306 .0258161
1118.901 .0258603
1119.496 .0259070
1120.092 .0259559
1120.689 .0260069
1121.285 .0260597
1121.882 .0261140
1122.480 .0261696
1123.078 .0262264
1123.677 .0262846
1124.276 .0263440
1124.875 .0264044
1125.476 .0264659
1126.076 .0265282
1126.677 .0265909
1127.279 .0266538
1127.881 .0267165
1128.484 .0267788
1129.087 .0268061
1129.691 .0268686
1130.295 .0269310
1130.900 .0269939
1131.505 .0270578
1132.111 .0271229
1132.718 .0271888
1133.325 .0272559
1133.933 .0273245
1134.541 .0273993
1135.150 .0274693
1135.760 .0275236
1136.370 .0275941
1136.981 .0277675
1137.592 .0278125
1138.204 .0278568
1138.817 .0279048
1139.431 .0279674
1140.045 .0280351
1140.660 .0280946
1141.275 .0281649
1141.891 .0282490
1142.508 .0284751
1143.126 .0283957
1143.744 .0280181
1144.363 .0285384
1144.983 .0290481
