Measurement Sequence started on: 15-12-46-377
Integration time: 28
Scans to Average: 2 
>>>>>Begin Spectral Data<<<<<
432.689 .0000100
433.621 .0000100
434.552 .0000100
435.482 .0000100
436.410 .0000100
437.337 .0000100
438.262 .0261074
439.187 .0553503
440.110 .0915452
441.031 .1322853
441.952 .1055242
442.871 .1102020
443.789 .1145682
444.705 .1186895
445.621 .1226118
446.535 .1263710
447.447 .1286194
448.359 .1292112
449.269 .1277962
450.178 .1241470
451.086 .1183391
451.993 .1108288
452.898 .1023679
453.803 .0938076
454.706 .0858685
455.608 .0789938
456.508 .0733269
457.408 .0695323
458.306 .0666364
459.204 .0642828
460.100 .0622977
460.995 .0605870
461.888 .0590859
462.781 .0577513
463.673 .0565500
464.563 .0554595
465.452 .0544631
466.340 .0535482
467.228 .0527056
468.114 .0519288
468.999 .0512123
469.882 .0505516
470.765 .0499418
471.647 .0493800
472.528 .0488631
473.407 .0483885
474.286 .0479546
475.163 .0475608
476.040 .0472052
476.915 .0468875
477.790 .0466061
478.663 .0463602
479.535 .0461486
480.407 .0459692
481.277 .0458200
482.147 .0456986
483.015 .0456029
483.883 .0455308
484.749 .0454805
485.615 .0454512
486.479 .0454413
487.343 .0454508
488.206 .0454791
489.067 .0455264
489.928 .0455919
490.788 .0456759
491.647 .0457772
492.505 .0458962
493.362 .0460322
494.218 .0461845
495.073 .0463524
495.928 .0466583
496.781 .0468656
497.634 .0470895
498.486 .0473311
499.337 .0475915
500.187 .0478738
501.036 .0481800
501.884 .0485131
502.731 .0488767
503.578 .0492750
504.424 .0495493
505.268 .0500155
506.113 .0505277
506.956 .0510908
507.798 .0517106
508.640 .0523952
509.480 .0531531
510.320 .0539950
511.160 .0549331
511.998 .0559823
512.836 .0571585
513.672 .0584786
514.508 .0599614
515.344 .0616288
516.178 .0635026
517.012 .0656065
517.845 .0679612
518.677 .0705874
519.508 .0735026
520.339 .0767147
521.169 .0802221
521.998 .0839996
522.826 .0880106
523.654 .0922025
524.481 .0965087
525.307 .1008528
526.133 .1051503
526.958 .1093150
527.782 .1132632
528.605 .1169150
529.428 .1202003
530.250 .1230566
531.072 .1254395
531.892 .1273113
532.712 .1286447
533.532 .1294223
534.350 .1296364
535.168 .1292877
535.986 .1283814
536.802 .1269231
537.618 .1249264
538.434 .1224109
539.249 .1194195
540.063 .1160031
540.876 .1122241
541.689 .1081570
542.501 .1038836
543.313 .0994887
544.124 .0950577
544.934 .0906704
545.744 .0864005
546.553 .0823099
547.361 .0784511
548.169 .0748564
548.976 .0715500
549.783 .0685407
550.589 .0658246
551.395 .0633863
552.200 .0612035
553.004 .0592489
553.808 .0574967
554.611 .0559228
555.414 .0545054
556.216 .0532239
557.018 .0520596
557.819 .0509989
558.619 .0500289
559.419 .0491379
560.218 .0483170
561.017 .0475569
561.815 .0468503
562.613 .0461902
563.410 .0455691
564.207 .0449802
565.003 .0444176
565.799 .0438753
566.594 .0433487
567.388 .0428354
568.182 .0423336
568.976 .0418417
569.769 .0413594
570.562 .0408870
571.354 .0404246
572.145 .0399721
572.936 .0395297
573.727 .0390971
574.517 .0386744
575.307 .0382619
576.096 .0378595
576.885 .0374685
577.673 .0370903
578.461 .0367259
579.248 .0363765
580.035 .0360435
580.821 .0357274
581.607 .0354288
582.392 .0351481
583.177 .0348853
583.962 .0346404
584.746 .0344131
585.529 .0342027
586.313 .0340087
587.095 .0338301
587.878 .0336660
588.660 .0335153
589.441 .0333770
590.222 .0332503
591.003 .0331341
591.783 .0330277
592.563 .0329301
593.342 .0328403
594.121 .0327573
594.899 .0326803
595.678 .0326084
596.455 .0325406
597.233 .0324764
598.009 .0324152
598.786 .0323566
599.562 .0323003
600.338 .0322463
601.113 .0321945
601.888 .0321237
602.663 .0320771
603.437 .0320325
604.211 .0319898
604.984 .0319491
605.757 .0319103
606.530 .0318734
607.302 .0318384
608.074 .0318053
608.845 .0317741
609.616 .0317449
610.387 .0317351
611.158 .0317089
611.928 .0316845
612.697 .0316621
613.467 .0316414
614.236 .0316224
615.004 .0316049
615.773 .0315888
616.541 .0315738
617.308 .0315598
618.076 .0315466
618.843 .0315340
619.609 .0315220
620.375 .0315102
621.141 .0314985
621.907 .0314867
622.672 .0314747
623.437 .0314621
624.202 .0314490
624.966 .0314350
625.730 .0314201
626.493 .0314042
627.257 .0313873
628.020 .0313693
628.782 .0313502
629.545 .0313300
630.307 .0313087
631.068 .0312864
631.830 .0312630
632.591 .0312387
633.352 .0312136
634.112 .0311877
634.872 .0311611
635.632 .0311339
636.392 .0311062
637.151 .0310781
637.910 .0310497
638.668 .0310211
639.427 .0309922
640.185 .0309634
640.943 .0309345
641.700 .0309058
642.457 .0308772
643.214 .0308488
643.971 .0308207
644.727 .0307927
645.483 .0307648
646.239 .0307370
646.994 .0307091
647.750 .0306812
648.505 .0306532
649.259 .0306252
650.014 .0305971
650.768 .0305690
651.521 .0305411
652.275 .0305133
653.028 .0304858
653.781 .0304584
654.534 .0304313
655.286 .0304043
656.039 .0303775
656.791 .0303509
657.542 .0303246
658.294 .0302984
659.045 .0302726
659.796 .0302472
660.546 .0302222
661.297 .0301978
662.047 .0301739
662.796 .0301506
663.546 .0301277
664.295 .0301055
665.044 .0300838
665.793 .0300628
666.542 .0300424
667.290 .0300227
668.038 .0300037
668.786 .0299853
669.533 .0299677
670.281 .0299506
671.028 .0299341
671.774 .0299180
672.521 .0299023
673.267 .0298869
674.013 .0298719
674.759 .0298572
675.505 .0298428
676.250 .0298288
676.995 .0298150
677.740 .0298013
678.484 .0297879
679.229 .0297747
679.973 .0297615
680.717 .0297486
681.460 .0297358
682.204 .0297231
682.947 .0297107
683.690 .0296984
684.433 .0296863
685.175 .0296742
685.917 .0296621
686.659 .0296499
687.401 .0296376
688.142 .0296252
688.884 .0296127
689.625 .0296002
690.365 .0295875
691.106 .0295747
691.846 .0295618
692.586 .0295487
693.326 .0295353
694.066 .0295217
694.805 .0295078
695.545 .0294935
696.284 .0294789
697.022 .0294640
697.761 .0294489
698.499 .0294335
699.237 .0294179
699.975 .0294021
700.713 .0293861
701.450 .0293697
702.187 .0293531
702.924 .0293360
703.661 .0293185
704.397 .0293005
705.133 .0292820
705.869 .0292629
706.605 .0292433
707.341 .0292231
708.076 .0292025
708.811 .0291812
709.546 .0291596
710.281 .0291374
711.015 .0291147
711.749 .0290915
712.483 .0290679
713.217 .0290438
713.950 .0290193
714.684 .0289943
715.417 .0289690
716.150 .0289434
716.882 .0289174
717.615 .0288911
718.347 .0288645
719.079 .0288377
719.811 .0288106
720.542 .0287834
721.273 .0287562
722.005 .0287290
722.735 .0287020
723.466 .0286752
724.196 .0286488
724.927 .0286229
725.656 .0285974
726.386 .0285724
727.116 .0285479
727.845 .0285240
728.574 .0285006
729.303 .0284779
730.031 .0284558
730.760 .0284345
731.488 .0284138
732.216 .0283939
732.944 .0283747
733.671 .0283562
734.398 .0283384
735.125 .0283211
735.852 .0283046
736.579 .0282886
737.305 .0282733
738.031 .0282587
738.757 .0282447
739.483 .0282314
740.208 .0282188
740.933 .0282067
741.658 .0281951
742.383 .0281841
743.108 .0281734
743.832 .0281632
744.556 .0281533
745.280 .0281438
746.004 .0281347
746.727 .0281260
747.450 .0281176
748.173 .0281096
748.896 .0281018
749.618 .0280943
750.340 .0280869
751.062 .0280796
751.784 .0280724
752.506 .0280653
753.227 .0280583
753.948 .0280514
754.669 .0280446
755.389 .0280379
756.110 .0280312
756.830 .0280246
757.550 .0280180
758.269 .0280115
758.989 .0280050
759.708 .0279986
760.427 .0279923
761.146 .0279861
761.864 .0279800
762.582 .0279739
763.300 .0279678
764.018 .0279618
764.736 .0279557
765.453 .0279497
766.170 .0279436
766.887 .0279377
767.603 .0279318
768.320 .0279262
769.036 .0279206
769.751 .0279152
770.467 .0279099
771.182 .0279047
771.897 .0278994
772.612 .0278942
773.327 .0278890
774.041 .0278838
774.755 .0278786
775.469 .0278734
776.183 .0278683
776.896 .0278633
777.609 .0278584
778.322 .0278535
779.035 .0278485
779.747 .0278436
780.459 .0278385
781.171 .0278332
781.882 .0278278
782.594 .0278220
783.305 .0278159
784.016 .0278095
784.726 .0278026
785.436 .0277953
786.147 .0277824
786.856 .0277738
787.566 .0277646
788.275 .0277549
788.984 .0277447
789.693 .0277339
790.401 .0277225
791.110 .0277105
791.818 .0276979
792.525 .0276845
793.233 .0276705
793.940 .0276558
794.647 .0276468
795.353 .0276311
796.060 .0276148
796.766 .0275978
797.472 .0275801
798.177 .0275617
798.883 .0275425
799.588 .0275225
800.292 .0275017
800.997 .0274801
801.701 .0274577
802.405 .0274348
803.109 .0274112
803.812 .0273871
804.515 .0273625
805.218 .0273374
805.921 .0273118
806.623 .0272857
807.325 .0272592
808.027 .0272322
808.728 .0272048
809.429 .0271771
810.130 .0271493
810.831 .0271213
811.531 .0270934
812.231 .0270656
812.931 .0270379
813.630 .0270104
814.330 .0269832
815.029 .0269564
815.727 .0269300
816.426 .0269041
817.124 .0268789
817.821 .0268545
818.519 .0268309
819.216 .0268083
819.913 .0267867
820.609 .0267660
821.306 .0267463
822.002 .0267277
822.697 .0267100
823.393 .0266933
824.088 .0266776
824.783 .0266628
825.477 .0266490
826.171 .0266360
826.865 .0266238
827.559 .0266123
828.252 .0266015
828.945 .0265914
829.638 .0265819
830.330 .0265730
831.023 .0265646
831.714 .0265568
832.406 .0265495
833.097 .0265427
833.788 .0265364
834.479 .0265305
835.169 .0265250
835.859 .0265198
836.548 .0265150
837.238 .0265106
837.927 .0265064
838.615 .0265024
839.304 .0264986
839.992 .0264950
840.680 .0264915
841.367 .0264883
842.054 .0264854
842.741 .0264828
843.428 .0264804
844.114 .0264784
844.800 .0264766
845.485 .0264749
846.170 .0264734
846.855 .0264719
847.540 .0264703
848.224 .0264688
848.908 .0264673
849.592 .0264657
850.275 .0264643
850.958 .0264629
851.641 .0264615
852.323 .0264601
853.005 .0264587
853.687 .0264572
854.368 .0264555
855.049 .0264537
855.730 .0264519
856.410 .0264500
857.090 .0264481
857.769 .0264463
858.449 .0264446
859.128 .0264430
859.806 .0264415
860.485 .0264401
861.163 .0264389
861.840 .0264377
862.518 .0264366
863.195 .0264357
863.871 .0264349
864.548 .0264342
865.224 .0264337
865.899 .0264332
866.574 .0264329
867.249 .0264326
867.924 .0264323
868.598 .0264321
869.272 .0264320
869.946 .0264320
870.619 .0264320
871.292 .0264322
871.964 .0264325
872.636 .0264328
873.308 .0264331
873.979 .0264334
874.651 .0264336
875.321 .0264338
875.992 .0264338
876.662 .0264337
877.331 .0264334
878.001 .0264329
878.670 .0264323
879.338 .0264314
880.007 .0264304
880.675 .0264291
881.342 .0264277
882.009 .0264260
882.676 .0264240
883.343 .0264218
884.009 .0264194
884.675 .0264167
885.340 .0264138
886.005 .0264105
886.670 .0264070
887.334 .0264032
887.998 .0263990
888.662 .0263945
889.325 .0263895
889.988 .0263842
890.650 .0263782
891.312 .0263718
891.974 .0263647
892.636 .0263569
893.297 .0263485
893.957 .0263394
894.618 .0263296
895.278 .0263191
895.937 .0263079
896.596 .0262960
897.255 .0262834
897.914 .0262701
898.572 .0262560
899.230 .0262411
899.887 .0262254
900.544 .0262088
901.201 .0261915
901.857 .0261620
902.513 .0261427
903.168 .0261226
903.823 .0261018
904.478 .0260801
905.132 .0260577
905.786 .0260344
906.440 .0260104
907.093 .0259857
907.746 .0259603
908.399 .0259343
909.051 .0259077
909.703 .0258806
910.354 .0258657
911.005 .0258380
911.656 .0258097
912.306 .0257811
912.956 .0257519
913.605 .0257224
914.254 .0256925
914.903 .0256622
915.551 .0256316
916.199 .0256008
916.847 .0255698
917.494 .0255386
918.141 .0255073
918.788 .0254758
919.434 .0254442
920.079 .0254124
920.725 .0253804
921.370 .0253483
922.014 .0253160
922.658 .0252836
923.302 .0252512
923.946 .0252189
924.589 .0251867
925.231 .0251547
925.873 .0251228
926.515 .0250912
927.157 .0250599
927.798 .0250288
928.439 .0249981
929.079 .0249678
929.719 .0249380
930.359 .0249087
930.998 .0248801
931.637 .0248523
932.275 .0248252
932.913 .0247990
933.551 .0247737
934.188 .0247493
934.825 .0247258
935.462 .0247030
936.098 .0246812
936.733 .0246602
937.369 .0246400
938.004 .0246206
938.638 .0246021
939.273 .0245845
939.907 .0245678
940.540 .0245518
941.173 .0245367
941.806 .0245224
942.438 .0245087
943.070 .0244958
943.702 .0244836
944.333 .0244720
944.964 .0244611
945.594 .0244509
946.224 .0244413
946.854 .0244322
947.483 .0244238
948.112 .0244159
948.741 .0244085
949.369 .0244015
949.996 .0243950
950.624 .0243889
951.251 .0243831
951.878 .0243777
952.504 .0243726
953.130 .0243680
953.755 .0243637
954.380 .0243598
955.005 .0243564
955.629 .0243535
956.253 .0243511
956.877 .0243491
957.500 .0243478
958.123 .0243469
958.746 .0243466
959.368 .0243468
959.990 .0243477
960.611 .0243492
961.232 .0243513
961.853 .0243540
962.473 .0243573
963.093 .0243611
963.712 .0243654
964.331 .0243701
964.950 .0243751
965.569 .0243804
966.187 .0243859
966.804 .0243915
967.422 .0243972
968.039 .0244030
968.655 .0244089
969.272 .0244149
969.887 .0244210
970.503 .0244271
971.118 .0244334
971.733 .0244397
972.347 .0244461
972.961 .0244525
973.575 .0244590
974.188 .0244655
974.801 .0244722
975.414 .0244789
976.026 .0244857
976.638 .0244925
977.250 .0244994
977.861 .0245062
978.472 .0245131
979.083 .0245198
979.693 .0245265
980.303 .0245330
980.912 .0245430
981.521 .0245492
982.130 .0245553
982.738 .0245614
983.346 .0245674
983.954 .0245734
984.562 .0245795
985.169 .0245857
985.775 .0245919
986.382 .0245983
986.988 .0246048
987.594 .0246116
988.199 .0246185
988.804 .0246257
989.409 .0246294
990.013 .0246370
990.617 .0246449
991.221 .0246530
991.824 .0246611
992.427 .0246693
993.030 .0246776
993.632 .0246858
994.234 .0246940
994.836 .0247021
995.438 .0247102
996.039 .0247184
996.640 .0247266
997.240 .0247349
997.840 .0247434
998.440 .0247519
999.040 .0247605
999.639 .0247691
1000.238 .0247777
1000.836 .0247862
1001.435 .0247948
1002.033 .0248034
1002.630 .0248119
1003.228 .0248203
1003.825 .0248287
1004.422 .0248368
1005.018 .0248447
1005.614 .0248521
1006.210 .0248591
1006.806 .0248655
1007.401 .0248714
1007.996 .0248767
1008.591 .0248816
1009.186 .0248861
1009.780 .0248901
1010.374 .0248938
1010.967 .0248972
1011.561 .0249002
1012.154 .0249027
1012.746 .0249048
1013.339 .0249065
1013.931 .0249078
1014.523 .0249086
1015.115 .0249091
1015.706 .0249093
1016.298 .0249093
1016.888 .0249092
1017.479 .0249089
1018.069 .0249086
1018.660 .0249082
1019.250 .0249078
1019.839 .0249073
1020.429 .0249068
1021.018 .0249062
1021.607 .0249056
1022.195 .0249050
1022.784 .0249045
1023.372 .0249040
1023.960 .0249036
1024.547 .0249031
1025.135 .0249027
1025.722 .0249022
1026.309 .0249014
1026.896 .0249005
1027.483 .0248992
1028.069 .0248974
1028.655 .0248952
1029.241 .0248926
1029.827 .0248895
1030.412 .0248859
1030.997 .0248821
1031.582 .0248779
1032.167 .0248734
1032.752 .0248686
1033.336 .0248635
1033.921 .0248581
1034.505 .0248524
1035.089 .0248462
1035.672 .0248397
1036.256 .0248327
1036.839 .0248252
1037.422 .0248173
1038.005 .0248088
1038.588 .0247998
1039.171 .0247902
1039.753 .0247798
1040.335 .0247686
1040.918 .0247567
1041.500 .0247438
1042.081 .0247302
1042.663 .0247157
1043.244 .0247007
1043.826 .0246851
1044.407 .0246691
1044.988 .0246529
1045.569 .0246366
1046.150 .0246203
1046.730 .0246039
1047.311 .0245875
1047.891 .0245709
1048.471 .0245543
1049.052 .0245374
1049.632 .0245204
1050.211 .0245031
1050.791 .0244857
1051.371 .0244681
1051.950 .0244503
1052.530 .0244322
1053.109 .0244139
1053.688 .0243952
1054.268 .0243761
1054.847 .0243567
1055.426 .0243371
1056.005 .0243173
1056.583 .0242974
1057.162 .0242778
1057.741 .0242585
1058.319 .0242396
1058.898 .0242213
1059.476 .0242036
1060.055 .0241866
1060.633 .0241702
1061.211 .0241545
1061.790 .0241395
1062.368 .0241250
1062.946 .0241111
1063.524 .0240976
1064.102 .0240845
1064.680 .0240718
1065.258 .0240595
1065.836 .0240475
1066.414 .0240358
1066.992 .0240246
1067.570 .0240138
1068.148 .0240036
1068.726 .0239939
1069.304 .0239849
1069.882 .0239764
1070.460 .0239685
1071.038 .0239610
1071.616 .0239540
1072.194 .0239475
1072.772 .0239414
1073.350 .0239358
1073.928 .0239307
1074.506 .0239259
1075.084 .0239214
1075.662 .0239173
1076.240 .0239134
1076.819 .0239096
1077.397 .0239056
1077.976 .0239014
1078.554 .0238969
1079.133 .0238921
1079.711 .0238870
1080.290 .0238819
1080.869 .0238768
1081.448 .0238719
1082.027 .0238674
1082.606 .0238633
1083.185 .0238597
1083.764 .0238567
1084.343 .0238542
1084.923 .0238521
1085.502 .0238505
1086.082 .0238494
1086.662 .0238489
1087.242 .0238491
1087.822 .0238501
1088.402 .0238522
1088.983 .0238552
1089.563 .0238591
1090.144 .0238638
1090.725 .0238694
1091.306 .0238757
1091.887 .0238828
1092.469 .0238907
1093.050 .0238995
1093.632 .0239094
1094.214 .0239204
1094.796 .0239326
1095.379 .0239460
1095.961 .0239604
1096.544 .0239757
1097.127 .0239916
1097.710 .0240081
1098.294 .0240249
1098.877 .0240423
1099.461 .0240601
1100.046 .0240785
1100.630 .0240975
1101.215 .0241172
1101.800 .0241376
1102.385 .0241587
1102.970 .0241802
1103.556 .0242022
1104.142 .0242245
1104.728 .0242470
1105.315 .0242699
1105.902 .0242933
1106.489 .0243174
1107.077 .0243424
1107.664 .0243684
1108.253 .0243956
1108.841 .0244239
1109.430 .0244531
1110.019 .0244834
1110.609 .0245146
1111.198 .0245466
1111.789 .0245795
1112.379 .0246133
1112.970 .0246483
1113.561 .0246846
1114.153 .0247225
1114.745 .0247622
1115.338 .0248040
1115.931 .0248477
1116.524 .0248935
1117.117 .0249412
1117.712 .0249907
1118.306 .0250421
1118.901 .0250955
1119.496 .0251508
1120.092 .0252082
1120.689 .0252679
1121.285 .0253300
1121.882 .0253947
1122.480 .0254621
1123.078 .0255322
1123.677 .0256050
1124.276 .0256801
1124.875 .0257573
1125.476 .0258362
1126.076 .0259169
1126.677 .0259993
1127.279 .0260834
1127.881 .0261696
1128.484 .0262579
1129.087 .0262978
1129.691 .0263902
1130.295 .0264855
1130.900 .0265838
1131.505 .0266850
1132.111 .0267889
1132.718 .0268956
1133.325 .0270051
1133.933 .0271180
1134.541 .0272265
1135.150 .0273456
1135.760 .0274708
1136.370 .0276051
1136.981 .0276535
1137.592 .0277795
1138.204 .0279145
1138.817 .0280521
1139.431 .0281894
1140.045 .0283320
1140.660 .0284792
1141.275 .0286376
1141.891 .0288108
1142.508 .0287722
1143.126 .0291538
1143.744 .0294148
1144.363 .0297557
1144.983 .0299864
