Measurement Sequence started on: 15-12-46-377
Integration time: 28
Scans to Average: 2 
>>>>>Begin Spectral Data<<<<<
432.689 .0000100
433.621 .0000100
434.552 .0000100
435.482 .0000100
436.410 .0000100
437.337 .0000100
438.262 .0254095
439.187 .0537570
440.110 .0890012
441.031 .1287676
441.952 .1033156
442.871 .1079242
443.789 .1122203
444.705 .1162725
445.621 .1201274
446.535 .1238206
447.447 .1260409
448.359 .1266528
449.269 .1253098
450.178 .1217839
451.086 .1161444
451.993 .1088312
452.898 .1005729
453.803 .0921962
454.706 .0844042
455.608 .0776336
456.508 .0720324
457.408 .0682534
458.306 .0653527
459.204 .0629945
460.100 .0610113
460.995 .0593090
461.888 .0578221
462.781 .0565063
463.673 .0553286
464.563 .0542649
465.452 .0532973
466.340 .0524109
467.228 .0515977
468.114 .0508507
468.999 .0501662
469.882 .0495409
470.765 .0489722
471.647 .0484570
472.528 .0479923
473.407 .0475735
474.286 .0471973
475.163 .0468596
476.040 .0465564
476.915 .0462843
477.790 .0460405
478.663 .0458226
479.535 .0456295
480.407 .0454602
481.277 .0453147
482.147 .0451919
483.015 .0450916
483.883 .0450124
484.749 .0449528
485.615 .0449115
486.479 .0448867
487.343 .0448771
488.206 .0448823
489.067 .0449015
489.928 .0449354
490.788 .0449845
491.647 .0450501
492.505 .0451331
493.362 .0452346
494.218 .0453555
495.073 .0454964
495.928 .0457777
496.781 .0459720
497.634 .0461873
498.486 .0464238
499.337 .0466822
500.187 .0469642
501.036 .0472717
501.884 .0476075
502.731 .0479756
503.578 .0483804
504.424 .0486638
505.268 .0491400
506.113 .0496661
506.956 .0502467
507.798 .0508867
508.640 .0515915
509.480 .0523688
510.320 .0532269
511.160 .0541762
511.998 .0552286
512.836 .0563994
513.672 .0577065
514.508 .0591714
515.344 .0608187
516.178 .0626743
517.012 .0647671
517.845 .0671211
518.677 .0697578
519.508 .0726972
520.339 .0759462
521.169 .0795080
521.998 .0833575
522.826 .0874587
523.654 .0917570
524.481 .0961854
525.307 .1006648
526.133 .1051048
526.958 .1094154
527.782 .1135058
528.605 .1172893
529.428 .1206922
530.250 .1236463
531.072 .1261052
531.892 .1280279
532.712 .1293859
533.532 .1301597
534.350 .1303410
535.168 .1299323
535.986 .1289418
536.802 .1273783
537.618 .1252597
538.434 .1226039
539.249 .1194533
540.063 .1158605
540.876 .1118897
541.689 .1076166
542.501 .1031274
543.313 .0985150
544.124 .0938703
544.934 .0892815
545.744 .0848302
546.553 .0805828
547.361 .0765967
548.169 .0729040
548.976 .0695273
549.783 .0664738
550.589 .0637391
551.395 .0613032
552.200 .0591397
553.004 .0572185
553.808 .0555084
554.611 .0539822
555.414 .0526152
556.216 .0513856
557.018 .0502727
557.819 .0492616
558.619 .0483385
559.419 .0474907
560.218 .0467093
561.017 .0459848
561.815 .0453101
562.613 .0446789
563.410 .0440848
564.207 .0435219
565.003 .0429855
565.799 .0424713
566.594 .0419747
567.388 .0414935
568.182 .0410259
568.976 .0405706
569.769 .0401269
570.562 .0396947
571.354 .0392735
572.145 .0388635
572.936 .0384646
573.727 .0380764
574.517 .0376992
575.307 .0373332
576.096 .0369785
576.885 .0366355
577.673 .0363050
578.461 .0359877
579.248 .0356838
580.035 .0353943
580.821 .0351191
581.607 .0348587
582.392 .0346132
583.177 .0343826
583.962 .0341665
584.746 .0339646
585.529 .0337762
586.313 .0336004
587.095 .0334366
587.878 .0332841
588.660 .0331419
589.441 .0330094
590.222 .0328862
591.003 .0327717
591.783 .0326655
592.563 .0325670
593.342 .0324753
594.121 .0323900
594.899 .0323102
595.678 .0322354
596.455 .0321648
597.233 .0320981
598.009 .0320350
598.786 .0319751
599.562 .0319182
600.338 .0318641
601.113 .0318124
601.888 .0317406
602.663 .0316931
603.437 .0316471
604.211 .0316023
604.984 .0315586
605.757 .0315158
606.530 .0314742
607.302 .0314336
608.074 .0313943
608.845 .0313562
609.616 .0313194
610.387 .0313042
611.158 .0312696
611.928 .0312364
612.697 .0312044
613.467 .0311738
614.236 .0311445
615.004 .0311165
615.773 .0310899
616.541 .0310647
617.308 .0310409
618.076 .0310186
618.843 .0309977
619.609 .0309781
620.375 .0309597
621.141 .0309425
621.907 .0309261
622.672 .0309104
623.437 .0308952
624.202 .0308801
624.966 .0308651
625.730 .0308498
626.493 .0308343
627.257 .0308184
628.020 .0308021
628.782 .0307854
629.545 .0307682
630.307 .0307507
631.068 .0307327
631.830 .0307142
632.591 .0306951
633.352 .0306754
634.112 .0306551
634.872 .0306343
635.632 .0306130
636.392 .0305912
637.151 .0305693
637.910 .0305473
638.668 .0305252
639.427 .0305032
640.185 .0304814
640.943 .0304596
641.700 .0304381
642.457 .0304167
643.214 .0303955
643.971 .0303746
644.727 .0303538
645.483 .0303333
646.239 .0303129
646.994 .0302926
647.750 .0302722
648.505 .0302518
649.259 .0302311
650.014 .0302103
650.768 .0301892
651.521 .0301679
652.275 .0301464
653.028 .0301245
653.781 .0301022
654.534 .0300792
655.286 .0300556
656.039 .0300311
656.791 .0300058
657.542 .0299796
658.294 .0299528
659.045 .0299254
659.796 .0298975
660.546 .0298693
661.297 .0298408
662.047 .0298121
662.796 .0297832
663.546 .0297540
664.295 .0297248
665.044 .0296955
665.793 .0296664
666.542 .0296374
667.290 .0296089
668.038 .0295808
668.786 .0295531
669.533 .0295260
670.281 .0294993
671.028 .0294733
671.774 .0294478
672.521 .0294230
673.267 .0293990
674.013 .0293759
674.759 .0293536
675.505 .0293323
676.250 .0293119
676.995 .0292923
677.740 .0292735
678.484 .0292554
679.229 .0292381
679.973 .0292215
680.717 .0292056
681.460 .0291905
682.204 .0291761
682.947 .0291624
683.690 .0291491
684.433 .0291364
685.175 .0291239
685.917 .0291118
686.659 .0290999
687.401 .0290882
688.142 .0290768
688.884 .0290656
689.625 .0290547
690.365 .0290441
691.106 .0290337
691.846 .0290234
692.586 .0290133
693.326 .0290033
694.066 .0289934
694.805 .0289837
695.545 .0289740
696.284 .0289644
697.022 .0289548
697.761 .0289454
698.499 .0289361
699.237 .0289268
699.975 .0289176
700.713 .0289085
701.450 .0288995
702.187 .0288906
702.924 .0288817
703.661 .0288729
704.397 .0288639
705.133 .0288549
705.869 .0288456
706.605 .0288360
707.341 .0288261
708.076 .0288159
708.811 .0288053
709.546 .0287942
710.281 .0287827
711.015 .0287707
711.749 .0287582
712.483 .0287451
713.217 .0287314
713.950 .0287172
714.684 .0287023
715.417 .0286868
716.150 .0286706
716.882 .0286537
717.615 .0286361
718.347 .0286178
719.079 .0285989
719.811 .0285793
720.542 .0285592
721.273 .0285386
722.005 .0285177
722.735 .0284965
723.466 .0284752
724.196 .0284537
724.927 .0284321
725.656 .0284105
726.386 .0283889
727.116 .0283672
727.845 .0283455
728.574 .0283238
729.303 .0283022
730.031 .0282807
730.760 .0282593
731.488 .0282381
732.216 .0282172
732.944 .0281964
733.671 .0281758
734.398 .0281553
735.125 .0281351
735.852 .0281150
736.579 .0280950
737.305 .0280753
738.031 .0280557
738.757 .0280362
739.483 .0280168
740.208 .0279976
740.933 .0279784
741.658 .0279593
742.383 .0279403
743.108 .0279214
743.832 .0279027
744.556 .0278841
745.280 .0278658
746.004 .0278478
746.727 .0278299
747.450 .0278121
748.173 .0277944
748.896 .0277767
749.618 .0277590
750.340 .0277414
751.062 .0277239
751.784 .0277065
752.506 .0276894
753.227 .0276726
753.948 .0276560
754.669 .0276397
755.389 .0276236
756.110 .0276077
756.830 .0275920
757.550 .0275765
758.269 .0275611
758.989 .0275460
759.708 .0275310
760.427 .0275162
761.146 .0275016
761.864 .0274872
762.582 .0274731
763.300 .0274591
764.018 .0274456
764.736 .0274324
765.453 .0274197
766.170 .0274075
766.887 .0273959
767.603 .0273850
768.320 .0273746
769.036 .0273648
769.751 .0273557
770.467 .0273472
771.182 .0273394
771.897 .0273323
772.612 .0273260
773.327 .0273205
774.041 .0273159
774.755 .0273122
775.469 .0273092
776.183 .0273070
776.896 .0273055
777.609 .0273046
778.322 .0273045
779.035 .0273049
779.747 .0273059
780.459 .0273076
781.171 .0273098
781.882 .0273126
782.594 .0273160
783.305 .0273198
784.016 .0273239
784.726 .0273284
785.436 .0273330
786.147 .0273404
786.856 .0273451
787.566 .0273499
788.275 .0273547
788.984 .0273595
789.693 .0273641
790.401 .0273686
791.110 .0273729
791.818 .0273770
792.525 .0273807
793.233 .0273841
793.940 .0273871
794.647 .0273874
795.353 .0273896
796.060 .0273913
796.766 .0273925
797.472 .0273930
798.177 .0273928
798.883 .0273919
799.588 .0273902
800.292 .0273877
800.997 .0273845
801.701 .0273805
802.405 .0273757
803.109 .0273703
803.812 .0273640
804.515 .0273568
805.218 .0273488
805.921 .0273398
806.623 .0273299
807.325 .0273191
808.027 .0273074
808.728 .0272949
809.429 .0272818
810.130 .0272680
810.831 .0272537
811.531 .0272389
812.231 .0272236
812.931 .0272078
813.630 .0271916
814.330 .0271751
815.029 .0271585
815.727 .0271417
816.426 .0271250
817.124 .0271083
817.821 .0270919
818.519 .0270756
819.216 .0270596
819.913 .0270438
820.609 .0270282
821.306 .0270128
822.002 .0269978
822.697 .0269831
823.393 .0269687
824.088 .0269546
824.783 .0269409
825.477 .0269274
826.171 .0269139
826.865 .0269005
827.559 .0268871
828.252 .0268735
828.945 .0268599
829.638 .0268461
830.330 .0268322
831.023 .0268181
831.714 .0268039
832.406 .0267894
833.097 .0267745
833.788 .0267593
834.479 .0267436
835.169 .0267275
835.859 .0267108
836.548 .0266937
837.238 .0266762
837.927 .0266583
838.615 .0266400
839.304 .0266213
839.992 .0266023
840.680 .0265830
841.367 .0265633
842.054 .0265435
842.741 .0265234
843.428 .0265033
844.114 .0264831
844.800 .0264628
845.485 .0264425
846.170 .0264222
846.855 .0264018
847.540 .0263813
848.224 .0263608
848.908 .0263402
849.592 .0263196
850.275 .0262990
850.958 .0262784
851.641 .0262579
852.323 .0262374
853.005 .0262169
853.687 .0261965
854.368 .0261760
855.049 .0261555
855.730 .0261351
856.410 .0261149
857.090 .0260949
857.769 .0260751
858.449 .0260555
859.128 .0260363
859.806 .0260174
860.485 .0259987
861.163 .0259804
861.840 .0259624
862.518 .0259449
863.195 .0259279
863.871 .0259115
864.548 .0258957
865.224 .0258806
865.899 .0258661
866.574 .0258524
867.249 .0258392
867.924 .0258268
868.598 .0258150
869.272 .0258039
869.946 .0257936
870.619 .0257841
871.292 .0257755
871.964 .0257679
872.636 .0257612
873.308 .0257554
873.979 .0257505
874.651 .0257463
875.321 .0257429
875.992 .0257403
876.662 .0257384
877.331 .0257372
878.001 .0257367
878.670 .0257370
879.338 .0257380
880.007 .0257397
880.675 .0257420
881.342 .0257451
882.009 .0257488
882.676 .0257532
883.343 .0257582
884.009 .0257640
884.675 .0257704
885.340 .0257774
886.005 .0257851
886.670 .0257935
887.334 .0258024
887.998 .0258119
888.662 .0258219
889.325 .0258324
889.988 .0258434
890.650 .0258548
891.312 .0258665
891.974 .0258786
892.636 .0258910
893.297 .0259035
893.957 .0259162
894.618 .0259290
895.278 .0259417
895.937 .0259542
896.596 .0259664
897.255 .0259782
897.914 .0259895
898.572 .0260002
899.230 .0260101
899.887 .0260192
900.544 .0260275
901.201 .0260350
901.857 .0260419
902.513 .0260472
903.168 .0260515
903.823 .0260549
904.478 .0260573
905.132 .0260587
905.786 .0260590
906.440 .0260582
907.093 .0260565
907.746 .0260537
908.399 .0260501
909.051 .0260457
909.703 .0260406
910.354 .0260365
911.005 .0260307
911.656 .0260242
912.306 .0260172
912.956 .0260097
913.605 .0260017
914.254 .0259933
914.903 .0259847
915.551 .0259758
916.199 .0259667
916.847 .0259574
917.494 .0259480
918.141 .0259383
918.788 .0259284
919.434 .0259182
920.079 .0259077
920.725 .0258968
921.370 .0258856
922.014 .0258741
922.658 .0258622
923.302 .0258500
923.946 .0258374
924.589 .0258244
925.231 .0258111
925.873 .0257974
926.515 .0257833
927.157 .0257688
927.798 .0257539
928.439 .0257385
929.079 .0257229
929.719 .0257069
930.359 .0256907
930.998 .0256743
931.637 .0256578
932.275 .0256412
932.913 .0256246
933.551 .0256080
934.188 .0255915
934.825 .0255751
935.462 .0255588
936.098 .0255426
936.733 .0255264
937.369 .0255104
938.004 .0254945
938.638 .0254788
939.273 .0254632
939.907 .0254479
940.540 .0254328
941.173 .0254180
941.806 .0254035
942.438 .0253891
943.070 .0253749
943.702 .0253607
944.333 .0253464
944.964 .0253320
945.594 .0253176
946.224 .0253031
946.854 .0252886
947.483 .0252740
948.112 .0252594
948.741 .0252446
949.369 .0252296
949.996 .0252143
950.624 .0251987
951.251 .0251827
951.878 .0251663
952.504 .0251496
953.130 .0251325
953.755 .0251151
954.380 .0250975
955.005 .0250797
955.629 .0250615
956.253 .0250431
956.877 .0250242
957.500 .0250048
958.123 .0249850
958.746 .0249647
959.368 .0249441
959.990 .0249232
960.611 .0249021
961.232 .0248811
961.853 .0248600
962.473 .0248389
963.093 .0248178
963.712 .0247966
964.331 .0247754
964.950 .0247540
965.569 .0247326
966.187 .0247111
966.804 .0246896
967.422 .0246681
968.039 .0246466
968.655 .0246251
969.272 .0246036
969.887 .0245821
970.503 .0245605
971.118 .0245388
971.733 .0245171
972.347 .0244953
972.961 .0244736
973.575 .0244520
974.188 .0244305
974.801 .0244092
975.414 .0243881
976.026 .0243670
976.638 .0243461
977.250 .0243253
977.861 .0243045
978.472 .0242837
979.083 .0242630
979.693 .0242423
980.303 .0242217
980.912 .0241911
981.521 .0241706
982.130 .0241502
982.738 .0241298
983.346 .0241095
983.954 .0240894
984.562 .0240696
985.169 .0240503
985.775 .0240315
986.382 .0240134
986.988 .0239960
987.594 .0239794
988.199 .0239635
988.804 .0239484
989.409 .0239432
990.013 .0239295
990.617 .0239165
991.221 .0239045
991.824 .0238932
992.427 .0238828
993.030 .0238731
993.632 .0238642
994.234 .0238559
994.836 .0238483
995.438 .0238413
996.039 .0238349
996.640 .0238291
997.240 .0238239
997.840 .0238195
998.440 .0238158
999.040 .0238129
999.639 .0238109
1000.238 .0238097
1000.836 .0238092
1001.435 .0238095
1002.033 .0238103
1002.630 .0238117
1003.228 .0238135
1003.825 .0238157
1004.422 .0238182
1005.018 .0238211
1005.614 .0238242
1006.210 .0238276
1006.806 .0238313
1007.401 .0238352
1007.996 .0238392
1008.591 .0238435
1009.186 .0238481
1009.780 .0238529
1010.374 .0238582
1010.967 .0238639
1011.561 .0238701
1012.154 .0238769
1012.746 .0238843
1013.339 .0238922
1013.931 .0239007
1014.523 .0239096
1015.115 .0239190
1015.706 .0239288
1016.298 .0239390
1016.888 .0239497
1017.479 .0239607
1018.069 .0239722
1018.660 .0239840
1019.250 .0239961
1019.839 .0240086
1020.429 .0240214
1021.018 .0240345
1021.607 .0240479
1022.195 .0240617
1022.784 .0240760
1023.372 .0240908
1023.960 .0241062
1024.547 .0241223
1025.135 .0241390
1025.722 .0241563
1026.309 .0241741
1026.896 .0241924
1027.483 .0242111
1028.069 .0242302
1028.655 .0242494
1029.241 .0242688
1029.827 .0242884
1030.412 .0243082
1030.997 .0243281
1031.582 .0243481
1032.167 .0243684
1032.752 .0243888
1033.336 .0244094
1033.921 .0244301
1034.505 .0244509
1035.089 .0244717
1035.672 .0244925
1036.256 .0245132
1036.839 .0245338
1037.422 .0245541
1038.005 .0245741
1038.588 .0245938
1039.171 .0246131
1039.753 .0246320
1040.335 .0246504
1040.918 .0246685
1041.500 .0246861
1042.081 .0247033
1042.663 .0247201
1043.244 .0247365
1043.826 .0247527
1044.407 .0247686
1044.988 .0247843
1045.569 .0248000
1046.150 .0248157
1046.730 .0248314
1047.311 .0248472
1047.891 .0248630
1048.471 .0248788
1049.052 .0248944
1049.632 .0249099
1050.211 .0249252
1050.791 .0249401
1051.371 .0249546
1051.950 .0249688
1052.530 .0249827
1053.109 .0249962
1053.688 .0250095
1054.268 .0250227
1054.847 .0250359
1055.426 .0250491
1056.005 .0250624
1056.583 .0250759
1057.162 .0250895
1057.741 .0251034
1058.319 .0251176
1058.898 .0251319
1059.476 .0251464
1060.055 .0251611
1060.633 .0251757
1061.211 .0251901
1061.790 .0252044
1062.368 .0252183
1062.946 .0252318
1063.524 .0252448
1064.102 .0252573
1064.680 .0252693
1065.258 .0252807
1065.836 .0252916
1066.414 .0253022
1066.992 .0253125
1067.570 .0253225
1068.148 .0253323
1068.726 .0253420
1069.304 .0253517
1069.882 .0253616
1070.460 .0253717
1071.038 .0253820
1071.616 .0253926
1072.194 .0254033
1072.772 .0254142
1073.350 .0254250
1073.928 .0254356
1074.506 .0254457
1075.084 .0254551
1075.662 .0254637
1076.240 .0254715
1076.819 .0254784
1077.397 .0254846
1077.976 .0254901
1078.554 .0254950
1079.133 .0254995
1079.711 .0255035
1080.290 .0255073
1080.869 .0255109
1081.448 .0255143
1082.027 .0255176
1082.606 .0255208
1083.185 .0255239
1083.764 .0255270
1084.343 .0255302
1084.923 .0255335
1085.502 .0255368
1086.082 .0255401
1086.662 .0255434
1087.242 .0255467
1087.822 .0255498
1088.402 .0255526
1088.983 .0255552
1089.563 .0255574
1090.144 .0255593
1090.725 .0255609
1091.306 .0255624
1091.887 .0255640
1092.469 .0255660
1093.050 .0255684
1093.632 .0255715
1094.214 .0255754
1094.796 .0255801
1095.379 .0255858
1095.961 .0255923
1096.544 .0255997
1097.127 .0256078
1097.710 .0256165
1098.294 .0256259
1098.877 .0256360
1099.461 .0256467
1100.046 .0256583
1100.630 .0256706
1101.215 .0256838
1101.800 .0256977
1102.385 .0257123
1102.970 .0257276
1103.556 .0257435
1104.142 .0257599
1104.728 .0257766
1105.315 .0257938
1105.902 .0258115
1106.489 .0258298
1107.077 .0258490
1107.664 .0258691
1108.253 .0258901
1108.841 .0259122
1109.430 .0259351
1110.019 .0259589
1110.609 .0259834
1111.198 .0260086
1111.789 .0260346
1112.379 .0260613
1112.970 .0260888
1113.561 .0261170
1114.153 .0261460
1114.745 .0261757
1115.338 .0262059
1115.931 .0262366
1116.524 .0262677
1117.117 .0262991
1117.712 .0263311
1118.306 .0263639
1118.901 .0263976
1119.496 .0264324
1120.092 .0264684
1120.689 .0265056
1121.285 .0265436
1121.882 .0265825
1122.480 .0266220
1123.078 .0266619
1123.677 .0267023
1124.276 .0267434
1124.875 .0267854
1125.476 .0268290
1126.076 .0268743
1126.677 .0269218
1127.279 .0269716
1127.881 .0270237
1128.484 .0270780
1129.087 .0271009
1129.691 .0271578
1130.295 .0272169
1130.900 .0272783
1131.505 .0273421
1132.111 .0274090
1132.718 .0274792
1133.325 .0275531
1133.933 .0276302
1134.541 .0277146
1135.150 .0278028
1135.760 .0278885
1136.370 .0279763
1136.981 .0279729
1137.592 .0280750
1138.204 .0281789
1138.817 .0282837
1139.431 .0283967
1140.045 .0285195
1140.660 .0286476
1141.275 .0287820
1141.891 .0289024
1142.508 .0291459
1143.126 .0292914
1143.744 .0292761
1144.363 .0293886
1144.983 .0291062
