Measurement Sequence started on: 15-12-46-377
Integration time: 28
Scans to Average: 2 
>>>>>Begin Spectral Data<<<<<
432.689 .0000100
433.621 .0000100
434.552 .0000100
435.482 .0000100
436.410 .0000100
437.337 .0000100
438.262 .0295096
439.187 .0623593
440.110 .1032098
441.031 .1492145
441.952 .1190978
442.871 .1243326
443.789 .1291998
444.705 .1337759
445.621 .1381136
446.535 .1422526
447.447 .1446710
448.359 .1452165
449.269 .1434883
450.178 .1392318
451.086 .1325336
451.993 .1239094
452.898 .1142094
453.803 .1043936
454.706 .0952776
455.608 .0873651
456.508 .0808206
457.408 .0764004
458.306 .0730016
459.204 .0702346
460.100 .0679033
460.995 .0659000
461.888 .0641521
462.781 .0626104
463.673 .0612380
464.563 .0600068
465.452 .0588952
466.340 .0578853
467.228 .0569622
468.114 .0561153
468.999 .0553366
469.882 .0546196
470.765 .0539599
471.647 .0533541
472.528 .0527999
473.407 .0522956
474.286 .0518395
475.163 .0514294
476.040 .0510628
476.915 .0507365
477.790 .0504472
478.663 .0501916
479.535 .0499674
480.407 .0497723
481.277 .0496046
482.147 .0494627
483.015 .0493453
483.883 .0492514
484.749 .0491796
485.615 .0491290
486.479 .0490985
487.343 .0490867
488.206 .0490928
489.067 .0491155
489.928 .0491545
490.788 .0492096
491.647 .0492812
492.505 .0493697
493.362 .0494758
494.218 .0496000
495.073 .0497429
495.928 .0500257
496.781 .0502173
497.634 .0504286
498.486 .0506591
499.337 .0509094
500.187 .0511803
501.036 .0514722
501.884 .0517873
502.731 .0521280
503.578 .0524975
504.424 .0527426
505.268 .0531693
506.113 .0536372
506.956 .0541509
507.798 .0547165
508.640 .0553403
509.480 .0560306
510.320 .0567992
511.160 .0576598
511.998 .0586280
512.836 .0597229
513.672 .0609635
514.508 .0623728
515.344 .0639757
516.178 .0657976
517.012 .0678655
517.845 .0702065
518.677 .0728454
519.508 .0758058
520.339 .0791017
521.169 .0827430
521.998 .0867116
522.826 .0909773
523.654 .0954871
524.481 .1001712
525.307 .1049471
526.133 .1097198
526.958 .1143886
527.782 .1188532
528.605 .1230179
529.428 .1267988
530.250 .1301195
531.072 .1329299
531.892 .1351878
532.712 .1368650
533.532 .1379446
534.350 .1384197
535.168 .1382904
535.986 .1375631
536.802 .1362414
537.618 .1343344
538.434 .1318536
539.249 .1288346
540.063 .1253232
540.876 .1213838
541.689 .1170959
542.501 .1125492
543.313 .1078416
544.124 .1030744
544.934 .0983423
545.744 .0937329
546.553 .0893191
547.361 .0851624
548.169 .0812963
548.976 .0777439
549.783 .0745111
550.589 .0715924
551.395 .0689694
552.200 .0666161
553.004 .0645021
553.808 .0625989
554.611 .0608813
555.414 .0593245
556.216 .0579059
557.018 .0566061
557.819 .0554082
558.619 .0542974
559.419 .0532613
560.218 .0522912
561.017 .0513786
561.815 .0505184
562.613 .0497059
563.410 .0489359
564.207 .0482036
565.003 .0475054
565.799 .0468372
566.594 .0461950
567.388 .0455756
568.182 .0449761
568.976 .0443946
569.769 .0438304
570.562 .0432831
571.354 .0427531
572.145 .0422416
572.936 .0417499
573.727 .0412782
574.517 .0408271
575.307 .0403964
576.096 .0399847
576.885 .0395911
577.673 .0392145
578.461 .0388538
579.248 .0385084
580.035 .0381783
580.821 .0378636
581.607 .0375649
582.392 .0372826
583.177 .0370172
583.962 .0367689
584.746 .0365378
585.529 .0363231
586.313 .0361238
587.095 .0359388
587.878 .0357668
588.660 .0356065
589.441 .0354567
590.222 .0353169
591.003 .0351860
591.783 .0350637
592.563 .0349494
593.342 .0348428
594.121 .0347433
594.899 .0346504
595.678 .0345635
596.455 .0344819
597.233 .0344050
598.009 .0343323
598.786 .0342631
599.562 .0341971
600.338 .0341341
601.113 .0340738
601.888 .0339922
602.663 .0339377
603.437 .0338855
604.211 .0338356
604.984 .0337880
605.757 .0337423
606.530 .0336987
607.302 .0336568
608.074 .0336166
608.845 .0335779
609.616 .0335407
610.387 .0335252
611.158 .0334899
611.928 .0334557
612.697 .0334226
613.467 .0333907
614.236 .0333598
615.004 .0333300
615.773 .0333011
616.541 .0332732
617.308 .0332460
618.076 .0332196
618.843 .0331938
619.609 .0331684
620.375 .0331434
621.141 .0331186
621.907 .0330939
622.672 .0330693
623.437 .0330447
624.202 .0330200
624.966 .0329951
625.730 .0329701
626.493 .0329449
627.257 .0329195
628.020 .0328939
628.782 .0328681
629.545 .0328420
630.307 .0328157
631.068 .0327890
631.830 .0327620
632.591 .0327347
633.352 .0327070
634.112 .0326791
634.872 .0326510
635.632 .0326227
636.392 .0325944
637.151 .0325660
637.910 .0325376
638.668 .0325093
639.427 .0324809
640.185 .0324525
640.943 .0324241
641.700 .0323957
642.457 .0323672
643.214 .0323388
643.971 .0323103
644.727 .0322819
645.483 .0322535
646.239 .0322253
646.994 .0321971
647.750 .0321690
648.505 .0321411
649.259 .0321132
650.014 .0320853
650.768 .0320574
651.521 .0320295
652.275 .0320015
653.028 .0319733
653.781 .0319451
654.534 .0319168
655.286 .0318884
656.039 .0318599
656.791 .0318314
657.542 .0318029
658.294 .0317743
659.045 .0317456
659.796 .0317169
660.546 .0316880
661.297 .0316590
662.047 .0316300
662.796 .0316011
663.546 .0315723
664.295 .0315437
665.044 .0315154
665.793 .0314874
666.542 .0314598
667.290 .0314327
668.038 .0314061
668.786 .0313799
669.533 .0313542
670.281 .0313290
671.028 .0313043
671.774 .0312801
672.521 .0312565
673.267 .0312334
674.013 .0312110
674.759 .0311891
675.505 .0311677
676.250 .0311469
676.995 .0311266
677.740 .0311067
678.484 .0310872
679.229 .0310681
679.973 .0310493
680.717 .0310309
681.460 .0310129
682.204 .0309952
682.947 .0309778
683.690 .0309607
684.433 .0309439
685.175 .0309274
685.917 .0309110
686.659 .0308949
687.401 .0308789
688.142 .0308629
688.884 .0308471
689.625 .0308314
690.365 .0308157
691.106 .0308000
691.846 .0307843
692.586 .0307687
693.326 .0307530
694.066 .0307372
694.805 .0307213
695.545 .0307053
696.284 .0306891
697.022 .0306727
697.761 .0306559
698.499 .0306389
699.237 .0306215
699.975 .0306038
700.713 .0305858
701.450 .0305676
702.187 .0305490
702.924 .0305302
703.661 .0305111
704.397 .0304917
705.133 .0304720
705.869 .0304520
706.605 .0304315
707.341 .0304108
708.076 .0303898
708.811 .0303685
709.546 .0303471
710.281 .0303255
711.015 .0303039
711.749 .0302822
712.483 .0302605
713.217 .0302388
713.950 .0302171
714.684 .0301954
715.417 .0301736
716.150 .0301518
716.882 .0301300
717.615 .0301080
718.347 .0300861
719.079 .0300642
719.811 .0300422
720.542 .0300204
721.273 .0299986
722.005 .0299771
722.735 .0299557
723.466 .0299346
724.196 .0299139
724.927 .0298934
725.656 .0298734
726.386 .0298537
727.116 .0298343
727.845 .0298154
728.574 .0297968
729.303 .0297786
730.031 .0297607
730.760 .0297433
731.488 .0297262
732.216 .0297095
732.944 .0296931
733.671 .0296770
734.398 .0296611
735.125 .0296454
735.852 .0296299
736.579 .0296146
737.305 .0295995
738.031 .0295845
738.757 .0295698
739.483 .0295553
740.208 .0295410
740.933 .0295268
741.658 .0295128
742.383 .0294989
743.108 .0294851
743.832 .0294715
744.556 .0294579
745.280 .0294446
746.004 .0294314
746.727 .0294183
747.450 .0294053
748.173 .0293923
748.896 .0293794
749.618 .0293664
750.340 .0293533
751.062 .0293401
751.784 .0293269
752.506 .0293136
753.227 .0293002
753.948 .0292869
754.669 .0292735
755.389 .0292600
756.110 .0292465
756.830 .0292329
757.550 .0292192
758.269 .0292054
758.989 .0291917
759.708 .0291779
760.427 .0291641
761.146 .0291504
761.864 .0291368
762.582 .0291234
763.300 .0291101
764.018 .0290971
764.736 .0290843
765.453 .0290719
766.170 .0290598
766.887 .0290482
767.603 .0290371
768.320 .0290264
769.036 .0290162
769.751 .0290065
770.467 .0289973
771.182 .0289886
771.897 .0289803
772.612 .0289724
773.327 .0289649
774.041 .0289577
774.755 .0289509
775.469 .0289443
776.183 .0289380
776.896 .0289319
777.609 .0289259
778.322 .0289201
779.035 .0289144
779.747 .0289088
780.459 .0289031
781.171 .0288975
781.882 .0288918
782.594 .0288861
783.305 .0288804
784.016 .0288746
784.726 .0288687
785.436 .0288627
786.147 .0288532
786.856 .0288466
787.566 .0288398
788.275 .0288329
788.984 .0288258
789.693 .0288185
790.401 .0288112
791.110 .0288037
791.818 .0287961
792.525 .0287884
793.233 .0287804
793.940 .0287722
794.647 .0287675
795.353 .0287591
796.060 .0287506
796.766 .0287419
797.472 .0287330
798.177 .0287240
798.883 .0287147
799.588 .0287051
800.292 .0286952
800.997 .0286849
801.701 .0286743
802.405 .0286632
803.109 .0286518
803.812 .0286401
804.515 .0286281
805.218 .0286158
805.921 .0286031
806.623 .0285900
807.325 .0285765
808.027 .0285624
808.728 .0285479
809.429 .0285328
810.130 .0285172
810.831 .0285012
811.531 .0284849
812.231 .0284682
812.931 .0284512
813.630 .0284339
814.330 .0284163
815.029 .0283985
815.727 .0283805
816.426 .0283624
817.124 .0283443
817.821 .0283264
818.519 .0283086
819.216 .0282912
819.913 .0282741
820.609 .0282574
821.306 .0282411
822.002 .0282251
822.697 .0282096
823.393 .0281945
824.088 .0281798
824.783 .0281656
825.477 .0281519
826.171 .0281386
826.865 .0281256
827.559 .0281130
828.252 .0281007
828.945 .0280886
829.638 .0280766
830.330 .0280648
831.023 .0280531
831.714 .0280415
832.406 .0280300
833.097 .0280187
833.788 .0280075
834.479 .0279963
835.169 .0279853
835.859 .0279742
836.548 .0279632
837.238 .0279521
837.927 .0279409
838.615 .0279295
839.304 .0279180
839.992 .0279062
840.680 .0278942
841.367 .0278820
842.054 .0278695
842.741 .0278568
843.428 .0278438
844.114 .0278308
844.800 .0278176
845.485 .0278044
846.170 .0277910
846.855 .0277776
847.540 .0277640
848.224 .0277503
848.908 .0277365
849.592 .0277226
850.275 .0277085
850.958 .0276944
851.641 .0276803
852.323 .0276663
853.005 .0276524
853.687 .0276387
854.368 .0276253
855.049 .0276121
855.730 .0275992
856.410 .0275866
857.090 .0275745
857.769 .0275627
858.449 .0275513
859.128 .0275403
859.806 .0275299
860.485 .0275199
861.163 .0275105
861.840 .0275015
862.518 .0274932
863.195 .0274854
863.871 .0274782
864.548 .0274715
865.224 .0274654
865.899 .0274596
866.574 .0274543
867.249 .0274493
867.924 .0274445
868.598 .0274400
869.272 .0274356
869.946 .0274314
870.619 .0274273
871.292 .0274233
871.964 .0274194
872.636 .0274156
873.308 .0274119
873.979 .0274082
874.651 .0274046
875.321 .0274009
875.992 .0273973
876.662 .0273937
877.331 .0273901
878.001 .0273865
878.670 .0273830
879.338 .0273795
880.007 .0273760
880.675 .0273726
881.342 .0273693
882.009 .0273661
882.676 .0273630
883.343 .0273602
884.009 .0273577
884.675 .0273554
885.340 .0273535
886.005 .0273519
886.670 .0273506
887.334 .0273496
887.998 .0273489
888.662 .0273485
889.325 .0273484
889.988 .0273486
890.650 .0273492
891.312 .0273501
891.974 .0273513
892.636 .0273527
893.297 .0273543
893.957 .0273560
894.618 .0273577
895.278 .0273593
895.937 .0273607
896.596 .0273618
897.255 .0273625
897.914 .0273628
898.572 .0273625
899.230 .0273617
899.887 .0273601
900.544 .0273579
901.201 .0273548
901.857 .0273460
902.513 .0273406
903.168 .0273343
903.823 .0273270
904.478 .0273187
905.132 .0273095
905.786 .0272993
906.440 .0272882
907.093 .0272763
907.746 .0272637
908.399 .0272505
909.051 .0272367
909.703 .0272225
910.354 .0272144
911.005 .0271998
911.656 .0271848
912.306 .0271694
912.956 .0271538
913.605 .0271381
914.254 .0271223
914.903 .0271065
915.551 .0270908
916.199 .0270752
916.847 .0270596
917.494 .0270440
918.141 .0270283
918.788 .0270125
919.434 .0269965
920.079 .0269803
920.725 .0269638
921.370 .0269471
922.014 .0269301
922.658 .0269128
923.302 .0268951
923.946 .0268771
924.589 .0268587
925.231 .0268399
925.873 .0268205
926.515 .0268007
927.157 .0267804
927.798 .0267598
928.439 .0267389
929.079 .0267178
929.719 .0266964
930.359 .0266749
930.998 .0266532
931.637 .0266315
932.275 .0266095
932.913 .0265875
933.551 .0265654
934.188 .0265434
934.825 .0265215
935.462 .0264998
936.098 .0264784
936.733 .0264574
937.369 .0264367
938.004 .0264164
938.638 .0263965
939.273 .0263770
939.907 .0263579
940.540 .0263391
941.173 .0263208
941.806 .0263029
942.438 .0262854
943.070 .0262683
943.702 .0262515
944.333 .0262350
944.964 .0262187
945.594 .0262025
946.224 .0261863
946.854 .0261701
947.483 .0261539
948.112 .0261376
948.741 .0261213
949.369 .0261049
949.996 .0260885
950.624 .0260720
951.251 .0260554
951.878 .0260386
952.504 .0260217
953.130 .0260045
953.755 .0259871
954.380 .0259695
955.005 .0259518
955.629 .0259340
956.253 .0259161
956.877 .0258982
957.500 .0258803
958.123 .0258623
958.746 .0258443
959.368 .0258262
959.990 .0258082
960.611 .0257903
961.232 .0257727
961.853 .0257553
962.473 .0257383
963.093 .0257218
963.712 .0257057
964.331 .0256901
964.950 .0256750
965.569 .0256603
966.187 .0256459
966.804 .0256318
967.422 .0256181
968.039 .0256046
968.655 .0255914
969.272 .0255784
969.887 .0255656
970.503 .0255531
971.118 .0255408
971.733 .0255286
972.347 .0255165
972.961 .0255045
973.575 .0254924
974.188 .0254803
974.801 .0254682
975.414 .0254560
976.026 .0254439
976.638 .0254316
977.250 .0254193
977.861 .0254070
978.472 .0253946
979.083 .0253821
979.693 .0253694
980.303 .0253566
980.912 .0253370
981.521 .0253241
982.130 .0253113
982.738 .0252985
983.346 .0252858
983.954 .0252733
984.562 .0252611
985.169 .0252492
985.775 .0252377
986.382 .0252267
986.988 .0252163
987.594 .0252066
988.199 .0251976
988.804 .0251895
989.409 .0251882
990.013 .0251816
990.617 .0251758
991.221 .0251709
991.824 .0251668
992.427 .0251634
993.030 .0251608
993.632 .0251589
994.234 .0251577
994.836 .0251571
995.438 .0251573
996.039 .0251581
996.640 .0251596
997.240 .0251617
997.840 .0251644
998.440 .0251675
999.040 .0251711
999.639 .0251749
1000.238 .0251791
1000.836 .0251836
1001.435 .0251884
1002.033 .0251934
1002.630 .0251987
1003.228 .0252042
1003.825 .0252099
1004.422 .0252156
1005.018 .0252214
1005.614 .0252270
1006.210 .0252325
1006.806 .0252378
1007.401 .0252429
1007.996 .0252479
1008.591 .0252527
1009.186 .0252575
1009.780 .0252623
1010.374 .0252671
1010.967 .0252720
1011.561 .0252770
1012.154 .0252822
1012.746 .0252875
1013.339 .0252931
1013.931 .0252990
1014.523 .0253052
1015.115 .0253118
1015.706 .0253189
1016.298 .0253265
1016.888 .0253347
1017.479 .0253436
1018.069 .0253532
1018.660 .0253635
1019.250 .0253747
1019.839 .0253866
1020.429 .0253994
1021.018 .0254130
1021.607 .0254274
1022.195 .0254424
1022.784 .0254581
1023.372 .0254743
1023.960 .0254910
1024.547 .0255083
1025.135 .0255261
1025.722 .0255444
1026.309 .0255631
1026.896 .0255823
1027.483 .0256018
1028.069 .0256215
1028.655 .0256413
1029.241 .0256611
1029.827 .0256807
1030.412 .0257001
1030.997 .0257193
1031.582 .0257382
1032.167 .0257569
1032.752 .0257753
1033.336 .0257935
1033.921 .0258113
1034.505 .0258288
1035.089 .0258457
1035.672 .0258619
1036.256 .0258773
1036.839 .0258918
1037.422 .0259054
1038.005 .0259180
1038.588 .0259299
1039.171 .0259410
1039.753 .0259514
1040.335 .0259613
1040.918 .0259705
1041.500 .0259792
1042.081 .0259872
1042.663 .0259947
1043.244 .0260017
1043.826 .0260083
1044.407 .0260146
1044.988 .0260209
1045.569 .0260272
1046.150 .0260336
1046.730 .0260403
1047.311 .0260471
1047.891 .0260542
1048.471 .0260614
1049.052 .0260687
1049.632 .0260761
1050.211 .0260836
1050.791 .0260913
1051.371 .0260992
1051.950 .0261072
1052.530 .0261155
1053.109 .0261239
1053.688 .0261323
1054.268 .0261407
1054.847 .0261488
1055.426 .0261567
1056.005 .0261643
1056.583 .0261716
1057.162 .0261786
1057.741 .0261854
1058.319 .0261920
1058.898 .0261984
1059.476 .0262047
1060.055 .0262105
1060.633 .0262160
1061.211 .0262210
1061.790 .0262255
1062.368 .0262296
1062.946 .0262332
1063.524 .0262365
1064.102 .0262395
1064.680 .0262423
1065.258 .0262448
1065.836 .0262471
1066.414 .0262492
1066.992 .0262510
1067.570 .0262524
1068.148 .0262534
1068.726 .0262540
1069.304 .0262543
1069.882 .0262545
1070.460 .0262547
1071.038 .0262549
1071.616 .0262553
1072.194 .0262559
1072.772 .0262566
1073.350 .0262575
1073.928 .0262585
1074.506 .0262595
1075.084 .0262604
1075.662 .0262612
1076.240 .0262619
1076.819 .0262625
1077.397 .0262632
1077.976 .0262639
1078.554 .0262646
1079.133 .0262650
1079.711 .0262652
1080.290 .0262652
1080.869 .0262649
1081.448 .0262641
1082.027 .0262630
1082.606 .0262616
1083.185 .0262602
1083.764 .0262588
1084.343 .0262577
1084.923 .0262571
1085.502 .0262570
1086.082 .0262576
1086.662 .0262586
1087.242 .0262602
1087.822 .0262622
1088.402 .0262646
1088.983 .0262674
1089.563 .0262706
1090.144 .0262743
1090.725 .0262784
1091.306 .0262833
1091.887 .0262889
1092.469 .0262952
1093.050 .0263021
1093.632 .0263096
1094.214 .0263173
1094.796 .0263251
1095.379 .0263326
1095.961 .0263398
1096.544 .0263466
1097.127 .0263530
1097.710 .0263589
1098.294 .0263645
1098.877 .0263699
1099.461 .0263753
1100.046 .0263806
1100.630 .0263859
1101.215 .0263912
1101.800 .0263964
1102.385 .0264014
1102.970 .0264064
1103.556 .0264115
1104.142 .0264170
1104.728 .0264232
1105.315 .0264304
1105.902 .0264389
1106.489 .0264489
1107.077 .0264607
1107.664 .0264742
1108.253 .0264892
1108.841 .0265056
1109.430 .0265233
1110.019 .0265421
1110.609 .0265619
1111.198 .0265830
1111.789 .0266056
1112.379 .0266301
1112.970 .0266568
1113.561 .0266855
1114.153 .0267164
1114.745 .0267491
1115.338 .0267835
1115.931 .0268191
1116.524 .0268555
1117.117 .0268925
1117.712 .0269300
1118.306 .0269681
1118.901 .0270072
1119.496 .0270475
1120.092 .0270895
1120.689 .0271330
1121.285 .0271778
1121.882 .0272235
1122.480 .0272697
1123.078 .0273159
1123.677 .0273621
1124.276 .0274078
1124.875 .0274535
1125.476 .0274994
1126.076 .0275462
1126.677 .0275944
1127.279 .0276445
1127.881 .0276966
1128.484 .0277511
1129.087 .0277736
1129.691 .0278306
1130.295 .0278893
1130.900 .0279496
1131.505 .0280114
1132.111 .0280751
1132.718 .0281412
1133.325 .0282102
1133.933 .0282835
1134.541 .0283562
1135.150 .0284380
1135.760 .0285245
1136.370 .0286165
1136.981 .0286596
1137.592 .0287586
1138.204 .0288534
1138.817 .0289417
1139.431 .0290294
1140.045 .0291232
1140.660 .0292241
1141.275 .0293342
1141.891 .0294769
1142.508 .0294800
1143.126 .0297630
1143.744 .0299222
1144.363 .0301190
1144.983 .0307758
