Measurement Sequence started on: 15-12-46-377
Integration time: 28
Scans to Average: 2 
>>>>>Begin Spectral Data<<<<<
432.689 .0000100
433.621 .0000100
434.552 .0000100
435.482 .0000100
436.410 .0000100
437.337 .0000100
438.262 .0248871
439.187 .0527062
440.110 .0872792
441.031 .1262842
441.952 .1011641
442.871 .1056561
443.789 .1098381
444.705 .1137727
445.621 .1175036
446.535 .1210659
447.447 .1231757
448.359 .1236988
449.269 .1222977
450.178 .1187522
451.086 .1131358
451.993 .1058812
452.898 .0977051
453.803 .0894203
454.706 .0817170
455.608 .0750232
456.508 .0694818
457.408 .0657318
458.306 .0628492
459.204 .0605015
460.100 .0585252
460.995 .0568273
461.888 .0553469
462.781 .0540418
463.673 .0528788
464.563 .0518339
465.452 .0508885
466.340 .0500270
467.228 .0492384
468.114 .0485142
468.999 .0478493
469.882 .0472386
470.765 .0466778
471.647 .0461640
472.528 .0456943
473.407 .0452651
474.286 .0448735
475.163 .0445171
476.040 .0441938
476.915 .0439021
477.790 .0436408
478.663 .0434099
479.535 .0432088
480.407 .0430373
481.277 .0428948
482.147 .0427801
483.015 .0426919
483.883 .0426280
484.749 .0425863
485.615 .0425650
486.479 .0425619
487.343 .0425761
488.206 .0426072
489.067 .0426551
489.928 .0427205
490.788 .0428043
491.647 .0429069
492.505 .0430292
493.362 .0431715
494.218 .0433335
495.073 .0435150
495.928 .0438566
496.781 .0440881
497.634 .0443399
498.486 .0446124
499.337 .0449079
500.187 .0452292
501.036 .0455790
501.884 .0459601
502.731 .0463766
503.578 .0468321
504.424 .0471427
505.268 .0476698
506.113 .0482463
506.956 .0488764
507.798 .0495657
508.640 .0503203
509.480 .0511480
510.320 .0520581
511.160 .0530613
511.998 .0541695
512.836 .0553965
513.672 .0567563
514.508 .0582650
515.344 .0599409
516.178 .0618036
517.012 .0638716
517.845 .0661615
518.677 .0686907
519.508 .0714732
520.339 .0745142
521.169 .0778123
521.998 .0813494
522.826 .0850931
523.654 .0889972
524.481 .0930014
525.307 .0970359
526.133 .1010232
526.958 .1048812
527.782 .1085272
528.605 .1118851
529.428 .1148895
530.250 .1174821
531.072 .1196240
531.892 .1212863
532.712 .1224478
533.532 .1230975
534.350 .1232321
535.168 .1228564
535.986 .1219747
536.802 .1205930
537.618 .1187226
538.434 .1163798
539.249 .1135965
540.063 .1104167
540.876 .1068967
541.689 .1031057
542.501 .0991186
543.313 .0950154
544.124 .0908777
544.934 .0867852
545.744 .0828079
546.553 .0790038
547.361 .0754214
548.169 .0720890
548.976 .0690228
549.783 .0662288
550.589 .0637003
551.395 .0614223
552.200 .0593725
553.004 .0575279
553.808 .0558667
554.611 .0543688
555.414 .0530153
556.216 .0517883
557.018 .0506715
557.819 .0496493
558.619 .0487072
559.419 .0478331
560.218 .0470182
561.017 .0462534
561.815 .0455322
562.613 .0448496
563.410 .0442003
564.207 .0435801
565.003 .0429851
565.799 .0424111
566.594 .0418542
567.388 .0413113
568.182 .0407803
568.976 .0402602
569.769 .0397509
570.562 .0392519
571.354 .0387645
572.145 .0382901
572.936 .0378295
573.727 .0373833
574.517 .0369530
575.307 .0365392
576.096 .0361422
576.885 .0357621
577.673 .0353993
578.461 .0350538
579.248 .0347258
580.035 .0344155
580.821 .0341230
581.607 .0338482
582.392 .0335913
583.177 .0333523
583.962 .0331310
584.746 .0329270
585.529 .0327393
586.313 .0325670
587.095 .0324089
587.878 .0322641
588.660 .0321309
589.441 .0320088
590.222 .0318968
591.003 .0317941
591.783 .0317001
592.563 .0316141
593.342 .0315353
594.121 .0314632
594.899 .0313968
595.678 .0313353
596.455 .0312781
597.233 .0312246
598.009 .0311741
598.786 .0311264
599.562 .0310812
600.338 .0310383
601.113 .0309976
601.888 .0309432
602.663 .0309074
603.437 .0308732
604.211 .0308405
604.984 .0308090
605.757 .0307787
606.530 .0307496
607.302 .0307215
608.074 .0306946
608.845 .0306688
609.616 .0306441
610.387 .0306348
611.158 .0306118
611.928 .0305899
612.697 .0305689
613.467 .0305488
614.236 .0305295
615.004 .0305110
615.773 .0304930
616.541 .0304755
617.308 .0304583
618.076 .0304412
618.843 .0304243
619.609 .0304074
620.375 .0303905
621.141 .0303736
621.907 .0303565
622.672 .0303393
623.437 .0303219
624.202 .0303042
624.966 .0302862
625.730 .0302678
626.493 .0302488
627.257 .0302291
628.020 .0302087
628.782 .0301875
629.545 .0301656
630.307 .0301430
631.068 .0301196
631.830 .0300956
632.591 .0300709
633.352 .0300456
634.112 .0300197
634.872 .0299934
635.632 .0299667
636.392 .0299396
637.151 .0299121
637.910 .0298843
638.668 .0298563
639.427 .0298282
640.185 .0298001
640.943 .0297721
641.700 .0297445
642.457 .0297172
643.214 .0296904
643.971 .0296643
644.727 .0296389
645.483 .0296143
646.239 .0295906
646.994 .0295678
647.750 .0295459
648.505 .0295248
649.259 .0295047
650.014 .0294854
650.768 .0294670
651.521 .0294492
652.275 .0294321
653.028 .0294155
653.781 .0293994
654.534 .0293838
655.286 .0293685
656.039 .0293535
656.791 .0293388
657.542 .0293241
658.294 .0293094
659.045 .0292946
659.796 .0292797
660.546 .0292646
661.297 .0292491
662.047 .0292333
662.796 .0292173
663.546 .0292011
664.295 .0291848
665.044 .0291684
665.793 .0291521
666.542 .0291360
667.290 .0291202
668.038 .0291045
668.786 .0290891
669.533 .0290739
670.281 .0290589
671.028 .0290441
671.774 .0290296
672.521 .0290155
673.267 .0290018
674.013 .0289885
674.759 .0289758
675.505 .0289634
676.250 .0289516
676.995 .0289401
677.740 .0289288
678.484 .0289176
679.229 .0289065
679.973 .0288953
680.717 .0288841
681.460 .0288728
682.204 .0288614
682.947 .0288498
683.690 .0288380
684.433 .0288260
685.175 .0288136
685.917 .0288009
686.659 .0287876
687.401 .0287739
688.142 .0287596
688.884 .0287447
689.625 .0287292
690.365 .0287130
691.106 .0286963
691.846 .0286790
692.586 .0286613
693.326 .0286431
694.066 .0286247
694.805 .0286061
695.545 .0285874
696.284 .0285686
697.022 .0285500
697.761 .0285313
698.499 .0285127
699.237 .0284941
699.975 .0284756
700.713 .0284573
701.450 .0284391
702.187 .0284211
702.924 .0284034
703.661 .0283858
704.397 .0283686
705.133 .0283515
705.869 .0283346
706.605 .0283179
707.341 .0283012
708.076 .0282846
708.811 .0282681
709.546 .0282515
710.281 .0282350
711.015 .0282183
711.749 .0282016
712.483 .0281848
713.217 .0281679
713.950 .0281510
714.684 .0281339
715.417 .0281168
716.150 .0280997
716.882 .0280824
717.615 .0280649
718.347 .0280472
719.079 .0280291
719.811 .0280108
720.542 .0279922
721.273 .0279734
722.005 .0279545
722.735 .0279357
723.466 .0279171
724.196 .0278987
724.927 .0278806
725.656 .0278627
726.386 .0278452
727.116 .0278278
727.845 .0278107
728.574 .0277939
729.303 .0277774
730.031 .0277613
730.760 .0277457
731.488 .0277306
732.216 .0277160
732.944 .0277019
733.671 .0276882
734.398 .0276750
735.125 .0276622
735.852 .0276499
736.579 .0276379
737.305 .0276263
738.031 .0276151
738.757 .0276044
739.483 .0275939
740.208 .0275838
740.933 .0275739
741.658 .0275643
742.383 .0275549
743.108 .0275456
743.832 .0275365
744.556 .0275276
745.280 .0275189
746.004 .0275102
746.727 .0275016
747.450 .0274929
748.173 .0274842
748.896 .0274754
749.618 .0274665
750.340 .0274575
751.062 .0274484
751.784 .0274393
752.506 .0274301
753.227 .0274208
753.948 .0274115
754.669 .0274022
755.389 .0273927
756.110 .0273832
756.830 .0273736
757.550 .0273640
758.269 .0273543
758.989 .0273446
759.708 .0273347
760.427 .0273248
761.146 .0273146
761.864 .0273043
762.582 .0272938
763.300 .0272829
764.018 .0272719
764.736 .0272606
765.453 .0272492
766.170 .0272377
766.887 .0272262
767.603 .0272147
768.320 .0272034
769.036 .0271921
769.751 .0271811
770.467 .0271703
771.182 .0271598
771.897 .0271497
772.612 .0271399
773.327 .0271305
774.041 .0271215
774.755 .0271130
775.469 .0271048
776.183 .0270971
776.896 .0270899
777.609 .0270829
778.322 .0270763
779.035 .0270700
779.747 .0270639
780.459 .0270580
781.171 .0270520
781.882 .0270460
782.594 .0270398
783.305 .0270332
784.016 .0270264
784.726 .0270192
785.436 .0270116
786.147 .0269979
786.856 .0269893
787.566 .0269802
788.275 .0269708
788.984 .0269610
789.693 .0269508
790.401 .0269400
791.110 .0269288
791.818 .0269171
792.525 .0269049
793.233 .0268923
793.940 .0268794
794.647 .0268726
795.353 .0268593
796.060 .0268458
796.766 .0268320
797.472 .0268180
798.177 .0268036
798.883 .0267889
799.588 .0267739
800.292 .0267587
800.997 .0267431
801.701 .0267272
802.405 .0267111
803.109 .0266947
803.812 .0266779
804.515 .0266609
805.218 .0266435
805.921 .0266257
806.623 .0266075
807.325 .0265889
808.027 .0265699
808.728 .0265506
809.429 .0265310
810.130 .0265111
810.831 .0264911
811.531 .0264709
812.231 .0264506
812.931 .0264302
813.630 .0264098
814.330 .0263896
815.029 .0263695
815.727 .0263496
816.426 .0263301
817.124 .0263110
817.821 .0262924
818.519 .0262743
819.216 .0262567
819.913 .0262397
820.609 .0262232
821.306 .0262071
822.002 .0261916
822.697 .0261766
823.393 .0261622
824.088 .0261483
824.783 .0261351
825.477 .0261226
826.171 .0261108
826.865 .0260996
827.559 .0260890
828.252 .0260790
828.945 .0260696
829.638 .0260605
830.330 .0260519
831.023 .0260437
831.714 .0260359
832.406 .0260284
833.097 .0260214
833.788 .0260148
834.479 .0260086
835.169 .0260028
835.859 .0259974
836.548 .0259922
837.238 .0259874
837.927 .0259827
838.615 .0259784
839.304 .0259742
839.992 .0259701
840.680 .0259662
841.367 .0259623
842.054 .0259585
842.741 .0259546
843.428 .0259508
844.114 .0259468
844.800 .0259427
845.485 .0259385
846.170 .0259340
846.855 .0259293
847.540 .0259242
848.224 .0259188
848.908 .0259129
849.592 .0259066
850.275 .0258997
850.958 .0258923
851.641 .0258844
852.323 .0258760
853.005 .0258671
853.687 .0258578
854.368 .0258481
855.049 .0258381
855.730 .0258277
856.410 .0258170
857.090 .0258059
857.769 .0257945
858.449 .0257829
859.128 .0257710
859.806 .0257589
860.485 .0257468
861.163 .0257346
861.840 .0257225
862.518 .0257105
863.195 .0256988
863.871 .0256874
864.548 .0256764
865.224 .0256658
865.899 .0256556
866.574 .0256458
867.249 .0256364
867.924 .0256274
868.598 .0256189
869.272 .0256108
869.946 .0256032
870.619 .0255960
871.292 .0255895
871.964 .0255835
872.636 .0255780
873.308 .0255731
873.979 .0255687
874.651 .0255648
875.321 .0255615
875.992 .0255585
876.662 .0255559
877.331 .0255537
878.001 .0255517
878.670 .0255501
879.338 .0255487
880.007 .0255476
880.675 .0255467
881.342 .0255462
882.009 .0255459
882.676 .0255459
883.343 .0255461
884.009 .0255465
884.675 .0255471
885.340 .0255478
886.005 .0255485
886.670 .0255493
887.334 .0255501
887.998 .0255509
888.662 .0255516
889.325 .0255521
889.988 .0255526
890.650 .0255530
891.312 .0255532
891.974 .0255533
892.636 .0255532
893.297 .0255529
893.957 .0255522
894.618 .0255511
895.278 .0255496
895.937 .0255475
896.596 .0255448
897.255 .0255413
897.914 .0255370
898.572 .0255319
899.230 .0255260
899.887 .0255193
900.544 .0255118
901.201 .0255035
901.857 .0254876
902.513 .0254773
903.168 .0254662
903.823 .0254542
904.478 .0254415
905.132 .0254280
905.786 .0254138
906.440 .0253990
907.093 .0253837
907.746 .0253679
908.399 .0253516
909.051 .0253351
909.703 .0253182
910.354 .0253092
911.005 .0252921
911.656 .0252747
912.306 .0252570
912.956 .0252391
913.605 .0252210
914.254 .0252027
914.903 .0251843
915.551 .0251657
916.199 .0251470
916.847 .0251282
917.494 .0251092
918.141 .0250901
918.788 .0250707
919.434 .0250512
920.079 .0250316
920.725 .0250117
921.370 .0249917
922.014 .0249715
922.658 .0249511
923.302 .0249305
923.946 .0249097
924.589 .0248885
925.231 .0248671
925.873 .0248453
926.515 .0248233
927.157 .0248009
927.798 .0247784
928.439 .0247557
929.079 .0247330
929.719 .0247104
930.359 .0246879
930.998 .0246656
931.637 .0246437
932.275 .0246221
932.913 .0246010
933.551 .0245804
934.188 .0245603
934.825 .0245410
935.462 .0245223
936.098 .0245044
936.733 .0244872
937.369 .0244708
938.004 .0244550
938.638 .0244400
939.273 .0244255
939.907 .0244115
940.540 .0243979
941.173 .0243847
941.806 .0243718
942.438 .0243592
943.070 .0243467
943.702 .0243345
944.333 .0243224
944.964 .0243104
945.594 .0242985
946.224 .0242866
946.854 .0242747
947.483 .0242626
948.112 .0242505
948.741 .0242383
949.369 .0242260
949.996 .0242136
950.624 .0242011
951.251 .0241885
951.878 .0241758
952.504 .0241630
953.130 .0241501
953.755 .0241372
954.380 .0241243
955.005 .0241115
955.629 .0240989
956.253 .0240865
956.877 .0240743
957.500 .0240624
958.123 .0240509
958.746 .0240398
959.368 .0240290
959.990 .0240187
960.611 .0240089
961.232 .0239996
961.853 .0239907
962.473 .0239824
963.093 .0239745
963.712 .0239671
964.331 .0239601
964.950 .0239535
965.569 .0239472
966.187 .0239411
966.804 .0239353
967.422 .0239296
968.039 .0239240
968.655 .0239185
969.272 .0239130
969.887 .0239076
970.503 .0239021
971.118 .0238967
971.733 .0238912
972.347 .0238858
972.961 .0238804
973.575 .0238749
974.188 .0238695
974.801 .0238641
975.414 .0238587
976.026 .0238531
976.638 .0238475
977.250 .0238418
977.861 .0238359
978.472 .0238300
979.083 .0238239
979.693 .0238177
980.303 .0238114
980.912 .0238017
981.521 .0237953
982.130 .0237888
982.738 .0237824
983.346 .0237759
983.954 .0237696
984.562 .0237634
985.169 .0237574
985.775 .0237517
986.382 .0237463
986.988 .0237414
987.594 .0237368
988.199 .0237326
988.804 .0237289
989.409 .0237286
990.013 .0237258
990.617 .0237235
991.221 .0237217
991.824 .0237205
992.427 .0237199
993.030 .0237198
993.632 .0237203
994.234 .0237213
994.836 .0237229
995.438 .0237251
996.039 .0237278
996.640 .0237311
997.240 .0237350
997.840 .0237394
998.440 .0237443
999.040 .0237497
999.639 .0237555
1000.238 .0237617
1000.836 .0237682
1001.435 .0237751
1002.033 .0237821
1002.630 .0237893
1003.228 .0237966
1003.825 .0238040
1004.422 .0238113
1005.018 .0238186
1005.614 .0238257
1006.210 .0238326
1006.806 .0238392
1007.401 .0238454
1007.996 .0238514
1008.591 .0238571
1009.186 .0238627
1009.780 .0238681
1010.374 .0238734
1010.967 .0238786
1011.561 .0238838
1012.154 .0238890
1012.746 .0238943
1013.339 .0238995
1013.931 .0239047
1014.523 .0239100
1015.115 .0239154
1015.706 .0239209
1016.298 .0239266
1016.888 .0239325
1017.479 .0239387
1018.069 .0239452
1018.660 .0239520
1019.250 .0239591
1019.839 .0239665
1020.429 .0239741
1021.018 .0239821
1021.607 .0239904
1022.195 .0239991
1022.784 .0240083
1023.372 .0240178
1023.960 .0240277
1024.547 .0240379
1025.135 .0240485
1025.722 .0240593
1026.309 .0240702
1026.896 .0240813
1027.483 .0240923
1028.069 .0241034
1028.655 .0241144
1029.241 .0241253
1029.827 .0241361
1030.412 .0241467
1030.997 .0241570
1031.582 .0241670
1032.167 .0241767
1032.752 .0241860
1033.336 .0241949
1033.921 .0242035
1034.505 .0242116
1035.089 .0242194
1035.672 .0242269
1036.256 .0242340
1036.839 .0242408
1037.422 .0242472
1038.005 .0242531
1038.588 .0242586
1039.171 .0242636
1039.753 .0242681
1040.335 .0242721
1040.918 .0242756
1041.500 .0242787
1042.081 .0242812
1042.663 .0242834
1043.244 .0242853
1043.826 .0242868
1044.407 .0242882
1044.988 .0242895
1045.569 .0242907
1046.150 .0242918
1046.730 .0242930
1047.311 .0242942
1047.891 .0242954
1048.471 .0242967
1049.052 .0242979
1049.632 .0242993
1050.211 .0243006
1050.791 .0243020
1051.371 .0243034
1051.950 .0243048
1052.530 .0243061
1053.109 .0243073
1053.688 .0243084
1054.268 .0243095
1054.847 .0243105
1055.426 .0243116
1056.005 .0243129
1056.583 .0243144
1057.162 .0243162
1057.741 .0243182
1058.319 .0243205
1058.898 .0243231
1059.476 .0243259
1060.055 .0243287
1060.633 .0243317
1061.211 .0243346
1061.790 .0243375
1062.368 .0243404
1062.946 .0243432
1063.524 .0243459
1064.102 .0243484
1064.680 .0243507
1065.258 .0243526
1065.836 .0243542
1066.414 .0243554
1066.992 .0243562
1067.570 .0243565
1068.148 .0243566
1068.726 .0243563
1069.304 .0243560
1069.882 .0243557
1070.460 .0243554
1071.038 .0243553
1071.616 .0243552
1072.194 .0243551
1072.772 .0243549
1073.350 .0243545
1073.928 .0243538
1074.506 .0243526
1075.084 .0243510
1075.662 .0243490
1076.240 .0243465
1076.819 .0243439
1077.397 .0243412
1077.976 .0243384
1078.554 .0243357
1079.133 .0243330
1079.711 .0243302
1080.290 .0243275
1080.869 .0243247
1081.448 .0243219
1082.027 .0243191
1082.606 .0243165
1083.185 .0243143
1083.764 .0243126
1084.343 .0243115
1084.923 .0243111
1085.502 .0243114
1086.082 .0243124
1086.662 .0243140
1087.242 .0243161
1087.822 .0243186
1088.402 .0243215
1088.983 .0243247
1089.563 .0243285
1090.144 .0243326
1090.725 .0243374
1091.306 .0243428
1091.887 .0243489
1092.469 .0243555
1093.050 .0243628
1093.632 .0243706
1094.214 .0243790
1094.796 .0243879
1095.379 .0243974
1095.961 .0244075
1096.544 .0244183
1097.127 .0244298
1097.710 .0244417
1098.294 .0244542
1098.877 .0244671
1099.461 .0244802
1100.046 .0244935
1100.630 .0245069
1101.215 .0245201
1101.800 .0245333
1102.385 .0245464
1102.970 .0245594
1103.556 .0245723
1104.142 .0245849
1104.728 .0245973
1105.315 .0246093
1105.902 .0246209
1106.489 .0246321
1107.077 .0246432
1107.664 .0246541
1108.253 .0246649
1108.841 .0246759
1109.430 .0246872
1110.019 .0246988
1110.609 .0247107
1111.198 .0247230
1111.789 .0247357
1112.379 .0247490
1112.970 .0247629
1113.561 .0247777
1114.153 .0247936
1114.745 .0248108
1115.338 .0248295
1115.931 .0248497
1116.524 .0248716
1117.117 .0248949
1117.712 .0249196
1118.306 .0249458
1118.901 .0249734
1119.496 .0250024
1120.092 .0250329
1120.689 .0250648
1121.285 .0250984
1121.882 .0251337
1122.480 .0251708
1123.078 .0252099
1123.677 .0252508
1124.276 .0252937
1124.875 .0253386
1125.476 .0253855
1126.076 .0254345
1126.677 .0254858
1127.279 .0255396
1127.881 .0255958
1128.484 .0256548
1129.087 .0256809
1129.691 .0257435
1130.295 .0258091
1130.900 .0258777
1131.505 .0259494
1132.111 .0260243
1132.718 .0261025
1133.325 .0261839
1133.933 .0262682
1134.541 .0263572
1135.150 .0264463
1135.760 .0265397
1136.370 .0266351
1136.981 .0266030
1137.592 .0267104
1138.204 .0268349
1138.817 .0269650
1139.431 .0271034
1140.045 .0272447
1140.660 .0273891
1141.275 .0275317
1141.891 .0276662
1142.508 .0278442
1143.126 .0278935
1143.744 .0280622
1144.363 .0281736
1144.983 .0281781
