Measurement Sequence started on: 15-12-46-377
Integration time: 28
Scans to Average: 2 
>>>>>Begin Spectral Data<<<<<
432.689 .0000100
433.621 .0000100
434.552 .0000100
435.482 .0000100
436.410 .0000100
437.337 .0000100
438.262 .0270682
439.187 .0573564
440.110 .0950532
441.031 .1376413
441.952 .1109180
442.871 .1158937
443.789 .1205276
444.705 .1248890
445.621 .1290289
446.535 .1329870
447.447 .1353676
448.359 .1360221
449.269 .1345790
450.178 .1307946
451.086 .1247450
451.993 .1168967
452.898 .1080278
453.803 .0990232
454.706 .0906379
455.608 .0833423
456.508 .0772968
457.408 .0732014
458.306 .0700533
459.204 .0674937
460.100 .0653433
460.995 .0634971
461.888 .0618883
462.781 .0604689
463.673 .0592022
464.563 .0580630
465.452 .0570321
466.340 .0560933
467.228 .0552349
468.114 .0544474
468.999 .0537226
469.882 .0530542
470.765 .0524368
471.647 .0518666
472.528 .0513402
473.407 .0508554
474.286 .0504107
475.163 .0500056
476.040 .0496388
476.915 .0493089
477.790 .0490143
478.663 .0487534
479.535 .0485242
480.407 .0483246
481.277 .0481527
482.147 .0480068
483.015 .0478854
483.883 .0477877
484.749 .0477127
485.615 .0476602
486.479 .0476297
487.343 .0476212
488.206 .0476343
489.067 .0476685
489.928 .0477228
490.788 .0477971
491.647 .0478909
492.505 .0480040
493.362 .0481364
494.218 .0482883
495.073 .0484601
495.928 .0487897
496.781 .0490125
497.634 .0492559
498.486 .0495195
499.337 .0498042
500.187 .0501112
501.036 .0504427
501.884 .0508015
502.731 .0511913
503.578 .0516165
504.424 .0519035
505.268 .0523990
506.113 .0529421
506.956 .0535375
507.798 .0541924
508.640 .0549143
509.480 .0557141
510.320 .0566051
511.160 .0576021
511.998 .0587218
512.836 .0599827
513.672 .0614045
514.508 .0630088
515.344 .0648163
516.178 .0668502
517.012 .0691360
517.845 .0716987
518.677 .0745611
519.508 .0777448
520.339 .0812605
521.169 .0851082
521.998 .0892625
522.826 .0936846
523.654 .0983097
524.481 .1030601
525.307 .1078430
526.133 .1125600
526.958 .1171118
527.782 .1214023
528.605 .1253423
529.428 .1288591
530.250 .1318900
531.072 .1343912
531.892 .1363257
532.712 .1376752
533.532 .1384265
534.350 .1385756
535.168 .1381226
535.986 .1370726
536.802 .1354303
537.618 .1332086
538.434 .1304245
539.249 .1271202
540.063 .1233490
540.876 .1191860
541.689 .1147177
542.501 .1100420
543.313 .1052579
544.124 .1004615
544.934 .0957418
545.744 .0911779
546.553 .0868294
547.361 .0827446
548.169 .0789509
548.976 .0754680
549.783 .0722969
550.589 .0694307
551.395 .0668504
552.200 .0645324
553.004 .0624495
553.808 .0605735
554.611 .0588786
555.414 .0573428
556.216 .0559449
557.018 .0546659
557.819 .0534902
558.619 .0524035
559.419 .0513934
560.218 .0504514
561.017 .0495699
561.815 .0487425
562.613 .0479646
563.410 .0472318
564.207 .0465396
565.003 .0458838
565.799 .0452597
566.594 .0446626
567.388 .0440894
568.182 .0435368
568.976 .0430017
569.769 .0424818
570.562 .0419762
571.354 .0414840
572.145 .0410059
572.936 .0405428
573.727 .0400956
574.517 .0396645
575.307 .0392506
576.096 .0388536
576.885 .0384737
577.673 .0381106
578.461 .0377642
579.248 .0374339
580.035 .0371197
580.821 .0368214
581.607 .0365395
582.392 .0362741
583.177 .0360256
583.962 .0357938
584.746 .0355788
585.529 .0353796
586.313 .0351954
587.095 .0350248
587.878 .0348670
588.660 .0347205
589.441 .0345842
590.222 .0344567
591.003 .0343375
591.783 .0342259
592.563 .0341213
593.342 .0340234
594.121 .0339317
594.899 .0338458
595.678 .0337651
596.455 .0336891
597.233 .0336175
598.009 .0335495
598.786 .0334850
599.562 .0334234
600.338 .0333644
601.113 .0333077
601.888 .0332298
602.663 .0331782
603.437 .0331285
604.211 .0330805
604.984 .0330342
605.757 .0329894
606.530 .0329459
607.302 .0329036
608.074 .0328625
608.845 .0328227
609.616 .0327842
610.387 .0327680
611.158 .0327317
611.928 .0326969
612.697 .0326636
613.467 .0326317
614.236 .0326012
615.004 .0325719
615.773 .0325438
616.541 .0325168
617.308 .0324907
618.076 .0324655
618.843 .0324411
619.609 .0324173
620.375 .0323940
621.141 .0323710
621.907 .0323480
622.672 .0323249
623.437 .0323015
624.202 .0322776
624.966 .0322530
625.730 .0322277
626.493 .0322016
627.257 .0321746
628.020 .0321468
628.782 .0321181
629.545 .0320886
630.307 .0320582
631.068 .0320272
631.830 .0319954
632.591 .0319632
633.352 .0319305
634.112 .0318975
634.872 .0318644
635.632 .0318313
636.392 .0317983
637.151 .0317654
637.910 .0317330
638.668 .0317011
639.427 .0316699
640.185 .0316395
640.943 .0316101
641.700 .0315816
642.457 .0315543
643.214 .0315280
643.971 .0315028
644.727 .0314785
645.483 .0314552
646.239 .0314327
646.994 .0314109
647.750 .0313898
648.505 .0313693
649.259 .0313493
650.014 .0313296
650.768 .0313103
651.521 .0312912
652.275 .0312722
653.028 .0312532
653.781 .0312342
654.534 .0312151
655.286 .0311957
656.039 .0311761
656.791 .0311562
657.542 .0311359
658.294 .0311153
659.045 .0310942
659.796 .0310727
660.546 .0310509
661.297 .0310286
662.047 .0310061
662.796 .0309833
663.546 .0309603
664.295 .0309370
665.044 .0309135
665.793 .0308899
666.542 .0308662
667.290 .0308425
668.038 .0308187
668.786 .0307951
669.533 .0307716
670.281 .0307482
671.028 .0307251
671.774 .0307022
672.521 .0306795
673.267 .0306570
674.013 .0306345
674.759 .0306123
675.505 .0305902
676.250 .0305682
676.995 .0305465
677.740 .0305249
678.484 .0305035
679.229 .0304823
679.973 .0304612
680.717 .0304401
681.460 .0304190
682.204 .0303978
682.947 .0303765
683.690 .0303550
684.433 .0303332
685.175 .0303113
685.917 .0302892
686.659 .0302668
687.401 .0302443
688.142 .0302215
688.884 .0301984
689.625 .0301751
690.365 .0301514
691.106 .0301276
691.846 .0301034
692.586 .0300790
693.326 .0300544
694.066 .0300296
694.805 .0300047
695.545 .0299797
696.284 .0299547
697.022 .0299297
697.761 .0299048
698.499 .0298801
699.237 .0298556
699.975 .0298315
700.713 .0298078
701.450 .0297845
702.187 .0297615
702.924 .0297389
703.661 .0297166
704.397 .0296945
705.133 .0296727
705.869 .0296512
706.605 .0296299
707.341 .0296088
708.076 .0295881
708.811 .0295677
709.546 .0295475
710.281 .0295276
711.015 .0295078
711.749 .0294880
712.483 .0294683
713.217 .0294486
713.950 .0294289
714.684 .0294091
715.417 .0293892
716.150 .0293693
716.882 .0293493
717.615 .0293292
718.347 .0293091
719.079 .0292890
719.811 .0292690
720.542 .0292490
721.273 .0292292
722.005 .0292096
722.735 .0291903
723.466 .0291715
724.196 .0291530
724.927 .0291350
725.656 .0291176
726.386 .0291009
727.116 .0290849
727.845 .0290696
728.574 .0290553
729.303 .0290419
730.031 .0290294
730.760 .0290179
731.488 .0290072
732.216 .0289974
732.944 .0289883
733.671 .0289799
734.398 .0289721
735.125 .0289648
735.852 .0289581
736.579 .0289518
737.305 .0289460
738.031 .0289404
738.757 .0289352
739.483 .0289301
740.208 .0289251
740.933 .0289202
741.658 .0289152
742.383 .0289100
743.108 .0289047
743.832 .0288992
744.556 .0288935
745.280 .0288876
746.004 .0288815
746.727 .0288751
747.450 .0288684
748.173 .0288614
748.896 .0288541
749.618 .0288463
750.340 .0288382
751.062 .0288296
751.784 .0288206
752.506 .0288110
753.227 .0288011
753.948 .0287906
754.669 .0287796
755.389 .0287682
756.110 .0287563
756.830 .0287440
757.550 .0287314
758.269 .0287185
758.989 .0287054
759.708 .0286921
760.427 .0286785
761.146 .0286646
761.864 .0286504
762.582 .0286359
763.300 .0286209
764.018 .0286054
764.736 .0285895
765.453 .0285732
766.170 .0285565
766.887 .0285394
767.603 .0285221
768.320 .0285046
769.036 .0284870
769.751 .0284693
770.467 .0284515
771.182 .0284337
771.897 .0284159
772.612 .0283981
773.327 .0283803
774.041 .0283626
774.755 .0283451
775.469 .0283278
776.183 .0283108
776.896 .0282941
777.609 .0282777
778.322 .0282617
779.035 .0282461
779.747 .0282309
780.459 .0282162
781.171 .0282019
781.882 .0281881
782.594 .0281746
783.305 .0281616
784.016 .0281489
784.726 .0281365
785.436 .0281242
786.147 .0281061
786.856 .0280936
787.566 .0280811
788.275 .0280684
788.984 .0280557
789.693 .0280427
790.401 .0280295
791.110 .0280160
791.818 .0280019
792.525 .0279873
793.233 .0279719
793.940 .0279557
794.647 .0279454
795.353 .0279280
796.060 .0279100
796.766 .0278913
797.472 .0278720
798.177 .0278521
798.883 .0278318
799.588 .0278111
800.292 .0277899
800.997 .0277683
801.701 .0277463
802.405 .0277240
803.109 .0277016
803.812 .0276789
804.515 .0276562
805.218 .0276333
805.921 .0276104
806.623 .0275875
807.325 .0275645
808.027 .0275414
808.728 .0275185
809.429 .0274958
810.130 .0274734
810.831 .0274513
811.531 .0274297
812.231 .0274086
812.931 .0273881
813.630 .0273681
814.330 .0273487
815.029 .0273299
815.727 .0273118
816.426 .0272945
817.124 .0272780
817.821 .0272624
818.519 .0272478
819.216 .0272343
819.913 .0272219
820.609 .0272107
821.306 .0272006
822.002 .0271917
822.697 .0271839
823.393 .0271773
824.088 .0271717
824.783 .0271672
825.477 .0271637
826.171 .0271612
826.865 .0271597
827.559 .0271590
828.252 .0271591
828.945 .0271599
829.638 .0271614
830.330 .0271634
831.023 .0271660
831.714 .0271691
832.406 .0271724
833.097 .0271760
833.788 .0271798
834.479 .0271837
835.169 .0271876
835.859 .0271916
836.548 .0271955
837.238 .0271993
837.927 .0272031
838.615 .0272068
839.304 .0272104
839.992 .0272140
840.680 .0272174
841.367 .0272208
842.054 .0272240
842.741 .0272270
843.428 .0272299
844.114 .0272325
844.800 .0272349
845.485 .0272370
846.170 .0272387
846.855 .0272400
847.540 .0272409
848.224 .0272413
848.908 .0272412
849.592 .0272406
850.275 .0272394
850.958 .0272375
851.641 .0272350
852.323 .0272319
853.005 .0272280
853.687 .0272235
854.368 .0272183
855.049 .0272124
855.730 .0272058
856.410 .0271987
857.090 .0271909
857.769 .0271827
858.449 .0271739
859.128 .0271647
859.806 .0271551
860.485 .0271452
861.163 .0271351
861.840 .0271247
862.518 .0271142
863.195 .0271037
863.871 .0270932
864.548 .0270826
865.224 .0270722
865.899 .0270618
866.574 .0270515
867.249 .0270413
867.924 .0270313
868.598 .0270215
869.272 .0270118
869.946 .0270023
870.619 .0269930
871.292 .0269838
871.964 .0269747
872.636 .0269658
873.308 .0269571
873.979 .0269486
874.651 .0269402
875.321 .0269320
875.992 .0269239
876.662 .0269160
877.331 .0269081
878.001 .0269003
878.670 .0268924
879.338 .0268844
880.007 .0268763
880.675 .0268682
881.342 .0268600
882.009 .0268517
882.676 .0268433
883.343 .0268349
884.009 .0268263
884.675 .0268176
885.340 .0268088
886.005 .0267999
886.670 .0267908
887.334 .0267817
887.998 .0267725
888.662 .0267633
889.325 .0267541
889.988 .0267450
890.650 .0267359
891.312 .0267267
891.974 .0267175
892.636 .0267082
893.297 .0266986
893.957 .0266889
894.618 .0266789
895.278 .0266687
895.937 .0266581
896.596 .0266472
897.255 .0266358
897.914 .0266239
898.572 .0266112
899.230 .0265977
899.887 .0265834
900.544 .0265680
901.201 .0265517
901.857 .0265225
902.513 .0265036
903.168 .0264839
903.823 .0264633
904.478 .0264419
905.132 .0264196
905.786 .0263964
906.440 .0263723
907.093 .0263473
907.746 .0263214
908.399 .0262948
909.051 .0262675
909.703 .0262397
910.354 .0262249
911.005 .0261968
911.656 .0261684
912.306 .0261396
912.956 .0261105
913.605 .0260812
914.254 .0260518
914.903 .0260224
915.551 .0259930
916.199 .0259638
916.847 .0259349
917.494 .0259062
918.141 .0258779
918.788 .0258499
919.434 .0258223
920.079 .0257948
920.725 .0257676
921.370 .0257405
922.014 .0257136
922.658 .0256867
923.302 .0256599
923.946 .0256332
924.589 .0256065
925.231 .0255799
925.873 .0255533
926.515 .0255267
927.157 .0255002
927.798 .0254736
928.439 .0254470
929.079 .0254206
929.719 .0253943
930.359 .0253683
930.998 .0253426
931.637 .0253173
932.275 .0252926
932.913 .0252684
933.551 .0252449
934.188 .0252221
934.825 .0251999
935.462 .0251786
936.098 .0251580
936.733 .0251381
937.369 .0251190
938.004 .0251008
938.638 .0250834
939.273 .0250669
939.907 .0250513
940.540 .0250366
941.173 .0250228
941.806 .0250100
942.438 .0249981
943.070 .0249871
943.702 .0249770
944.333 .0249677
944.964 .0249591
945.594 .0249514
946.224 .0249442
946.854 .0249378
947.483 .0249319
948.112 .0249265
948.741 .0249215
949.369 .0249169
949.996 .0249126
950.624 .0249086
951.251 .0249047
951.878 .0249011
952.504 .0248975
953.130 .0248942
953.755 .0248910
954.380 .0248879
955.005 .0248851
955.629 .0248823
956.253 .0248798
956.877 .0248774
957.500 .0248752
958.123 .0248733
958.746 .0248718
959.368 .0248705
959.990 .0248697
960.611 .0248693
961.232 .0248693
961.853 .0248697
962.473 .0248704
963.093 .0248715
963.712 .0248729
964.331 .0248746
964.950 .0248766
965.569 .0248789
966.187 .0248815
966.804 .0248844
967.422 .0248876
968.039 .0248912
968.655 .0248950
969.272 .0248990
969.887 .0249033
970.503 .0249078
971.118 .0249124
971.733 .0249171
972.347 .0249220
972.961 .0249268
973.575 .0249315
974.188 .0249362
974.801 .0249408
975.414 .0249452
976.026 .0249494
976.638 .0249533
977.250 .0249570
977.861 .0249603
978.472 .0249633
979.083 .0249660
979.693 .0249683
980.303 .0249703
980.912 .0249721
981.521 .0249735
982.130 .0249748
982.738 .0249761
983.346 .0249774
983.954 .0249787
984.562 .0249801
985.169 .0249815
985.775 .0249830
986.382 .0249847
986.988 .0249866
987.594 .0249887
988.199 .0249912
988.804 .0249940
989.409 .0249966
990.013 .0250001
990.617 .0250042
991.221 .0250086
991.824 .0250135
992.427 .0250186
993.030 .0250239
993.632 .0250295
994.234 .0250352
994.836 .0250411
995.438 .0250473
996.039 .0250538
996.640 .0250605
997.240 .0250676
997.840 .0250750
998.440 .0250826
999.040 .0250904
999.639 .0250984
1000.238 .0251063
1000.836 .0251143
1001.435 .0251222
1002.033 .0251302
1002.630 .0251381
1003.228 .0251460
1003.825 .0251539
1004.422 .0251619
1005.018 .0251698
1005.614 .0251776
1006.210 .0251854
1006.806 .0251930
1007.401 .0252004
1007.996 .0252076
1008.591 .0252146
1009.186 .0252214
1009.780 .0252281
1010.374 .0252346
1010.967 .0252411
1011.561 .0252475
1012.154 .0252539
1012.746 .0252602
1013.339 .0252664
1013.931 .0252725
1014.523 .0252786
1015.115 .0252846
1015.706 .0252905
1016.298 .0252964
1016.888 .0253024
1017.479 .0253085
1018.069 .0253148
1018.660 .0253212
1019.250 .0253279
1019.839 .0253347
1020.429 .0253417
1021.018 .0253489
1021.607 .0253561
1022.195 .0253635
1022.784 .0253709
1023.372 .0253784
1023.960 .0253860
1024.547 .0253937
1025.135 .0254016
1025.722 .0254095
1026.309 .0254175
1026.896 .0254254
1027.483 .0254333
1028.069 .0254409
1028.655 .0254483
1029.241 .0254554
1029.827 .0254623
1030.412 .0254688
1030.997 .0254751
1031.582 .0254810
1032.167 .0254866
1032.752 .0254918
1033.336 .0254967
1033.921 .0255011
1034.505 .0255049
1035.089 .0255081
1035.672 .0255105
1036.256 .0255122
1036.839 .0255129
1037.422 .0255128
1038.005 .0255118
1038.588 .0255099
1039.171 .0255072
1039.753 .0255038
1040.335 .0254997
1040.918 .0254949
1041.500 .0254894
1042.081 .0254833
1042.663 .0254766
1043.244 .0254693
1043.826 .0254616
1044.407 .0254534
1044.988 .0254449
1045.569 .0254362
1046.150 .0254273
1046.730 .0254184
1047.311 .0254094
1047.891 .0254003
1048.471 .0253912
1049.052 .0253820
1049.632 .0253725
1050.211 .0253629
1050.791 .0253530
1051.371 .0253428
1051.950 .0253322
1052.530 .0253213
1053.109 .0253102
1053.688 .0252988
1054.268 .0252872
1054.847 .0252756
1055.426 .0252640
1056.005 .0252524
1056.583 .0252408
1057.162 .0252292
1057.741 .0252176
1058.319 .0252060
1058.898 .0251943
1059.476 .0251825
1060.055 .0251707
1060.633 .0251587
1061.211 .0251466
1061.790 .0251345
1062.368 .0251224
1062.946 .0251103
1063.524 .0250980
1064.102 .0250856
1064.680 .0250729
1065.258 .0250600
1065.836 .0250468
1066.414 .0250332
1066.992 .0250194
1067.570 .0250053
1068.148 .0249912
1068.726 .0249772
1069.304 .0249636
1069.882 .0249504
1070.460 .0249380
1071.038 .0249261
1071.616 .0249149
1072.194 .0249043
1072.772 .0248942
1073.350 .0248846
1073.928 .0248753
1074.506 .0248664
1075.084 .0248577
1075.662 .0248492
1076.240 .0248410
1076.819 .0248330
1077.397 .0248250
1077.976 .0248169
1078.554 .0248087
1079.133 .0248000
1079.711 .0247909
1080.290 .0247812
1080.869 .0247711
1081.448 .0247605
1082.027 .0247495
1082.606 .0247381
1083.185 .0247265
1083.764 .0247147
1084.343 .0247027
1084.923 .0246906
1085.502 .0246785
1086.082 .0246666
1086.662 .0246548
1087.242 .0246434
1087.822 .0246325
1088.402 .0246221
1088.983 .0246123
1089.563 .0246032
1090.144 .0245948
1090.725 .0245870
1091.306 .0245799
1091.887 .0245735
1092.469 .0245679
1093.050 .0245633
1093.632 .0245597
1094.214 .0245573
1094.796 .0245563
1095.379 .0245565
1095.961 .0245582
1096.544 .0245614
1097.127 .0245660
1097.710 .0245721
1098.294 .0245798
1098.877 .0245889
1099.461 .0245995
1100.046 .0246117
1100.630 .0246253
1101.215 .0246404
1101.800 .0246567
1102.385 .0246740
1102.970 .0246923
1103.556 .0247111
1104.142 .0247306
1104.728 .0247503
1105.315 .0247704
1105.902 .0247906
1106.489 .0248110
1107.077 .0248315
1107.664 .0248520
1108.253 .0248726
1108.841 .0248933
1109.430 .0249140
1110.019 .0249347
1110.609 .0249554
1111.198 .0249763
1111.789 .0249977
1112.379 .0250197
1112.970 .0250426
1113.561 .0250665
1114.153 .0250917
1114.745 .0251183
1115.338 .0251466
1115.931 .0251768
1116.524 .0252090
1117.117 .0252434
1117.712 .0252800
1118.306 .0253191
1118.901 .0253605
1119.496 .0254043
1120.092 .0254503
1120.689 .0254984
1121.285 .0255485
1121.882 .0256006
1122.480 .0256547
1123.078 .0257109
1123.677 .0257693
1124.276 .0258302
1124.875 .0258938
1125.476 .0259600
1126.076 .0260288
1126.677 .0261003
1127.279 .0261743
1127.881 .0262506
1128.484 .0263291
1129.087 .0263649
1129.691 .0264469
1130.295 .0265310
1130.900 .0266171
1131.505 .0267053
1132.111 .0267956
1132.718 .0268879
1133.325 .0269823
1133.933 .0270782
1134.541 .0271763
1135.150 .0272726
1135.760 .0273706
1136.370 .0274801
1136.981 .0275632
1137.592 .0276598
1138.204 .0277640
1138.817 .0278719
1139.431 .0279868
1140.045 .0281040
1140.660 .0282243
1141.275 .0283551
1141.891 .0284698
1142.508 .0286152
1143.126 .0286449
1143.744 .0287784
1144.363 .0291856
1144.983 .0287839
