Measurement Sequence started on: 15-12-46-377
Integration time: 28
Scans to Average: 2 
>>>>>Begin Spectral Data<<<<<
432.689 .0000100
433.621 .0000100
434.552 .0000100
435.482 .0000100
436.410 .0000100
437.337 .0000100
438.262 .0289500
439.187 .0613255
440.110 .1015844
441.031 .1469262
441.952 .1173350
442.871 .1224885
443.789 .1272821
444.705 .1317899
445.621 .1360626
446.535 .1401388
447.447 .1425224
448.359 .1430551
449.269 .1413396
450.178 .1371224
451.086 .1304879
451.993 .1219434
452.898 .1123262
453.803 .1025852
454.706 .0935269
455.608 .0856517
456.508 .0791257
457.408 .0746907
458.306 .0712685
459.204 .0684713
460.100 .0661028
460.995 .0640559
461.888 .0622598
462.781 .0606674
463.673 .0592435
464.563 .0579640
465.452 .0568094
466.340 .0557650
467.228 .0548189
468.114 .0539610
468.999 .0531825
469.882 .0524762
470.765 .0518353
471.647 .0512544
472.528 .0507296
473.407 .0502564
474.286 .0498315
475.163 .0494526
476.040 .0491166
476.915 .0488204
477.790 .0485609
478.663 .0483353
479.535 .0481405
480.407 .0479737
481.277 .0478323
482.147 .0477139
483.015 .0476164
483.883 .0475382
484.749 .0474777
485.615 .0474335
486.479 .0474048
487.343 .0473906
488.206 .0473908
489.067 .0474048
489.928 .0474331
490.788 .0474763
491.647 .0475357
492.505 .0476122
493.362 .0477074
494.218 .0478224
495.073 .0479584
495.928 .0482445
496.781 .0484397
497.634 .0486592
498.486 .0489041
499.337 .0491756
500.187 .0494742
501.036 .0498018
501.884 .0501600
502.731 .0505502
503.578 .0509755
504.424 .0512614
505.268 .0517454
506.113 .0522716
506.956 .0528435
507.798 .0534658
508.640 .0541438
509.480 .0548853
510.320 .0556993
511.160 .0565961
511.998 .0575889
512.836 .0586947
513.672 .0599305
514.508 .0613179
515.344 .0628779
516.178 .0646331
517.012 .0666076
517.845 .0688236
518.677 .0713044
519.508 .0740689
520.339 .0771276
521.169 .0804906
521.998 .0841419
522.826 .0880553
523.654 .0921861
524.481 .0964761
525.307 .1008553
526.133 .1052407
526.958 .1095436
527.782 .1136738
528.605 .1175463
529.428 .1210870
530.250 .1242207
531.072 .1268989
531.892 .1290793
532.712 .1307313
533.532 .1318367
534.350 .1323854
535.168 .1323768
535.986 .1318132
536.802 .1306979
537.618 .1290402
538.434 .1268459
539.249 .1241483
540.063 .1209885
540.876 .1174225
541.689 .1135195
542.501 .1093568
543.313 .1050200
544.124 .1006000
544.934 .0961837
545.744 .0918510
546.553 .0876690
547.361 .0837004
548.169 .0799806
548.976 .0765350
549.783 .0733762
550.589 .0705025
551.395 .0679003
552.200 .0655497
553.004 .0634248
553.808 .0615028
554.611 .0597619
555.414 .0581835
556.216 .0567479
557.018 .0554376
557.819 .0542375
558.619 .0531323
559.419 .0521094
560.218 .0511591
561.017 .0502705
561.815 .0494364
562.613 .0486504
563.410 .0479061
564.207 .0471981
565.003 .0465218
565.799 .0458720
566.594 .0452450
567.388 .0446378
568.182 .0440484
568.976 .0434746
569.769 .0429154
570.562 .0423706
571.354 .0418405
572.145 .0413264
572.936 .0408292
573.727 .0403492
574.517 .0398872
575.307 .0394431
576.096 .0390168
576.885 .0386084
577.673 .0382181
578.461 .0378463
579.248 .0374931
580.035 .0371590
580.821 .0368440
581.607 .0365482
582.392 .0362717
583.177 .0360142
583.962 .0357752
584.746 .0355542
585.529 .0353506
586.313 .0351635
587.095 .0349919
587.878 .0348350
588.660 .0346913
589.441 .0345597
590.222 .0344390
591.003 .0343283
591.783 .0342266
592.563 .0341334
593.342 .0340476
594.121 .0339687
594.899 .0338957
595.678 .0338277
596.455 .0337636
597.233 .0337025
598.009 .0336437
598.786 .0335866
599.562 .0335307
600.338 .0334760
601.113 .0334223
601.888 .0333452
602.663 .0332943
603.437 .0332445
604.211 .0331958
604.984 .0331480
605.757 .0331008
606.530 .0330542
607.302 .0330080
608.074 .0329621
608.845 .0329166
609.616 .0328717
610.387 .0328517
611.158 .0328081
611.928 .0327654
612.697 .0327238
613.467 .0326832
614.236 .0326437
615.004 .0326052
615.773 .0325674
616.541 .0325304
617.308 .0324940
618.076 .0324583
618.843 .0324232
619.609 .0323889
620.375 .0323552
621.141 .0323224
621.907 .0322903
622.672 .0322591
623.437 .0322288
624.202 .0321991
624.966 .0321700
625.730 .0321413
626.493 .0321130
627.257 .0320850
628.020 .0320572
628.782 .0320296
629.545 .0320023
630.307 .0319751
631.068 .0319482
631.830 .0319216
632.591 .0318955
633.352 .0318696
634.112 .0318442
634.872 .0318190
635.632 .0317940
636.392 .0317692
637.151 .0317446
637.910 .0317201
638.668 .0316957
639.427 .0316715
640.185 .0316475
640.943 .0316238
641.700 .0316003
642.457 .0315770
643.214 .0315541
643.971 .0315313
644.727 .0315088
645.483 .0314863
646.239 .0314641
646.994 .0314419
647.750 .0314199
648.505 .0313979
649.259 .0313760
650.014 .0313540
650.768 .0313320
651.521 .0313099
652.275 .0312876
653.028 .0312653
653.781 .0312427
654.534 .0312199
655.286 .0311968
656.039 .0311733
656.791 .0311495
657.542 .0311251
658.294 .0311003
659.045 .0310751
659.796 .0310495
660.546 .0310235
661.297 .0309972
662.047 .0309708
662.796 .0309443
663.546 .0309178
664.295 .0308914
665.044 .0308651
665.793 .0308391
666.542 .0308132
667.290 .0307877
668.038 .0307626
668.786 .0307378
669.533 .0307134
670.281 .0306895
671.028 .0306661
671.774 .0306433
672.521 .0306210
673.267 .0305992
674.013 .0305780
674.759 .0305572
675.505 .0305368
676.250 .0305167
676.995 .0304971
677.740 .0304777
678.484 .0304587
679.229 .0304400
679.973 .0304217
680.717 .0304038
681.460 .0303861
682.204 .0303687
682.947 .0303514
683.690 .0303340
684.433 .0303165
685.175 .0302988
685.917 .0302809
686.659 .0302627
687.401 .0302443
688.142 .0302256
688.884 .0302067
689.625 .0301875
690.365 .0301680
691.106 .0301483
691.846 .0301281
692.586 .0301077
693.326 .0300870
694.066 .0300660
694.805 .0300448
695.545 .0300234
696.284 .0300019
697.022 .0299803
697.761 .0299586
698.499 .0299367
699.237 .0299148
699.975 .0298929
700.713 .0298711
701.450 .0298495
702.187 .0298280
702.924 .0298068
703.661 .0297859
704.397 .0297652
705.133 .0297448
705.869 .0297246
706.605 .0297047
707.341 .0296849
708.076 .0296654
708.811 .0296461
709.546 .0296269
710.281 .0296079
711.015 .0295889
711.749 .0295699
712.483 .0295509
713.217 .0295317
713.950 .0295123
714.684 .0294928
715.417 .0294731
716.150 .0294532
716.882 .0294332
717.615 .0294130
718.347 .0293927
719.079 .0293723
719.811 .0293518
720.542 .0293312
721.273 .0293105
722.005 .0292898
722.735 .0292691
723.466 .0292486
724.196 .0292284
724.927 .0292084
725.656 .0291888
726.386 .0291696
727.116 .0291508
727.845 .0291325
728.574 .0291146
729.303 .0290971
730.031 .0290800
730.760 .0290634
731.488 .0290472
732.216 .0290314
732.944 .0290160
733.671 .0290010
734.398 .0289864
735.125 .0289722
735.852 .0289583
736.579 .0289447
737.305 .0289314
738.031 .0289184
738.757 .0289055
739.483 .0288928
740.208 .0288803
740.933 .0288679
741.658 .0288555
742.383 .0288432
743.108 .0288309
743.832 .0288187
744.556 .0288064
745.280 .0287943
746.004 .0287822
746.727 .0287701
747.450 .0287580
748.173 .0287459
748.896 .0287337
749.618 .0287215
750.340 .0287092
751.062 .0286968
751.784 .0286842
752.506 .0286715
753.227 .0286586
753.948 .0286455
754.669 .0286323
755.389 .0286188
756.110 .0286051
756.830 .0285913
757.550 .0285774
758.269 .0285634
758.989 .0285495
759.708 .0285356
760.427 .0285219
761.146 .0285082
761.864 .0284947
762.582 .0284812
763.300 .0284679
764.018 .0284547
764.736 .0284418
765.453 .0284291
766.170 .0284167
766.887 .0284046
767.603 .0283929
768.320 .0283815
769.036 .0283704
769.751 .0283597
770.467 .0283493
771.182 .0283391
771.897 .0283292
772.612 .0283196
773.327 .0283102
774.041 .0283010
774.755 .0282920
775.469 .0282833
776.183 .0282747
776.896 .0282663
777.609 .0282581
778.322 .0282502
779.035 .0282425
779.747 .0282351
780.459 .0282280
781.171 .0282211
781.882 .0282146
782.594 .0282082
783.305 .0282020
784.016 .0281960
784.726 .0281901
785.436 .0281844
786.147 .0281766
786.856 .0281711
787.566 .0281657
788.275 .0281603
788.984 .0281550
789.693 .0281497
790.401 .0281443
791.110 .0281387
791.818 .0281328
792.525 .0281265
793.233 .0281199
793.940 .0281128
794.647 .0281078
795.353 .0281000
796.060 .0280919
796.766 .0280833
797.472 .0280743
798.177 .0280648
798.883 .0280548
799.588 .0280443
800.292 .0280332
800.997 .0280216
801.701 .0280096
802.405 .0279971
803.109 .0279843
803.812 .0279713
804.515 .0279581
805.218 .0279448
805.921 .0279313
806.623 .0279178
807.325 .0279040
808.027 .0278901
808.728 .0278761
809.429 .0278621
810.130 .0278479
810.831 .0278338
811.531 .0278197
812.231 .0278057
812.931 .0277916
813.630 .0277776
814.330 .0277636
815.029 .0277495
815.727 .0277354
816.426 .0277213
817.124 .0277073
817.821 .0276935
818.519 .0276798
819.216 .0276663
819.913 .0276531
820.609 .0276400
821.306 .0276271
822.002 .0276144
822.697 .0276017
823.393 .0275892
824.088 .0275768
824.783 .0275646
825.477 .0275526
826.171 .0275409
826.865 .0275294
827.559 .0275181
828.252 .0275070
828.945 .0274962
829.638 .0274854
830.330 .0274749
831.023 .0274644
831.714 .0274542
832.406 .0274441
833.097 .0274342
833.788 .0274246
834.479 .0274152
835.169 .0274060
835.859 .0273969
836.548 .0273880
837.238 .0273792
837.927 .0273703
838.615 .0273613
839.304 .0273521
839.992 .0273428
840.680 .0273331
841.367 .0273232
842.054 .0273129
842.741 .0273022
843.428 .0272912
844.114 .0272799
844.800 .0272683
845.485 .0272563
846.170 .0272438
846.855 .0272310
847.540 .0272177
848.224 .0272040
848.908 .0271898
849.592 .0271753
850.275 .0271603
850.958 .0271450
851.641 .0271294
852.323 .0271135
853.005 .0270972
853.687 .0270807
854.368 .0270639
855.049 .0270469
855.730 .0270297
856.410 .0270125
857.090 .0269953
857.769 .0269782
858.449 .0269612
859.128 .0269445
859.806 .0269280
860.485 .0269117
861.163 .0268957
861.840 .0268800
862.518 .0268647
863.195 .0268496
863.871 .0268350
864.548 .0268208
865.224 .0268069
865.899 .0267935
866.574 .0267803
867.249 .0267675
867.924 .0267549
868.598 .0267425
869.272 .0267303
869.946 .0267182
870.619 .0267063
871.292 .0266946
871.964 .0266832
872.636 .0266719
873.308 .0266609
873.979 .0266500
874.651 .0266393
875.321 .0266288
875.992 .0266183
876.662 .0266080
877.331 .0265979
878.001 .0265879
878.670 .0265780
879.338 .0265683
880.007 .0265589
880.675 .0265496
881.342 .0265407
882.009 .0265320
882.676 .0265238
883.343 .0265160
884.009 .0265088
884.675 .0265020
885.340 .0264958
886.005 .0264902
886.670 .0264852
887.334 .0264808
887.998 .0264771
888.662 .0264739
889.325 .0264715
889.988 .0264697
890.650 .0264687
891.312 .0264682
891.974 .0264683
892.636 .0264690
893.297 .0264702
893.957 .0264717
894.618 .0264735
895.278 .0264757
895.937 .0264780
896.596 .0264804
897.255 .0264829
897.914 .0264851
898.572 .0264871
899.230 .0264887
899.887 .0264897
900.544 .0264900
901.201 .0264896
901.857 .0264851
902.513 .0264826
903.168 .0264792
903.823 .0264750
904.478 .0264700
905.132 .0264640
905.786 .0264571
906.440 .0264493
907.093 .0264407
907.746 .0264314
908.399 .0264215
909.051 .0264110
909.703 .0264003
910.354 .0263943
911.005 .0263837
911.656 .0263730
912.306 .0263622
912.956 .0263515
913.605 .0263409
914.254 .0263303
914.903 .0263200
915.551 .0263099
916.199 .0263001
916.847 .0262906
917.494 .0262814
918.141 .0262725
918.788 .0262638
919.434 .0262552
920.079 .0262467
920.725 .0262382
921.370 .0262297
922.014 .0262211
922.658 .0262125
923.302 .0262037
923.946 .0261949
924.589 .0261860
925.231 .0261768
925.873 .0261674
926.515 .0261576
927.157 .0261474
927.798 .0261368
928.439 .0261258
929.079 .0261143
929.719 .0261024
930.359 .0260902
930.998 .0260778
931.637 .0260651
932.275 .0260523
932.913 .0260394
933.551 .0260263
934.188 .0260133
934.825 .0260003
935.462 .0259875
936.098 .0259749
936.733 .0259626
937.369 .0259506
938.004 .0259392
938.638 .0259282
939.273 .0259177
939.907 .0259077
940.540 .0258983
941.173 .0258894
941.806 .0258809
942.438 .0258729
943.070 .0258653
943.702 .0258581
944.333 .0258511
944.964 .0258444
945.594 .0258377
946.224 .0258310
946.854 .0258242
947.483 .0258171
948.112 .0258098
948.741 .0258021
949.369 .0257941
949.996 .0257857
950.624 .0257770
951.251 .0257679
951.878 .0257585
952.504 .0257488
953.130 .0257389
953.755 .0257288
954.380 .0257184
955.005 .0257079
955.629 .0256973
956.253 .0256866
956.877 .0256758
957.500 .0256649
958.123 .0256540
958.746 .0256431
959.368 .0256322
959.990 .0256213
960.611 .0256105
961.232 .0255997
961.853 .0255891
962.473 .0255785
963.093 .0255679
963.712 .0255575
964.331 .0255472
964.950 .0255370
965.569 .0255269
966.187 .0255170
966.804 .0255071
967.422 .0254973
968.039 .0254874
968.655 .0254775
969.272 .0254673
969.887 .0254569
970.503 .0254461
971.118 .0254350
971.733 .0254234
972.347 .0254114
972.961 .0253989
973.575 .0253860
974.188 .0253726
974.801 .0253586
975.414 .0253441
976.026 .0253290
976.638 .0253135
977.250 .0252974
977.861 .0252810
978.472 .0252641
979.083 .0252470
979.693 .0252297
980.303 .0252122
980.912 .0251856
981.521 .0251681
982.130 .0251506
982.738 .0251332
983.346 .0251159
983.954 .0250988
984.562 .0250819
985.169 .0250653
985.775 .0250492
986.382 .0250335
986.988 .0250183
987.594 .0250037
988.199 .0249896
988.804 .0249761
989.409 .0249711
990.013 .0249584
990.617 .0249462
991.221 .0249345
991.824 .0249232
992.427 .0249125
993.030 .0249022
993.632 .0248923
994.234 .0248828
994.836 .0248735
995.438 .0248646
996.039 .0248560
996.640 .0248476
997.240 .0248394
997.840 .0248315
998.440 .0248238
999.040 .0248164
999.639 .0248091
1000.238 .0248021
1000.836 .0247953
1001.435 .0247886
1002.033 .0247820
1002.630 .0247754
1003.228 .0247689
1003.825 .0247624
1004.422 .0247558
1005.018 .0247492
1005.614 .0247426
1006.210 .0247359
1006.806 .0247292
1007.401 .0247225
1007.996 .0247158
1008.591 .0247090
1009.186 .0247022
1009.780 .0246955
1010.374 .0246888
1010.967 .0246823
1011.561 .0246759
1012.154 .0246698
1012.746 .0246639
1013.339 .0246583
1013.931 .0246530
1014.523 .0246479
1015.115 .0246431
1015.706 .0246384
1016.298 .0246339
1016.888 .0246295
1017.479 .0246253
1018.069 .0246213
1018.660 .0246176
1019.250 .0246141
1019.839 .0246111
1020.429 .0246085
1021.018 .0246063
1021.607 .0246046
1022.195 .0246033
1022.784 .0246023
1023.372 .0246018
1023.960 .0246017
1024.547 .0246019
1025.135 .0246026
1025.722 .0246037
1026.309 .0246054
1026.896 .0246077
1027.483 .0246104
1028.069 .0246137
1028.655 .0246173
1029.241 .0246211
1029.827 .0246252
1030.412 .0246293
1030.997 .0246336
1031.582 .0246379
1032.167 .0246424
1032.752 .0246471
1033.336 .0246520
1033.921 .0246572
1034.505 .0246626
1035.089 .0246682
1035.672 .0246737
1036.256 .0246791
1036.839 .0246843
1037.422 .0246891
1038.005 .0246935
1038.588 .0246976
1039.171 .0247014
1039.753 .0247050
1040.335 .0247084
1040.918 .0247119
1041.500 .0247153
1042.081 .0247187
1042.663 .0247220
1043.244 .0247252
1043.826 .0247283
1044.407 .0247312
1044.988 .0247339
1045.569 .0247367
1046.150 .0247396
1046.730 .0247426
1047.311 .0247459
1047.891 .0247496
1048.471 .0247536
1049.052 .0247581
1049.632 .0247628
1050.211 .0247677
1050.791 .0247728
1051.371 .0247780
1051.950 .0247832
1052.530 .0247885
1053.109 .0247939
1053.688 .0247993
1054.268 .0248049
1054.847 .0248107
1055.426 .0248166
1056.005 .0248229
1056.583 .0248293
1057.162 .0248359
1057.741 .0248425
1058.319 .0248492
1058.898 .0248557
1059.476 .0248620
1060.055 .0248681
1060.633 .0248739
1061.211 .0248794
1061.790 .0248845
1062.368 .0248893
1062.946 .0248939
1063.524 .0248982
1064.102 .0249022
1064.680 .0249059
1065.258 .0249093
1065.836 .0249124
1066.414 .0249152
1066.992 .0249177
1067.570 .0249201
1068.148 .0249224
1068.726 .0249248
1069.304 .0249273
1069.882 .0249300
1070.460 .0249330
1071.038 .0249365
1071.616 .0249405
1072.194 .0249451
1072.772 .0249502
1073.350 .0249558
1073.928 .0249619
1074.506 .0249684
1075.084 .0249754
1075.662 .0249826
1076.240 .0249901
1076.819 .0249977
1077.397 .0250056
1077.976 .0250139
1078.554 .0250227
1079.133 .0250319
1079.711 .0250417
1080.290 .0250520
1080.869 .0250629
1081.448 .0250742
1082.027 .0250858
1082.606 .0250976
1083.185 .0251094
1083.764 .0251213
1084.343 .0251334
1084.923 .0251457
1085.502 .0251584
1086.082 .0251718
1086.662 .0251859
1087.242 .0252008
1087.822 .0252165
1088.402 .0252329
1088.983 .0252499
1089.563 .0252673
1090.144 .0252852
1090.725 .0253036
1091.306 .0253227
1091.887 .0253427
1092.469 .0253640
1093.050 .0253867
1093.632 .0254111
1094.214 .0254370
1094.796 .0254643
1095.379 .0254928
1095.961 .0255221
1096.544 .0255521
1097.127 .0255826
1097.710 .0256134
1098.294 .0256447
1098.877 .0256766
1099.461 .0257092
1100.046 .0257427
1100.630 .0257769
1101.215 .0258120
1101.800 .0258475
1102.385 .0258833
1102.970 .0259192
1103.556 .0259550
1104.142 .0259907
1104.728 .0260263
1105.315 .0260619
1105.902 .0260977
1106.489 .0261339
1107.077 .0261705
1107.664 .0262075
1108.253 .0262450
1108.841 .0262828
1109.430 .0263211
1110.019 .0263597
1110.609 .0263987
1111.198 .0264382
1111.789 .0264784
1112.379 .0265192
1112.970 .0265607
1113.561 .0266028
1114.153 .0266455
1114.745 .0266889
1115.338 .0267331
1115.931 .0267781
1116.524 .0268241
1117.117 .0268712
1117.712 .0269194
1118.306 .0269689
1118.901 .0270195
1119.496 .0270714
1120.092 .0271243
1120.689 .0271778
1121.285 .0272319
1121.882 .0272864
1122.480 .0273414
1123.078 .0273967
1123.677 .0274527
1124.276 .0275095
1124.875 .0275675
1125.476 .0276267
1126.076 .0276874
1126.677 .0277494
1127.279 .0278127
1127.881 .0278772
1128.484 .0279427
1129.087 .0279719
1129.691 .0280383
1130.295 .0281060
1130.900 .0281750
1131.505 .0282460
1132.111 .0283194
1132.718 .0283958
1133.325 .0284762
1133.933 .0285608
1134.541 .0286485
1135.150 .0287424
1135.760 .0288426
1136.370 .0289597
1136.981 .0289609
1137.592 .0290510
1138.204 .0291403
1138.817 .0292340
1139.431 .0293361
1140.045 .0294517
1140.660 .0295847
1141.275 .0297489
1141.891 .0299244
1142.508 .0300729
1143.126 .0303113
1143.744 .0305510
1144.363 .0310905
1144.983 .0308337
