Measurement Sequence started on: 15-12-46-377
Integration time: 28
Scans to Average: 2 
>>>>>Begin Spectral Data<<<<<
432.689 .0000100
433.621 .0000100
434.552 .0000100
435.482 .0000100
436.410 .0000100
437.337 .0000100
438.262 .0269872
439.187 .0572870
440.110 .0948843
441.031 .1372834
441.952 .1100798
442.871 .1149872
443.789 .1195612
444.705 .1238720
445.621 .1279664
446.535 .1318798
447.447 .1342172
448.359 .1348252
449.269 .1333368
450.178 .1295126
451.086 .1234282
451.993 .1155554
452.898 .1066754
453.803 .0976736
454.706 .0893015
455.608 .0820264
456.508 .0760034
457.408 .0719244
458.306 .0687880
459.204 .0662269
460.100 .0640614
460.995 .0621929
461.888 .0605540
462.781 .0591011
463.673 .0578017
464.563 .0566333
465.452 .0555773
466.340 .0546188
467.228 .0537460
468.114 .0529495
468.999 .0522219
469.882 .0515556
470.765 .0509436
471.647 .0503811
472.528 .0498632
473.407 .0493862
474.286 .0489476
475.163 .0485453
476.040 .0481772
476.915 .0478414
477.790 .0475360
478.663 .0472591
479.535 .0470090
480.407 .0467844
481.277 .0465839
482.147 .0464059
483.015 .0462492
483.883 .0461129
484.749 .0459960
485.615 .0458985
486.479 .0458200
487.343 .0457608
488.206 .0457212
489.067 .0457020
489.928 .0457040
490.788 .0457279
491.647 .0457748
492.505 .0458454
493.362 .0459400
494.218 .0460587
495.073 .0462010
495.928 .0464983
496.781 .0466987
497.634 .0469218
498.486 .0471677
499.337 .0474371
500.187 .0477313
501.036 .0480517
501.884 .0484003
502.731 .0487797
503.578 .0491933
504.424 .0494678
505.268 .0499437
506.113 .0504627
506.956 .0510291
507.798 .0516483
508.640 .0523272
509.480 .0530749
510.320 .0539022
511.160 .0548209
511.998 .0558448
512.836 .0569899
513.672 .0582725
514.508 .0597122
515.344 .0613306
516.178 .0631499
517.012 .0651929
517.845 .0674818
518.677 .0700399
519.508 .0728853
520.339 .0760317
521.169 .0794854
521.998 .0832266
522.826 .0872241
523.654 .0914257
524.481 .0957661
525.307 .1001694
526.133 .1045500
526.958 .1088156
527.782 .1128747
528.605 .1166456
529.428 .1200534
530.250 .1230323
531.072 .1255381
531.892 .1275323
532.712 .1289885
533.532 .1298896
534.350 .1302291
535.168 .1300081
535.986 .1292310
536.802 .1279029
537.618 .1260291
538.434 .1236207
539.249 .1207130
540.063 .1173524
540.876 .1136031
541.689 .1095410
542.501 .1052495
543.313 .1008167
544.124 .0963345
544.934 .0918902
545.744 .0875590
546.553 .0834080
547.361 .0794916
548.169 .0758420
548.976 .0724825
549.783 .0694211
550.589 .0666556
551.395 .0641714
552.200 .0619457
553.004 .0599497
553.808 .0581579
554.611 .0565485
555.414 .0550992
556.216 .0537901
557.018 .0526020
557.819 .0515183
558.619 .0505228
559.419 .0496029
560.218 .0487485
561.017 .0479508
561.815 .0472028
562.613 .0464989
563.410 .0458333
564.207 .0452007
565.003 .0445964
565.799 .0440158
566.594 .0434558
567.388 .0429137
568.182 .0423870
568.976 .0418744
569.769 .0413756
570.562 .0408904
571.354 .0404187
572.145 .0399616
572.936 .0395198
573.727 .0390932
574.517 .0386822
575.307 .0382869
576.096 .0379067
576.885 .0375415
577.673 .0371914
578.461 .0368564
579.248 .0365370
580.035 .0362331
580.821 .0359449
581.607 .0356720
582.392 .0354144
583.177 .0351712
583.962 .0349419
584.746 .0347259
585.529 .0345225
586.313 .0343312
587.095 .0341517
587.878 .0339836
588.660 .0338269
589.441 .0336811
590.222 .0335459
591.003 .0334206
591.783 .0333048
592.563 .0331976
593.342 .0330982
594.121 .0330058
594.899 .0329196
595.678 .0328390
596.455 .0327632
597.233 .0326917
598.009 .0326241
598.786 .0325599
599.562 .0324989
600.338 .0324405
601.113 .0323845
601.888 .0323071
602.663 .0322559
603.437 .0322064
604.211 .0321586
604.984 .0321124
605.757 .0320677
606.530 .0320244
607.302 .0319826
608.074 .0319423
608.845 .0319034
609.616 .0318661
610.387 .0318510
611.158 .0318162
611.928 .0317831
612.697 .0317516
613.467 .0317217
614.236 .0316934
615.004 .0316666
615.773 .0316411
616.541 .0316169
617.308 .0315938
618.076 .0315716
618.843 .0315502
619.609 .0315295
620.375 .0315090
621.141 .0314889
621.907 .0314687
622.672 .0314483
623.437 .0314276
624.202 .0314063
624.966 .0313843
625.730 .0313615
626.493 .0313377
627.257 .0313130
628.020 .0312873
628.782 .0312605
629.545 .0312328
630.307 .0312042
631.068 .0311747
631.830 .0311443
632.591 .0311133
633.352 .0310819
634.112 .0310501
634.872 .0310184
635.632 .0309867
636.392 .0309555
637.151 .0309248
637.910 .0308948
638.668 .0308657
639.427 .0308376
640.185 .0308107
640.943 .0307849
641.700 .0307603
642.457 .0307370
643.214 .0307148
643.971 .0306938
644.727 .0306737
645.483 .0306545
646.239 .0306360
646.994 .0306179
647.750 .0306001
648.505 .0305827
649.259 .0305655
650.014 .0305485
650.768 .0305315
651.521 .0305146
652.275 .0304977
653.028 .0304807
653.781 .0304634
654.534 .0304459
655.286 .0304281
656.039 .0304099
656.791 .0303914
657.542 .0303726
658.294 .0303536
659.045 .0303345
659.796 .0303153
660.546 .0302962
661.297 .0302771
662.047 .0302580
662.796 .0302389
663.546 .0302199
664.295 .0302009
665.044 .0301820
665.793 .0301630
666.542 .0301440
667.290 .0301250
668.038 .0301060
668.786 .0300871
669.533 .0300682
670.281 .0300493
671.028 .0300304
671.774 .0300115
672.521 .0299927
673.267 .0299738
674.013 .0299550
674.759 .0299362
675.505 .0299173
676.250 .0298984
676.995 .0298794
677.740 .0298603
678.484 .0298413
679.229 .0298222
679.973 .0298032
680.717 .0297842
681.460 .0297655
682.204 .0297469
682.947 .0297286
683.690 .0297105
684.433 .0296926
685.175 .0296747
685.917 .0296570
686.659 .0296392
687.401 .0296215
688.142 .0296037
688.884 .0295859
689.625 .0295681
690.365 .0295502
691.106 .0295323
691.846 .0295143
692.586 .0294964
693.326 .0294785
694.066 .0294607
694.805 .0294430
695.545 .0294254
696.284 .0294081
697.022 .0293910
697.761 .0293741
698.499 .0293575
699.237 .0293411
699.975 .0293249
700.713 .0293090
701.450 .0292933
702.187 .0292778
702.924 .0292627
703.661 .0292479
704.397 .0292333
705.133 .0292189
705.869 .0292046
706.605 .0291903
707.341 .0291758
708.076 .0291612
708.811 .0291462
709.546 .0291309
710.281 .0291152
711.015 .0290992
711.749 .0290827
712.483 .0290660
713.217 .0290489
713.950 .0290313
714.684 .0290134
715.417 .0289950
716.150 .0289762
716.882 .0289569
717.615 .0289372
718.347 .0289170
719.079 .0288966
719.811 .0288759
720.542 .0288550
721.273 .0288339
722.005 .0288129
722.735 .0287918
723.466 .0287708
724.196 .0287499
724.927 .0287293
725.656 .0287089
726.386 .0286888
727.116 .0286692
727.845 .0286500
728.574 .0286313
729.303 .0286131
730.031 .0285954
730.760 .0285781
731.488 .0285614
732.216 .0285452
732.944 .0285296
733.671 .0285146
734.398 .0285002
735.125 .0284864
735.852 .0284730
736.579 .0284602
737.305 .0284478
738.031 .0284357
738.757 .0284238
739.483 .0284122
740.208 .0284008
740.933 .0283896
741.658 .0283784
742.383 .0283674
743.108 .0283564
743.832 .0283453
744.556 .0283342
745.280 .0283230
746.004 .0283117
746.727 .0283002
747.450 .0282884
748.173 .0282764
748.896 .0282642
749.618 .0282519
750.340 .0282392
751.062 .0282264
751.784 .0282133
752.506 .0281999
753.227 .0281863
753.948 .0281724
754.669 .0281583
755.389 .0281440
756.110 .0281295
756.830 .0281149
757.550 .0281002
758.269 .0280855
758.989 .0280709
759.708 .0280563
760.427 .0280417
761.146 .0280271
761.864 .0280125
762.582 .0279980
763.300 .0279834
764.018 .0279687
764.736 .0279542
765.453 .0279396
766.170 .0279252
766.887 .0279109
767.603 .0278967
768.320 .0278826
769.036 .0278687
769.751 .0278549
770.467 .0278412
771.182 .0278278
771.897 .0278147
772.612 .0278018
773.327 .0277892
774.041 .0277771
774.755 .0277654
775.469 .0277541
776.183 .0277433
776.896 .0277330
777.609 .0277232
778.322 .0277140
779.035 .0277053
779.747 .0276973
780.459 .0276898
781.171 .0276830
781.882 .0276767
782.594 .0276709
783.305 .0276654
784.016 .0276603
784.726 .0276554
785.436 .0276507
786.147 .0276440
786.856 .0276394
787.566 .0276347
788.275 .0276302
788.984 .0276258
789.693 .0276213
790.401 .0276168
791.110 .0276121
791.818 .0276072
792.525 .0276020
793.233 .0275964
793.940 .0275905
794.647 .0275864
795.353 .0275800
796.060 .0275733
796.766 .0275663
797.472 .0275591
798.177 .0275517
798.883 .0275440
799.588 .0275361
800.292 .0275280
800.997 .0275197
801.701 .0275111
802.405 .0275024
803.109 .0274935
803.812 .0274844
804.515 .0274751
805.218 .0274655
805.921 .0274555
806.623 .0274452
807.325 .0274344
808.027 .0274231
808.728 .0274115
809.429 .0273995
810.130 .0273872
810.831 .0273746
811.531 .0273618
812.231 .0273487
812.931 .0273355
813.630 .0273220
814.330 .0273082
815.029 .0272942
815.727 .0272801
816.426 .0272659
817.124 .0272519
817.821 .0272381
818.519 .0272246
819.216 .0272115
819.913 .0271988
820.609 .0271866
821.306 .0271748
822.002 .0271634
822.697 .0271524
823.393 .0271419
824.088 .0271318
824.783 .0271222
825.477 .0271130
826.171 .0271044
826.865 .0270961
827.559 .0270882
828.252 .0270807
828.945 .0270733
829.638 .0270662
830.330 .0270593
831.023 .0270525
831.714 .0270459
832.406 .0270394
833.097 .0270330
833.788 .0270265
834.479 .0270199
835.169 .0270131
835.859 .0270061
836.548 .0269988
837.238 .0269913
837.927 .0269835
838.615 .0269755
839.304 .0269673
839.992 .0269589
840.680 .0269503
841.367 .0269415
842.054 .0269324
842.741 .0269230
843.428 .0269133
844.114 .0269033
844.800 .0268929
845.485 .0268822
846.170 .0268710
846.855 .0268594
847.540 .0268473
848.224 .0268347
848.908 .0268216
849.592 .0268079
850.275 .0267935
850.958 .0267786
851.641 .0267629
852.323 .0267467
853.005 .0267298
853.687 .0267123
854.368 .0266943
855.049 .0266758
855.730 .0266569
856.410 .0266377
857.090 .0266182
857.769 .0265986
858.449 .0265788
859.128 .0265589
859.806 .0265391
860.485 .0265193
861.163 .0264996
861.840 .0264800
862.518 .0264607
863.195 .0264416
863.871 .0264228
864.548 .0264044
865.224 .0263863
865.899 .0263686
866.574 .0263513
867.249 .0263343
867.924 .0263178
868.598 .0263016
869.272 .0262859
869.946 .0262706
870.619 .0262558
871.292 .0262414
871.964 .0262275
872.636 .0262140
873.308 .0262010
873.979 .0261884
874.651 .0261762
875.321 .0261644
875.992 .0261531
876.662 .0261423
877.331 .0261318
878.001 .0261218
878.670 .0261122
879.338 .0261030
880.007 .0260942
880.675 .0260858
881.342 .0260779
882.009 .0260706
882.676 .0260637
883.343 .0260574
884.009 .0260517
884.675 .0260467
885.340 .0260422
886.005 .0260383
886.670 .0260350
887.334 .0260323
887.998 .0260301
888.662 .0260284
889.325 .0260272
889.988 .0260264
890.650 .0260261
891.312 .0260262
891.974 .0260266
892.636 .0260274
893.297 .0260285
893.957 .0260298
894.618 .0260313
895.278 .0260328
895.937 .0260343
896.596 .0260357
897.255 .0260368
897.914 .0260375
898.572 .0260379
899.230 .0260377
899.887 .0260369
900.544 .0260356
901.201 .0260336
901.857 .0260271
902.513 .0260232
903.168 .0260186
903.823 .0260133
904.478 .0260073
905.132 .0260005
905.786 .0259930
906.440 .0259849
907.093 .0259760
907.746 .0259665
908.399 .0259565
909.051 .0259460
909.703 .0259352
910.354 .0259294
911.005 .0259186
911.656 .0259077
912.306 .0258968
912.956 .0258858
913.605 .0258748
914.254 .0258640
914.903 .0258533
915.551 .0258429
916.199 .0258326
916.847 .0258225
917.494 .0258126
918.141 .0258029
918.788 .0257933
919.434 .0257836
920.079 .0257740
920.725 .0257643
921.370 .0257545
922.014 .0257446
922.658 .0257347
923.302 .0257246
923.946 .0257144
924.589 .0257040
925.231 .0256935
925.873 .0256827
926.515 .0256716
927.157 .0256603
927.798 .0256487
928.439 .0256370
929.079 .0256252
929.719 .0256135
930.359 .0256019
930.998 .0255906
931.637 .0255796
932.275 .0255690
932.913 .0255586
933.551 .0255487
934.188 .0255392
934.825 .0255301
935.462 .0255216
936.098 .0255136
936.733 .0255062
937.369 .0254995
938.004 .0254933
938.638 .0254877
939.273 .0254826
939.907 .0254779
940.540 .0254737
941.173 .0254698
941.806 .0254663
942.438 .0254632
943.070 .0254604
943.702 .0254579
944.333 .0254555
944.964 .0254532
945.594 .0254509
946.224 .0254483
946.854 .0254454
947.483 .0254421
948.112 .0254384
948.741 .0254343
949.369 .0254297
949.996 .0254249
950.624 .0254197
951.251 .0254143
951.878 .0254086
952.504 .0254025
953.130 .0253962
953.755 .0253897
954.380 .0253829
955.005 .0253759
955.629 .0253688
956.253 .0253617
956.877 .0253546
957.500 .0253476
958.123 .0253407
958.746 .0253338
959.368 .0253270
959.990 .0253203
960.611 .0253136
961.232 .0253070
961.853 .0253004
962.473 .0252938
963.093 .0252873
963.712 .0252809
964.331 .0252744
964.950 .0252679
965.569 .0252614
966.187 .0252546
966.804 .0252477
967.422 .0252405
968.039 .0252330
968.655 .0252252
969.272 .0252171
969.887 .0252086
970.503 .0251997
971.118 .0251904
971.733 .0251805
972.347 .0251701
972.961 .0251590
973.575 .0251472
974.188 .0251348
974.801 .0251218
975.414 .0251082
976.026 .0250941
976.638 .0250795
977.250 .0250646
977.861 .0250493
978.472 .0250337
979.083 .0250178
979.693 .0250017
980.303 .0249852
980.912 .0249598
981.521 .0249431
982.130 .0249264
982.738 .0249097
983.346 .0248930
983.954 .0248765
984.562 .0248602
985.169 .0248440
985.775 .0248281
986.382 .0248124
986.988 .0247970
987.594 .0247820
988.199 .0247674
988.804 .0247532
989.409 .0247476
990.013 .0247341
990.617 .0247213
991.221 .0247090
991.824 .0246973
992.427 .0246863
993.030 .0246757
993.632 .0246656
994.234 .0246558
994.836 .0246464
995.438 .0246372
996.039 .0246283
996.640 .0246196
997.240 .0246111
997.840 .0246029
998.440 .0245949
999.040 .0245873
999.639 .0245799
1000.238 .0245726
1000.836 .0245656
1001.435 .0245586
1002.033 .0245515
1002.630 .0245445
1003.228 .0245373
1003.825 .0245300
1004.422 .0245227
1005.018 .0245153
1005.614 .0245079
1006.210 .0245005
1006.806 .0244931
1007.401 .0244857
1007.996 .0244783
1008.591 .0244708
1009.186 .0244632
1009.780 .0244554
1010.374 .0244475
1010.967 .0244395
1011.561 .0244316
1012.154 .0244238
1012.746 .0244164
1013.339 .0244093
1013.931 .0244027
1014.523 .0243966
1015.115 .0243909
1015.706 .0243856
1016.298 .0243807
1016.888 .0243761
1017.479 .0243717
1018.069 .0243676
1018.660 .0243638
1019.250 .0243604
1019.839 .0243575
1020.429 .0243552
1021.018 .0243535
1021.607 .0243526
1022.195 .0243523
1022.784 .0243527
1023.372 .0243536
1023.960 .0243552
1024.547 .0243572
1025.135 .0243595
1025.722 .0243622
1026.309 .0243653
1026.896 .0243686
1027.483 .0243722
1028.069 .0243761
1028.655 .0243802
1029.241 .0243845
1029.827 .0243889
1030.412 .0243933
1030.997 .0243977
1031.582 .0244018
1032.167 .0244058
1032.752 .0244096
1033.336 .0244131
1033.921 .0244164
1034.505 .0244195
1035.089 .0244226
1035.672 .0244257
1036.256 .0244287
1036.839 .0244316
1037.422 .0244344
1038.005 .0244371
1038.588 .0244394
1039.171 .0244415
1039.753 .0244431
1040.335 .0244444
1040.918 .0244454
1041.500 .0244460
1042.081 .0244464
1042.663 .0244466
1043.244 .0244466
1043.826 .0244466
1044.407 .0244464
1044.988 .0244461
1045.569 .0244455
1046.150 .0244447
1046.730 .0244437
1047.311 .0244424
1047.891 .0244410
1048.471 .0244394
1049.052 .0244378
1049.632 .0244364
1050.211 .0244350
1050.791 .0244339
1051.371 .0244329
1051.950 .0244319
1052.530 .0244309
1053.109 .0244299
1053.688 .0244288
1054.268 .0244277
1054.847 .0244266
1055.426 .0244257
1056.005 .0244251
1056.583 .0244250
1057.162 .0244254
1057.741 .0244266
1058.319 .0244284
1058.898 .0244310
1059.476 .0244342
1060.055 .0244379
1060.633 .0244422
1061.211 .0244470
1061.790 .0244524
1062.368 .0244585
1062.946 .0244651
1063.524 .0244724
1064.102 .0244804
1064.680 .0244889
1065.258 .0244979
1065.836 .0245072
1066.414 .0245169
1066.992 .0245266
1067.570 .0245363
1068.148 .0245461
1068.726 .0245558
1069.304 .0245655
1069.882 .0245751
1070.460 .0245848
1071.038 .0245944
1071.616 .0246040
1072.194 .0246133
1072.772 .0246225
1073.350 .0246312
1073.928 .0246394
1074.506 .0246471
1075.084 .0246542
1075.662 .0246608
1076.240 .0246670
1076.819 .0246730
1077.397 .0246789
1077.976 .0246848
1078.554 .0246909
1079.133 .0246972
1079.711 .0247037
1080.290 .0247103
1080.869 .0247170
1081.448 .0247238
1082.027 .0247308
1082.606 .0247380
1083.185 .0247454
1083.764 .0247533
1084.343 .0247618
1084.923 .0247710
1085.502 .0247810
1086.082 .0247918
1086.662 .0248034
1087.242 .0248158
1087.822 .0248290
1088.402 .0248429
1088.983 .0248577
1089.563 .0248733
1090.144 .0248898
1090.725 .0249074
1091.306 .0249261
1091.887 .0249460
1092.469 .0249671
1093.050 .0249893
1093.632 .0250124
1094.214 .0250363
1094.796 .0250606
1095.379 .0250852
1095.961 .0251100
1096.544 .0251349
1097.127 .0251597
1097.710 .0251846
1098.294 .0252096
1098.877 .0252348
1099.461 .0252602
1100.046 .0252860
1100.630 .0253121
1101.215 .0253385
1101.800 .0253650
1102.385 .0253917
1102.970 .0254185
1103.556 .0254455
1104.142 .0254726
1104.728 .0255000
1105.315 .0255279
1105.902 .0255563
1106.489 .0255854
1107.077 .0256151
1107.664 .0256456
1108.253 .0256768
1108.841 .0257087
1109.430 .0257413
1110.019 .0257747
1110.609 .0258090
1111.198 .0258442
1111.789 .0258805
1112.379 .0259178
1112.970 .0259563
1113.561 .0259958
1114.153 .0260363
1114.745 .0260778
1115.338 .0261203
1115.931 .0261636
1116.524 .0262078
1117.117 .0262528
1117.712 .0262984
1118.306 .0263447
1118.901 .0263914
1119.496 .0264383
1120.092 .0264853
1120.689 .0265322
1121.285 .0265792
1121.882 .0266262
1122.480 .0266735
1123.078 .0267216
1123.677 .0267707
1124.276 .0268211
1124.875 .0268729
1125.476 .0269261
1126.076 .0269807
1126.677 .0270365
1127.279 .0270937
1127.881 .0271520
1128.484 .0272118
1129.087 .0272370
1129.691 .0272983
1130.295 .0273617
1130.900 .0274270
1131.505 .0274948
1132.111 .0275647
1132.718 .0276368
1133.325 .0277110
1133.933 .0277860
1134.541 .0278663
1135.150 .0279405
1135.760 .0280231
1136.370 .0281089
1136.981 .0281779
1137.592 .0282828
1138.204 .0283922
1138.817 .0285020
1139.431 .0286170
1140.045 .0287246
1140.660 .0288305
1141.275 .0289333
1141.891 .0290061
1142.508 .0292006
1143.126 .0290786
1143.744 .0293573
1144.363 .0294873
1144.983 .0288187
