Measurement Sequence started on: 15-12-46-377
Integration time: 28
Scans to Average: 2 
>>>>>Begin Spectral Data<<<<<
432.689 .0000100
433.621 .0000100
434.552 .0000100
435.482 .0000100
436.410 .0000100
437.337 .0000100
438.262 .0273858
439.187 .0579202
440.110 .0959352
441.031 .1387875
441.952 .1111504
442.871 .1160805
443.789 .1206737
444.705 .1250020
445.621 .1291125
446.535 .1330419
447.447 .1353749
448.359 .1359642
449.269 .1344328
450.178 .1305392
451.086 .1243604
451.993 .1163742
452.898 .1073697
453.803 .0982423
454.706 .0897538
455.608 .0823765
456.508 .0762677
457.408 .0721307
458.306 .0689436
459.204 .0663417
460.100 .0641402
460.995 .0622357
461.888 .0605585
462.781 .0590643
463.673 .0577196
464.563 .0565023
465.452 .0553972
466.340 .0543911
467.228 .0534739
468.114 .0526369
468.999 .0518732
469.882 .0511745
470.765 .0505342
471.647 .0499464
472.528 .0494060
473.407 .0489093
474.286 .0484539
475.163 .0480382
476.040 .0476617
476.915 .0473237
477.790 .0470231
478.663 .0467584
479.535 .0465278
480.407 .0463283
481.277 .0461568
482.147 .0460101
483.015 .0458852
483.883 .0457792
484.749 .0456907
485.615 .0456180
486.479 .0455608
487.343 .0455185
488.206 .0454915
489.067 .0454798
489.928 .0454837
490.788 .0455027
491.647 .0455366
492.505 .0455846
493.362 .0456465
494.218 .0457219
495.073 .0458118
495.928 .0460030
496.781 .0461359
497.634 .0462886
498.486 .0464628
499.337 .0466606
500.187 .0468850
501.036 .0471392
501.884 .0474266
502.731 .0477510
503.578 .0481170
504.424 .0483928
505.268 .0488414
506.113 .0493465
506.956 .0499137
507.798 .0505498
508.640 .0512623
509.480 .0520605
510.320 .0529556
511.160 .0539591
511.998 .0550835
512.836 .0563447
513.672 .0577581
514.508 .0593409
515.344 .0611129
516.178 .0630961
517.012 .0653141
517.845 .0677912
518.677 .0705480
519.508 .0736025
520.339 .0769653
521.169 .0806390
521.998 .0846013
522.826 .0888188
523.654 .0932392
524.481 .0977941
525.307 .1024066
526.133 .1069908
526.958 .1114535
527.782 .1157031
528.605 .1196530
529.428 .1232261
530.250 .1263516
531.072 .1289802
531.892 .1310708
532.712 .1325959
533.532 .1335396
534.350 .1338937
535.168 .1336581
535.986 .1328411
536.802 .1314516
537.618 .1295021
538.434 .1270091
539.249 .1240111
540.063 .1205547
540.876 .1167025
541.689 .1125307
542.501 .1081203
543.313 .1035585
544.124 .0989380
544.934 .0943464
545.744 .0898651
546.553 .0855636
547.361 .0815011
548.169 .0777157
548.976 .0742350
549.783 .0710693
550.589 .0682137
551.395 .0656535
552.200 .0633641
553.004 .0613139
553.808 .0594732
554.611 .0578142
555.414 .0563134
556.216 .0549488
557.018 .0537014
557.819 .0525548
558.619 .0514952
559.419 .0505117
560.218 .0495961
561.017 .0487399
561.815 .0479367
562.613 .0471800
563.410 .0464645
564.207 .0457848
565.003 .0451365
565.799 .0445140
566.594 .0439135
567.388 .0433321
568.182 .0427678
568.976 .0422187
569.769 .0416852
570.562 .0411676
571.354 .0406674
572.145 .0401853
572.936 .0397217
573.727 .0392768
574.517 .0388512
575.307 .0384449
576.096 .0380571
576.885 .0376872
577.673 .0373348
578.461 .0369991
579.248 .0366799
580.035 .0363770
580.821 .0360904
581.607 .0358198
582.392 .0355655
583.177 .0353269
583.962 .0351040
584.746 .0348960
585.529 .0347023
586.313 .0345220
587.095 .0343541
587.878 .0341975
588.660 .0340512
589.441 .0339145
590.222 .0337869
591.003 .0336679
591.783 .0335570
592.563 .0334537
593.342 .0333576
594.121 .0332683
594.899 .0331852
595.678 .0331077
596.455 .0330352
597.233 .0329671
598.009 .0329029
598.786 .0328423
599.562 .0327849
600.338 .0327306
601.113 .0326790
601.888 .0326107
602.663 .0325654
603.437 .0325224
604.211 .0324816
604.984 .0324428
605.757 .0324060
606.530 .0323710
607.302 .0323376
608.074 .0323059
608.845 .0322758
609.616 .0322472
610.387 .0322368
611.158 .0322105
611.928 .0321857
612.697 .0321624
613.467 .0321406
614.236 .0321203
615.004 .0321013
615.773 .0320833
616.541 .0320662
617.308 .0320497
618.076 .0320336
618.843 .0320178
619.609 .0320022
620.375 .0319868
621.141 .0319715
621.907 .0319562
622.672 .0319408
623.437 .0319251
624.202 .0319089
624.966 .0318920
625.730 .0318742
626.493 .0318553
627.257 .0318352
628.020 .0318140
628.782 .0317918
629.545 .0317685
630.307 .0317442
631.068 .0317188
631.830 .0316924
632.591 .0316650
633.352 .0316366
634.112 .0316072
634.872 .0315771
635.632 .0315464
636.392 .0315152
637.151 .0314838
637.910 .0314521
638.668 .0314203
639.427 .0313885
640.185 .0313567
640.943 .0313250
641.700 .0312937
642.457 .0312628
643.214 .0312325
643.971 .0312031
644.727 .0311747
645.483 .0311474
646.239 .0311210
646.994 .0310955
647.750 .0310708
648.505 .0310469
649.259 .0310237
650.014 .0310011
650.768 .0309792
651.521 .0309580
652.275 .0309374
653.028 .0309176
653.781 .0308983
654.534 .0308795
655.286 .0308612
656.039 .0308431
656.791 .0308252
657.542 .0308075
658.294 .0307900
659.045 .0307727
659.796 .0307556
660.546 .0307386
661.297 .0307219
662.047 .0307053
662.796 .0306889
663.546 .0306726
664.295 .0306565
665.044 .0306406
665.793 .0306250
666.542 .0306097
667.290 .0305947
668.038 .0305802
668.786 .0305659
669.533 .0305520
670.281 .0305384
671.028 .0305251
671.774 .0305119
672.521 .0304990
673.267 .0304863
674.013 .0304739
674.759 .0304617
675.505 .0304496
676.250 .0304377
676.995 .0304259
677.740 .0304140
678.484 .0304020
679.229 .0303897
679.973 .0303772
680.717 .0303643
681.460 .0303510
682.204 .0303374
682.947 .0303233
683.690 .0303088
684.433 .0302939
685.175 .0302784
685.917 .0302625
686.659 .0302460
687.401 .0302291
688.142 .0302118
688.884 .0301940
689.625 .0301758
690.365 .0301573
691.106 .0301384
691.846 .0301190
692.586 .0300993
693.326 .0300793
694.066 .0300589
694.805 .0300383
695.545 .0300175
696.284 .0299966
697.022 .0299757
697.761 .0299547
698.499 .0299338
699.237 .0299129
699.975 .0298920
700.713 .0298711
701.450 .0298503
702.187 .0298296
702.924 .0298089
703.661 .0297882
704.397 .0297676
705.133 .0297472
705.869 .0297268
706.605 .0297066
707.341 .0296864
708.076 .0296665
708.811 .0296467
709.546 .0296270
710.281 .0296075
711.015 .0295881
711.749 .0295686
712.483 .0295492
713.217 .0295297
713.950 .0295101
714.684 .0294904
715.417 .0294707
716.150 .0294511
716.882 .0294315
717.615 .0294120
718.347 .0293926
719.079 .0293733
719.811 .0293541
720.542 .0293350
721.273 .0293159
722.005 .0292970
722.735 .0292782
723.466 .0292597
724.196 .0292415
724.927 .0292236
725.656 .0292062
726.386 .0291893
727.116 .0291729
727.845 .0291571
728.574 .0291418
729.303 .0291273
730.031 .0291134
730.760 .0291002
731.488 .0290877
732.216 .0290760
732.944 .0290649
733.671 .0290546
734.398 .0290449
735.125 .0290358
735.852 .0290274
736.579 .0290195
737.305 .0290123
738.031 .0290055
738.757 .0289993
739.483 .0289934
740.208 .0289879
740.933 .0289826
741.658 .0289775
742.383 .0289724
743.108 .0289674
743.832 .0289623
744.556 .0289572
745.280 .0289521
746.004 .0289469
746.727 .0289417
747.450 .0289365
748.173 .0289312
748.896 .0289257
749.618 .0289199
750.340 .0289137
751.062 .0289073
751.784 .0289006
752.506 .0288935
753.227 .0288862
753.948 .0288787
754.669 .0288709
755.389 .0288629
756.110 .0288546
756.830 .0288461
757.550 .0288371
758.269 .0288278
758.989 .0288179
759.708 .0288076
760.427 .0287968
761.146 .0287855
761.864 .0287738
762.582 .0287615
763.300 .0287487
764.018 .0287353
764.736 .0287213
765.453 .0287068
766.170 .0286918
766.887 .0286762
767.603 .0286602
768.320 .0286438
769.036 .0286271
769.751 .0286100
770.467 .0285926
771.182 .0285750
771.897 .0285572
772.612 .0285392
773.327 .0285213
774.041 .0285034
774.755 .0284857
775.469 .0284683
776.183 .0284512
776.896 .0284344
777.609 .0284180
778.322 .0284020
779.035 .0283862
779.747 .0283708
780.459 .0283556
781.171 .0283407
781.882 .0283261
782.594 .0283118
783.305 .0282978
784.016 .0282841
784.726 .0282706
785.436 .0282572
786.147 .0282370
786.856 .0282235
787.566 .0282098
788.275 .0281960
788.984 .0281819
789.693 .0281675
790.401 .0281529
791.110 .0281379
791.818 .0281226
792.525 .0281070
793.233 .0280911
793.940 .0280749
794.647 .0280659
795.353 .0280494
796.060 .0280326
796.766 .0280156
797.472 .0279984
798.177 .0279809
798.883 .0279633
799.588 .0279457
800.292 .0279280
800.997 .0279103
801.701 .0278925
802.405 .0278748
803.109 .0278571
803.812 .0278394
804.515 .0278217
805.218 .0278041
805.921 .0277865
806.623 .0277691
807.325 .0277518
808.027 .0277347
808.728 .0277179
809.429 .0277012
810.130 .0276848
810.831 .0276687
811.531 .0276528
812.231 .0276372
812.931 .0276220
813.630 .0276072
814.330 .0275929
815.029 .0275791
815.727 .0275659
816.426 .0275534
817.124 .0275414
817.821 .0275300
818.519 .0275192
819.216 .0275091
819.913 .0274997
820.609 .0274911
821.306 .0274832
822.002 .0274762
822.697 .0274701
823.393 .0274648
824.088 .0274604
824.783 .0274568
825.477 .0274539
826.171 .0274518
826.865 .0274503
827.559 .0274495
828.252 .0274493
828.945 .0274498
829.638 .0274508
830.330 .0274524
831.023 .0274544
831.714 .0274567
832.406 .0274593
833.097 .0274621
833.788 .0274650
834.479 .0274680
835.169 .0274711
835.859 .0274742
836.548 .0274774
837.238 .0274807
837.927 .0274838
838.615 .0274869
839.304 .0274898
839.992 .0274923
840.680 .0274944
841.367 .0274961
842.054 .0274973
842.741 .0274980
843.428 .0274982
844.114 .0274979
844.800 .0274970
845.485 .0274956
846.170 .0274936
846.855 .0274911
847.540 .0274879
848.224 .0274841
848.908 .0274798
849.592 .0274749
850.275 .0274694
850.958 .0274633
851.641 .0274566
852.323 .0274493
853.005 .0274413
853.687 .0274326
854.368 .0274231
855.049 .0274130
855.730 .0274022
856.410 .0273908
857.090 .0273788
857.769 .0273663
858.449 .0273532
859.128 .0273396
859.806 .0273256
860.485 .0273111
861.163 .0272963
861.840 .0272810
862.518 .0272654
863.195 .0272495
863.871 .0272334
864.548 .0272171
865.224 .0272007
865.899 .0271841
866.574 .0271675
867.249 .0271508
867.924 .0271341
868.598 .0271175
869.272 .0271009
869.946 .0270843
870.619 .0270679
871.292 .0270515
871.964 .0270354
872.636 .0270194
873.308 .0270036
873.979 .0269881
874.651 .0269728
875.321 .0269577
875.992 .0269429
876.662 .0269283
877.331 .0269138
878.001 .0268995
878.670 .0268854
879.338 .0268713
880.007 .0268572
880.675 .0268432
881.342 .0268292
882.009 .0268151
882.676 .0268009
883.343 .0267867
884.009 .0267722
884.675 .0267577
885.340 .0267430
886.005 .0267283
886.670 .0267135
887.334 .0266988
887.998 .0266840
888.662 .0266693
889.325 .0266546
889.988 .0266400
890.650 .0266254
891.312 .0266108
891.974 .0265962
892.636 .0265817
893.297 .0265673
893.957 .0265529
894.618 .0265385
895.278 .0265241
895.937 .0265096
896.596 .0264951
897.255 .0264804
897.914 .0264655
898.572 .0264505
899.230 .0264352
899.887 .0264198
900.544 .0264041
901.201 .0263881
901.857 .0263626
902.513 .0263458
903.168 .0263286
903.823 .0263111
904.478 .0262932
905.132 .0262748
905.786 .0262561
906.440 .0262369
907.093 .0262174
907.746 .0261975
908.399 .0261773
909.051 .0261569
909.703 .0261363
910.354 .0261256
911.005 .0261050
911.656 .0260843
912.306 .0260637
912.956 .0260432
913.605 .0260228
914.254 .0260026
914.903 .0259825
915.551 .0259627
916.199 .0259432
916.847 .0259239
917.494 .0259049
918.141 .0258863
918.788 .0258680
919.434 .0258502
920.079 .0258326
920.725 .0258155
921.370 .0257987
922.014 .0257822
922.658 .0257661
923.302 .0257502
923.946 .0257348
924.589 .0257197
925.231 .0257049
925.873 .0256907
926.515 .0256769
927.157 .0256636
927.798 .0256509
928.439 .0256387
929.079 .0256270
929.719 .0256160
930.359 .0256055
930.998 .0255956
931.637 .0255863
932.275 .0255777
932.913 .0255696
933.551 .0255622
934.188 .0255554
934.825 .0255493
935.462 .0255437
936.098 .0255388
936.733 .0255344
937.369 .0255306
938.004 .0255274
938.638 .0255248
939.273 .0255228
939.907 .0255215
940.540 .0255207
941.173 .0255205
941.806 .0255209
942.438 .0255218
943.070 .0255232
943.702 .0255251
944.333 .0255274
944.964 .0255302
945.594 .0255333
946.224 .0255367
946.854 .0255404
947.483 .0255444
948.112 .0255486
948.741 .0255530
949.369 .0255576
949.996 .0255624
950.624 .0255673
951.251 .0255723
951.878 .0255775
952.504 .0255827
953.130 .0255881
953.755 .0255936
954.380 .0255993
955.005 .0256050
955.629 .0256108
956.253 .0256167
956.877 .0256226
957.500 .0256286
958.123 .0256347
958.746 .0256408
959.368 .0256470
959.990 .0256532
960.611 .0256595
961.232 .0256658
961.853 .0256721
962.473 .0256782
963.093 .0256843
963.712 .0256901
964.331 .0256957
964.950 .0257011
965.569 .0257062
966.187 .0257109
966.804 .0257152
967.422 .0257191
968.039 .0257224
968.655 .0257252
969.272 .0257275
969.887 .0257291
970.503 .0257302
971.118 .0257307
971.733 .0257306
972.347 .0257300
972.961 .0257288
973.575 .0257270
974.188 .0257245
974.801 .0257215
975.414 .0257177
976.026 .0257132
976.638 .0257080
977.250 .0257020
977.861 .0256953
978.472 .0256877
979.083 .0256794
979.693 .0256704
980.303 .0256605
980.912 .0256432
981.521 .0256317
982.130 .0256197
982.738 .0256072
983.346 .0255943
983.954 .0255812
984.562 .0255678
985.169 .0255545
985.775 .0255412
986.382 .0255281
986.988 .0255152
987.594 .0255028
988.199 .0254908
988.804 .0254792
989.409 .0254749
990.013 .0254643
990.617 .0254540
991.221 .0254440
991.824 .0254345
992.427 .0254252
993.030 .0254164
993.632 .0254079
994.234 .0253997
994.836 .0253920
995.438 .0253845
996.039 .0253773
996.640 .0253703
997.240 .0253635
997.840 .0253567
998.440 .0253500
999.040 .0253433
999.639 .0253364
1000.238 .0253294
1000.836 .0253223
1001.435 .0253149
1002.033 .0253073
1002.630 .0252994
1003.228 .0252911
1003.825 .0252824
1004.422 .0252730
1005.018 .0252631
1005.614 .0252524
1006.210 .0252411
1006.806 .0252291
1007.401 .0252165
1007.996 .0252035
1008.591 .0251902
1009.186 .0251766
1009.780 .0251628
1010.374 .0251489
1010.967 .0251348
1011.561 .0251206
1012.154 .0251063
1012.746 .0250920
1013.339 .0250778
1013.931 .0250636
1014.523 .0250497
1015.115 .0250361
1015.706 .0250230
1016.298 .0250104
1016.888 .0249983
1017.479 .0249868
1018.069 .0249759
1018.660 .0249656
1019.250 .0249559
1019.839 .0249468
1020.429 .0249385
1021.018 .0249307
1021.607 .0249237
1022.195 .0249174
1022.784 .0249118
1023.372 .0249069
1023.960 .0249025
1024.547 .0248986
1025.135 .0248951
1025.722 .0248919
1026.309 .0248889
1026.896 .0248860
1027.483 .0248831
1028.069 .0248802
1028.655 .0248772
1029.241 .0248741
1029.827 .0248708
1030.412 .0248673
1030.997 .0248637
1031.582 .0248598
1032.167 .0248557
1032.752 .0248514
1033.336 .0248467
1033.921 .0248419
1034.505 .0248367
1035.089 .0248313
1035.672 .0248256
1036.256 .0248195
1036.839 .0248131
1037.422 .0248063
1038.005 .0247990
1038.588 .0247913
1039.171 .0247833
1039.753 .0247749
1040.335 .0247661
1040.918 .0247569
1041.500 .0247474
1042.081 .0247376
1042.663 .0247275
1043.244 .0247170
1043.826 .0247062
1044.407 .0246952
1044.988 .0246841
1045.569 .0246729
1046.150 .0246617
1046.730 .0246507
1047.311 .0246399
1047.891 .0246295
1048.471 .0246194
1049.052 .0246098
1049.632 .0246007
1050.211 .0245921
1050.791 .0245841
1051.371 .0245766
1051.950 .0245697
1052.530 .0245634
1053.109 .0245577
1053.688 .0245527
1054.268 .0245483
1054.847 .0245446
1055.426 .0245417
1056.005 .0245396
1056.583 .0245382
1057.162 .0245377
1057.741 .0245379
1058.319 .0245387
1058.898 .0245403
1059.476 .0245426
1060.055 .0245456
1060.633 .0245492
1061.211 .0245535
1061.790 .0245584
1062.368 .0245640
1062.946 .0245700
1063.524 .0245764
1064.102 .0245829
1064.680 .0245895
1065.258 .0245957
1065.836 .0246017
1066.414 .0246073
1066.992 .0246124
1067.570 .0246170
1068.148 .0246213
1068.726 .0246251
1069.304 .0246286
1069.882 .0246319
1070.460 .0246351
1071.038 .0246381
1071.616 .0246410
1072.194 .0246438
1072.772 .0246466
1073.350 .0246494
1073.928 .0246524
1074.506 .0246556
1075.084 .0246591
1075.662 .0246630
1076.240 .0246673
1076.819 .0246721
1077.397 .0246775
1077.976 .0246836
1078.554 .0246902
1079.133 .0246975
1079.711 .0247054
1080.290 .0247140
1080.869 .0247232
1081.448 .0247333
1082.027 .0247443
1082.606 .0247564
1083.185 .0247698
1083.764 .0247846
1084.343 .0248010
1084.923 .0248191
1085.502 .0248390
1086.082 .0248604
1086.662 .0248833
1087.242 .0249075
1087.822 .0249327
1088.402 .0249588
1088.983 .0249856
1089.563 .0250131
1090.144 .0250410
1090.725 .0250695
1091.306 .0250985
1091.887 .0251281
1092.469 .0251581
1093.050 .0251885
1093.632 .0252192
1094.214 .0252500
1094.796 .0252808
1095.379 .0253117
1095.961 .0253425
1096.544 .0253734
1097.127 .0254045
1097.710 .0254359
1098.294 .0254678
1098.877 .0255003
1099.461 .0255334
1100.046 .0255669
1100.630 .0256009
1101.215 .0256352
1101.800 .0256694
1102.385 .0257036
1102.970 .0257374
1103.556 .0257710
1104.142 .0258044
1104.728 .0258377
1105.315 .0258709
1105.902 .0259045
1106.489 .0259383
1107.077 .0259726
1107.664 .0260074
1108.253 .0260427
1108.841 .0260785
1109.430 .0261150
1110.019 .0261521
1110.609 .0261899
1111.198 .0262287
1111.789 .0262684
1112.379 .0263094
1112.970 .0263516
1113.561 .0263953
1114.153 .0264404
1114.745 .0264869
1115.338 .0265346
1115.931 .0265832
1116.524 .0266326
1117.117 .0266827
1117.712 .0267333
1118.306 .0267845
1118.901 .0268363
1119.496 .0268892
1120.092 .0269433
1120.689 .0269987
1121.285 .0270558
1121.882 .0271146
1122.480 .0271749
1123.078 .0272367
1123.677 .0272999
1124.276 .0273641
1124.875 .0274294
1125.476 .0274956
1126.076 .0275626
1126.677 .0276304
1127.279 .0276991
1127.881 .0277686
1128.484 .0278387
1129.087 .0278728
1129.691 .0279439
1130.295 .0280153
1130.900 .0280866
1131.505 .0281578
1132.111 .0282289
1132.718 .0283001
1133.325 .0283721
1133.933 .0284460
1134.541 .0285199
1135.150 .0285955
1135.760 .0286712
1136.370 .0287589
1136.981 .0288650
1137.592 .0289362
1138.204 .0290042
1138.817 .0290687
1139.431 .0291348
1140.045 .0292026
1140.660 .0292723
1141.275 .0293589
1141.891 .0294741
1142.508 .0295386
1143.126 .0296431
1143.744 .0297095
1144.363 .0301060
1144.983 .0306266
