Measurement Sequence started on: 15-12-46-377
Integration time: 28
Scans to Average: 2 
>>>>>Begin Spectral Data<<<<<
432.689 .0000100
433.621 .0000100
434.552 .0000100
435.482 .0000100
436.410 .0000100
437.337 .0000100
438.262 .0277587
439.187 .0588020
440.110 .0974822
441.031 .1411723
441.952 .1143135
442.871 .1195278
443.789 .1243903
444.705 .1289714
445.621 .1333190
446.535 .1374722
447.447 .1399969
448.359 .1407405
449.269 .1393199
450.178 .1354862
451.086 .1293132
451.993 .1212798
452.898 .1121803
453.803 .1029221
454.706 .0942781
455.608 .0867310
456.508 .0804466
457.408 .0761455
458.306 .0728023
459.204 .0700548
460.100 .0677214
460.995 .0657021
461.888 .0639291
462.781 .0623579
463.673 .0609520
464.563 .0596877
465.452 .0585462
466.340 .0575107
467.228 .0565680
468.114 .0557076
468.999 .0549203
469.882 .0541987
470.765 .0535369
471.647 .0529304
472.528 .0523755
473.407 .0518694
474.286 .0514092
475.163 .0509928
476.040 .0506173
476.915 .0502797
477.790 .0499768
478.663 .0497064
479.535 .0494668
480.407 .0492556
481.277 .0490714
482.147 .0489127
483.015 .0487787
483.883 .0486684
484.749 .0485807
485.615 .0485146
486.479 .0484687
487.343 .0484420
488.206 .0484334
489.067 .0484425
489.928 .0484697
490.788 .0485164
491.647 .0485841
492.505 .0486748
493.362 .0487904
494.218 .0489318
495.073 .0491002
495.928 .0494533
496.781 .0496917
497.634 .0499565
498.486 .0502481
499.337 .0505672
500.187 .0509154
501.036 .0512953
501.884 .0517100
502.731 .0521641
503.578 .0526608
504.424 .0529948
505.268 .0535655
506.113 .0541858
506.956 .0548568
507.798 .0555813
508.640 .0563625
509.480 .0572069
510.320 .0581240
511.160 .0591256
511.998 .0602283
512.836 .0614504
513.672 .0628136
514.508 .0643416
515.344 .0660606
516.178 .0679957
517.012 .0701723
517.845 .0726183
518.677 .0753575
519.508 .0784093
520.339 .0817880
521.169 .0855012
521.998 .0895297
522.826 .0938424
523.654 .0983866
524.481 .1030948
525.307 .1078860
526.133 .1126647
526.958 .1173285
527.782 .1217758
528.605 .1259135
529.428 .1296544
530.250 .1329233
531.072 .1356704
531.892 .1378519
532.712 .1394424
533.532 .1404266
534.350 .1408003
535.168 .1405643
535.986 .1397241
536.802 .1382868
537.618 .1362583
538.434 .1336511
539.249 .1305014
540.063 .1268563
540.876 .1227827
541.689 .1183597
542.501 .1136772
543.313 .1088355
544.124 .1039386
544.934 .0990835
545.744 .0943569
546.553 .0898340
547.361 .0855766
548.169 .0816176
548.976 .0779831
549.783 .0746773
550.589 .0716940
551.395 .0690143
552.200 .0666105
553.004 .0644521
553.808 .0625095
554.611 .0607579
555.414 .0591733
556.216 .0577333
557.018 .0564180
557.819 .0552098
558.619 .0540945
559.419 .0530592
560.218 .0520945
561.017 .0511914
561.815 .0503438
562.613 .0495457
563.410 .0487914
564.207 .0480752
565.003 .0473924
565.799 .0467373
566.594 .0461052
567.388 .0454923
568.182 .0448954
568.976 .0443129
569.769 .0437439
570.562 .0431887
571.354 .0426479
572.145 .0421227
572.936 .0416142
573.727 .0411228
574.517 .0406493
575.307 .0401935
576.096 .0397553
576.885 .0393348
577.673 .0389318
578.461 .0385465
579.248 .0381791
580.035 .0378301
580.821 .0374997
581.607 .0371876
582.392 .0368938
583.177 .0366176
583.962 .0363585
584.746 .0361156
585.529 .0358880
586.313 .0356750
587.095 .0354761
587.878 .0352905
588.660 .0351180
589.441 .0349582
590.222 .0348109
591.003 .0346755
591.783 .0345516
592.563 .0344381
593.342 .0343341
594.121 .0342385
594.899 .0341503
595.678 .0340683
596.455 .0339917
597.233 .0339199
598.009 .0338524
598.786 .0337888
599.562 .0337288
600.338 .0336722
601.113 .0336188
601.888 .0335478
602.663 .0335008
603.437 .0334560
604.211 .0334131
604.984 .0333720
605.757 .0333325
606.530 .0332947
607.302 .0332585
608.074 .0332241
608.845 .0331919
609.616 .0331619
610.387 .0331516
611.158 .0331252
611.928 .0331011
612.697 .0330791
613.467 .0330589
614.236 .0330403
615.004 .0330230
615.773 .0330069
616.541 .0329917
617.308 .0329775
618.076 .0329642
618.843 .0329516
619.609 .0329395
620.375 .0329278
621.141 .0329161
621.907 .0329042
622.672 .0328916
623.437 .0328781
624.202 .0328635
624.966 .0328475
625.730 .0328300
626.493 .0328109
627.257 .0327901
628.020 .0327674
628.782 .0327430
629.545 .0327166
630.307 .0326885
631.068 .0326587
631.830 .0326272
632.591 .0325943
633.352 .0325601
634.112 .0325247
634.872 .0324883
635.632 .0324509
636.392 .0324128
637.151 .0323740
637.910 .0323347
638.668 .0322952
639.427 .0322556
640.185 .0322162
640.943 .0321772
641.700 .0321388
642.457 .0321010
643.214 .0320639
643.971 .0320274
644.727 .0319915
645.483 .0319561
646.239 .0319210
646.994 .0318862
647.750 .0318515
648.505 .0318171
649.259 .0317827
650.014 .0317484
650.768 .0317142
651.521 .0316800
652.275 .0316458
653.028 .0316116
653.781 .0315774
654.534 .0315432
655.286 .0315090
656.039 .0314749
656.791 .0314407
657.542 .0314066
658.294 .0313726
659.045 .0313388
659.796 .0313051
660.546 .0312717
661.297 .0312384
662.047 .0312056
662.796 .0311733
663.546 .0311416
664.295 .0311107
665.044 .0310807
665.793 .0310516
666.542 .0310236
667.290 .0309966
668.038 .0309705
668.786 .0309454
669.533 .0309213
670.281 .0308980
671.028 .0308757
671.774 .0308545
672.521 .0308344
673.267 .0308154
674.013 .0307977
674.759 .0307811
675.505 .0307657
676.250 .0307512
676.995 .0307376
677.740 .0307248
678.484 .0307127
679.229 .0307013
679.973 .0306905
680.717 .0306803
681.460 .0306707
682.204 .0306617
682.947 .0306531
683.690 .0306449
684.433 .0306369
685.175 .0306291
685.917 .0306213
686.659 .0306136
687.401 .0306059
688.142 .0305980
688.884 .0305899
689.625 .0305816
690.365 .0305729
691.106 .0305639
691.846 .0305544
692.586 .0305446
693.326 .0305344
694.066 .0305238
694.805 .0305128
695.545 .0305014
696.284 .0304896
697.022 .0304775
697.761 .0304648
698.499 .0304516
699.237 .0304380
699.975 .0304239
700.713 .0304095
701.450 .0303949
702.187 .0303800
702.924 .0303649
703.661 .0303497
704.397 .0303342
705.133 .0303186
705.869 .0303026
706.605 .0302863
707.341 .0302697
708.076 .0302526
708.811 .0302352
709.546 .0302175
710.281 .0301994
711.015 .0301810
711.749 .0301622
712.483 .0301431
713.217 .0301236
713.950 .0301036
714.684 .0300830
715.417 .0300619
716.150 .0300401
716.882 .0300176
717.615 .0299944
718.347 .0299705
719.079 .0299460
719.811 .0299208
720.542 .0298951
721.273 .0298689
722.005 .0298422
722.735 .0298151
723.466 .0297877
724.196 .0297601
724.927 .0297323
725.656 .0297043
726.386 .0296763
727.116 .0296484
727.845 .0296205
728.574 .0295929
729.303 .0295655
730.031 .0295384
730.760 .0295117
731.488 .0294854
732.216 .0294596
732.944 .0294344
733.671 .0294098
734.398 .0293856
735.125 .0293621
735.852 .0293390
736.579 .0293165
737.305 .0292944
738.031 .0292726
738.757 .0292512
739.483 .0292301
740.208 .0292094
740.933 .0291888
741.658 .0291685
742.383 .0291483
743.108 .0291282
743.832 .0291082
744.556 .0290881
745.280 .0290681
746.004 .0290481
746.727 .0290282
747.450 .0290083
748.173 .0289884
748.896 .0289687
749.618 .0289489
750.340 .0289292
751.062 .0289095
751.784 .0288899
752.506 .0288702
753.227 .0288507
753.948 .0288313
754.669 .0288121
755.389 .0287933
756.110 .0287747
756.830 .0287564
757.550 .0287385
758.269 .0287208
758.989 .0287034
759.708 .0286863
760.427 .0286695
761.146 .0286530
761.864 .0286367
762.582 .0286207
763.300 .0286050
764.018 .0285896
764.736 .0285746
765.453 .0285599
766.170 .0285456
766.887 .0285318
767.603 .0285185
768.320 .0285057
769.036 .0284935
769.751 .0284820
770.467 .0284711
771.182 .0284608
771.897 .0284511
772.612 .0284422
773.327 .0284341
774.041 .0284268
774.755 .0284204
775.469 .0284150
776.183 .0284106
776.896 .0284072
777.609 .0284048
778.322 .0284035
779.035 .0284031
779.747 .0284036
780.459 .0284050
781.171 .0284071
781.882 .0284099
782.594 .0284133
783.305 .0284173
784.016 .0284217
784.726 .0284266
785.436 .0284318
786.147 .0284404
786.856 .0284460
787.566 .0284517
788.275 .0284575
788.984 .0284632
789.693 .0284687
790.401 .0284739
791.110 .0284789
791.818 .0284834
792.525 .0284875
793.233 .0284911
793.940 .0284942
794.647 .0284942
795.353 .0284964
796.060 .0284980
796.766 .0284989
797.472 .0284991
798.177 .0284987
798.883 .0284976
799.588 .0284959
800.292 .0284934
800.997 .0284903
801.701 .0284865
802.405 .0284820
803.109 .0284769
803.812 .0284712
804.515 .0284648
805.218 .0284578
805.921 .0284503
806.623 .0284423
807.325 .0284336
808.027 .0284245
808.728 .0284149
809.429 .0284047
810.130 .0283940
810.831 .0283828
811.531 .0283710
812.231 .0283587
812.931 .0283459
813.630 .0283326
814.330 .0283189
815.029 .0283048
815.727 .0282903
816.426 .0282755
817.124 .0282604
817.821 .0282450
818.519 .0282295
819.216 .0282138
819.913 .0281980
820.609 .0281823
821.306 .0281666
822.002 .0281509
822.697 .0281353
823.393 .0281199
824.088 .0281046
824.783 .0280895
825.477 .0280745
826.171 .0280597
826.865 .0280450
827.559 .0280306
828.252 .0280163
828.945 .0280022
829.638 .0279883
830.330 .0279745
831.023 .0279608
831.714 .0279471
832.406 .0279334
833.097 .0279197
833.788 .0279059
834.479 .0278920
835.169 .0278780
835.859 .0278638
836.548 .0278495
837.238 .0278350
837.927 .0278203
838.615 .0278053
839.304 .0277900
839.992 .0277743
840.680 .0277582
841.367 .0277416
842.054 .0277244
842.741 .0277068
843.428 .0276885
844.114 .0276697
844.800 .0276503
845.485 .0276304
846.170 .0276099
846.855 .0275889
847.540 .0275674
848.224 .0275453
848.908 .0275228
849.592 .0274997
850.275 .0274762
850.958 .0274521
851.641 .0274276
852.323 .0274026
853.005 .0273771
853.687 .0273512
854.368 .0273250
855.049 .0272983
855.730 .0272714
856.410 .0272441
857.090 .0272167
857.769 .0271890
858.449 .0271612
859.128 .0271333
859.806 .0271054
860.485 .0270774
861.163 .0270495
861.840 .0270216
862.518 .0269940
863.195 .0269667
863.871 .0269396
864.548 .0269130
865.224 .0268868
865.899 .0268612
866.574 .0268361
867.249 .0268116
867.924 .0267879
868.598 .0267648
869.272 .0267424
869.946 .0267208
870.619 .0267000
871.292 .0266799
871.964 .0266607
872.636 .0266423
873.308 .0266247
873.979 .0266080
874.651 .0265921
875.321 .0265771
875.992 .0265629
876.662 .0265496
877.331 .0265371
878.001 .0265253
878.670 .0265144
879.338 .0265043
880.007 .0264950
880.675 .0264864
881.342 .0264786
882.009 .0264715
882.676 .0264652
883.343 .0264595
884.009 .0264547
884.675 .0264505
885.340 .0264471
886.005 .0264444
886.670 .0264425
887.334 .0264413
887.998 .0264409
888.662 .0264411
889.325 .0264420
889.988 .0264436
890.650 .0264457
891.312 .0264484
891.974 .0264517
892.636 .0264554
893.297 .0264596
893.957 .0264641
894.618 .0264689
895.278 .0264740
895.937 .0264791
896.596 .0264844
897.255 .0264896
897.914 .0264946
898.572 .0264996
899.230 .0265043
899.887 .0265087
900.544 .0265127
901.201 .0265162
901.857 .0265183
902.513 .0265200
903.168 .0265211
903.823 .0265216
904.478 .0265214
905.132 .0265206
905.786 .0265193
906.440 .0265174
907.093 .0265150
907.746 .0265122
908.399 .0265090
909.051 .0265055
909.703 .0265018
910.354 .0264997
911.005 .0264959
911.656 .0264921
912.306 .0264884
912.956 .0264847
913.605 .0264811
914.254 .0264776
914.903 .0264742
915.551 .0264709
916.199 .0264678
916.847 .0264647
917.494 .0264618
918.141 .0264590
918.788 .0264564
919.434 .0264539
920.079 .0264516
920.725 .0264494
921.370 .0264472
922.014 .0264450
922.658 .0264426
923.302 .0264401
923.946 .0264375
924.589 .0264345
925.231 .0264314
925.873 .0264280
926.515 .0264244
927.157 .0264205
927.798 .0264165
928.439 .0264122
929.079 .0264077
929.719 .0264029
930.359 .0263980
930.998 .0263928
931.637 .0263875
932.275 .0263820
932.913 .0263765
933.551 .0263711
934.188 .0263657
934.825 .0263606
935.462 .0263558
936.098 .0263512
936.733 .0263470
937.369 .0263431
938.004 .0263396
938.638 .0263364
939.273 .0263336
939.907 .0263312
940.540 .0263292
941.173 .0263277
941.806 .0263266
942.438 .0263258
943.070 .0263254
943.702 .0263253
944.333 .0263255
944.964 .0263259
945.594 .0263265
946.224 .0263273
946.854 .0263282
947.483 .0263293
948.112 .0263303
948.741 .0263314
949.369 .0263323
949.996 .0263331
950.624 .0263336
951.251 .0263339
951.878 .0263337
952.504 .0263332
953.130 .0263323
953.755 .0263310
954.380 .0263293
955.005 .0263273
955.629 .0263247
956.253 .0263216
956.877 .0263180
957.500 .0263137
958.123 .0263087
958.746 .0263031
959.368 .0262968
959.990 .0262899
960.611 .0262825
961.232 .0262745
961.853 .0262659
962.473 .0262567
963.093 .0262469
963.712 .0262364
964.331 .0262252
964.950 .0262133
965.569 .0262008
966.187 .0261879
966.804 .0261744
967.422 .0261605
968.039 .0261463
968.655 .0261316
969.272 .0261166
969.887 .0261012
970.503 .0260853
971.118 .0260690
971.733 .0260523
972.347 .0260351
972.961 .0260175
973.575 .0259995
974.188 .0259812
974.801 .0259626
975.414 .0259437
976.026 .0259243
976.638 .0259045
977.250 .0258842
977.861 .0258634
978.472 .0258421
979.083 .0258202
979.693 .0257979
980.303 .0257751
980.912 .0257388
981.521 .0257149
982.130 .0256906
982.738 .0256659
983.346 .0256409
983.954 .0256155
984.562 .0255899
985.169 .0255642
985.775 .0255383
986.382 .0255124
986.988 .0254865
987.594 .0254607
988.199 .0254350
988.804 .0254095
989.409 .0253973
990.013 .0253723
990.617 .0253475
991.221 .0253229
991.824 .0252986
992.427 .0252747
993.030 .0252510
993.632 .0252276
994.234 .0252045
994.836 .0251817
995.438 .0251592
996.039 .0251370
996.640 .0251150
997.240 .0250934
997.840 .0250722
998.440 .0250514
999.040 .0250311
999.639 .0250113
1000.238 .0249920
1000.836 .0249733
1001.435 .0249551
1002.033 .0249374
1002.630 .0249203
1003.228 .0249036
1003.825 .0248874
1004.422 .0248717
1005.018 .0248564
1005.614 .0248416
1006.210 .0248273
1006.806 .0248134
1007.401 .0247999
1007.996 .0247868
1008.591 .0247739
1009.186 .0247612
1009.780 .0247488
1010.374 .0247366
1010.967 .0247247
1011.561 .0247131
1012.154 .0247018
1012.746 .0246909
1013.339 .0246805
1013.931 .0246706
1014.523 .0246610
1015.115 .0246520
1015.706 .0246433
1016.298 .0246350
1016.888 .0246270
1017.479 .0246193
1018.069 .0246119
1018.660 .0246048
1019.250 .0245980
1019.839 .0245916
1020.429 .0245855
1021.018 .0245797
1021.607 .0245742
1022.195 .0245691
1022.784 .0245643
1023.372 .0245597
1023.960 .0245555
1024.547 .0245515
1025.135 .0245477
1025.722 .0245443
1026.309 .0245412
1026.896 .0245385
1027.483 .0245361
1028.069 .0245341
1028.655 .0245324
1029.241 .0245311
1029.827 .0245301
1030.412 .0245294
1030.997 .0245290
1031.582 .0245288
1032.167 .0245288
1032.752 .0245291
1033.336 .0245296
1033.921 .0245303
1034.505 .0245313
1035.089 .0245324
1035.672 .0245336
1036.256 .0245349
1036.839 .0245362
1037.422 .0245374
1038.005 .0245385
1038.588 .0245395
1039.171 .0245403
1039.753 .0245409
1040.335 .0245412
1040.918 .0245413
1041.500 .0245411
1042.081 .0245408
1042.663 .0245403
1043.244 .0245397
1043.826 .0245390
1044.407 .0245383
1044.988 .0245376
1045.569 .0245369
1046.150 .0245362
1046.730 .0245356
1047.311 .0245350
1047.891 .0245345
1048.471 .0245341
1049.052 .0245339
1049.632 .0245340
1050.211 .0245344
1050.791 .0245351
1051.371 .0245361
1051.950 .0245375
1052.530 .0245394
1053.109 .0245416
1053.688 .0245444
1054.268 .0245478
1054.847 .0245518
1055.426 .0245565
1056.005 .0245620
1056.583 .0245684
1057.162 .0245756
1057.741 .0245838
1058.319 .0245927
1058.898 .0246025
1059.476 .0246129
1060.055 .0246239
1060.633 .0246352
1061.211 .0246468
1061.790 .0246584
1062.368 .0246701
1062.946 .0246817
1063.524 .0246933
1064.102 .0247049
1064.680 .0247165
1065.258 .0247283
1065.836 .0247403
1066.414 .0247526
1066.992 .0247652
1067.570 .0247780
1068.148 .0247909
1068.726 .0248038
1069.304 .0248167
1069.882 .0248296
1070.460 .0248423
1071.038 .0248551
1071.616 .0248678
1072.194 .0248804
1072.772 .0248930
1073.350 .0249054
1073.928 .0249175
1074.506 .0249292
1075.084 .0249402
1075.662 .0249505
1076.240 .0249601
1076.819 .0249691
1077.397 .0249779
1077.976 .0249866
1078.554 .0249958
1079.133 .0250054
1079.711 .0250158
1080.290 .0250271
1080.869 .0250390
1081.448 .0250516
1082.027 .0250646
1082.606 .0250779
1083.185 .0250915
1083.764 .0251055
1084.343 .0251199
1084.923 .0251351
1085.502 .0251512
1086.082 .0251683
1086.662 .0251862
1087.242 .0252048
1087.822 .0252239
1088.402 .0252431
1088.983 .0252624
1089.563 .0252817
1090.144 .0253009
1090.725 .0253201
1091.306 .0253396
1091.887 .0253595
1092.469 .0253798
1093.050 .0254006
1093.632 .0254218
1094.214 .0254431
1094.796 .0254644
1095.379 .0254853
1095.961 .0255058
1096.544 .0255259
1097.127 .0255456
1097.710 .0255651
1098.294 .0255845
1098.877 .0256041
1099.461 .0256238
1100.046 .0256439
1100.630 .0256643
1101.215 .0256852
1101.800 .0257066
1102.385 .0257286
1102.970 .0257516
1103.556 .0257757
1104.142 .0258013
1104.728 .0258285
1105.315 .0258576
1105.902 .0258887
1106.489 .0259218
1107.077 .0259570
1107.664 .0259942
1108.253 .0260334
1108.841 .0260747
1109.430 .0261183
1110.019 .0261641
1110.609 .0262124
1111.198 .0262632
1111.789 .0263165
1112.379 .0263722
1112.970 .0264300
1113.561 .0264897
1114.153 .0265509
1114.745 .0266134
1115.338 .0266770
1115.931 .0267417
1116.524 .0268073
1117.117 .0268741
1117.712 .0269420
1118.306 .0270111
1118.901 .0270810
1119.496 .0271517
1120.092 .0272228
1120.689 .0272940
1121.285 .0273652
1121.882 .0274361
1122.480 .0275067
1123.078 .0275772
1123.677 .0276478
1124.276 .0277189
1124.875 .0277908
1125.476 .0278638
1126.076 .0279382
1126.677 .0280140
1127.279 .0280911
1127.881 .0281695
1128.484 .0282492
1129.087 .0282841
1129.691 .0283652
1130.295 .0284477
1130.900 .0285319
1131.505 .0286180
1132.111 .0287064
1132.718 .0287972
1133.325 .0288905
1133.933 .0289869
1134.541 .0290874
1135.150 .0291899
1135.760 .0292932
1136.370 .0293987
1136.981 .0295055
1137.592 .0296160
1138.204 .0297248
1138.817 .0298321
1139.431 .0299428
1140.045 .0300586
1140.660 .0301790
1141.275 .0303040
1141.891 .0304465
1142.508 .0306256
1143.126 .0307542
1143.744 .0308508
1144.363 .0309903
1144.983 .0314467
