Measurement Sequence started on: 15-12-46-377
Integration time: 28
Scans to Average: 2 
>>>>>Begin Spectral Data<<<<<
432.689 .0000100
433.621 .0000100
434.552 .0000100
435.482 .0000100
436.410 .0000100
437.337 .0000100
438.262 .0280578
439.187 .0594912
440.110 .0986801
441.031 .1429691
441.952 .1149466
442.871 .1200092
443.789 .1247072
444.705 .1291177
445.621 .1332939
446.535 .1372769
447.447 .1396184
448.359 .1401621
449.269 .1385185
450.178 .1344330
451.086 .1279833
451.993 .1196561
452.898 .1102620
453.803 .1007252
454.706 .0918356
455.608 .0840884
456.508 .0776560
457.408 .0732656
458.306 .0698785
459.204 .0671211
460.100 .0648011
460.995 .0628071
461.888 .0610644
462.781 .0595226
463.673 .0581436
464.563 .0569024
465.452 .0557800
466.340 .0547605
467.228 .0538327
468.114 .0529867
468.999 .0522148
469.882 .0515098
470.765 .0508652
471.647 .0502761
472.528 .0497381
473.407 .0492470
474.286 .0488001
475.163 .0483956
476.040 .0480314
476.915 .0477054
477.790 .0474150
478.663 .0471580
479.535 .0469321
480.407 .0467348
481.277 .0465636
482.147 .0464155
483.015 .0462884
483.883 .0461798
484.749 .0460877
485.615 .0460109
486.479 .0459484
487.343 .0458996
488.206 .0458652
489.067 .0458447
489.928 .0458390
490.788 .0458488
491.647 .0458748
492.505 .0459181
493.362 .0459795
494.218 .0460599
495.073 .0461602
495.928 .0463916
496.781 .0465502
497.634 .0467341
498.486 .0469458
499.337 .0471874
500.187 .0474616
501.036 .0477710
501.884 .0481181
502.731 .0485056
503.578 .0489364
504.424 .0492454
505.268 .0497541
506.113 .0503180
506.956 .0509422
507.798 .0516343
508.640 .0524038
509.480 .0532612
510.320 .0542179
511.160 .0552859
511.998 .0564789
512.836 .0578110
513.672 .0592977
514.508 .0609569
515.344 .0628074
516.178 .0648694
517.012 .0671667
517.845 .0697241
518.677 .0725621
519.508 .0756985
520.339 .0791423
521.169 .0828989
521.998 .0869441
522.826 .0912374
523.654 .0957194
524.481 .1003181
525.307 .1049482
526.133 .1095147
526.958 .1139213
527.782 .1180785
528.605 .1219050
529.428 .1253307
530.250 .1282923
531.072 .1307500
531.892 .1326676
532.712 .1340208
533.532 .1347937
534.350 .1349778
535.168 .1345698
535.986 .1335763
536.802 .1320064
537.618 .1298742
538.434 .1271962
539.249 .1240160
540.063 .1203896
540.876 .1163877
541.689 .1120894
542.501 .1075830
543.313 .1029614
544.124 .0983185
544.934 .0937382
545.744 .0892950
546.553 .0850513
547.361 .0810613
548.169 .0773532
548.976 .0739499
549.783 .0708587
550.589 .0680756
551.395 .0655846
552.200 .0633631
553.004 .0613811
553.808 .0596084
554.611 .0580192
555.414 .0565883
556.216 .0552923
557.018 .0541103
557.819 .0530249
558.619 .0520218
559.419 .0510896
560.218 .0502194
561.017 .0494026
561.815 .0486321
562.613 .0479021
563.410 .0472059
564.207 .0465380
565.003 .0458936
565.799 .0452675
566.594 .0446562
567.388 .0440587
568.182 .0434735
568.976 .0429005
569.769 .0423408
570.562 .0417954
571.354 .0412648
572.145 .0407496
572.936 .0402504
573.727 .0397672
574.517 .0393001
575.307 .0388500
576.096 .0384165
576.885 .0380000
577.673 .0376008
578.461 .0372194
579.248 .0368564
580.035 .0365125
580.821 .0361876
581.607 .0358818
582.392 .0355950
583.177 .0353269
583.962 .0350768
584.746 .0348442
585.529 .0346280
586.313 .0344273
587.095 .0342407
587.878 .0340675
588.660 .0339068
589.441 .0337581
590.222 .0336211
591.003 .0334952
591.783 .0333803
592.563 .0332759
593.342 .0331811
594.121 .0330954
594.899 .0330175
595.678 .0329465
596.455 .0328810
597.233 .0328198
598.009 .0327622
598.786 .0327072
599.562 .0326544
600.338 .0326032
601.113 .0325535
601.888 .0324824
602.663 .0324362
603.437 .0323914
604.211 .0323479
604.984 .0323055
605.757 .0322641
606.530 .0322235
607.302 .0321837
608.074 .0321446
608.845 .0321063
609.616 .0320690
610.387 .0320541
611.158 .0320191
611.928 .0319857
612.697 .0319539
613.467 .0319239
614.236 .0318956
615.004 .0318688
615.773 .0318434
616.541 .0318191
617.308 .0317959
618.076 .0317735
618.843 .0317517
619.609 .0317304
620.375 .0317094
621.141 .0316887
621.907 .0316680
622.672 .0316474
623.437 .0316267
624.202 .0316058
624.966 .0315846
625.730 .0315630
626.493 .0315410
627.257 .0315185
628.020 .0314956
628.782 .0314721
629.545 .0314482
630.307 .0314238
631.068 .0313992
631.830 .0313742
632.591 .0313492
633.352 .0313241
634.112 .0312991
634.872 .0312743
635.632 .0312495
636.392 .0312249
637.151 .0312005
637.910 .0311763
638.668 .0311523
639.427 .0311286
640.185 .0311051
640.943 .0310820
641.700 .0310591
642.457 .0310367
643.214 .0310146
643.971 .0309928
644.727 .0309712
645.483 .0309496
646.239 .0309278
646.994 .0309058
647.750 .0308835
648.505 .0308608
649.259 .0308377
650.014 .0308144
650.768 .0307908
651.521 .0307669
652.275 .0307429
653.028 .0307187
653.781 .0306942
654.534 .0306694
655.286 .0306442
656.039 .0306187
656.791 .0305927
657.542 .0305665
658.294 .0305401
659.045 .0305136
659.796 .0304870
660.546 .0304605
661.297 .0304340
662.047 .0304075
662.796 .0303810
663.546 .0303544
664.295 .0303278
665.044 .0303010
665.793 .0302743
666.542 .0302477
667.290 .0302212
668.038 .0301950
668.786 .0301691
669.533 .0301436
670.281 .0301185
671.028 .0300938
671.774 .0300696
672.521 .0300457
673.267 .0300223
674.013 .0299992
674.759 .0299765
675.505 .0299542
676.250 .0299323
676.995 .0299106
677.740 .0298892
678.484 .0298681
679.229 .0298472
679.973 .0298266
680.717 .0298062
681.460 .0297861
682.204 .0297663
682.947 .0297466
683.690 .0297271
684.433 .0297077
685.175 .0296883
685.917 .0296689
686.659 .0296495
687.401 .0296302
688.142 .0296109
688.884 .0295916
689.625 .0295725
690.365 .0295534
691.106 .0295344
691.846 .0295154
692.586 .0294963
693.326 .0294772
694.066 .0294581
694.805 .0294389
695.545 .0294198
696.284 .0294008
697.022 .0293820
697.761 .0293635
698.499 .0293452
699.237 .0293273
699.975 .0293096
700.713 .0292923
701.450 .0292753
702.187 .0292586
702.924 .0292423
703.661 .0292264
704.397 .0292109
705.133 .0291958
705.869 .0291809
706.605 .0291662
707.341 .0291517
708.076 .0291371
708.811 .0291226
709.546 .0291080
710.281 .0290935
711.015 .0290789
711.749 .0290644
712.483 .0290500
713.217 .0290355
713.950 .0290210
714.684 .0290063
715.417 .0289915
716.150 .0289764
716.882 .0289609
717.615 .0289451
718.347 .0289290
719.079 .0289125
719.811 .0288957
720.542 .0288787
721.273 .0288615
722.005 .0288441
722.735 .0288268
723.466 .0288095
724.196 .0287924
724.927 .0287755
725.656 .0287589
726.386 .0287426
727.116 .0287266
727.845 .0287109
728.574 .0286956
729.303 .0286807
730.031 .0286662
730.760 .0286523
731.488 .0286390
732.216 .0286263
732.944 .0286144
733.671 .0286033
734.398 .0285928
735.125 .0285830
735.852 .0285735
736.579 .0285643
737.305 .0285552
738.031 .0285462
738.757 .0285371
739.483 .0285280
740.208 .0285188
740.933 .0285095
741.658 .0285002
742.383 .0284909
743.108 .0284815
743.832 .0284721
744.556 .0284627
745.280 .0284530
746.004 .0284431
746.727 .0284328
747.450 .0284222
748.173 .0284111
748.896 .0283996
749.618 .0283877
750.340 .0283755
751.062 .0283629
751.784 .0283502
752.506 .0283373
753.227 .0283244
753.948 .0283114
754.669 .0282984
755.389 .0282852
756.110 .0282719
756.830 .0282583
757.550 .0282445
758.269 .0282303
758.989 .0282159
759.708 .0282012
760.427 .0281863
761.146 .0281713
761.864 .0281561
762.582 .0281409
763.300 .0281255
764.018 .0281101
764.736 .0280946
765.453 .0280789
766.170 .0280629
766.887 .0280466
767.603 .0280300
768.320 .0280131
769.036 .0279960
769.751 .0279787
770.467 .0279613
771.182 .0279439
771.897 .0279266
772.612 .0279095
773.327 .0278927
774.041 .0278761
774.755 .0278599
775.469 .0278440
776.183 .0278284
776.896 .0278131
777.609 .0277983
778.322 .0277838
779.035 .0277697
779.747 .0277560
780.459 .0277428
781.171 .0277300
781.882 .0277177
782.594 .0277058
783.305 .0276944
784.016 .0276832
784.726 .0276723
785.436 .0276615
786.147 .0276455
786.856 .0276345
787.566 .0276234
788.275 .0276123
788.984 .0276010
789.693 .0275896
790.401 .0275780
791.110 .0275663
791.818 .0275545
792.525 .0275424
793.233 .0275300
793.940 .0275173
794.647 .0275097
795.353 .0274966
796.060 .0274831
796.766 .0274693
797.472 .0274552
798.177 .0274407
798.883 .0274260
799.588 .0274109
800.292 .0273956
800.997 .0273800
801.701 .0273641
802.405 .0273480
803.109 .0273317
803.812 .0273152
804.515 .0272986
805.218 .0272818
805.921 .0272650
806.623 .0272480
807.325 .0272310
808.027 .0272140
808.728 .0271969
809.429 .0271799
810.130 .0271628
810.831 .0271458
811.531 .0271289
812.231 .0271121
812.931 .0270954
813.630 .0270787
814.330 .0270623
815.029 .0270461
815.727 .0270303
816.426 .0270148
817.124 .0269997
817.821 .0269852
818.519 .0269712
819.216 .0269578
819.913 .0269451
820.609 .0269330
821.306 .0269216
822.002 .0269110
822.697 .0269010
823.393 .0268918
824.088 .0268834
824.783 .0268758
825.477 .0268688
826.171 .0268625
826.865 .0268568
827.559 .0268516
828.252 .0268469
828.945 .0268427
829.638 .0268389
830.330 .0268355
831.023 .0268326
831.714 .0268301
832.406 .0268279
833.097 .0268260
833.788 .0268243
834.479 .0268228
835.169 .0268214
835.859 .0268201
836.548 .0268189
837.238 .0268178
837.927 .0268167
838.615 .0268157
839.304 .0268147
839.992 .0268138
840.680 .0268127
841.367 .0268116
842.054 .0268103
842.741 .0268089
843.428 .0268073
844.114 .0268055
844.800 .0268035
845.485 .0268014
846.170 .0267990
846.855 .0267963
847.540 .0267933
848.224 .0267898
848.908 .0267858
849.592 .0267813
850.275 .0267763
850.958 .0267708
851.641 .0267648
852.323 .0267583
853.005 .0267514
853.687 .0267442
854.368 .0267365
855.049 .0267284
855.730 .0267200
856.410 .0267112
857.090 .0267021
857.769 .0266929
858.449 .0266834
859.128 .0266739
859.806 .0266643
860.485 .0266548
861.163 .0266453
861.840 .0266360
862.518 .0266269
863.195 .0266179
863.871 .0266091
864.548 .0266005
865.224 .0265922
865.899 .0265841
866.574 .0265763
867.249 .0265686
867.924 .0265611
868.598 .0265539
869.272 .0265467
869.946 .0265398
870.619 .0265331
871.292 .0265266
871.964 .0265203
872.636 .0265141
873.308 .0265081
873.979 .0265023
874.651 .0264966
875.321 .0264909
875.992 .0264853
876.662 .0264798
877.331 .0264744
878.001 .0264689
878.670 .0264635
879.338 .0264582
880.007 .0264530
880.675 .0264479
881.342 .0264429
882.009 .0264381
882.676 .0264337
883.343 .0264296
884.009 .0264259
884.675 .0264226
885.340 .0264197
886.005 .0264173
886.670 .0264152
887.334 .0264136
887.998 .0264122
888.662 .0264112
889.325 .0264105
889.988 .0264100
890.650 .0264097
891.312 .0264096
891.974 .0264097
892.636 .0264098
893.297 .0264099
893.957 .0264099
894.618 .0264096
895.278 .0264090
895.937 .0264081
896.596 .0264066
897.255 .0264045
897.914 .0264018
898.572 .0263983
899.230 .0263939
899.887 .0263886
900.544 .0263823
901.201 .0263748
901.857 .0263585
902.513 .0263478
903.168 .0263360
903.823 .0263229
904.478 .0263086
905.132 .0262931
905.786 .0262765
906.440 .0262587
907.093 .0262399
907.746 .0262200
908.399 .0261992
909.051 .0261776
909.703 .0261553
910.354 .0261427
911.005 .0261200
911.656 .0260970
912.306 .0260738
912.956 .0260504
913.605 .0260269
914.254 .0260033
914.903 .0259797
915.551 .0259561
916.199 .0259326
916.847 .0259092
917.494 .0258859
918.141 .0258628
918.788 .0258399
919.434 .0258171
920.079 .0257945
920.725 .0257719
921.370 .0257495
922.014 .0257271
922.658 .0257047
923.302 .0256822
923.946 .0256597
924.589 .0256372
925.231 .0256145
925.873 .0255917
926.515 .0255688
927.157 .0255458
927.798 .0255226
928.439 .0254993
929.079 .0254759
929.719 .0254524
930.359 .0254289
930.998 .0254054
931.637 .0253818
932.275 .0253583
932.913 .0253348
933.551 .0253115
934.188 .0252885
934.825 .0252657
935.462 .0252433
936.098 .0252214
936.733 .0252000
937.369 .0251792
938.004 .0251590
938.638 .0251394
939.273 .0251204
939.907 .0251021
940.540 .0250844
941.173 .0250674
941.806 .0250510
942.438 .0250354
943.070 .0250204
943.702 .0250059
944.333 .0249921
944.964 .0249786
945.594 .0249656
946.224 .0249528
946.854 .0249402
947.483 .0249278
948.112 .0249155
948.741 .0249034
949.369 .0248914
949.996 .0248795
950.624 .0248677
951.251 .0248559
951.878 .0248442
952.504 .0248323
953.130 .0248203
953.755 .0248083
954.380 .0247961
955.005 .0247839
955.629 .0247716
956.253 .0247594
956.877 .0247472
957.500 .0247350
958.123 .0247228
958.746 .0247106
959.368 .0246984
959.990 .0246863
960.611 .0246743
961.232 .0246623
961.853 .0246506
962.473 .0246390
963.093 .0246278
963.712 .0246168
964.331 .0246061
964.950 .0245956
965.569 .0245854
966.187 .0245754
966.804 .0245655
967.422 .0245558
968.039 .0245461
968.655 .0245366
969.272 .0245271
969.887 .0245176
970.503 .0245081
971.118 .0244984
971.733 .0244886
972.347 .0244786
972.961 .0244683
973.575 .0244579
974.188 .0244473
974.801 .0244365
975.414 .0244255
976.026 .0244144
976.638 .0244031
977.250 .0243918
977.861 .0243802
978.472 .0243686
979.083 .0243569
979.693 .0243452
980.303 .0243334
980.912 .0243160
981.521 .0243046
982.130 .0242935
982.738 .0242825
983.346 .0242718
983.954 .0242614
984.562 .0242515
985.169 .0242421
985.775 .0242333
986.382 .0242252
986.988 .0242180
987.594 .0242115
988.199 .0242060
988.804 .0242015
989.409 .0242021
990.013 .0241989
990.617 .0241966
991.221 .0241951
991.824 .0241945
992.427 .0241945
993.030 .0241952
993.632 .0241965
994.234 .0241982
994.836 .0242003
995.438 .0242026
996.039 .0242052
996.640 .0242078
997.240 .0242107
997.840 .0242137
998.440 .0242169
999.040 .0242203
999.639 .0242240
1000.238 .0242280
1000.836 .0242322
1001.435 .0242367
1002.033 .0242414
1002.630 .0242463
1003.228 .0242515
1003.825 .0242568
1004.422 .0242624
1005.018 .0242682
1005.614 .0242742
1006.210 .0242806
1006.806 .0242871
1007.401 .0242938
1007.996 .0243007
1008.591 .0243076
1009.186 .0243145
1009.780 .0243215
1010.374 .0243285
1010.967 .0243357
1011.561 .0243432
1012.154 .0243509
1012.746 .0243591
1013.339 .0243678
1013.931 .0243770
1014.523 .0243868
1015.115 .0243972
1015.706 .0244082
1016.298 .0244199
1016.888 .0244322
1017.479 .0244452
1018.069 .0244588
1018.660 .0244730
1019.250 .0244877
1019.839 .0245030
1020.429 .0245187
1021.018 .0245347
1021.607 .0245510
1022.195 .0245674
1022.784 .0245838
1023.372 .0246003
1023.960 .0246167
1024.547 .0246332
1025.135 .0246497
1025.722 .0246663
1026.309 .0246831
1026.896 .0247001
1027.483 .0247173
1028.069 .0247347
1028.655 .0247524
1029.241 .0247702
1029.827 .0247881
1030.412 .0248061
1030.997 .0248242
1031.582 .0248423
1032.167 .0248605
1032.752 .0248787
1033.336 .0248967
1033.921 .0249145
1034.505 .0249320
1035.089 .0249490
1035.672 .0249653
1036.256 .0249808
1036.839 .0249955
1037.422 .0250093
1038.005 .0250222
1038.588 .0250343
1039.171 .0250457
1039.753 .0250565
1040.335 .0250666
1040.918 .0250763
1041.500 .0250855
1042.081 .0250942
1042.663 .0251023
1043.244 .0251099
1043.826 .0251169
1044.407 .0251234
1044.988 .0251293
1045.569 .0251348
1046.150 .0251399
1046.730 .0251447
1047.311 .0251490
1047.891 .0251530
1048.471 .0251565
1049.052 .0251596
1049.632 .0251623
1050.211 .0251644
1050.791 .0251662
1051.371 .0251676
1051.950 .0251688
1052.530 .0251699
1053.109 .0251710
1053.688 .0251722
1054.268 .0251735
1054.847 .0251751
1055.426 .0251768
1056.005 .0251789
1056.583 .0251812
1057.162 .0251838
1057.741 .0251866
1058.319 .0251896
1058.898 .0251929
1059.476 .0251963
1060.055 .0251998
1060.633 .0252034
1061.211 .0252071
1061.790 .0252108
1062.368 .0252147
1062.946 .0252187
1063.524 .0252230
1064.102 .0252275
1064.680 .0252322
1065.258 .0252370
1065.836 .0252420
1066.414 .0252471
1066.992 .0252523
1067.570 .0252576
1068.148 .0252630
1068.726 .0252687
1069.304 .0252747
1069.882 .0252811
1070.460 .0252879
1071.038 .0252951
1071.616 .0253026
1072.194 .0253101
1072.772 .0253176
1073.350 .0253250
1073.928 .0253321
1074.506 .0253388
1075.084 .0253454
1075.662 .0253517
1076.240 .0253579
1076.819 .0253641
1077.397 .0253701
1077.976 .0253760
1078.554 .0253816
1079.133 .0253868
1079.711 .0253914
1080.290 .0253954
1080.869 .0253988
1081.448 .0254017
1082.027 .0254040
1082.606 .0254061
1083.185 .0254079
1083.764 .0254096
1084.343 .0254114
1084.923 .0254133
1085.502 .0254153
1086.082 .0254173
1086.662 .0254195
1087.242 .0254220
1087.822 .0254248
1088.402 .0254280
1088.983 .0254317
1089.563 .0254361
1090.144 .0254413
1090.725 .0254473
1091.306 .0254542
1091.887 .0254619
1092.469 .0254703
1093.050 .0254793
1093.632 .0254888
1094.214 .0254985
1094.796 .0255086
1095.379 .0255188
1095.961 .0255292
1096.544 .0255398
1097.127 .0255507
1097.710 .0255619
1098.294 .0255736
1098.877 .0255856
1099.461 .0255981
1100.046 .0256110
1100.630 .0256241
1101.215 .0256376
1101.800 .0256515
1102.385 .0256656
1102.970 .0256800
1103.556 .0256948
1104.142 .0257098
1104.728 .0257251
1105.315 .0257407
1105.902 .0257564
1106.489 .0257723
1107.077 .0257882
1107.664 .0258041
1108.253 .0258200
1108.841 .0258359
1109.430 .0258521
1110.019 .0258684
1110.609 .0258852
1111.198 .0259027
1111.789 .0259209
1112.379 .0259401
1112.970 .0259603
1113.561 .0259815
1114.153 .0260037
1114.745 .0260271
1115.338 .0260516
1115.931 .0260772
1116.524 .0261041
1117.117 .0261321
1117.712 .0261614
1118.306 .0261918
1118.901 .0262232
1119.496 .0262552
1120.092 .0262878
1120.689 .0263207
1121.285 .0263537
1121.882 .0263870
1122.480 .0264207
1123.078 .0264548
1123.677 .0264899
1124.276 .0265260
1124.875 .0265631
1125.476 .0266014
1126.076 .0266408
1126.677 .0266811
1127.279 .0267225
1127.881 .0267650
1128.484 .0268091
1129.087 .0268290
1129.691 .0268755
1130.295 .0269243
1130.900 .0269757
1131.505 .0270299
1132.111 .0270870
1132.718 .0271473
1133.325 .0272112
1133.933 .0272788
1134.541 .0273451
1135.150 .0274166
1135.760 .0275011
1136.370 .0275935
1136.981 .0275018
1137.592 .0275765
1138.204 .0276692
1138.817 .0277665
1139.431 .0278748
1140.045 .0279904
1140.660 .0281192
1141.275 .0282617
1141.891 .0284108
1142.508 .0284238
1143.126 .0286197
1143.744 .0290348
1144.363 .0293032
1144.983 .0292352
