Measurement Sequence started on: 15-12-46-377
Integration time: 28
Scans to Average: 2 
>>>>>Begin Spectral Data<<<<<
432.689 .0000100
433.621 .0000100
434.552 .0000100
435.482 .0000100
436.410 .0000100
437.337 .0000100
438.262 .0268334
439.187 .0569173
440.110 .0944426
441.031 .1368113
441.952 .1103754
442.871 .1153093
443.789 .1198975
444.705 .1242124
445.621 .1283062
446.535 .1322177
447.447 .1345636
448.359 .1351934
449.269 .1337333
450.178 .1299405
451.086 .1238862
451.993 .1160325
452.898 .1071530
453.803 .0981285
454.706 .0897125
455.608 .0823768
456.508 .0762866
457.408 .0721387
458.306 .0689419
459.204 .0663405
460.100 .0641516
460.995 .0622717
461.888 .0606308
462.781 .0591791
463.673 .0578808
464.563 .0567102
465.452 .0556491
466.340 .0546825
467.228 .0538006
468.114 .0529949
468.999 .0522592
469.882 .0515867
470.765 .0509717
471.647 .0504101
472.528 .0498983
473.407 .0494315
474.286 .0490074
475.163 .0486236
476.040 .0482779
476.915 .0479676
477.790 .0476905
478.663 .0474439
479.535 .0472257
480.407 .0470330
481.277 .0468633
482.147 .0467142
483.015 .0465837
483.883 .0464699
484.749 .0463720
485.615 .0462887
486.479 .0462191
487.343 .0461626
488.206 .0461187
489.067 .0460868
489.928 .0460674
490.788 .0460612
491.647 .0460696
492.505 .0460947
493.362 .0461386
494.218 .0462040
495.073 .0462936
495.928 .0465261
496.781 .0466874
497.634 .0468775
498.486 .0470965
499.337 .0473450
500.187 .0476242
501.036 .0479350
501.884 .0482804
502.731 .0486635
503.578 .0490878
504.424 .0493877
505.268 .0498848
506.113 .0504337
506.956 .0510382
507.798 .0517047
508.640 .0524401
509.480 .0532540
510.320 .0541580
511.160 .0551666
511.998 .0562935
512.836 .0575560
513.672 .0589725
514.508 .0605628
515.344 .0623496
516.178 .0643558
517.012 .0666067
517.845 .0691285
518.677 .0719435
519.508 .0750698
520.339 .0785173
521.169 .0822892
521.998 .0863569
522.826 .0906819
523.654 .0952031
524.481 .0998442
525.307 .1045201
526.133 .1091365
526.958 .1135935
527.782 .1177990
528.605 .1216674
529.428 .1251261
530.250 .1281119
531.072 .1305865
531.892 .1325135
532.712 .1338722
533.532 .1346515
534.350 .1348439
535.168 .1344479
535.986 .1334703
536.802 .1319146
537.618 .1297896
538.434 .1271088
539.249 .1239154
540.063 .1202610
540.876 .1162183
541.689 .1118730
542.501 .1073161
543.313 .1026459
544.124 .0979615
544.934 .0933499
545.744 .0888878
546.553 .0846383
547.361 .0806499
548.169 .0769466
548.976 .0735483
549.783 .0704562
550.589 .0676615
551.395 .0651488
552.200 .0628943
553.004 .0608686
553.808 .0590480
554.611 .0574105
555.414 .0559350
556.216 .0546033
557.018 .0533969
557.819 .0522993
558.619 .0512959
559.419 .0503736
560.218 .0495200
561.017 .0487245
561.815 .0479785
562.613 .0472742
563.410 .0466051
564.207 .0459664
565.003 .0453530
565.799 .0447607
566.594 .0441863
567.388 .0436271
568.182 .0430810
568.976 .0425465
569.769 .0420230
570.562 .0415106
571.354 .0410098
572.145 .0405216
572.936 .0400464
573.727 .0395852
574.517 .0391386
575.307 .0387073
576.096 .0382916
576.885 .0378921
577.673 .0375090
578.461 .0371432
579.248 .0367953
580.035 .0364659
580.821 .0361551
581.607 .0358633
582.392 .0355905
583.177 .0353362
583.962 .0350997
584.746 .0348798
585.529 .0346757
586.313 .0344863
587.095 .0343107
587.878 .0341480
588.660 .0339976
589.441 .0338587
590.222 .0337307
591.003 .0336130
591.783 .0335048
592.563 .0334052
593.342 .0333137
594.121 .0332295
594.899 .0331517
595.678 .0330797
596.455 .0330126
597.233 .0329499
598.009 .0328911
598.786 .0328355
599.562 .0327826
600.338 .0327321
601.113 .0326837
601.888 .0326161
602.663 .0325713
603.437 .0325279
604.211 .0324857
604.984 .0324447
605.757 .0324046
606.530 .0323653
607.302 .0323267
608.074 .0322887
608.845 .0322512
609.616 .0322142
610.387 .0321969
611.158 .0321613
611.928 .0321265
612.697 .0320926
613.467 .0320597
614.236 .0320279
615.004 .0319971
615.773 .0319676
616.541 .0319393
617.308 .0319123
618.076 .0318866
618.843 .0318621
619.609 .0318387
620.375 .0318162
621.141 .0317946
621.907 .0317735
622.672 .0317528
623.437 .0317324
624.202 .0317122
624.966 .0316918
625.730 .0316714
626.493 .0316506
627.257 .0316294
628.020 .0316075
628.782 .0315847
629.545 .0315608
630.307 .0315356
631.068 .0315092
631.830 .0314813
632.591 .0314522
633.352 .0314219
634.112 .0313905
634.872 .0313581
635.632 .0313250
636.392 .0312912
637.151 .0312569
637.910 .0312222
638.668 .0311873
639.427 .0311523
640.185 .0311174
640.943 .0310830
641.700 .0310493
642.457 .0310165
643.214 .0309848
643.971 .0309542
644.727 .0309248
645.483 .0308966
646.239 .0308696
646.994 .0308436
647.750 .0308188
648.505 .0307949
649.259 .0307721
650.014 .0307501
650.768 .0307289
651.521 .0307084
652.275 .0306884
653.028 .0306688
653.781 .0306494
654.534 .0306300
655.286 .0306106
656.039 .0305910
656.791 .0305712
657.542 .0305510
658.294 .0305305
659.045 .0305095
659.796 .0304882
660.546 .0304664
661.297 .0304442
662.047 .0304217
662.796 .0303991
663.546 .0303764
664.295 .0303537
665.044 .0303311
665.793 .0303088
666.542 .0302868
667.290 .0302652
668.038 .0302441
668.786 .0302235
669.533 .0302035
670.281 .0301840
671.028 .0301650
671.774 .0301467
672.521 .0301289
673.267 .0301117
674.013 .0300952
674.759 .0300793
675.505 .0300639
676.250 .0300489
676.995 .0300344
677.740 .0300202
678.484 .0300061
679.229 .0299920
679.973 .0299780
680.717 .0299638
681.460 .0299496
682.204 .0299353
682.947 .0299209
683.690 .0299063
684.433 .0298917
685.175 .0298769
685.917 .0298620
686.659 .0298468
687.401 .0298314
688.142 .0298157
688.884 .0297997
689.625 .0297834
690.365 .0297668
691.106 .0297499
691.846 .0297329
692.586 .0297155
693.326 .0296980
694.066 .0296801
694.805 .0296621
695.545 .0296438
696.284 .0296253
697.022 .0296066
697.761 .0295877
698.499 .0295686
699.237 .0295493
699.975 .0295297
700.713 .0295100
701.450 .0294901
702.187 .0294699
702.924 .0294496
703.661 .0294290
704.397 .0294083
705.133 .0293873
705.869 .0293662
706.605 .0293450
707.341 .0293235
708.076 .0293019
708.811 .0292801
709.546 .0292583
710.281 .0292364
711.015 .0292144
711.749 .0291923
712.483 .0291702
713.217 .0291479
713.950 .0291256
714.684 .0291030
715.417 .0290804
716.150 .0290576
716.882 .0290347
717.615 .0290117
718.347 .0289885
719.079 .0289652
719.811 .0289417
720.542 .0289182
721.273 .0288945
722.005 .0288707
722.735 .0288468
723.466 .0288229
724.196 .0287991
724.927 .0287755
725.656 .0287521
726.386 .0287290
727.116 .0287063
727.845 .0286839
728.574 .0286621
729.303 .0286409
730.031 .0286203
730.760 .0286003
731.488 .0285810
732.216 .0285624
732.944 .0285445
733.671 .0285273
734.398 .0285107
735.125 .0284949
735.852 .0284798
736.579 .0284654
737.305 .0284519
738.031 .0284393
738.757 .0284275
739.483 .0284166
740.208 .0284064
740.933 .0283969
741.658 .0283880
742.383 .0283795
743.108 .0283713
743.832 .0283634
744.556 .0283556
745.280 .0283479
746.004 .0283402
746.727 .0283326
747.450 .0283249
748.173 .0283170
748.896 .0283090
749.618 .0283006
750.340 .0282919
751.062 .0282828
751.784 .0282733
752.506 .0282633
753.227 .0282530
753.948 .0282423
754.669 .0282313
755.389 .0282200
756.110 .0282085
756.830 .0281968
757.550 .0281852
758.269 .0281735
758.989 .0281618
759.708 .0281504
760.427 .0281390
761.146 .0281279
761.864 .0281169
762.582 .0281061
763.300 .0280955
764.018 .0280852
764.736 .0280752
765.453 .0280655
766.170 .0280563
766.887 .0280477
767.603 .0280396
768.320 .0280322
769.036 .0280254
769.751 .0280192
770.467 .0280135
771.182 .0280083
771.897 .0280035
772.612 .0279992
773.327 .0279952
774.041 .0279917
774.755 .0279886
775.469 .0279859
776.183 .0279836
776.896 .0279817
777.609 .0279801
778.322 .0279788
779.035 .0279777
779.747 .0279767
780.459 .0279759
781.171 .0279751
781.882 .0279742
782.594 .0279734
783.305 .0279723
784.016 .0279712
784.726 .0279697
785.436 .0279680
786.147 .0279636
786.856 .0279607
787.566 .0279575
788.275 .0279537
788.984 .0279495
789.693 .0279447
790.401 .0279394
791.110 .0279335
791.818 .0279270
792.525 .0279198
793.233 .0279121
793.940 .0279037
794.647 .0278984
795.353 .0278894
796.060 .0278798
796.766 .0278697
797.472 .0278591
798.177 .0278479
798.883 .0278363
799.588 .0278241
800.292 .0278113
800.997 .0277981
801.701 .0277844
802.405 .0277702
803.109 .0277555
803.812 .0277403
804.515 .0277246
805.218 .0277085
805.921 .0276918
806.623 .0276747
807.325 .0276572
808.027 .0276392
808.728 .0276208
809.429 .0276020
810.130 .0275828
810.831 .0275632
811.531 .0275434
812.231 .0275231
812.931 .0275026
813.630 .0274818
814.330 .0274609
815.029 .0274399
815.727 .0274189
816.426 .0273981
817.124 .0273774
817.821 .0273571
818.519 .0273371
819.216 .0273175
819.913 .0272984
820.609 .0272797
821.306 .0272615
822.002 .0272438
822.697 .0272268
823.393 .0272105
824.088 .0271948
824.783 .0271798
825.477 .0271655
826.171 .0271517
826.865 .0271385
827.559 .0271257
828.252 .0271133
828.945 .0271013
829.638 .0270896
830.330 .0270782
831.023 .0270671
831.714 .0270563
832.406 .0270457
833.097 .0270354
833.788 .0270251
834.479 .0270148
835.169 .0270045
835.859 .0269941
836.548 .0269836
837.238 .0269729
837.927 .0269621
838.615 .0269510
839.304 .0269397
839.992 .0269281
840.680 .0269162
841.367 .0269039
842.054 .0268912
842.741 .0268780
843.428 .0268644
844.114 .0268505
844.800 .0268361
845.485 .0268214
846.170 .0268063
846.855 .0267909
847.540 .0267753
848.224 .0267593
848.908 .0267431
849.592 .0267267
850.275 .0267101
850.958 .0266934
851.641 .0266766
852.323 .0266597
853.005 .0266428
853.687 .0266259
854.368 .0266089
855.049 .0265919
855.730 .0265748
856.410 .0265578
857.090 .0265408
857.769 .0265239
858.449 .0265073
859.128 .0264908
859.806 .0264746
860.485 .0264588
861.163 .0264434
861.840 .0264284
862.518 .0264139
863.195 .0263999
863.871 .0263863
864.548 .0263733
865.224 .0263608
865.899 .0263489
866.574 .0263374
867.249 .0263264
867.924 .0263158
868.598 .0263057
869.272 .0262959
869.946 .0262866
870.619 .0262777
871.292 .0262692
871.964 .0262613
872.636 .0262538
873.308 .0262467
873.979 .0262402
874.651 .0262341
875.321 .0262286
875.992 .0262235
876.662 .0262190
877.331 .0262150
878.001 .0262116
878.670 .0262088
879.338 .0262067
880.007 .0262052
880.675 .0262044
881.342 .0262043
882.009 .0262050
882.676 .0262064
883.343 .0262086
884.009 .0262115
884.675 .0262152
885.340 .0262196
886.005 .0262247
886.670 .0262306
887.334 .0262371
887.998 .0262444
888.662 .0262523
889.325 .0262609
889.988 .0262701
890.650 .0262798
891.312 .0262901
891.974 .0263007
892.636 .0263117
893.297 .0263227
893.957 .0263338
894.618 .0263448
895.278 .0263556
895.937 .0263662
896.596 .0263764
897.255 .0263861
897.914 .0263954
898.572 .0264040
899.230 .0264119
899.887 .0264191
900.544 .0264254
901.201 .0264307
901.857 .0264344
902.513 .0264370
903.168 .0264385
903.823 .0264391
904.478 .0264386
905.132 .0264371
905.786 .0264346
906.440 .0264312
907.093 .0264267
907.746 .0264213
908.399 .0264150
909.051 .0264079
909.703 .0264000
910.354 .0263942
911.005 .0263856
911.656 .0263764
912.306 .0263668
912.956 .0263569
913.605 .0263467
914.254 .0263361
914.903 .0263253
915.551 .0263142
916.199 .0263029
916.847 .0262913
917.494 .0262796
918.141 .0262676
918.788 .0262556
919.434 .0262436
920.079 .0262315
920.725 .0262193
921.370 .0262070
922.014 .0261945
922.658 .0261818
923.302 .0261689
923.946 .0261557
924.589 .0261421
925.231 .0261284
925.873 .0261143
926.515 .0260999
927.157 .0260853
927.798 .0260705
928.439 .0260555
929.079 .0260402
929.719 .0260247
930.359 .0260091
930.998 .0259932
931.637 .0259773
932.275 .0259613
932.913 .0259453
933.551 .0259294
934.188 .0259136
934.825 .0258981
935.462 .0258829
936.098 .0258680
936.733 .0258536
937.369 .0258395
938.004 .0258258
938.638 .0258125
939.273 .0257996
939.907 .0257869
940.540 .0257745
941.173 .0257623
941.806 .0257503
942.438 .0257386
943.070 .0257269
943.702 .0257155
944.333 .0257042
944.964 .0256929
945.594 .0256816
946.224 .0256703
946.854 .0256588
947.483 .0256471
948.112 .0256350
948.741 .0256226
949.369 .0256099
949.996 .0255968
950.624 .0255833
951.251 .0255695
951.878 .0255552
952.504 .0255404
953.130 .0255252
953.755 .0255094
954.380 .0254932
955.005 .0254764
955.629 .0254591
956.253 .0254414
956.877 .0254233
957.500 .0254049
958.123 .0253863
958.746 .0253677
959.368 .0253489
959.990 .0253302
960.611 .0253115
961.232 .0252929
961.853 .0252744
962.473 .0252560
963.093 .0252377
963.712 .0252196
964.331 .0252016
964.950 .0251838
965.569 .0251661
966.187 .0251486
966.804 .0251312
967.422 .0251138
968.039 .0250964
968.655 .0250789
969.272 .0250613
969.887 .0250435
970.503 .0250254
971.118 .0250072
971.733 .0249888
972.347 .0249701
972.961 .0249514
973.575 .0249324
974.188 .0249132
974.801 .0248939
975.414 .0248743
976.026 .0248544
976.638 .0248343
977.250 .0248139
977.861 .0247932
978.472 .0247723
979.083 .0247511
979.693 .0247296
980.303 .0247080
980.912 .0246751
981.521 .0246534
982.130 .0246317
982.738 .0246101
983.346 .0245887
983.954 .0245674
984.562 .0245464
985.169 .0245257
985.775 .0245055
986.382 .0244859
986.988 .0244670
987.594 .0244487
988.199 .0244311
988.804 .0244142
989.409 .0244081
990.013 .0243923
990.617 .0243772
991.221 .0243627
991.824 .0243488
992.427 .0243354
993.030 .0243225
993.632 .0243100
994.234 .0242980
994.836 .0242863
995.438 .0242749
996.039 .0242639
996.640 .0242532
997.240 .0242427
997.840 .0242327
998.440 .0242231
999.040 .0242139
999.639 .0242052
1000.238 .0241969
1000.836 .0241890
1001.435 .0241815
1002.033 .0241743
1002.630 .0241675
1003.228 .0241609
1003.825 .0241545
1004.422 .0241483
1005.018 .0241423
1005.614 .0241366
1006.210 .0241310
1006.806 .0241257
1007.401 .0241207
1007.996 .0241158
1008.591 .0241112
1009.186 .0241069
1009.780 .0241028
1010.374 .0240991
1010.967 .0240959
1011.561 .0240933
1012.154 .0240913
1012.746 .0240900
1013.339 .0240895
1013.931 .0240898
1014.523 .0240908
1015.115 .0240924
1015.706 .0240947
1016.298 .0240974
1016.888 .0241006
1017.479 .0241043
1018.069 .0241083
1018.660 .0241128
1019.250 .0241178
1019.839 .0241232
1020.429 .0241290
1021.018 .0241353
1021.607 .0241419
1022.195 .0241489
1022.784 .0241561
1023.372 .0241637
1023.960 .0241716
1024.547 .0241799
1025.135 .0241886
1025.722 .0241977
1026.309 .0242072
1026.896 .0242172
1027.483 .0242276
1028.069 .0242383
1028.655 .0242494
1029.241 .0242605
1029.827 .0242718
1030.412 .0242832
1030.997 .0242946
1031.582 .0243060
1032.167 .0243175
1032.752 .0243289
1033.336 .0243404
1033.921 .0243520
1034.505 .0243636
1035.089 .0243754
1035.672 .0243872
1036.256 .0243990
1036.839 .0244108
1037.422 .0244226
1038.005 .0244342
1038.588 .0244457
1039.171 .0244570
1039.753 .0244681
1040.335 .0244790
1040.918 .0244898
1041.500 .0245003
1042.081 .0245108
1042.663 .0245212
1043.244 .0245316
1043.826 .0245419
1044.407 .0245523
1044.988 .0245627
1045.569 .0245732
1046.150 .0245838
1046.730 .0245945
1047.311 .0246054
1047.891 .0246165
1048.471 .0246278
1049.052 .0246394
1049.632 .0246513
1050.211 .0246634
1050.791 .0246756
1051.371 .0246879
1051.950 .0247001
1052.530 .0247121
1053.109 .0247238
1053.688 .0247353
1054.268 .0247465
1054.847 .0247575
1055.426 .0247685
1056.005 .0247796
1056.583 .0247909
1057.162 .0248026
1057.741 .0248145
1058.319 .0248267
1058.898 .0248392
1059.476 .0248520
1060.055 .0248651
1060.633 .0248784
1061.211 .0248921
1061.790 .0249061
1062.368 .0249205
1062.946 .0249352
1063.524 .0249503
1064.102 .0249656
1064.680 .0249810
1065.258 .0249964
1065.836 .0250117
1066.414 .0250269
1066.992 .0250420
1067.570 .0250571
1068.148 .0250723
1068.726 .0250876
1069.304 .0251031
1069.882 .0251189
1070.460 .0251350
1071.038 .0251513
1071.616 .0251678
1072.194 .0251845
1072.772 .0252013
1073.350 .0252181
1073.928 .0252349
1074.506 .0252517
1075.084 .0252685
1075.662 .0252852
1076.240 .0253018
1076.819 .0253183
1077.397 .0253345
1077.976 .0253504
1078.554 .0253659
1079.133 .0253811
1079.711 .0253959
1080.290 .0254106
1080.869 .0254251
1081.448 .0254395
1082.027 .0254539
1082.606 .0254681
1083.185 .0254824
1083.764 .0254966
1084.343 .0255108
1084.923 .0255249
1085.502 .0255391
1086.082 .0255533
1086.662 .0255677
1087.242 .0255823
1087.822 .0255970
1088.402 .0256119
1088.983 .0256268
1089.563 .0256419
1090.144 .0256569
1090.725 .0256720
1091.306 .0256871
1091.887 .0257023
1092.469 .0257175
1093.050 .0257329
1093.632 .0257484
1094.214 .0257639
1094.796 .0257795
1095.379 .0257952
1095.961 .0258110
1096.544 .0258269
1097.127 .0258431
1097.710 .0258597
1098.294 .0258769
1098.877 .0258948
1099.461 .0259136
1100.046 .0259335
1100.630 .0259543
1101.215 .0259761
1101.800 .0259989
1102.385 .0260227
1102.970 .0260476
1103.556 .0260736
1104.142 .0261009
1104.728 .0261295
1105.315 .0261595
1105.902 .0261908
1106.489 .0262233
1107.077 .0262568
1107.664 .0262912
1108.253 .0263262
1108.841 .0263617
1109.430 .0263975
1110.019 .0264337
1110.609 .0264704
1111.198 .0265078
1111.789 .0265459
1112.379 .0265849
1112.970 .0266248
1113.561 .0266656
1114.153 .0267071
1114.745 .0267493
1115.338 .0267921
1115.931 .0268355
1116.524 .0268793
1117.117 .0269234
1117.712 .0269682
1118.306 .0270135
1118.901 .0270596
1119.496 .0271065
1120.092 .0271544
1120.689 .0272032
1121.285 .0272531
1121.882 .0273042
1122.480 .0273564
1123.078 .0274098
1123.677 .0274646
1124.276 .0275209
1124.875 .0275787
1125.476 .0276383
1126.076 .0276999
1126.677 .0277634
1127.279 .0278289
1127.881 .0278962
1128.484 .0279652
1129.087 .0279960
1129.691 .0280673
1130.295 .0281394
1130.900 .0282121
1131.505 .0282851
1132.111 .0283581
1132.718 .0284307
1133.325 .0285033
1133.933 .0285754
1134.541 .0286502
1135.150 .0287240
1135.760 .0287885
1136.370 .0288656
1136.981 .0290632
1137.592 .0291389
1138.204 .0292073
1138.817 .0292672
1139.431 .0293249
1140.045 .0293765
1140.660 .0294196
1141.275 .0294713
1141.891 .0295103
1142.508 .0296402
1143.126 .0296726
1143.744 .0294745
1144.363 .0298890
1144.983 .0295068
