Measurement Sequence started on: 15-12-46-377
Integration time: 28
Scans to Average: 2 
>>>>>Begin Spectral Data<<<<<
432.689 .0000100
433.621 .0000100
434.552 .0000100
435.482 .0000100
436.410 .0000100
437.337 .0000100
438.262 .0251936
439.187 .0534147
440.110 .0884094
441.031 .1278506
441.952 .1023938
442.871 .1070198
443.789 .1113554
444.705 .1154588
445.621 .1193707
446.535 .1231215
447.447 .1254076
448.359 .1260870
449.269 .1248188
450.178 .1213807
451.086 .1158489
451.993 .1086627
452.898 .1005486
453.803 .0923283
454.706 .0846972
455.608 .0780820
456.508 .0726200
457.408 .0689503
458.306 .0661331
459.204 .0638260
460.100 .0618643
460.995 .0601573
461.888 .0586504
462.781 .0573071
463.673 .0561010
464.563 .0550135
465.452 .0540301
466.340 .0531375
467.228 .0523259
468.114 .0515862
468.999 .0509115
469.882 .0502954
470.765 .0497328
471.647 .0492195
472.528 .0487527
473.407 .0483294
474.286 .0479484
475.163 .0476082
476.040 .0473072
476.915 .0470429
477.790 .0468128
478.663 .0466137
479.535 .0464423
480.407 .0462955
481.277 .0461707
482.147 .0460652
483.015 .0459776
483.883 .0459068
484.749 .0458522
485.615 .0458139
486.479 .0457926
487.343 .0457891
488.206 .0458045
489.067 .0458392
489.928 .0458935
490.788 .0459675
491.647 .0460614
492.505 .0461743
493.362 .0463064
494.218 .0464573
495.073 .0466273
495.928 .0469523
496.781 .0471704
497.634 .0474082
498.486 .0476659
499.337 .0479441
500.187 .0482433
501.036 .0485644
501.884 .0489091
502.731 .0492796
503.578 .0496786
504.424 .0499358
505.268 .0503923
506.113 .0508907
506.956 .0514360
507.798 .0520350
508.640 .0526949
509.480 .0534247
510.320 .0542342
511.160 .0551358
511.998 .0561446
512.836 .0572795
513.672 .0585609
514.508 .0600121
515.344 .0616586
516.178 .0635265
517.012 .0656415
517.845 .0680287
518.677 .0707093
519.508 .0736986
520.339 .0770053
521.169 .0806339
521.998 .0845622
522.826 .0887563
523.654 .0931643
524.481 .0977220
525.307 .1023519
526.133 .1069646
526.958 .1114639
527.782 .1157557
528.605 .1197517
529.428 .1233699
530.250 .1265361
531.072 .1292021
531.892 .1313254
532.712 .1328779
533.532 .1338427
534.350 .1342145
535.168 .1339949
535.986 .1331922
536.802 .1318166
537.618 .1298791
538.434 .1273924
539.249 .1243948
540.063 .1209323
540.876 .1170678
541.689 .1128734
542.501 .1084307
543.313 .1038308
544.124 .0991712
544.934 .0945429
545.744 .0900283
546.553 .0857005
547.361 .0816202
548.169 .0778187
548.976 .0743196
549.783 .0711281
550.589 .0682377
551.395 .0656297
552.200 .0632791
553.004 .0611569
553.808 .0592376
554.611 .0574996
555.414 .0559240
556.216 .0544915
557.018 .0531852
557.819 .0519889
558.619 .0508885
559.419 .0498730
560.218 .0489327
561.017 .0480574
561.815 .0472404
562.613 .0464753
563.410 .0457554
564.207 .0450750
565.003 .0444300
565.799 .0438159
566.594 .0432290
567.388 .0426663
568.182 .0421252
568.976 .0416033
569.769 .0410997
570.562 .0406132
571.354 .0401430
572.145 .0396889
572.936 .0392504
573.727 .0388268
574.517 .0384182
575.307 .0380250
576.096 .0376469
576.885 .0372841
577.673 .0369369
578.461 .0366051
579.248 .0362888
580.035 .0359882
580.821 .0357037
581.607 .0354352
582.392 .0351827
583.177 .0349465
583.962 .0347264
584.746 .0345224
585.529 .0343338
586.313 .0341596
587.095 .0339987
587.878 .0338498
588.660 .0337114
589.441 .0335822
590.222 .0334614
591.003 .0333483
591.783 .0332424
592.563 .0331432
593.342 .0330505
594.121 .0329638
594.899 .0328825
595.678 .0328061
596.455 .0327341
597.233 .0326658
598.009 .0326009
598.786 .0325388
599.562 .0324791
600.338 .0324217
601.113 .0323663
601.888 .0322910
602.663 .0322408
603.437 .0321928
604.211 .0321471
604.984 .0321036
605.757 .0320624
606.530 .0320232
607.302 .0319859
608.074 .0319502
608.845 .0319160
609.616 .0318832
610.387 .0318695
611.158 .0318381
611.928 .0318079
612.697 .0317788
613.467 .0317508
614.236 .0317239
615.004 .0316981
615.773 .0316732
616.541 .0316492
617.308 .0316260
618.076 .0316034
618.843 .0315812
619.609 .0315593
620.375 .0315375
621.141 .0315157
621.907 .0314938
622.672 .0314715
623.437 .0314490
624.202 .0314262
624.966 .0314029
625.730 .0313794
626.493 .0313554
627.257 .0313311
628.020 .0313064
628.782 .0312812
629.545 .0312555
630.307 .0312293
631.068 .0312026
631.830 .0311754
632.591 .0311477
633.352 .0311198
634.112 .0310916
634.872 .0310633
635.632 .0310350
636.392 .0310067
637.151 .0309786
637.910 .0309505
638.668 .0309227
639.427 .0308951
640.185 .0308677
640.943 .0308406
641.700 .0308139
642.457 .0307877
643.214 .0307620
643.971 .0307368
644.727 .0307120
645.483 .0306878
646.239 .0306640
646.994 .0306405
647.750 .0306173
648.505 .0305943
649.259 .0305713
650.014 .0305484
650.768 .0305255
651.521 .0305026
652.275 .0304797
653.028 .0304567
653.781 .0304335
654.534 .0304102
655.286 .0303867
656.039 .0303630
656.791 .0303390
657.542 .0303150
658.294 .0302908
659.045 .0302666
659.796 .0302425
660.546 .0302184
661.297 .0301943
662.047 .0301704
662.796 .0301465
663.546 .0301227
664.295 .0300991
665.044 .0300757
665.793 .0300526
666.542 .0300300
667.290 .0300080
668.038 .0299864
668.786 .0299654
669.533 .0299448
670.281 .0299247
671.028 .0299050
671.774 .0298857
672.521 .0298668
673.267 .0298483
674.013 .0298301
674.759 .0298121
675.505 .0297944
676.250 .0297769
676.995 .0297595
677.740 .0297422
678.484 .0297249
679.229 .0297077
679.973 .0296906
680.717 .0296736
681.460 .0296566
682.204 .0296397
682.947 .0296226
683.690 .0296054
684.433 .0295880
685.175 .0295704
685.917 .0295525
686.659 .0295344
687.401 .0295162
688.142 .0294980
688.884 .0294799
689.625 .0294619
690.365 .0294440
691.106 .0294261
691.846 .0294083
692.586 .0293904
693.326 .0293724
694.066 .0293543
694.805 .0293361
695.545 .0293177
696.284 .0292994
697.022 .0292810
697.761 .0292628
698.499 .0292446
699.237 .0292266
699.975 .0292087
700.713 .0291909
701.450 .0291733
702.187 .0291556
702.924 .0291381
703.661 .0291206
704.397 .0291030
705.133 .0290855
705.869 .0290679
706.605 .0290502
707.341 .0290325
708.076 .0290149
708.811 .0289972
709.546 .0289797
710.281 .0289622
711.015 .0289449
711.749 .0289276
712.483 .0289103
713.217 .0288931
713.950 .0288758
714.684 .0288583
715.417 .0288406
716.150 .0288226
716.882 .0288045
717.615 .0287860
718.347 .0287673
719.079 .0287483
719.811 .0287290
720.542 .0287094
721.273 .0286895
722.005 .0286693
722.735 .0286487
723.466 .0286279
724.196 .0286069
724.927 .0285856
725.656 .0285643
726.386 .0285430
727.116 .0285216
727.845 .0285003
728.574 .0284791
729.303 .0284581
730.031 .0284372
730.760 .0284166
731.488 .0283964
732.216 .0283765
732.944 .0283572
733.671 .0283384
734.398 .0283201
735.125 .0283023
735.852 .0282851
736.579 .0282683
737.305 .0282519
738.031 .0282359
738.757 .0282201
739.483 .0282047
740.208 .0281895
740.933 .0281745
741.658 .0281599
742.383 .0281454
743.108 .0281312
743.832 .0281172
744.556 .0281034
745.280 .0280898
746.004 .0280763
746.727 .0280629
747.450 .0280496
748.173 .0280364
748.896 .0280232
749.618 .0280100
750.340 .0279967
751.062 .0279834
751.784 .0279700
752.506 .0279565
753.227 .0279430
753.948 .0279294
754.669 .0279158
755.389 .0279023
756.110 .0278887
756.830 .0278752
757.550 .0278616
758.269 .0278481
758.989 .0278344
759.708 .0278208
760.427 .0278070
761.146 .0277932
761.864 .0277794
762.582 .0277657
763.300 .0277520
764.018 .0277385
764.736 .0277251
765.453 .0277118
766.170 .0276986
766.887 .0276855
767.603 .0276727
768.320 .0276600
769.036 .0276476
769.751 .0276355
770.467 .0276237
771.182 .0276122
771.897 .0276011
772.612 .0275904
773.327 .0275801
774.041 .0275701
774.755 .0275605
775.469 .0275512
776.183 .0275423
776.896 .0275338
777.609 .0275257
778.322 .0275179
779.035 .0275104
779.747 .0275032
780.459 .0274962
781.171 .0274893
781.882 .0274826
782.594 .0274759
783.305 .0274693
784.016 .0274627
784.726 .0274561
785.436 .0274497
786.147 .0274402
786.856 .0274338
787.566 .0274273
788.275 .0274207
788.984 .0274140
789.693 .0274071
790.401 .0274002
791.110 .0273930
791.818 .0273856
792.525 .0273781
793.233 .0273702
793.940 .0273621
794.647 .0273572
795.353 .0273487
796.060 .0273400
796.766 .0273310
797.472 .0273219
798.177 .0273125
798.883 .0273030
799.588 .0272934
800.292 .0272837
800.997 .0272739
801.701 .0272640
802.405 .0272540
803.109 .0272438
803.812 .0272335
804.515 .0272231
805.218 .0272126
805.921 .0272021
806.623 .0271916
807.325 .0271810
808.027 .0271705
808.728 .0271599
809.429 .0271493
810.130 .0271387
810.831 .0271280
811.531 .0271173
812.231 .0271067
812.931 .0270960
813.630 .0270854
814.330 .0270750
815.029 .0270646
815.727 .0270544
816.426 .0270443
817.124 .0270344
817.821 .0270246
818.519 .0270150
819.216 .0270055
819.913 .0269962
820.609 .0269871
821.306 .0269782
822.002 .0269696
822.697 .0269612
823.393 .0269531
824.088 .0269451
824.783 .0269374
825.477 .0269297
826.171 .0269222
826.865 .0269146
827.559 .0269070
828.252 .0268995
828.945 .0268919
829.638 .0268843
830.330 .0268767
831.023 .0268689
831.714 .0268611
832.406 .0268531
833.097 .0268449
833.788 .0268364
834.479 .0268276
835.169 .0268185
835.859 .0268092
836.548 .0267996
837.238 .0267899
837.927 .0267799
838.615 .0267698
839.304 .0267595
839.992 .0267490
840.680 .0267383
841.367 .0267275
842.054 .0267166
842.741 .0267055
843.428 .0266944
844.114 .0266833
844.800 .0266722
845.485 .0266610
846.170 .0266498
846.855 .0266385
847.540 .0266271
848.224 .0266154
848.908 .0266035
849.592 .0265914
850.275 .0265790
850.958 .0265662
851.641 .0265532
852.323 .0265399
853.005 .0265262
853.687 .0265122
854.368 .0264978
855.049 .0264830
855.730 .0264677
856.410 .0264519
857.090 .0264356
857.769 .0264190
858.449 .0264020
859.128 .0263846
859.806 .0263671
860.485 .0263492
861.163 .0263312
861.840 .0263130
862.518 .0262946
863.195 .0262761
863.871 .0262575
864.548 .0262390
865.224 .0262204
865.899 .0262020
866.574 .0261838
867.249 .0261657
867.924 .0261479
868.598 .0261305
869.272 .0261134
869.946 .0260967
870.619 .0260804
871.292 .0260645
871.964 .0260490
872.636 .0260340
873.308 .0260194
873.979 .0260052
874.651 .0259915
875.321 .0259782
875.992 .0259652
876.662 .0259526
877.331 .0259404
878.001 .0259285
878.670 .0259168
879.338 .0259054
880.007 .0258942
880.675 .0258832
881.342 .0258723
882.009 .0258616
882.676 .0258511
883.343 .0258409
884.009 .0258309
884.675 .0258213
885.340 .0258120
886.005 .0258032
886.670 .0257947
887.334 .0257867
887.998 .0257792
888.662 .0257720
889.325 .0257652
889.988 .0257588
890.650 .0257528
891.312 .0257471
891.974 .0257417
892.636 .0257365
893.297 .0257315
893.957 .0257267
894.618 .0257220
895.278 .0257175
895.937 .0257130
896.596 .0257085
897.255 .0257039
897.914 .0256991
898.572 .0256941
899.230 .0256886
899.887 .0256827
900.544 .0256763
901.201 .0256692
901.857 .0256552
902.513 .0256465
903.168 .0256371
903.823 .0256272
904.478 .0256165
905.132 .0256052
905.786 .0255932
906.440 .0255805
907.093 .0255672
907.746 .0255534
908.399 .0255392
909.051 .0255246
909.703 .0255098
910.354 .0255023
911.005 .0254876
911.656 .0254729
912.306 .0254582
912.956 .0254435
913.605 .0254289
914.254 .0254146
914.903 .0254004
915.551 .0253866
916.199 .0253731
916.847 .0253598
917.494 .0253469
918.141 .0253341
918.788 .0253215
919.434 .0253090
920.079 .0252964
920.725 .0252837
921.370 .0252709
922.014 .0252580
922.658 .0252449
923.302 .0252318
923.946 .0252185
924.589 .0252051
925.231 .0251916
925.873 .0251780
926.515 .0251642
927.157 .0251503
927.798 .0251362
928.439 .0251221
929.079 .0251078
929.719 .0250934
930.359 .0250791
930.998 .0250648
931.637 .0250506
932.275 .0250365
932.913 .0250226
933.551 .0250090
934.188 .0249956
934.825 .0249826
935.462 .0249699
936.098 .0249578
936.733 .0249460
937.369 .0249349
938.004 .0249243
938.638 .0249143
939.273 .0249051
939.907 .0248966
940.540 .0248889
941.173 .0248819
941.806 .0248756
942.438 .0248699
943.070 .0248649
943.702 .0248604
944.333 .0248563
944.964 .0248527
945.594 .0248495
946.224 .0248466
946.854 .0248439
947.483 .0248415
948.112 .0248392
948.741 .0248370
949.369 .0248349
949.996 .0248328
950.624 .0248308
951.251 .0248287
951.878 .0248267
952.504 .0248247
953.130 .0248228
953.755 .0248209
954.380 .0248190
955.005 .0248171
955.629 .0248153
956.253 .0248134
956.877 .0248115
957.500 .0248095
958.123 .0248075
958.746 .0248053
959.368 .0248030
959.990 .0248005
960.611 .0247979
961.232 .0247952
961.853 .0247924
962.473 .0247894
963.093 .0247864
963.712 .0247832
964.331 .0247799
964.950 .0247765
965.569 .0247729
966.187 .0247691
966.804 .0247652
967.422 .0247611
968.039 .0247568
968.655 .0247524
969.272 .0247480
969.887 .0247434
970.503 .0247388
971.118 .0247341
971.733 .0247294
972.347 .0247246
972.961 .0247196
973.575 .0247145
974.188 .0247092
974.801 .0247037
975.414 .0246982
976.026 .0246925
976.638 .0246867
977.250 .0246810
977.861 .0246753
978.472 .0246696
979.083 .0246640
979.693 .0246583
980.303 .0246527
980.912 .0246443
981.521 .0246387
982.130 .0246331
982.738 .0246276
983.346 .0246223
983.954 .0246172
984.562 .0246123
985.169 .0246078
985.775 .0246035
986.382 .0245996
986.988 .0245959
987.594 .0245925
988.199 .0245894
988.804 .0245867
989.409 .0245865
990.013 .0245842
990.617 .0245822
991.221 .0245806
991.824 .0245792
992.427 .0245781
993.030 .0245773
993.632 .0245765
994.234 .0245759
994.836 .0245753
995.438 .0245747
996.039 .0245740
996.640 .0245733
997.240 .0245725
997.840 .0245716
998.440 .0245708
999.040 .0245700
999.639 .0245691
1000.238 .0245683
1000.836 .0245674
1001.435 .0245663
1002.033 .0245651
1002.630 .0245637
1003.228 .0245621
1003.825 .0245601
1004.422 .0245579
1005.018 .0245555
1005.614 .0245529
1006.210 .0245501
1006.806 .0245472
1007.401 .0245442
1007.996 .0245410
1008.591 .0245378
1009.186 .0245345
1009.780 .0245312
1010.374 .0245280
1010.967 .0245250
1011.561 .0245223
1012.154 .0245200
1012.746 .0245180
1013.339 .0245166
1013.931 .0245156
1014.523 .0245151
1015.115 .0245149
1015.706 .0245152
1016.298 .0245158
1016.888 .0245168
1017.479 .0245182
1018.069 .0245200
1018.660 .0245223
1019.250 .0245249
1019.839 .0245279
1020.429 .0245312
1021.018 .0245347
1021.607 .0245383
1022.195 .0245420
1022.784 .0245458
1023.372 .0245497
1023.960 .0245536
1024.547 .0245577
1025.135 .0245620
1025.722 .0245665
1026.309 .0245711
1026.896 .0245758
1027.483 .0245805
1028.069 .0245849
1028.655 .0245889
1029.241 .0245923
1029.827 .0245952
1030.412 .0245975
1030.997 .0245993
1031.582 .0246006
1032.167 .0246014
1032.752 .0246019
1033.336 .0246020
1033.921 .0246018
1034.505 .0246012
1035.089 .0246000
1035.672 .0245983
1036.256 .0245959
1036.839 .0245930
1037.422 .0245895
1038.005 .0245857
1038.588 .0245815
1039.171 .0245772
1039.753 .0245727
1040.335 .0245681
1040.918 .0245634
1041.500 .0245585
1042.081 .0245533
1042.663 .0245478
1043.244 .0245419
1043.826 .0245357
1044.407 .0245292
1044.988 .0245226
1045.569 .0245159
1046.150 .0245094
1046.730 .0245030
1047.311 .0244969
1047.891 .0244910
1048.471 .0244852
1049.052 .0244796
1049.632 .0244741
1050.211 .0244685
1050.791 .0244629
1051.371 .0244572
1051.950 .0244518
1052.530 .0244465
1053.109 .0244417
1053.688 .0244372
1054.268 .0244332
1054.847 .0244297
1055.426 .0244264
1056.005 .0244234
1056.583 .0244205
1057.162 .0244177
1057.741 .0244149
1058.319 .0244122
1058.898 .0244096
1059.476 .0244071
1060.055 .0244048
1060.633 .0244025
1061.211 .0244003
1061.790 .0243978
1062.368 .0243951
1062.946 .0243921
1063.524 .0243887
1064.102 .0243849
1064.680 .0243807
1065.258 .0243762
1065.836 .0243716
1066.414 .0243669
1066.992 .0243621
1067.570 .0243573
1068.148 .0243527
1068.726 .0243480
1069.304 .0243435
1069.882 .0243390
1070.460 .0243348
1071.038 .0243307
1071.616 .0243270
1072.194 .0243237
1072.772 .0243208
1073.350 .0243184
1073.928 .0243165
1074.506 .0243151
1075.084 .0243142
1075.662 .0243137
1076.240 .0243138
1076.819 .0243143
1077.397 .0243153
1077.976 .0243170
1078.554 .0243194
1079.133 .0243226
1079.711 .0243265
1080.290 .0243311
1080.869 .0243363
1081.448 .0243419
1082.027 .0243480
1082.606 .0243540
1083.185 .0243601
1083.764 .0243660
1084.343 .0243715
1084.923 .0243767
1085.502 .0243816
1086.082 .0243863
1086.662 .0243906
1087.242 .0243946
1087.822 .0243984
1088.402 .0244016
1088.983 .0244045
1089.563 .0244069
1090.144 .0244088
1090.725 .0244103
1091.306 .0244116
1091.887 .0244126
1092.469 .0244137
1093.050 .0244150
1093.632 .0244166
1094.214 .0244187
1094.796 .0244212
1095.379 .0244241
1095.961 .0244275
1096.544 .0244314
1097.127 .0244359
1097.710 .0244411
1098.294 .0244472
1098.877 .0244543
1099.461 .0244627
1100.046 .0244727
1100.630 .0244842
1101.215 .0244974
1101.800 .0245118
1102.385 .0245273
1102.970 .0245434
1103.556 .0245598
1104.142 .0245762
1104.728 .0245927
1105.315 .0246092
1105.902 .0246260
1106.489 .0246430
1107.077 .0246606
1107.664 .0246789
1108.253 .0246978
1108.841 .0247174
1109.430 .0247373
1110.019 .0247576
1110.609 .0247783
1111.198 .0247995
1111.789 .0248216
1112.379 .0248451
1112.970 .0248705
1113.561 .0248981
1114.153 .0249280
1114.745 .0249605
1115.338 .0249952
1115.931 .0250321
1116.524 .0250706
1117.117 .0251105
1117.712 .0251515
1118.306 .0251937
1118.901 .0252372
1119.496 .0252825
1120.092 .0253297
1120.689 .0253791
1121.285 .0254309
1121.882 .0254849
1122.480 .0255408
1123.078 .0255983
1123.677 .0256572
1124.276 .0257171
1124.875 .0257779
1125.476 .0258394
1126.076 .0259018
1126.677 .0259653
1127.279 .0260302
1127.881 .0260965
1128.484 .0261643
1129.087 .0262008
1129.691 .0262702
1130.295 .0263404
1130.900 .0264113
1131.505 .0264827
1132.111 .0265551
1132.718 .0266289
1133.325 .0267051
1133.933 .0267849
1134.541 .0268629
1135.150 .0269506
1135.760 .0270432
1136.370 .0271490
1136.981 .0270583
1137.592 .0271488
1138.204 .0272479
1138.817 .0273511
1139.431 .0274590
1140.045 .0275784
1140.660 .0277140
1141.275 .0278691
1141.891 .0280525
1142.508 .0280762
1143.126 .0284135
1143.744 .0286185
1144.363 .0290494
1144.983 .0294459
