Measurement Sequence started on: 15-12-46-377
Integration time: 28
Scans to Average: 2 
>>>>>Begin Spectral Data<<<<<
432.689 .0000100
433.621 .0000100
434.552 .0000100
435.482 .0000100
436.410 .0000100
437.337 .0000100
438.262 .0253811
439.187 .0536984
440.110 .0889609
441.031 .1286992
441.952 .1036322
442.871 .1083279
443.789 .1127112
444.705 .1168453
445.621 .1207721
446.535 .1245236
447.447 .1267882
448.359 .1274306
449.269 .1261017
450.178 .1225794
451.086 .1169347
451.993 .1096091
452.898 .1013312
453.803 .0929276
454.706 .0851005
455.608 .0782849
456.508 .0726263
457.408 .0687768
458.306 .0657922
459.204 .0633404
460.100 .0612533
460.995 .0594429
461.888 .0578493
462.781 .0564345
463.673 .0551696
464.563 .0540340
465.452 .0530110
466.340 .0520863
467.228 .0512484
468.114 .0504870
468.999 .0497938
469.882 .0491618
470.765 .0485847
471.647 .0480587
472.528 .0475813
473.407 .0471501
474.286 .0467633
475.163 .0464198
476.040 .0461165
476.915 .0458512
477.790 .0456204
478.663 .0454206
479.535 .0452485
480.407 .0451010
481.277 .0449760
482.147 .0448711
483.015 .0447852
483.883 .0447178
484.749 .0446680
485.615 .0446354
486.479 .0446193
487.343 .0446185
488.206 .0446326
489.067 .0446598
489.928 .0446998
490.788 .0447526
491.647 .0448186
492.505 .0448985
493.362 .0449937
494.218 .0451053
495.073 .0452350
495.928 .0454967
496.781 .0456758
497.634 .0458760
498.486 .0460977
499.337 .0463415
500.187 .0466086
501.036 .0469004
501.884 .0472182
502.731 .0475651
503.578 .0479441
504.424 .0482044
505.268 .0486442
506.113 .0491286
506.956 .0496634
507.798 .0502555
508.640 .0509128
509.480 .0516448
510.320 .0524614
511.160 .0533744
511.998 .0543956
512.836 .0555403
513.672 .0568248
514.508 .0582670
515.344 .0598864
516.178 .0617042
517.012 .0637429
517.845 .0660245
518.677 .0685701
519.508 .0713965
520.339 .0745099
521.169 .0779105
521.998 .0815727
522.826 .0854592
523.654 .0895116
524.481 .0936587
525.307 .0978183
526.133 .1019036
526.958 .1058265
527.782 .1095042
528.605 .1128668
529.428 .1158568
530.250 .1184239
531.072 .1205353
531.892 .1221616
532.712 .1232848
533.532 .1238907
534.350 .1239709
535.168 .1235201
535.986 .1225383
536.802 .1210297
537.618 .1190067
538.434 .1164886
539.249 .1135188
540.063 .1101503
540.876 .1064526
541.689 .1025047
542.501 .0983924
543.313 .0942023
544.124 .0900198
544.934 .0859224
545.744 .0819728
546.553 .0782206
547.361 .0747054
548.169 .0714466
548.976 .0684598
549.783 .0657455
550.589 .0632980
551.395 .0611035
552.200 .0591441
553.004 .0573969
553.808 .0558386
554.611 .0544471
555.414 .0531997
556.216 .0520748
557.018 .0510523
557.819 .0501150
558.619 .0492491
559.419 .0484432
560.218 .0476891
561.017 .0469790
561.815 .0463073
562.613 .0456687
563.410 .0450589
564.207 .0444724
565.003 .0439054
565.799 .0433535
566.594 .0428138
567.388 .0422838
568.182 .0417626
568.976 .0412499
569.769 .0407463
570.562 .0402528
571.354 .0397707
572.145 .0393008
572.936 .0388443
573.727 .0384018
574.517 .0379737
575.307 .0375606
576.096 .0371625
576.885 .0367798
577.673 .0364130
578.461 .0360624
579.248 .0357281
580.035 .0354102
580.821 .0351093
581.607 .0348253
582.392 .0345585
583.177 .0343090
583.962 .0340771
584.746 .0338625
585.529 .0336645
586.313 .0334822
587.095 .0333146
587.878 .0331606
588.660 .0330192
589.441 .0328893
590.222 .0327698
591.003 .0326598
591.783 .0325588
592.563 .0324659
593.342 .0323806
594.121 .0323022
594.899 .0322301
595.678 .0321636
596.455 .0321018
597.233 .0320441
598.009 .0319894
598.786 .0319372
599.562 .0318866
600.338 .0318371
601.113 .0317884
601.888 .0317176
602.663 .0316706
603.437 .0316246
604.211 .0315796
604.984 .0315358
605.757 .0314930
606.530 .0314514
607.302 .0314109
608.074 .0313712
608.845 .0313324
609.616 .0312941
610.387 .0312772
611.158 .0312399
611.928 .0312033
612.697 .0311674
613.467 .0311323
614.236 .0310983
615.004 .0310652
615.773 .0310332
616.541 .0310022
617.308 .0309722
618.076 .0309430
618.843 .0309146
619.609 .0308867
620.375 .0308593
621.141 .0308322
621.907 .0308055
622.672 .0307791
623.437 .0307532
624.202 .0307278
624.966 .0307029
625.730 .0306787
626.493 .0306550
627.257 .0306321
628.020 .0306098
628.782 .0305881
629.545 .0305672
630.307 .0305468
631.068 .0305272
631.830 .0305083
632.591 .0304901
633.352 .0304728
634.112 .0304564
634.872 .0304408
635.632 .0304260
636.392 .0304119
637.151 .0303985
637.910 .0303856
638.668 .0303733
639.427 .0303615
640.185 .0303500
640.943 .0303389
641.700 .0303282
642.457 .0303177
643.214 .0303074
643.971 .0302971
644.727 .0302868
645.483 .0302763
646.239 .0302655
646.994 .0302543
647.750 .0302424
648.505 .0302299
649.259 .0302167
650.014 .0302027
650.768 .0301878
651.521 .0301723
652.275 .0301559
653.028 .0301389
653.781 .0301213
654.534 .0301031
655.286 .0300842
656.039 .0300646
656.791 .0300443
657.542 .0300233
658.294 .0300015
659.045 .0299789
659.796 .0299557
660.546 .0299318
661.297 .0299074
662.047 .0298826
662.796 .0298576
663.546 .0298323
664.295 .0298068
665.044 .0297812
665.793 .0297554
666.542 .0297295
667.290 .0297034
668.038 .0296771
668.786 .0296506
669.533 .0296240
670.281 .0295973
671.028 .0295706
671.774 .0295441
672.521 .0295177
673.267 .0294916
674.013 .0294658
674.759 .0294404
675.505 .0294153
676.250 .0293905
676.995 .0293659
677.740 .0293415
678.484 .0293173
679.229 .0292934
679.973 .0292697
680.717 .0292465
681.460 .0292238
682.204 .0292018
682.947 .0291805
683.690 .0291600
684.433 .0291402
685.175 .0291210
685.917 .0291025
686.659 .0290847
687.401 .0290674
688.142 .0290508
688.884 .0290348
689.625 .0290195
690.365 .0290049
691.106 .0289911
691.846 .0289780
692.586 .0289657
693.326 .0289540
694.066 .0289431
694.805 .0289329
695.545 .0289233
696.284 .0289145
697.022 .0289063
697.761 .0288988
698.499 .0288919
699.237 .0288856
699.975 .0288798
700.713 .0288745
701.450 .0288697
702.187 .0288653
702.924 .0288613
703.661 .0288576
704.397 .0288542
705.133 .0288509
705.869 .0288477
706.605 .0288443
707.341 .0288406
708.076 .0288365
708.811 .0288319
709.546 .0288268
710.281 .0288210
711.015 .0288146
711.749 .0288075
712.483 .0287998
713.217 .0287913
713.950 .0287821
714.684 .0287720
715.417 .0287612
716.150 .0287495
716.882 .0287369
717.615 .0287236
718.347 .0287094
719.079 .0286944
719.811 .0286788
720.542 .0286624
721.273 .0286455
722.005 .0286281
722.735 .0286103
723.466 .0285921
724.196 .0285737
724.927 .0285551
725.656 .0285363
726.386 .0285174
727.116 .0284985
727.845 .0284795
728.574 .0284604
729.303 .0284412
730.031 .0284219
730.760 .0284026
731.488 .0283832
732.216 .0283636
732.944 .0283440
733.671 .0283243
734.398 .0283045
735.125 .0282845
735.852 .0282644
736.579 .0282441
737.305 .0282236
738.031 .0282029
738.757 .0281819
739.483 .0281607
740.208 .0281393
740.933 .0281178
741.658 .0280961
742.383 .0280744
743.108 .0280527
743.832 .0280309
744.556 .0280092
745.280 .0279875
746.004 .0279659
746.727 .0279443
747.450 .0279228
748.173 .0279013
748.896 .0278799
749.618 .0278585
750.340 .0278372
751.062 .0278160
751.784 .0277949
752.506 .0277740
753.227 .0277534
753.948 .0277329
754.669 .0277128
755.389 .0276930
756.110 .0276735
756.830 .0276543
757.550 .0276353
758.269 .0276166
758.989 .0275981
759.708 .0275800
760.427 .0275623
761.146 .0275450
761.864 .0275282
762.582 .0275120
763.300 .0274964
764.018 .0274816
764.736 .0274674
765.453 .0274539
766.170 .0274412
766.887 .0274293
767.603 .0274182
768.320 .0274080
769.036 .0273987
769.751 .0273904
770.467 .0273832
771.182 .0273771
771.897 .0273721
772.612 .0273683
773.327 .0273657
774.041 .0273642
774.755 .0273639
775.469 .0273647
776.183 .0273666
776.896 .0273696
777.609 .0273735
778.322 .0273783
779.035 .0273839
779.747 .0273902
780.459 .0273972
781.171 .0274048
781.882 .0274129
782.594 .0274216
783.305 .0274305
784.016 .0274398
784.726 .0274492
785.436 .0274586
786.147 .0274719
786.856 .0274805
787.566 .0274887
788.275 .0274965
788.984 .0275036
789.693 .0275102
790.401 .0275161
791.110 .0275214
791.818 .0275259
792.525 .0275296
793.233 .0275324
793.940 .0275343
794.647 .0275328
795.353 .0275334
796.060 .0275330
796.766 .0275318
797.472 .0275296
798.177 .0275265
798.883 .0275224
799.588 .0275175
800.292 .0275117
800.997 .0275049
801.701 .0274973
802.405 .0274888
803.109 .0274793
803.812 .0274690
804.515 .0274577
805.218 .0274455
805.921 .0274323
806.623 .0274181
807.325 .0274030
808.027 .0273870
808.728 .0273701
809.429 .0273522
810.130 .0273336
810.831 .0273142
811.531 .0272940
812.231 .0272730
812.931 .0272514
813.630 .0272291
814.330 .0272063
815.029 .0271829
815.727 .0271591
816.426 .0271349
817.124 .0271103
817.821 .0270855
818.519 .0270604
819.216 .0270352
819.913 .0270100
820.609 .0269847
821.306 .0269595
822.002 .0269344
822.697 .0269096
823.393 .0268849
824.088 .0268604
824.783 .0268362
825.477 .0268122
826.171 .0267884
826.865 .0267649
827.559 .0267417
828.252 .0267188
828.945 .0266962
829.638 .0266740
830.330 .0266522
831.023 .0266307
831.714 .0266095
832.406 .0265885
833.097 .0265677
833.788 .0265471
834.479 .0265266
835.169 .0265063
835.859 .0264862
836.548 .0264664
837.238 .0264468
837.927 .0264274
838.615 .0264082
839.304 .0263892
839.992 .0263704
840.680 .0263518
841.367 .0263335
842.054 .0263154
842.741 .0262976
843.428 .0262802
844.114 .0262631
844.800 .0262463
845.485 .0262297
846.170 .0262134
846.855 .0261973
847.540 .0261813
848.224 .0261654
848.908 .0261496
849.592 .0261341
850.275 .0261188
850.958 .0261037
851.641 .0260890
852.323 .0260745
853.005 .0260603
853.687 .0260463
854.368 .0260327
855.049 .0260195
855.730 .0260066
856.410 .0259943
857.090 .0259826
857.769 .0259716
858.449 .0259614
859.128 .0259520
859.806 .0259435
860.485 .0259358
861.163 .0259290
861.840 .0259230
862.518 .0259179
863.195 .0259137
863.871 .0259104
864.548 .0259080
865.224 .0259065
865.899 .0259060
866.574 .0259063
867.249 .0259075
867.924 .0259095
868.598 .0259122
869.272 .0259157
869.946 .0259199
870.619 .0259248
871.292 .0259304
871.964 .0259367
872.636 .0259437
873.308 .0259513
873.979 .0259594
874.651 .0259681
875.321 .0259773
875.992 .0259869
876.662 .0259968
877.331 .0260071
878.001 .0260178
878.670 .0260288
879.338 .0260401
880.007 .0260517
880.675 .0260636
881.342 .0260758
882.009 .0260881
882.676 .0261006
883.343 .0261132
884.009 .0261259
884.675 .0261385
885.340 .0261512
886.005 .0261639
886.670 .0261765
887.334 .0261891
887.998 .0262017
888.662 .0262141
889.325 .0262263
889.988 .0262383
890.650 .0262499
891.312 .0262612
891.974 .0262720
892.636 .0262823
893.297 .0262920
893.957 .0263009
894.618 .0263092
895.278 .0263166
895.937 .0263233
896.596 .0263291
897.255 .0263340
897.914 .0263381
898.572 .0263412
899.230 .0263434
899.887 .0263445
900.544 .0263446
901.201 .0263436
901.857 .0263370
902.513 .0263328
903.168 .0263275
903.823 .0263210
904.478 .0263132
905.132 .0263042
905.786 .0262939
906.440 .0262823
907.093 .0262696
907.746 .0262555
908.399 .0262404
909.051 .0262241
909.703 .0262067
910.354 .0261953
911.005 .0261768
911.656 .0261574
912.306 .0261373
912.956 .0261163
913.605 .0260946
914.254 .0260722
914.903 .0260491
915.551 .0260253
916.199 .0260009
916.847 .0259759
917.494 .0259504
918.141 .0259245
918.788 .0258980
919.434 .0258712
920.079 .0258439
920.725 .0258162
921.370 .0257880
922.014 .0257593
922.658 .0257302
923.302 .0257006
923.946 .0256706
924.589 .0256402
925.231 .0256094
925.873 .0255782
926.515 .0255467
927.157 .0255150
927.798 .0254830
928.439 .0254508
929.079 .0254184
929.719 .0253859
930.359 .0253531
930.998 .0253203
931.637 .0252873
932.275 .0252543
932.913 .0252213
933.551 .0251883
934.188 .0251555
934.825 .0251228
935.462 .0250904
936.098 .0250582
936.733 .0250263
937.369 .0249949
938.004 .0249638
938.638 .0249332
939.273 .0249031
939.907 .0248736
940.540 .0248447
941.173 .0248164
941.806 .0247889
942.438 .0247620
943.070 .0247359
943.702 .0247106
944.333 .0246859
944.964 .0246618
945.594 .0246382
946.224 .0246152
946.854 .0245926
947.483 .0245705
948.112 .0245488
948.741 .0245274
949.369 .0245064
949.996 .0244859
950.624 .0244656
951.251 .0244457
951.878 .0244261
952.504 .0244069
953.130 .0243879
953.755 .0243692
954.380 .0243508
955.005 .0243328
955.629 .0243151
956.253 .0242978
956.877 .0242808
957.500 .0242643
958.123 .0242482
958.746 .0242326
959.368 .0242174
959.990 .0242028
960.611 .0241886
961.232 .0241748
961.853 .0241616
962.473 .0241488
963.093 .0241364
963.712 .0241245
964.331 .0241130
964.950 .0241021
965.569 .0240917
966.187 .0240819
966.804 .0240728
967.422 .0240643
968.039 .0240566
968.655 .0240495
969.272 .0240431
969.887 .0240372
970.503 .0240319
971.118 .0240271
971.733 .0240229
972.347 .0240191
972.961 .0240158
973.575 .0240130
974.188 .0240106
974.801 .0240086
975.414 .0240069
976.026 .0240054
976.638 .0240040
977.250 .0240027
977.861 .0240014
978.472 .0240004
979.083 .0239995
979.693 .0239989
980.303 .0239986
980.912 .0239991
981.521 .0239995
982.130 .0240002
982.738 .0240011
983.346 .0240021
983.954 .0240034
984.562 .0240050
985.169 .0240070
985.775 .0240094
986.382 .0240125
986.988 .0240163
987.594 .0240208
988.199 .0240261
988.804 .0240320
989.409 .0240371
990.013 .0240443
990.617 .0240523
991.221 .0240611
991.824 .0240707
992.427 .0240813
993.030 .0240929
993.632 .0241055
994.234 .0241190
994.836 .0241336
995.438 .0241490
996.039 .0241652
996.640 .0241821
997.240 .0241997
997.840 .0242179
998.440 .0242367
999.040 .0242559
999.639 .0242755
1000.238 .0242954
1000.836 .0243156
1001.435 .0243360
1002.033 .0243565
1002.630 .0243770
1003.228 .0243975
1003.825 .0244180
1004.422 .0244384
1005.018 .0244586
1005.614 .0244786
1006.210 .0244984
1006.806 .0245179
1007.401 .0245371
1007.996 .0245560
1008.591 .0245745
1009.186 .0245927
1009.780 .0246107
1010.374 .0246284
1010.967 .0246459
1011.561 .0246632
1012.154 .0246804
1012.746 .0246974
1013.339 .0247144
1013.931 .0247312
1014.523 .0247479
1015.115 .0247646
1015.706 .0247814
1016.298 .0247984
1016.888 .0248157
1017.479 .0248332
1018.069 .0248512
1018.660 .0248695
1019.250 .0248882
1019.839 .0249073
1020.429 .0249266
1021.018 .0249461
1021.607 .0249659
1022.195 .0249858
1022.784 .0250060
1023.372 .0250263
1023.960 .0250468
1024.547 .0250674
1025.135 .0250881
1025.722 .0251087
1026.309 .0251291
1026.896 .0251492
1027.483 .0251688
1028.069 .0251880
1028.655 .0252065
1029.241 .0252244
1029.827 .0252418
1030.412 .0252585
1030.997 .0252746
1031.582 .0252901
1032.167 .0253049
1032.752 .0253189
1033.336 .0253322
1033.921 .0253445
1034.505 .0253558
1035.089 .0253661
1035.672 .0253754
1036.256 .0253836
1036.839 .0253908
1037.422 .0253970
1038.005 .0254024
1038.588 .0254068
1039.171 .0254103
1039.753 .0254128
1040.335 .0254141
1040.918 .0254144
1041.500 .0254136
1042.081 .0254118
1042.663 .0254091
1043.244 .0254058
1043.826 .0254019
1044.407 .0253976
1044.988 .0253930
1045.569 .0253880
1046.150 .0253827
1046.730 .0253769
1047.311 .0253705
1047.891 .0253634
1048.471 .0253557
1049.052 .0253475
1049.632 .0253390
1050.211 .0253301
1050.791 .0253211
1051.371 .0253121
1051.950 .0253028
1052.530 .0252933
1053.109 .0252834
1053.688 .0252730
1054.268 .0252621
1054.847 .0252505
1055.426 .0252385
1056.005 .0252261
1056.583 .0252135
1057.162 .0252009
1057.741 .0251882
1058.319 .0251756
1058.898 .0251628
1059.476 .0251498
1060.055 .0251364
1060.633 .0251224
1061.211 .0251080
1061.790 .0250930
1062.368 .0250778
1062.946 .0250622
1063.524 .0250466
1064.102 .0250309
1064.680 .0250153
1065.258 .0249997
1065.836 .0249838
1066.414 .0249677
1066.992 .0249511
1067.570 .0249342
1068.148 .0249167
1068.726 .0248990
1069.304 .0248810
1069.882 .0248628
1070.460 .0248446
1071.038 .0248263
1071.616 .0248079
1072.194 .0247894
1072.772 .0247706
1073.350 .0247515
1073.928 .0247320
1074.506 .0247123
1075.084 .0246924
1075.662 .0246728
1076.240 .0246535
1076.819 .0246347
1077.397 .0246167
1077.976 .0245994
1078.554 .0245830
1079.133 .0245673
1079.711 .0245522
1080.290 .0245378
1080.869 .0245240
1081.448 .0245106
1082.027 .0244977
1082.606 .0244852
1083.185 .0244731
1083.764 .0244614
1084.343 .0244500
1084.923 .0244389
1085.502 .0244280
1086.082 .0244173
1086.662 .0244067
1087.242 .0243964
1087.822 .0243865
1088.402 .0243772
1088.983 .0243686
1089.563 .0243607
1090.144 .0243538
1090.725 .0243480
1091.306 .0243432
1091.887 .0243397
1092.469 .0243373
1093.050 .0243358
1093.632 .0243355
1094.214 .0243359
1094.796 .0243372
1095.379 .0243391
1095.961 .0243416
1096.544 .0243445
1097.127 .0243476
1097.710 .0243510
1098.294 .0243545
1098.877 .0243581
1099.461 .0243619
1100.046 .0243657
1100.630 .0243698
1101.215 .0243741
1101.800 .0243788
1102.385 .0243841
1102.970 .0243900
1103.556 .0243966
1104.142 .0244039
1104.728 .0244119
1105.315 .0244205
1105.902 .0244300
1106.489 .0244405
1107.077 .0244521
1107.664 .0244650
1108.253 .0244795
1108.841 .0244955
1109.430 .0245134
1110.019 .0245331
1110.609 .0245545
1111.198 .0245775
1111.789 .0246019
1112.379 .0246278
1112.970 .0246550
1113.561 .0246837
1114.153 .0247140
1114.745 .0247461
1115.338 .0247804
1115.931 .0248168
1116.524 .0248555
1117.117 .0248965
1117.712 .0249398
1118.306 .0249850
1118.901 .0250318
1119.496 .0250800
1120.092 .0251293
1120.689 .0251793
1121.285 .0252297
1121.882 .0252807
1122.480 .0253320
1123.078 .0253837
1123.677 .0254358
1124.276 .0254885
1124.875 .0255417
1125.476 .0255953
1126.076 .0256491
1126.677 .0257031
1127.279 .0257570
1127.881 .0258109
1128.484 .0258649
1129.087 .0258915
1129.691 .0259458
1130.295 .0260013
1130.900 .0260587
1131.505 .0261186
1132.111 .0261813
1132.718 .0262475
1133.325 .0263182
1133.933 .0263935
1134.541 .0264705
1135.150 .0265474
1135.760 .0266379
1136.370 .0267552
1136.981 .0266187
1137.592 .0267062
1138.204 .0268062
1138.817 .0269201
1139.431 .0270493
1140.045 .0271897
1140.660 .0273478
1141.275 .0275401
1141.891 .0277287
1142.508 .0278429
1143.126 .0278971
1143.744 .0283336
1144.363 .0291285
1144.983 .0286046
