Measurement Sequence started on: 15-12-46-377
Integration time: 28
Scans to Average: 2 
>>>>>Begin Spectral Data<<<<<
432.689 .0000100
433.621 .0000100
434.552 .0000100
435.482 .0000100
436.410 .0000100
437.337 .0000100
438.262 .0286564
439.187 .0608566
440.110 .1007432
441.031 .1457379
441.952 .1158990
442.871 .1208748
443.789 .1254814
444.705 .1297963
445.621 .1338733
446.535 .1377538
447.447 .1399610
448.359 .1403326
449.269 .1384838
450.178 .1341601
451.086 .1274469
451.993 .1188488
452.898 .1091986
453.803 .0994396
454.706 .0903746
455.608 .0825022
456.508 .0759898
457.408 .0715730
458.306 .0681888
459.204 .0654436
460.100 .0631460
460.995 .0611847
461.888 .0594848
462.781 .0579955
463.673 .0566780
464.563 .0555040
465.452 .0544519
466.340 .0535044
467.228 .0526498
468.114 .0518791
468.999 .0511848
469.882 .0505597
470.765 .0499977
471.647 .0494933
472.528 .0490410
473.407 .0486361
474.286 .0482745
475.163 .0479527
476.040 .0476673
476.915 .0474156
477.790 .0471946
478.663 .0470022
479.535 .0468361
480.407 .0466936
481.277 .0465724
482.147 .0464694
483.015 .0463822
483.883 .0463084
484.749 .0462466
485.615 .0461958
486.479 .0461562
487.343 .0461283
488.206 .0461133
489.067 .0461124
489.928 .0461273
490.788 .0461591
491.647 .0462088
492.505 .0462768
493.362 .0463628
494.218 .0464670
495.073 .0465892
495.928 .0468422
496.781 .0470074
497.634 .0471899
498.486 .0473904
499.337 .0476103
500.187 .0478517
501.036 .0481167
501.884 .0484078
502.731 .0487283
503.578 .0490805
504.424 .0493163
505.268 .0497278
506.113 .0501808
506.956 .0506797
507.798 .0512309
508.640 .0518433
509.480 .0525290
510.320 .0533028
511.160 .0541818
511.998 .0551852
512.836 .0563351
513.672 .0576533
514.508 .0591620
515.344 .0608845
516.178 .0628404
517.012 .0650511
517.845 .0675336
518.677 .0703046
519.508 .0733760
520.339 .0767518
521.169 .0804329
521.998 .0843984
522.826 .0886146
523.654 .0930317
524.481 .0975828
525.307 .1021937
526.133 .1067716
526.958 .1112199
527.782 .1154422
528.605 .1193484
529.428 .1228592
530.250 .1259036
531.072 .1284337
531.892 .1304156
532.712 .1318254
533.532 .1326554
534.350 .1329042
535.168 .1325808
535.986 .1316935
536.802 .1302509
537.618 .1282670
538.434 .1257565
539.249 .1227539
540.063 .1193077
540.876 .1154773
541.689 .1113383
542.501 .1069706
543.313 .1024674
544.124 .0979226
544.934 .0934250
545.744 .0890534
546.553 .0848740
547.361 .0809411
548.169 .0772862
548.976 .0739269
549.783 .0708680
550.589 .0681008
551.395 .0656075
552.200 .0633619
553.004 .0613381
553.808 .0595116
554.611 .0578609
555.414 .0563663
556.216 .0550099
557.018 .0537730
557.819 .0526411
558.619 .0515993
559.419 .0506345
560.218 .0497364
561.017 .0488947
561.815 .0481013
562.613 .0473506
563.410 .0466364
564.207 .0459539
565.003 .0452988
565.799 .0446671
566.594 .0440550
567.388 .0434599
568.182 .0428800
568.976 .0423136
569.769 .0417601
570.562 .0412201
571.354 .0406942
572.145 .0401832
572.936 .0396883
573.727 .0392100
574.517 .0387490
575.307 .0383062
576.096 .0378818
576.885 .0374765
577.673 .0370911
578.461 .0367260
579.248 .0363815
580.035 .0360580
580.821 .0357550
581.607 .0354715
582.392 .0352069
583.177 .0349603
583.962 .0347303
584.746 .0345160
585.529 .0343167
586.313 .0341316
587.095 .0339603
587.878 .0338020
588.660 .0336557
589.441 .0335208
590.222 .0333961
591.003 .0332807
591.783 .0331735
592.563 .0330738
593.342 .0329808
594.121 .0328939
594.899 .0328127
595.678 .0327368
596.455 .0326655
597.233 .0325986
598.009 .0325357
598.786 .0324762
599.562 .0324196
600.338 .0323657
601.113 .0323140
601.888 .0322435
602.663 .0321963
603.437 .0321507
604.211 .0321066
604.984 .0320640
605.757 .0320228
606.530 .0319829
607.302 .0319443
608.074 .0319067
608.845 .0318702
609.616 .0318347
610.387 .0318188
611.158 .0317847
611.928 .0317516
612.697 .0317195
613.467 .0316883
614.236 .0316580
615.004 .0316287
615.773 .0316003
616.541 .0315729
617.308 .0315464
618.076 .0315208
618.843 .0314959
619.609 .0314717
620.375 .0314480
621.141 .0314246
621.907 .0314016
622.672 .0313788
623.437 .0313562
624.202 .0313338
624.966 .0313115
625.730 .0312893
626.493 .0312672
627.257 .0312452
628.020 .0312230
628.782 .0312006
629.545 .0311779
630.307 .0311548
631.068 .0311313
631.830 .0311074
632.591 .0310831
633.352 .0310585
634.112 .0310337
634.872 .0310086
635.632 .0309834
636.392 .0309582
637.151 .0309329
637.910 .0309077
638.668 .0308826
639.427 .0308575
640.185 .0308325
640.943 .0308077
641.700 .0307830
642.457 .0307585
643.214 .0307342
643.971 .0307101
644.727 .0306862
645.483 .0306626
646.239 .0306391
646.994 .0306159
647.750 .0305928
648.505 .0305697
649.259 .0305465
650.014 .0305232
650.768 .0304997
651.521 .0304759
652.275 .0304518
653.028 .0304273
653.781 .0304026
654.534 .0303776
655.286 .0303524
656.039 .0303269
656.791 .0303013
657.542 .0302756
658.294 .0302497
659.045 .0302238
659.796 .0301977
660.546 .0301716
661.297 .0301455
662.047 .0301193
662.796 .0300932
663.546 .0300672
664.295 .0300413
665.044 .0300157
665.793 .0299905
666.542 .0299656
667.290 .0299411
668.038 .0299171
668.786 .0298935
669.533 .0298703
670.281 .0298475
671.028 .0298251
671.774 .0298032
672.521 .0297816
673.267 .0297605
674.013 .0297398
674.759 .0297195
675.505 .0296996
676.250 .0296801
676.995 .0296607
677.740 .0296416
678.484 .0296227
679.229 .0296038
679.973 .0295850
680.717 .0295663
681.460 .0295478
682.204 .0295292
682.947 .0295107
683.690 .0294922
684.433 .0294735
685.175 .0294547
685.917 .0294356
686.659 .0294163
687.401 .0293967
688.142 .0293769
688.884 .0293569
689.625 .0293367
690.365 .0293164
691.106 .0292958
691.846 .0292751
692.586 .0292541
693.326 .0292331
694.066 .0292119
694.805 .0291905
695.545 .0291692
696.284 .0291479
697.022 .0291267
697.761 .0291056
698.499 .0290848
699.237 .0290643
699.975 .0290441
700.713 .0290243
701.450 .0290048
702.187 .0289859
702.924 .0289673
703.661 .0289492
704.397 .0289315
705.133 .0289142
705.869 .0288974
706.605 .0288809
707.341 .0288647
708.076 .0288489
708.811 .0288332
709.546 .0288178
710.281 .0288026
711.015 .0287875
711.749 .0287725
712.483 .0287576
713.217 .0287427
713.950 .0287278
714.684 .0287130
715.417 .0286980
716.150 .0286830
716.882 .0286678
717.615 .0286525
718.347 .0286369
719.079 .0286211
719.811 .0286052
720.542 .0285891
721.273 .0285729
722.005 .0285567
722.735 .0285406
723.466 .0285245
724.196 .0285085
724.927 .0284926
725.656 .0284767
726.386 .0284610
727.116 .0284453
727.845 .0284298
728.574 .0284144
729.303 .0283991
730.031 .0283839
730.760 .0283689
731.488 .0283541
732.216 .0283394
732.944 .0283249
733.671 .0283106
734.398 .0282965
735.125 .0282826
735.852 .0282688
736.579 .0282551
737.305 .0282415
738.031 .0282279
738.757 .0282143
739.483 .0282007
740.208 .0281872
740.933 .0281737
741.658 .0281603
742.383 .0281470
743.108 .0281339
743.832 .0281209
744.556 .0281080
745.280 .0280952
746.004 .0280825
746.727 .0280698
747.450 .0280571
748.173 .0280443
748.896 .0280316
749.618 .0280189
750.340 .0280062
751.062 .0279937
751.784 .0279812
752.506 .0279688
753.227 .0279565
753.948 .0279443
754.669 .0279320
755.389 .0279197
756.110 .0279073
756.830 .0278947
757.550 .0278819
758.269 .0278689
758.989 .0278556
759.708 .0278422
760.427 .0278286
761.146 .0278149
761.864 .0278011
762.582 .0277872
763.300 .0277734
764.018 .0277595
764.736 .0277456
765.453 .0277316
766.170 .0277177
766.887 .0277037
767.603 .0276898
768.320 .0276761
769.036 .0276625
769.751 .0276491
770.467 .0276361
771.182 .0276235
771.897 .0276112
772.612 .0275995
773.327 .0275882
774.041 .0275773
774.755 .0275670
775.469 .0275571
776.183 .0275477
776.896 .0275386
777.609 .0275300
778.322 .0275216
779.035 .0275136
779.747 .0275059
780.459 .0274984
781.171 .0274911
781.882 .0274840
782.594 .0274771
783.305 .0274703
784.016 .0274636
784.726 .0274568
785.436 .0274498
786.147 .0274388
786.856 .0274313
787.566 .0274235
788.275 .0274154
788.984 .0274070
789.693 .0273983
790.401 .0273892
791.110 .0273799
791.818 .0273701
792.525 .0273600
793.233 .0273496
793.940 .0273389
794.647 .0273324
795.353 .0273212
796.060 .0273099
796.766 .0272983
797.472 .0272866
798.177 .0272747
798.883 .0272626
799.588 .0272503
800.292 .0272379
800.997 .0272254
801.701 .0272128
802.405 .0272000
803.109 .0271873
803.812 .0271746
804.515 .0271619
805.218 .0271491
805.921 .0271363
806.623 .0271233
807.325 .0271102
808.027 .0270969
808.728 .0270834
809.429 .0270697
810.130 .0270557
810.831 .0270416
811.531 .0270272
812.231 .0270127
812.931 .0269981
813.630 .0269833
814.330 .0269683
815.029 .0269532
815.727 .0269380
816.426 .0269226
817.124 .0269071
817.821 .0268916
818.519 .0268761
819.216 .0268607
819.913 .0268453
820.609 .0268301
821.306 .0268152
822.002 .0268005
822.697 .0267860
823.393 .0267720
824.088 .0267583
824.783 .0267451
825.477 .0267323
826.171 .0267201
826.865 .0267083
827.559 .0266970
828.252 .0266862
828.945 .0266759
829.638 .0266660
830.330 .0266565
831.023 .0266473
831.714 .0266383
832.406 .0266294
833.097 .0266207
833.788 .0266119
834.479 .0266030
835.169 .0265941
835.859 .0265852
836.548 .0265762
837.238 .0265670
837.927 .0265577
838.615 .0265482
839.304 .0265385
839.992 .0265284
840.680 .0265181
841.367 .0265076
842.054 .0264968
842.741 .0264858
843.428 .0264747
844.114 .0264635
844.800 .0264522
845.485 .0264409
846.170 .0264295
846.855 .0264179
847.540 .0264062
848.224 .0263942
848.908 .0263822
849.592 .0263699
850.275 .0263576
850.958 .0263453
851.641 .0263328
852.323 .0263202
853.005 .0263076
853.687 .0262949
854.368 .0262821
855.049 .0262691
855.730 .0262561
856.410 .0262430
857.090 .0262299
857.769 .0262168
858.449 .0262036
859.128 .0261905
859.806 .0261774
860.485 .0261642
861.163 .0261511
861.840 .0261379
862.518 .0261248
863.195 .0261118
863.871 .0260990
864.548 .0260863
865.224 .0260739
865.899 .0260617
866.574 .0260498
867.249 .0260382
867.924 .0260269
868.598 .0260160
869.272 .0260055
869.946 .0259953
870.619 .0259855
871.292 .0259761
871.964 .0259671
872.636 .0259585
873.308 .0259503
873.979 .0259425
874.651 .0259350
875.321 .0259277
875.992 .0259207
876.662 .0259138
877.331 .0259071
878.001 .0259004
878.670 .0258938
879.338 .0258871
880.007 .0258804
880.675 .0258738
881.342 .0258672
882.009 .0258607
882.676 .0258543
883.343 .0258482
884.009 .0258424
884.675 .0258368
885.340 .0258315
886.005 .0258266
886.670 .0258222
887.334 .0258181
887.998 .0258144
888.662 .0258112
889.325 .0258085
889.988 .0258063
890.650 .0258047
891.312 .0258036
891.974 .0258030
892.636 .0258029
893.297 .0258031
893.957 .0258038
894.618 .0258048
895.278 .0258060
895.937 .0258074
896.596 .0258088
897.255 .0258101
897.914 .0258112
898.572 .0258120
899.230 .0258124
899.887 .0258122
900.544 .0258113
901.201 .0258097
901.857 .0258031
902.513 .0257994
903.168 .0257948
903.823 .0257893
904.478 .0257829
905.132 .0257755
905.786 .0257671
906.440 .0257578
907.093 .0257477
907.746 .0257367
908.399 .0257252
909.051 .0257132
909.703 .0257009
910.354 .0256944
911.005 .0256822
911.656 .0256698
912.306 .0256573
912.956 .0256449
913.605 .0256325
914.254 .0256203
914.903 .0256082
915.551 .0255964
916.199 .0255848
916.847 .0255735
917.494 .0255624
918.141 .0255515
918.788 .0255407
919.434 .0255300
920.079 .0255193
920.725 .0255085
921.370 .0254977
922.014 .0254868
922.658 .0254758
923.302 .0254646
923.946 .0254533
924.589 .0254417
925.231 .0254299
925.873 .0254178
926.515 .0254054
927.157 .0253927
927.798 .0253797
928.439 .0253663
929.079 .0253527
929.719 .0253388
930.359 .0253248
930.998 .0253106
931.637 .0252962
932.275 .0252817
932.913 .0252671
933.551 .0252526
934.188 .0252382
934.825 .0252241
935.462 .0252103
936.098 .0251969
936.733 .0251839
937.369 .0251713
938.004 .0251592
938.638 .0251476
939.273 .0251365
939.907 .0251260
940.540 .0251161
941.173 .0251067
941.806 .0250981
942.438 .0250901
943.070 .0250828
943.702 .0250760
944.333 .0250696
944.964 .0250636
945.594 .0250578
946.224 .0250522
946.854 .0250466
947.483 .0250412
948.112 .0250358
948.741 .0250304
949.369 .0250251
949.996 .0250198
950.624 .0250143
951.251 .0250086
951.878 .0250027
952.504 .0249965
953.130 .0249899
953.755 .0249830
954.380 .0249757
955.005 .0249683
955.629 .0249606
956.253 .0249526
956.877 .0249444
957.500 .0249359
958.123 .0249270
958.746 .0249178
959.368 .0249082
959.990 .0248984
960.611 .0248882
961.232 .0248779
961.853 .0248675
962.473 .0248571
963.093 .0248467
963.712 .0248363
964.331 .0248260
964.950 .0248156
965.569 .0248053
966.187 .0247950
966.804 .0247847
967.422 .0247744
968.039 .0247641
968.655 .0247539
969.272 .0247438
969.887 .0247338
970.503 .0247238
971.118 .0247139
971.733 .0247040
972.347 .0246942
972.961 .0246843
973.575 .0246745
974.188 .0246645
974.801 .0246545
975.414 .0246443
976.026 .0246339
976.638 .0246232
977.250 .0246123
977.861 .0246011
978.472 .0245896
979.083 .0245779
979.693 .0245659
980.303 .0245538
980.912 .0245349
981.521 .0245225
982.130 .0245100
982.738 .0244974
983.346 .0244847
983.954 .0244720
984.562 .0244593
985.169 .0244466
985.775 .0244340
986.382 .0244217
986.988 .0244097
987.594 .0243979
988.199 .0243864
988.804 .0243753
989.409 .0243709
990.013 .0243602
990.617 .0243498
991.221 .0243397
991.824 .0243299
992.427 .0243205
993.030 .0243115
993.632 .0243031
994.234 .0242952
994.836 .0242879
995.438 .0242812
996.039 .0242751
996.640 .0242695
997.240 .0242643
997.840 .0242595
998.440 .0242550
999.040 .0242509
999.639 .0242471
1000.238 .0242436
1000.836 .0242404
1001.435 .0242375
1002.033 .0242349
1002.630 .0242323
1003.228 .0242299
1003.825 .0242274
1004.422 .0242248
1005.018 .0242221
1005.614 .0242191
1006.210 .0242161
1006.806 .0242129
1007.401 .0242098
1007.996 .0242067
1008.591 .0242037
1009.186 .0242007
1009.780 .0241977
1010.374 .0241947
1010.967 .0241915
1011.561 .0241880
1012.154 .0241843
1012.746 .0241802
1013.339 .0241760
1013.931 .0241715
1014.523 .0241670
1015.115 .0241625
1015.706 .0241580
1016.298 .0241535
1016.888 .0241492
1017.479 .0241450
1018.069 .0241409
1018.660 .0241372
1019.250 .0241338
1019.839 .0241308
1020.429 .0241283
1021.018 .0241265
1021.607 .0241252
1022.195 .0241246
1022.784 .0241245
1023.372 .0241249
1023.960 .0241258
1024.547 .0241270
1025.135 .0241284
1025.722 .0241302
1026.309 .0241322
1026.896 .0241345
1027.483 .0241372
1028.069 .0241403
1028.655 .0241437
1029.241 .0241475
1029.827 .0241516
1030.412 .0241560
1030.997 .0241605
1031.582 .0241651
1032.167 .0241698
1032.752 .0241746
1033.336 .0241794
1033.921 .0241842
1034.505 .0241890
1035.089 .0241936
1035.672 .0241981
1036.256 .0242023
1036.839 .0242061
1037.422 .0242093
1038.005 .0242120
1038.588 .0242140
1039.171 .0242153
1039.753 .0242160
1040.335 .0242162
1040.918 .0242159
1041.500 .0242153
1042.081 .0242143
1042.663 .0242130
1043.244 .0242114
1043.826 .0242094
1044.407 .0242072
1044.988 .0242047
1045.569 .0242019
1046.150 .0241989
1046.730 .0241956
1047.311 .0241921
1047.891 .0241884
1048.471 .0241845
1049.052 .0241805
1049.632 .0241764
1050.211 .0241722
1050.791 .0241679
1051.371 .0241636
1051.950 .0241592
1052.530 .0241549
1053.109 .0241506
1053.688 .0241463
1054.268 .0241422
1054.847 .0241381
1055.426 .0241343
1056.005 .0241306
1056.583 .0241272
1057.162 .0241241
1057.741 .0241213
1058.319 .0241188
1058.898 .0241167
1059.476 .0241151
1060.055 .0241138
1060.633 .0241130
1061.211 .0241127
1061.790 .0241129
1062.368 .0241137
1062.946 .0241150
1063.524 .0241170
1064.102 .0241197
1064.680 .0241231
1065.258 .0241271
1065.836 .0241317
1066.414 .0241368
1066.992 .0241422
1067.570 .0241479
1068.148 .0241537
1068.726 .0241596
1069.304 .0241656
1069.882 .0241717
1070.460 .0241781
1071.038 .0241847
1071.616 .0241915
1072.194 .0241987
1072.772 .0242062
1073.350 .0242140
1073.928 .0242220
1074.506 .0242305
1075.084 .0242394
1075.662 .0242488
1076.240 .0242588
1076.819 .0242693
1077.397 .0242803
1077.976 .0242917
1078.554 .0243033
1079.133 .0243149
1079.711 .0243263
1080.290 .0243373
1080.869 .0243477
1081.448 .0243575
1082.027 .0243666
1082.606 .0243752
1083.185 .0243831
1083.764 .0243905
1084.343 .0243974
1084.923 .0244038
1085.502 .0244098
1086.082 .0244156
1086.662 .0244213
1087.242 .0244271
1087.822 .0244333
1088.402 .0244401
1088.983 .0244478
1089.563 .0244564
1090.144 .0244661
1090.725 .0244767
1091.306 .0244881
1091.887 .0245002
1092.469 .0245128
1093.050 .0245258
1093.632 .0245392
1094.214 .0245529
1094.796 .0245669
1095.379 .0245812
1095.961 .0245961
1096.544 .0246113
1097.127 .0246269
1097.710 .0246427
1098.294 .0246588
1098.877 .0246752
1099.461 .0246920
1100.046 .0247095
1100.630 .0247279
1101.215 .0247474
1101.800 .0247682
1102.385 .0247902
1102.970 .0248134
1103.556 .0248376
1104.142 .0248625
1104.728 .0248878
1105.315 .0249132
1105.902 .0249385
1106.489 .0249636
1107.077 .0249886
1107.664 .0250134
1108.253 .0250381
1108.841 .0250628
1109.430 .0250876
1110.019 .0251126
1110.609 .0251380
1111.198 .0251638
1111.789 .0251902
1112.379 .0252174
1112.970 .0252456
1113.561 .0252750
1114.153 .0253059
1114.745 .0253386
1115.338 .0253731
1115.931 .0254096
1116.524 .0254482
1117.117 .0254887
1117.712 .0255311
1118.306 .0255753
1118.901 .0256208
1119.496 .0256674
1120.092 .0257147
1120.689 .0257626
1121.285 .0258107
1121.882 .0258592
1122.480 .0259081
1123.078 .0259576
1123.677 .0260079
1124.276 .0260590
1124.875 .0261111
1125.476 .0261646
1126.076 .0262192
1126.677 .0262748
1127.279 .0263315
1127.881 .0263892
1128.484 .0264479
1129.087 .0264768
1129.691 .0265372
1130.295 .0265989
1130.900 .0266623
1131.505 .0267274
1132.111 .0267943
1132.718 .0268636
1133.325 .0269355
1133.933 .0270111
1134.541 .0270821
1135.150 .0271617
1135.760 .0272493
1136.370 .0273419
1136.981 .0272938
1137.592 .0273804
1138.204 .0274738
1138.817 .0275741
1139.431 .0276783
1140.045 .0277908
1140.660 .0279148
1141.275 .0280517
1141.891 .0282230
1142.508 .0281600
1143.126 .0284756
1143.744 .0287711
1144.363 .0289789
1144.983 .0297536
