Measurement Sequence started on: 15-12-46-377
Integration time: 28
Scans to Average: 2 
>>>>>Begin Spectral Data<<<<<
432.689 .0000100
433.621 .0000100
434.552 .0000100
435.482 .0000100
436.410 .0000100
437.337 .0000100
438.262 .0290919
439.187 .0617034
440.110 .1022161
441.031 .1478831
441.952 .1184320
442.871 .1236568
443.789 .1285119
444.705 .1330722
445.621 .1373923
446.535 .1415139
447.447 .1439381
448.359 .1445028
449.269 .1428125
450.178 .1386105
451.086 .1319790
451.993 .1234236
452.898 .1137844
453.803 .1040132
454.706 .0949220
455.608 .0870143
456.508 .0804604
457.408 .0760106
458.306 .0725866
459.204 .0697986
460.100 .0674521
460.995 .0654383
461.888 .0636839
462.781 .0621361
463.673 .0607550
464.563 .0595107
465.452 .0583821
466.340 .0573511
467.228 .0564057
468.114 .0555378
468.999 .0547409
469.882 .0540090
470.765 .0533377
471.647 .0527221
472.528 .0521580
473.407 .0516411
474.286 .0511668
475.163 .0507328
476.040 .0503361
476.915 .0499747
477.790 .0496473
478.663 .0493528
479.535 .0490909
480.407 .0488605
481.277 .0486607
482.147 .0484900
483.015 .0483467
483.883 .0482294
484.749 .0481363
485.615 .0480660
486.479 .0480174
487.343 .0479898
488.206 .0479831
489.067 .0479973
489.928 .0480323
490.788 .0480891
491.647 .0481682
492.505 .0482699
493.362 .0483949
494.218 .0485430
495.073 .0487145
495.928 .0490545
496.781 .0492819
497.634 .0495305
498.486 .0498002
499.337 .0500915
500.187 .0504061
501.036 .0507454
501.884 .0511124
502.731 .0515111
503.578 .0519459
504.424 .0522344
505.268 .0527394
506.113 .0532937
506.956 .0539023
507.798 .0545719
508.640 .0553112
509.480 .0561310
510.320 .0570437
511.160 .0580642
511.998 .0592101
512.836 .0605023
513.672 .0619613
514.508 .0636096
515.344 .0654724
516.178 .0675715
517.012 .0699296
517.845 .0725640
518.677 .0754937
519.508 .0787302
520.339 .0822791
521.169 .0861413
521.998 .0902937
522.826 .0947005
523.654 .0993068
524.481 .1040434
525.307 .1088301
526.133 .1135707
526.958 .1181631
527.782 .1225076
528.605 .1265118
529.428 .1300911
530.250 .1331718
531.072 .1357072
531.892 .1376617
532.712 .1390109
533.532 .1397453
534.350 .1398653
535.168 .1393829
535.986 .1383108
536.802 .1366619
537.618 .1344525
538.434 .1317000
539.249 .1284426
540.063 .1247292
540.876 .1206245
541.689 .1162064
542.501 .1115597
543.313 .1067802
544.124 .1019674
544.934 .0972150
545.744 .0926059
546.553 .0882132
547.361 .0840953
548.169 .0802833
548.976 .0767957
549.783 .0736359
550.589 .0707939
551.395 .0682472
552.200 .0659655
553.004 .0639150
553.808 .0620681
554.611 .0603980
555.414 .0588815
556.216 .0574990
557.018 .0562323
557.819 .0550668
558.619 .0539892
559.419 .0529884
560.218 .0520558
561.017 .0511825
561.815 .0503612
562.613 .0495854
563.410 .0488481
564.207 .0481433
565.003 .0474656
565.799 .0468102
566.594 .0461734
567.388 .0455531
568.182 .0449488
568.976 .0443607
569.769 .0437893
570.562 .0432354
571.354 .0426997
572.145 .0421829
572.936 .0416852
573.727 .0412055
574.517 .0407433
575.307 .0402978
576.096 .0398681
576.885 .0394540
577.673 .0390557
578.461 .0386739
579.248 .0383093
580.035 .0379627
580.821 .0376344
581.607 .0373245
582.392 .0370330
583.177 .0367597
583.962 .0365038
584.746 .0362644
585.529 .0360404
586.313 .0358310
587.095 .0356356
587.878 .0354534
588.660 .0352839
589.441 .0351267
590.222 .0349813
591.003 .0348473
591.783 .0347238
592.563 .0346101
593.342 .0345053
594.121 .0344088
594.899 .0343195
595.678 .0342369
596.455 .0341602
597.233 .0340891
598.009 .0340231
598.786 .0339617
599.562 .0339044
600.338 .0338508
601.113 .0338004
601.888 .0337342
602.663 .0336901
603.437 .0336481
604.211 .0336081
604.984 .0335696
605.757 .0335325
606.530 .0334968
607.302 .0334622
608.074 .0334286
608.845 .0333961
609.616 .0333646
610.387 .0333500
611.158 .0333195
611.928 .0332898
612.697 .0332608
613.467 .0332324
614.236 .0332047
615.004 .0331776
615.773 .0331511
616.541 .0331251
617.308 .0330996
618.076 .0330748
618.843 .0330505
619.609 .0330266
620.375 .0330030
621.141 .0329796
621.907 .0329564
622.672 .0329333
623.437 .0329103
624.202 .0328873
624.966 .0328643
625.730 .0328410
626.493 .0328175
627.257 .0327936
628.020 .0327693
628.782 .0327445
629.545 .0327190
630.307 .0326929
631.068 .0326661
631.830 .0326388
632.591 .0326108
633.352 .0325823
634.112 .0325531
634.872 .0325233
635.632 .0324928
636.392 .0324617
637.151 .0324300
637.910 .0323977
638.668 .0323650
639.427 .0323319
640.185 .0322985
640.943 .0322649
641.700 .0322312
642.457 .0321976
643.214 .0321641
643.971 .0321308
644.727 .0320978
645.483 .0320651
646.239 .0320326
646.994 .0320004
647.750 .0319684
648.505 .0319367
649.259 .0319051
650.014 .0318738
650.768 .0318427
651.521 .0318120
652.275 .0317818
653.028 .0317521
653.781 .0317230
654.534 .0316945
655.286 .0316666
656.039 .0316393
656.791 .0316125
657.542 .0315863
658.294 .0315607
659.045 .0315357
659.796 .0315112
660.546 .0314874
661.297 .0314643
662.047 .0314418
662.796 .0314201
663.546 .0313991
664.295 .0313787
665.044 .0313591
665.793 .0313401
666.542 .0313218
667.290 .0313040
668.038 .0312868
668.786 .0312699
669.533 .0312532
670.281 .0312368
671.028 .0312206
671.774 .0312045
672.521 .0311885
673.267 .0311727
674.013 .0311571
674.759 .0311417
675.505 .0311264
676.250 .0311112
676.995 .0310959
677.740 .0310806
678.484 .0310650
679.229 .0310494
679.973 .0310336
680.717 .0310177
681.460 .0310017
682.204 .0309855
682.947 .0309693
683.690 .0309529
684.433 .0309363
685.175 .0309195
685.917 .0309026
686.659 .0308854
687.401 .0308682
688.142 .0308508
688.884 .0308333
689.625 .0308156
690.365 .0307977
691.106 .0307795
691.846 .0307610
692.586 .0307422
693.326 .0307230
694.066 .0307036
694.805 .0306840
695.545 .0306641
696.284 .0306441
697.022 .0306239
697.761 .0306037
698.499 .0305834
699.237 .0305630
699.975 .0305425
700.713 .0305220
701.450 .0305014
702.187 .0304808
702.924 .0304603
703.661 .0304398
704.397 .0304194
705.133 .0303991
705.869 .0303790
706.605 .0303589
707.341 .0303391
708.076 .0303194
708.811 .0303000
709.546 .0302808
710.281 .0302617
711.015 .0302428
711.749 .0302240
712.483 .0302053
713.217 .0301866
713.950 .0301679
714.684 .0301492
715.417 .0301305
716.150 .0301118
716.882 .0300930
717.615 .0300741
718.347 .0300550
719.079 .0300359
719.811 .0300165
720.542 .0299970
721.273 .0299773
722.005 .0299575
722.735 .0299374
723.466 .0299172
724.196 .0298969
724.927 .0298764
725.656 .0298558
726.386 .0298352
727.116 .0298145
727.845 .0297939
728.574 .0297734
729.303 .0297530
730.031 .0297328
730.760 .0297129
731.488 .0296933
732.216 .0296739
732.944 .0296548
733.671 .0296361
734.398 .0296178
735.125 .0295999
735.852 .0295825
736.579 .0295655
737.305 .0295490
738.031 .0295329
738.757 .0295173
739.483 .0295021
740.208 .0294873
740.933 .0294730
741.658 .0294590
742.383 .0294453
743.108 .0294320
743.832 .0294191
744.556 .0294066
745.280 .0293943
746.004 .0293823
746.727 .0293705
747.450 .0293589
748.173 .0293474
748.896 .0293361
749.618 .0293248
750.340 .0293136
751.062 .0293026
751.784 .0292916
752.506 .0292807
753.227 .0292698
753.948 .0292589
754.669 .0292481
755.389 .0292371
756.110 .0292260
756.830 .0292148
757.550 .0292034
758.269 .0291918
758.989 .0291800
759.708 .0291682
760.427 .0291562
761.146 .0291440
761.864 .0291318
762.582 .0291194
763.300 .0291069
764.018 .0290942
764.736 .0290813
765.453 .0290683
766.170 .0290551
766.887 .0290418
767.603 .0290284
768.320 .0290151
769.036 .0290019
769.751 .0289888
770.467 .0289759
771.182 .0289632
771.897 .0289508
772.612 .0289388
773.327 .0289271
774.041 .0289159
774.755 .0289050
775.469 .0288946
776.183 .0288848
776.896 .0288754
777.609 .0288665
778.322 .0288582
779.035 .0288504
779.747 .0288430
780.459 .0288361
781.171 .0288295
781.882 .0288232
782.594 .0288170
783.305 .0288109
784.016 .0288047
784.726 .0287984
785.436 .0287918
786.147 .0287807
786.856 .0287733
787.566 .0287656
788.275 .0287576
788.984 .0287494
789.693 .0287408
790.401 .0287319
791.110 .0287228
791.818 .0287133
792.525 .0287035
793.233 .0286933
793.940 .0286829
794.647 .0286769
795.353 .0286664
796.060 .0286555
796.766 .0286445
797.472 .0286332
798.177 .0286218
798.883 .0286103
799.588 .0285986
800.292 .0285868
800.997 .0285748
801.701 .0285627
802.405 .0285504
803.109 .0285378
803.812 .0285250
804.515 .0285119
805.218 .0284984
805.921 .0284847
806.623 .0284707
807.325 .0284563
808.027 .0284416
808.728 .0284266
809.429 .0284113
810.130 .0283956
810.831 .0283795
811.531 .0283632
812.231 .0283466
812.931 .0283297
813.630 .0283127
814.330 .0282955
815.029 .0282784
815.727 .0282613
816.426 .0282444
817.124 .0282277
817.821 .0282114
818.519 .0281953
819.216 .0281797
819.913 .0281645
820.609 .0281498
821.306 .0281356
822.002 .0281220
822.697 .0281088
823.393 .0280961
824.088 .0280838
824.783 .0280720
825.477 .0280605
826.171 .0280493
826.865 .0280385
827.559 .0280280
828.252 .0280178
828.945 .0280078
829.638 .0279982
830.330 .0279888
831.023 .0279796
831.714 .0279705
832.406 .0279617
833.097 .0279530
833.788 .0279445
834.479 .0279362
835.169 .0279282
835.859 .0279204
836.548 .0279129
837.238 .0279056
837.927 .0278985
838.615 .0278917
839.304 .0278850
839.992 .0278785
840.680 .0278722
841.367 .0278660
842.054 .0278600
842.741 .0278541
843.428 .0278483
844.114 .0278424
844.800 .0278365
845.485 .0278305
846.170 .0278243
846.855 .0278177
847.540 .0278108
848.224 .0278035
848.908 .0277958
849.592 .0277875
850.275 .0277788
850.958 .0277694
851.641 .0277595
852.323 .0277489
853.005 .0277379
853.687 .0277263
854.368 .0277143
855.049 .0277018
855.730 .0276891
856.410 .0276762
857.090 .0276631
857.769 .0276499
858.449 .0276367
859.128 .0276234
859.806 .0276101
860.485 .0275969
861.163 .0275838
861.840 .0275709
862.518 .0275582
863.195 .0275457
863.871 .0275334
864.548 .0275214
865.224 .0275096
865.899 .0274980
866.574 .0274865
867.249 .0274752
867.924 .0274639
868.598 .0274527
869.272 .0274415
869.946 .0274305
870.619 .0274195
871.292 .0274085
871.964 .0273977
872.636 .0273869
873.308 .0273762
873.979 .0273656
874.651 .0273549
875.321 .0273444
875.992 .0273340
876.662 .0273237
877.331 .0273137
878.001 .0273038
878.670 .0272943
879.338 .0272850
880.007 .0272760
880.675 .0272674
881.342 .0272592
882.009 .0272514
882.676 .0272440
883.343 .0272372
884.009 .0272308
884.675 .0272250
885.340 .0272196
886.005 .0272147
886.670 .0272102
887.334 .0272060
887.998 .0272021
888.662 .0271984
889.325 .0271947
889.988 .0271911
890.650 .0271875
891.312 .0271838
891.974 .0271800
892.636 .0271760
893.297 .0271718
893.957 .0271673
894.618 .0271626
895.278 .0271575
895.937 .0271521
896.596 .0271462
897.255 .0271400
897.914 .0271332
898.572 .0271260
899.230 .0271181
899.887 .0271098
900.544 .0271008
901.201 .0270913
901.857 .0270750
902.513 .0270643
903.168 .0270531
903.823 .0270413
904.478 .0270291
905.132 .0270163
905.786 .0270030
906.440 .0269892
907.093 .0269750
907.746 .0269605
908.399 .0269458
909.051 .0269310
909.703 .0269160
910.354 .0269081
911.005 .0268933
911.656 .0268784
912.306 .0268635
912.956 .0268485
913.605 .0268334
914.254 .0268181
914.903 .0268027
915.551 .0267872
916.199 .0267715
916.847 .0267557
917.494 .0267397
918.141 .0267236
918.788 .0267071
919.434 .0266904
920.079 .0266733
920.725 .0266559
921.370 .0266381
922.014 .0266199
922.658 .0266015
923.302 .0265827
923.946 .0265635
924.589 .0265440
925.231 .0265241
925.873 .0265038
926.515 .0264831
927.157 .0264620
927.798 .0264405
928.439 .0264187
929.079 .0263967
929.719 .0263746
930.359 .0263525
930.998 .0263304
931.637 .0263085
932.275 .0262867
932.913 .0262653
933.551 .0262442
934.188 .0262236
934.825 .0262035
935.462 .0261841
936.098 .0261655
936.733 .0261477
937.369 .0261307
938.004 .0261146
938.638 .0260994
939.273 .0260850
939.907 .0260714
940.540 .0260587
941.173 .0260467
941.806 .0260354
942.438 .0260249
943.070 .0260149
943.702 .0260056
944.333 .0259967
944.964 .0259881
945.594 .0259798
946.224 .0259715
946.854 .0259633
947.483 .0259551
948.112 .0259468
948.741 .0259385
949.369 .0259301
949.996 .0259216
950.624 .0259129
951.251 .0259041
951.878 .0258950
952.504 .0258856
953.130 .0258759
953.755 .0258659
954.380 .0258556
955.005 .0258451
955.629 .0258345
956.253 .0258237
956.877 .0258128
957.500 .0258020
958.123 .0257912
958.746 .0257805
959.368 .0257700
959.990 .0257597
960.611 .0257498
961.232 .0257402
961.853 .0257311
962.473 .0257225
963.093 .0257144
963.712 .0257069
964.331 .0256999
964.950 .0256934
965.569 .0256875
966.187 .0256819
966.804 .0256767
967.422 .0256720
968.039 .0256675
968.655 .0256633
969.272 .0256595
969.887 .0256558
970.503 .0256525
971.118 .0256493
971.733 .0256462
972.347 .0256432
972.961 .0256401
973.575 .0256369
974.188 .0256335
974.801 .0256298
975.414 .0256258
976.026 .0256216
976.638 .0256170
977.250 .0256121
977.861 .0256068
978.472 .0256012
979.083 .0255953
979.693 .0255889
980.303 .0255820
980.912 .0255695
981.521 .0255614
982.130 .0255528
982.738 .0255440
983.346 .0255349
983.954 .0255258
984.562 .0255167
985.169 .0255077
985.775 .0254990
986.382 .0254906
986.988 .0254826
987.594 .0254749
988.199 .0254677
988.804 .0254610
989.409 .0254598
990.013 .0254542
990.617 .0254492
991.221 .0254450
991.824 .0254414
992.427 .0254387
993.030 .0254366
993.632 .0254351
994.234 .0254344
994.836 .0254342
995.438 .0254345
996.039 .0254354
996.640 .0254368
997.240 .0254389
997.840 .0254415
998.440 .0254449
999.040 .0254490
999.639 .0254536
1000.238 .0254588
1000.836 .0254644
1001.435 .0254703
1002.033 .0254763
1002.630 .0254823
1003.228 .0254883
1003.825 .0254940
1004.422 .0254995
1005.018 .0255046
1005.614 .0255095
1006.210 .0255140
1006.806 .0255182
1007.401 .0255220
1007.996 .0255256
1008.591 .0255288
1009.186 .0255317
1009.780 .0255343
1010.374 .0255366
1010.967 .0255387
1011.561 .0255407
1012.154 .0255425
1012.746 .0255443
1013.339 .0255461
1013.931 .0255479
1014.523 .0255499
1015.115 .0255520
1015.706 .0255542
1016.298 .0255566
1016.888 .0255591
1017.479 .0255618
1018.069 .0255647
1018.660 .0255680
1019.250 .0255717
1019.839 .0255759
1020.429 .0255806
1021.018 .0255860
1021.607 .0255922
1022.195 .0255990
1022.784 .0256064
1023.372 .0256145
1023.960 .0256233
1024.547 .0256325
1025.135 .0256423
1025.722 .0256524
1026.309 .0256630
1026.896 .0256738
1027.483 .0256849
1028.069 .0256959
1028.655 .0257069
1029.241 .0257177
1029.827 .0257280
1030.412 .0257378
1030.997 .0257469
1031.582 .0257553
1032.167 .0257630
1032.752 .0257699
1033.336 .0257761
1033.921 .0257816
1034.505 .0257864
1035.089 .0257904
1035.672 .0257938
1036.256 .0257964
1036.839 .0257981
1037.422 .0257991
1038.005 .0257992
1038.588 .0257985
1039.171 .0257971
1039.753 .0257950
1040.335 .0257922
1040.918 .0257889
1041.500 .0257851
1042.081 .0257808
1042.663 .0257761
1043.244 .0257710
1043.826 .0257656
1044.407 .0257599
1044.988 .0257539
1045.569 .0257478
1046.150 .0257417
1046.730 .0257355
1047.311 .0257294
1047.891 .0257234
1048.471 .0257176
1049.052 .0257120
1049.632 .0257066
1050.211 .0257015
1050.791 .0256966
1051.371 .0256921
1051.950 .0256880
1052.530 .0256842
1053.109 .0256809
1053.688 .0256780
1054.268 .0256754
1054.847 .0256731
1055.426 .0256711
1056.005 .0256693
1056.583 .0256677
1057.162 .0256662
1057.741 .0256649
1058.319 .0256636
1058.898 .0256621
1059.476 .0256606
1060.055 .0256590
1060.633 .0256573
1061.211 .0256556
1061.790 .0256538
1062.368 .0256521
1062.946 .0256505
1063.524 .0256492
1064.102 .0256482
1064.680 .0256474
1065.258 .0256468
1065.836 .0256464
1066.414 .0256461
1066.992 .0256459
1067.570 .0256458
1068.148 .0256458
1068.726 .0256458
1069.304 .0256458
1069.882 .0256456
1070.460 .0256452
1071.038 .0256446
1071.616 .0256436
1072.194 .0256423
1072.772 .0256406
1073.350 .0256385
1073.928 .0256360
1074.506 .0256331
1075.084 .0256300
1075.662 .0256266
1076.240 .0256232
1076.819 .0256197
1077.397 .0256162
1077.976 .0256128
1078.554 .0256095
1079.133 .0256063
1079.711 .0256032
1080.290 .0256001
1080.869 .0255970
1081.448 .0255938
1082.027 .0255905
1082.606 .0255871
1083.185 .0255836
1083.764 .0255800
1084.343 .0255765
1084.923 .0255730
1085.502 .0255696
1086.082 .0255663
1086.662 .0255634
1087.242 .0255607
1087.822 .0255586
1088.402 .0255571
1088.983 .0255564
1089.563 .0255568
1090.144 .0255582
1090.725 .0255608
1091.306 .0255645
1091.887 .0255694
1092.469 .0255750
1093.050 .0255813
1093.632 .0255881
1094.214 .0255951
1094.796 .0256021
1095.379 .0256092
1095.961 .0256163
1096.544 .0256234
1097.127 .0256305
1097.710 .0256377
1098.294 .0256450
1098.877 .0256524
1099.461 .0256598
1100.046 .0256673
1100.630 .0256750
1101.215 .0256829
1101.800 .0256912
1102.385 .0256999
1102.970 .0257093
1103.556 .0257194
1104.142 .0257301
1104.728 .0257417
1105.315 .0257541
1105.902 .0257670
1106.489 .0257805
1107.077 .0257947
1107.664 .0258095
1108.253 .0258251
1108.841 .0258416
1109.430 .0258592
1110.019 .0258780
1110.609 .0258980
1111.198 .0259192
1111.789 .0259418
1112.379 .0259655
1112.970 .0259903
1113.561 .0260163
1114.153 .0260436
1114.745 .0260724
1115.338 .0261029
1115.931 .0261353
1116.524 .0261698
1117.117 .0262064
1117.712 .0262450
1118.306 .0262853
1118.901 .0263269
1119.496 .0263694
1120.092 .0264126
1120.689 .0264565
1121.285 .0265008
1121.882 .0265458
1122.480 .0265917
1123.078 .0266387
1123.677 .0266870
1124.276 .0267367
1124.875 .0267877
1125.476 .0268400
1126.076 .0268934
1126.677 .0269480
1127.279 .0270038
1127.881 .0270613
1128.484 .0271208
1129.087 .0271463
1129.691 .0272095
1130.295 .0272761
1130.900 .0273465
1131.505 .0274208
1132.111 .0274994
1132.718 .0275829
1133.325 .0276714
1133.933 .0277654
1134.541 .0278594
1135.150 .0279631
1135.760 .0280817
1136.370 .0282050
1136.981 .0280957
1137.592 .0282091
1138.204 .0283375
1138.817 .0284777
1139.431 .0286278
1140.045 .0287929
1140.660 .0289761
1141.275 .0291708
1141.891 .0293816
1142.508 .0294416
1143.126 .0297716
1143.744 .0302435
1144.363 .0304296
1144.983 .0306407
