Measurement Sequence started on: 15-12-46-377
Integration time: 28
Scans to Average: 2 
>>>>>Begin Spectral Data<<<<<
432.689 .0000100
433.621 .0000100
434.552 .0000100
435.482 .0000100
436.410 .0000100
437.337 .0000100
438.262 .0260175
439.187 .0550997
440.110 .0912008
441.031 .1318909
441.952 .1056802
442.871 .1103922
443.789 .1147828
444.705 .1189162
445.621 .1228377
446.535 .1265802
447.447 .1287991
448.359 .1293522
449.269 .1278870
450.178 .1241760
451.086 .1182955
451.993 .1106981
452.898 .1021353
453.803 .0934559
454.706 .0853805
455.608 .0783545
456.508 .0725257
457.408 .0685609
458.306 .0654937
459.204 .0629769
460.100 .0608412
460.995 .0589941
461.888 .0573757
462.781 .0559437
463.673 .0546678
464.563 .0535262
465.452 .0525008
466.340 .0515760
467.228 .0507397
468.114 .0499801
468.999 .0492892
469.882 .0486592
470.765 .0480844
471.647 .0475605
472.528 .0470849
473.407 .0466544
474.286 .0462676
475.163 .0459220
476.040 .0456148
476.915 .0453428
477.790 .0451028
478.663 .0448915
479.535 .0447060
480.407 .0445437
481.277 .0444026
482.147 .0442806
483.015 .0441771
483.883 .0440908
484.749 .0440221
485.615 .0439709
486.479 .0439369
487.343 .0439200
488.206 .0439203
489.067 .0439366
489.928 .0439682
490.788 .0440143
491.647 .0440745
492.505 .0441477
493.362 .0442344
494.218 .0443348
495.073 .0444501
495.928 .0446846
496.781 .0448457
497.634 .0450268
498.486 .0452295
499.337 .0454542
500.187 .0457015
501.036 .0459722
501.884 .0462666
502.731 .0465859
503.578 .0469323
504.424 .0471657
505.268 .0475622
506.113 .0479971
506.956 .0484747
507.798 .0490012
508.640 .0495831
509.480 .0502277
510.320 .0509432
511.160 .0517396
511.998 .0526283
512.836 .0536240
513.672 .0547458
514.508 .0560144
515.344 .0574541
516.178 .0590928
517.012 .0609586
517.845 .0630776
518.677 .0654729
519.508 .0681630
520.339 .0711562
521.169 .0744563
521.998 .0780446
522.826 .0818930
523.654 .0859585
524.481 .0901843
525.307 .0945007
526.133 .0988284
526.958 .1030779
527.782 .1071576
528.605 .1109781
529.428 .1144595
530.250 .1175287
531.072 .1201346
531.892 .1222364
532.712 .1238093
533.532 .1248380
534.350 .1253182
535.168 .1252507
535.986 .1246416
536.802 .1234965
537.618 .1218263
538.434 .1196430
539.249 .1169805
540.063 .1138779
540.876 .1103875
541.689 .1065742
542.501 .1025137
543.313 .0982872
544.124 .0939851
544.934 .0896975
545.744 .0855081
546.553 .0814898
547.361 .0777041
548.169 .0741852
548.976 .0709570
549.783 .0680233
550.589 .0653739
551.395 .0629882
552.200 .0608418
553.004 .0589057
553.808 .0571561
554.611 .0555726
555.414 .0541363
556.216 .0528291
557.018 .0516354
557.819 .0505400
558.619 .0495295
559.419 .0485926
560.218 .0477205
561.017 .0469053
561.815 .0461402
562.613 .0454198
563.410 .0447387
564.207 .0440929
565.003 .0434788
565.799 .0428921
566.594 .0423290
567.388 .0417864
568.182 .0412611
568.976 .0407509
569.769 .0402548
570.562 .0397721
571.354 .0393027
572.145 .0388476
572.936 .0384072
573.727 .0379821
574.517 .0375730
575.307 .0371801
576.096 .0368025
576.885 .0364404
577.673 .0360937
578.461 .0357622
579.248 .0354459
580.035 .0351457
580.821 .0348613
581.607 .0345930
582.392 .0343405
583.177 .0341036
583.962 .0338817
584.746 .0336744
585.529 .0334807
586.313 .0332999
587.095 .0331313
587.878 .0329745
588.660 .0328283
589.441 .0326926
590.222 .0325665
591.003 .0324494
591.783 .0323409
592.563 .0322404
593.342 .0321475
594.121 .0320616
594.899 .0319823
595.678 .0319089
596.455 .0318409
597.233 .0317777
598.009 .0317186
598.786 .0316634
599.562 .0316114
600.338 .0315622
601.113 .0315153
601.888 .0314513
602.663 .0314086
603.437 .0313675
604.211 .0313277
604.984 .0312892
605.757 .0312520
606.530 .0312160
607.302 .0311813
608.074 .0311480
608.845 .0311161
609.616 .0310855
610.387 .0310729
611.158 .0310443
611.928 .0310169
612.697 .0309905
613.467 .0309652
614.236 .0309410
615.004 .0309178
615.773 .0308956
616.541 .0308744
617.308 .0308543
618.076 .0308350
618.843 .0308165
619.609 .0307987
620.375 .0307812
621.141 .0307639
621.907 .0307467
622.672 .0307293
623.437 .0307117
624.202 .0306938
624.966 .0306755
625.730 .0306568
626.493 .0306376
627.257 .0306178
628.020 .0305973
628.782 .0305762
629.545 .0305543
630.307 .0305316
631.068 .0305081
631.830 .0304837
632.591 .0304585
633.352 .0304323
634.112 .0304053
634.872 .0303775
635.632 .0303491
636.392 .0303203
637.151 .0302911
637.910 .0302619
638.668 .0302328
639.427 .0302039
640.185 .0301753
640.943 .0301472
641.700 .0301195
642.457 .0300922
643.214 .0300655
643.971 .0300393
644.727 .0300137
645.483 .0299888
646.239 .0299645
646.994 .0299407
647.750 .0299176
648.505 .0298950
649.259 .0298728
650.014 .0298511
650.768 .0298298
651.521 .0298088
652.275 .0297880
653.028 .0297675
653.781 .0297472
654.534 .0297271
655.286 .0297072
656.039 .0296875
656.791 .0296680
657.542 .0296485
658.294 .0296292
659.045 .0296099
659.796 .0295906
660.546 .0295712
661.297 .0295518
662.047 .0295324
662.796 .0295130
663.546 .0294937
664.295 .0294745
665.044 .0294554
665.793 .0294366
666.542 .0294182
667.290 .0294001
668.038 .0293824
668.786 .0293652
669.533 .0293485
670.281 .0293324
671.028 .0293170
671.774 .0293022
672.521 .0292880
673.267 .0292745
674.013 .0292616
674.759 .0292492
675.505 .0292374
676.250 .0292261
676.995 .0292153
677.740 .0292048
678.484 .0291947
679.229 .0291849
679.973 .0291754
680.717 .0291660
681.460 .0291568
682.204 .0291476
682.947 .0291384
683.690 .0291293
684.433 .0291201
685.175 .0291108
685.917 .0291014
686.659 .0290919
687.401 .0290822
688.142 .0290721
688.884 .0290616
689.625 .0290506
690.365 .0290390
691.106 .0290267
691.846 .0290137
692.586 .0290000
693.326 .0289857
694.066 .0289709
694.805 .0289556
695.545 .0289400
696.284 .0289241
697.022 .0289079
697.761 .0288915
698.499 .0288748
699.237 .0288579
699.975 .0288407
700.713 .0288233
701.450 .0288056
702.187 .0287877
702.924 .0287696
703.661 .0287512
704.397 .0287328
705.133 .0287142
705.869 .0286954
706.605 .0286766
707.341 .0286575
708.076 .0286384
708.811 .0286191
709.546 .0285996
710.281 .0285800
711.015 .0285601
711.749 .0285399
712.483 .0285196
713.217 .0284989
713.950 .0284781
714.684 .0284572
715.417 .0284361
716.150 .0284151
716.882 .0283939
717.615 .0283729
718.347 .0283518
719.079 .0283307
719.811 .0283096
720.542 .0282884
721.273 .0282672
722.005 .0282460
722.735 .0282249
723.466 .0282039
724.196 .0281831
724.927 .0281626
725.656 .0281425
726.386 .0281228
727.116 .0281036
727.845 .0280848
728.574 .0280665
729.303 .0280487
730.031 .0280314
730.760 .0280146
731.488 .0279983
732.216 .0279825
732.944 .0279673
733.671 .0279525
734.398 .0279381
735.125 .0279243
735.852 .0279111
736.579 .0278984
737.305 .0278864
738.031 .0278751
738.757 .0278646
739.483 .0278547
740.208 .0278455
740.933 .0278369
741.658 .0278290
742.383 .0278216
743.108 .0278147
743.832 .0278082
744.556 .0278022
745.280 .0277965
746.004 .0277910
746.727 .0277856
747.450 .0277804
748.173 .0277752
748.896 .0277699
749.618 .0277646
750.340 .0277591
751.062 .0277535
751.784 .0277478
752.506 .0277417
753.227 .0277354
753.948 .0277287
754.669 .0277215
755.389 .0277139
756.110 .0277058
756.830 .0276972
757.550 .0276882
758.269 .0276789
758.989 .0276693
759.708 .0276594
760.427 .0276493
761.146 .0276390
761.864 .0276285
762.582 .0276178
763.300 .0276068
764.018 .0275958
764.736 .0275845
765.453 .0275732
766.170 .0275618
766.887 .0275504
767.603 .0275390
768.320 .0275278
769.036 .0275167
769.751 .0275058
770.467 .0274952
771.182 .0274850
771.897 .0274751
772.612 .0274657
773.327 .0274566
774.041 .0274479
774.755 .0274396
775.469 .0274316
776.183 .0274239
776.896 .0274165
777.609 .0274096
778.322 .0274030
779.035 .0273968
779.747 .0273909
780.459 .0273854
781.171 .0273801
781.882 .0273751
782.594 .0273702
783.305 .0273654
784.016 .0273606
784.726 .0273559
785.436 .0273511
786.147 .0273432
786.856 .0273381
787.566 .0273327
788.275 .0273271
788.984 .0273212
789.693 .0273149
790.401 .0273082
791.110 .0273011
791.818 .0272936
792.525 .0272855
793.233 .0272770
793.940 .0272679
794.647 .0272620
795.353 .0272521
796.060 .0272416
796.766 .0272304
797.472 .0272186
798.177 .0272061
798.883 .0271929
799.588 .0271790
800.292 .0271644
800.997 .0271492
801.701 .0271332
802.405 .0271165
803.109 .0270993
803.812 .0270814
804.515 .0270629
805.218 .0270438
805.921 .0270242
806.623 .0270042
807.325 .0269836
808.027 .0269626
808.728 .0269411
809.429 .0269193
810.130 .0268973
810.831 .0268750
811.531 .0268526
812.231 .0268303
812.931 .0268081
813.630 .0267860
814.330 .0267643
815.029 .0267429
815.727 .0267220
816.426 .0267016
817.124 .0266817
817.821 .0266625
818.519 .0266439
819.216 .0266259
819.913 .0266086
820.609 .0265920
821.306 .0265760
822.002 .0265608
822.697 .0265461
823.393 .0265321
824.088 .0265187
824.783 .0265060
825.477 .0264939
826.171 .0264823
826.865 .0264714
827.559 .0264609
828.252 .0264508
828.945 .0264410
829.638 .0264316
830.330 .0264225
831.023 .0264137
831.714 .0264051
832.406 .0263969
833.097 .0263890
833.788 .0263814
834.479 .0263740
835.169 .0263669
835.859 .0263600
836.548 .0263533
837.238 .0263469
837.927 .0263406
838.615 .0263345
839.304 .0263285
839.992 .0263228
840.680 .0263171
841.367 .0263116
842.054 .0263062
842.741 .0263008
843.428 .0262954
844.114 .0262901
844.800 .0262848
845.485 .0262795
846.170 .0262740
846.855 .0262685
847.540 .0262627
848.224 .0262568
848.908 .0262505
849.592 .0262440
850.275 .0262371
850.958 .0262299
851.641 .0262223
852.323 .0262143
853.005 .0262060
853.687 .0261973
854.368 .0261883
855.049 .0261790
855.730 .0261694
856.410 .0261595
857.090 .0261494
857.769 .0261392
858.449 .0261288
859.128 .0261183
859.806 .0261078
860.485 .0260973
861.163 .0260867
861.840 .0260763
862.518 .0260660
863.195 .0260558
863.871 .0260459
864.548 .0260361
865.224 .0260266
865.899 .0260174
866.574 .0260085
867.249 .0259998
867.924 .0259915
868.598 .0259834
869.272 .0259757
869.946 .0259684
870.619 .0259615
871.292 .0259550
871.964 .0259490
872.636 .0259434
873.308 .0259384
873.979 .0259339
874.651 .0259299
875.321 .0259264
875.992 .0259235
876.662 .0259210
877.331 .0259189
878.001 .0259173
878.670 .0259161
879.338 .0259153
880.007 .0259149
880.675 .0259149
881.342 .0259152
882.009 .0259159
882.676 .0259170
883.343 .0259184
884.009 .0259200
884.675 .0259219
885.340 .0259240
886.005 .0259263
886.670 .0259287
887.334 .0259313
887.998 .0259339
888.662 .0259366
889.325 .0259394
889.988 .0259421
890.650 .0259446
891.312 .0259471
891.974 .0259493
892.636 .0259514
893.297 .0259531
893.957 .0259546
894.618 .0259558
895.278 .0259567
895.937 .0259571
896.596 .0259570
897.255 .0259564
897.914 .0259551
898.572 .0259530
899.230 .0259502
899.887 .0259465
900.544 .0259420
901.201 .0259366
901.857 .0259249
902.513 .0259174
903.168 .0259092
903.823 .0259002
904.478 .0258904
905.132 .0258797
905.786 .0258681
906.440 .0258555
907.093 .0258421
907.746 .0258278
908.399 .0258128
909.051 .0257973
909.703 .0257813
910.354 .0257721
911.005 .0257558
911.656 .0257393
912.306 .0257225
912.956 .0257054
913.605 .0256880
914.254 .0256701
914.903 .0256519
915.551 .0256335
916.199 .0256147
916.847 .0255958
917.494 .0255767
918.141 .0255574
918.788 .0255380
919.434 .0255182
920.079 .0254982
920.725 .0254777
921.370 .0254568
922.014 .0254354
922.658 .0254137
923.302 .0253916
923.946 .0253693
924.589 .0253467
925.231 .0253240
925.873 .0253012
926.515 .0252782
927.157 .0252550
927.798 .0252318
928.439 .0252084
929.079 .0251850
929.719 .0251616
930.359 .0251383
930.998 .0251152
931.637 .0250923
932.275 .0250699
932.913 .0250478
933.551 .0250261
934.188 .0250049
934.825 .0249843
935.462 .0249642
936.098 .0249446
936.733 .0249257
937.369 .0249075
938.004 .0248899
938.638 .0248729
939.273 .0248566
939.907 .0248409
940.540 .0248258
941.173 .0248112
941.806 .0247971
942.438 .0247833
943.070 .0247698
943.702 .0247565
944.333 .0247434
944.964 .0247303
945.594 .0247172
946.224 .0247041
946.854 .0246908
947.483 .0246774
948.112 .0246639
948.741 .0246501
949.369 .0246363
949.996 .0246224
950.624 .0246083
951.251 .0245941
951.878 .0245799
952.504 .0245656
953.130 .0245513
953.755 .0245370
954.380 .0245228
955.005 .0245086
955.629 .0244946
956.253 .0244807
956.877 .0244670
957.500 .0244536
958.123 .0244403
958.746 .0244274
959.368 .0244147
959.990 .0244023
960.611 .0243903
961.232 .0243787
961.853 .0243674
962.473 .0243565
963.093 .0243459
963.712 .0243358
964.331 .0243261
964.950 .0243169
965.569 .0243082
966.187 .0242999
966.804 .0242921
967.422 .0242847
968.039 .0242777
968.655 .0242710
969.272 .0242647
969.887 .0242586
970.503 .0242528
971.118 .0242473
971.733 .0242419
972.347 .0242367
972.961 .0242318
973.575 .0242270
974.188 .0242222
974.801 .0242176
975.414 .0242130
976.026 .0242084
976.638 .0242039
977.250 .0241993
977.861 .0241946
978.472 .0241898
979.083 .0241848
979.693 .0241795
980.303 .0241740
980.912 .0241640
981.521 .0241575
982.130 .0241507
982.738 .0241436
983.346 .0241363
983.954 .0241288
984.562 .0241211
985.169 .0241132
985.775 .0241052
986.382 .0240972
986.988 .0240891
987.594 .0240812
988.199 .0240734
988.804 .0240660
989.409 .0240632
990.013 .0240567
990.617 .0240508
991.221 .0240456
991.824 .0240411
992.427 .0240374
993.030 .0240344
993.632 .0240321
994.234 .0240305
994.836 .0240297
995.438 .0240297
996.039 .0240304
996.640 .0240320
997.240 .0240344
997.840 .0240377
998.440 .0240418
999.040 .0240467
999.639 .0240523
1000.238 .0240585
1000.836 .0240653
1001.435 .0240727
1002.033 .0240805
1002.630 .0240888
1003.228 .0240974
1003.825 .0241063
1004.422 .0241155
1005.018 .0241247
1005.614 .0241341
1006.210 .0241435
1006.806 .0241527
1007.401 .0241618
1007.996 .0241707
1008.591 .0241794
1009.186 .0241879
1009.780 .0241961
1010.374 .0242042
1010.967 .0242122
1011.561 .0242202
1012.154 .0242281
1012.746 .0242361
1013.339 .0242442
1013.931 .0242525
1014.523 .0242611
1015.115 .0242699
1015.706 .0242790
1016.298 .0242883
1016.888 .0242979
1017.479 .0243077
1018.069 .0243179
1018.660 .0243284
1019.250 .0243392
1019.839 .0243503
1020.429 .0243619
1021.018 .0243739
1021.607 .0243864
1022.195 .0243994
1022.784 .0244128
1023.372 .0244267
1023.960 .0244411
1024.547 .0244558
1025.135 .0244709
1025.722 .0244863
1026.309 .0245019
1026.896 .0245177
1027.483 .0245334
1028.069 .0245492
1028.655 .0245647
1029.241 .0245800
1029.827 .0245949
1030.412 .0246094
1030.997 .0246234
1031.582 .0246367
1032.167 .0246496
1032.752 .0246619
1033.336 .0246736
1033.921 .0246849
1034.505 .0246957
1035.089 .0247062
1035.672 .0247162
1036.256 .0247258
1036.839 .0247350
1037.422 .0247438
1038.005 .0247522
1038.588 .0247600
1039.171 .0247674
1039.753 .0247743
1040.335 .0247807
1040.918 .0247866
1041.500 .0247920
1042.081 .0247968
1042.663 .0248013
1043.244 .0248052
1043.826 .0248087
1044.407 .0248117
1044.988 .0248143
1045.569 .0248166
1046.150 .0248186
1046.730 .0248204
1047.311 .0248220
1047.891 .0248238
1048.471 .0248256
1049.052 .0248276
1049.632 .0248299
1050.211 .0248323
1050.791 .0248348
1051.371 .0248374
1051.950 .0248399
1052.530 .0248422
1053.109 .0248442
1053.688 .0248459
1054.268 .0248473
1054.847 .0248483
1055.426 .0248491
1056.005 .0248496
1056.583 .0248500
1057.162 .0248500
1057.741 .0248498
1058.319 .0248494
1058.898 .0248487
1059.476 .0248478
1060.055 .0248467
1060.633 .0248455
1061.211 .0248443
1061.790 .0248432
1062.368 .0248421
1062.946 .0248411
1063.524 .0248402
1064.102 .0248393
1064.680 .0248382
1065.258 .0248368
1065.836 .0248351
1066.414 .0248329
1066.992 .0248302
1067.570 .0248270
1068.148 .0248233
1068.726 .0248192
1069.304 .0248147
1069.882 .0248100
1070.460 .0248049
1071.038 .0247997
1071.616 .0247942
1072.194 .0247885
1072.772 .0247827
1073.350 .0247769
1073.928 .0247710
1074.506 .0247653
1075.084 .0247597
1075.662 .0247544
1076.240 .0247493
1076.819 .0247445
1077.397 .0247401
1077.976 .0247359
1078.554 .0247321
1079.133 .0247285
1079.711 .0247251
1080.290 .0247219
1080.869 .0247188
1081.448 .0247159
1082.027 .0247131
1082.606 .0247104
1083.185 .0247079
1083.764 .0247057
1084.343 .0247038
1084.923 .0247024
1085.502 .0247017
1086.082 .0247017
1086.662 .0247027
1087.242 .0247047
1087.822 .0247077
1088.402 .0247117
1088.983 .0247167
1089.563 .0247224
1090.144 .0247287
1090.725 .0247355
1091.306 .0247426
1091.887 .0247501
1092.469 .0247580
1093.050 .0247663
1093.632 .0247750
1094.214 .0247843
1094.796 .0247939
1095.379 .0248040
1095.961 .0248145
1096.544 .0248252
1097.127 .0248362
1097.710 .0248476
1098.294 .0248595
1098.877 .0248721
1099.461 .0248857
1100.046 .0249004
1100.630 .0249164
1101.215 .0249339
1101.800 .0249525
1102.385 .0249721
1102.970 .0249924
1103.556 .0250132
1104.142 .0250343
1104.728 .0250555
1105.315 .0250768
1105.902 .0250982
1106.489 .0251200
1107.077 .0251420
1107.664 .0251646
1108.253 .0251877
1108.841 .0252112
1109.430 .0252351
1110.019 .0252591
1110.609 .0252833
1111.198 .0253078
1111.789 .0253325
1112.379 .0253578
1112.970 .0253839
1113.561 .0254111
1114.153 .0254396
1114.745 .0254695
1115.338 .0255010
1115.931 .0255340
1116.524 .0255682
1117.117 .0256035
1117.712 .0256398
1118.306 .0256769
1118.901 .0257149
1119.496 .0257541
1120.092 .0257944
1120.689 .0258359
1121.285 .0258786
1121.882 .0259224
1122.480 .0259673
1123.078 .0260132
1123.677 .0260599
1124.276 .0261077
1124.875 .0261566
1125.476 .0262070
1126.076 .0262591
1126.677 .0263130
1127.279 .0263689
1127.881 .0264267
1128.484 .0264864
1129.087 .0265150
1129.691 .0265773
1130.295 .0266410
1130.900 .0267060
1131.505 .0267726
1132.111 .0268409
1132.718 .0269107
1133.325 .0269828
1133.933 .0270580
1134.541 .0271394
1135.150 .0272189
1135.760 .0272903
1136.370 .0273854
1136.981 .0273858
1137.592 .0274616
1138.204 .0275426
1138.817 .0276273
1139.431 .0277234
1140.045 .0278267
1140.660 .0279311
1141.275 .0280620
1141.891 .0282110
1142.508 .0284519
1143.126 .0284625
1143.744 .0283043
1144.363 .0290324
1144.983 .0293948
