Measurement Sequence started on: 15-12-46-377
Integration time: 28
Scans to Average: 2 
>>>>>Begin Spectral Data<<<<<
432.689 .0000100
433.621 .0000100
434.552 .0000100
435.482 .0000100
436.410 .0000100
437.337 .0000100
438.262 .0273180
439.187 .0576780
440.110 .0953629
441.031 .1378858
441.952 .1100547
442.871 .1148923
443.789 .1193883
444.705 .1236137
445.621 .1276179
446.535 .1314392
447.447 .1336687
448.359 .1341689
449.269 .1325743
450.178 .1286440
451.086 .1224594
451.993 .1144975
452.898 .1055432
453.803 .0964831
454.706 .0880698
455.608 .0807687
456.508 .0747346
457.408 .0706688
458.306 .0675507
459.204 .0650206
460.100 .0629030
460.995 .0610954
461.888 .0595288
462.781 .0581562
463.673 .0569414
464.563 .0558576
465.452 .0548837
466.340 .0540016
467.228 .0531995
468.114 .0524678
468.999 .0517990
469.882 .0511866
470.765 .0506256
471.647 .0501115
472.528 .0496410
473.407 .0492109
474.286 .0488182
475.163 .0484609
476.040 .0481369
476.915 .0478442
477.790 .0475810
478.663 .0473454
479.535 .0471362
480.407 .0469514
481.277 .0467897
482.147 .0466490
483.015 .0465277
483.883 .0464244
484.749 .0463377
485.615 .0462668
486.479 .0462110
487.343 .0461697
488.206 .0461429
489.067 .0461301
489.928 .0461307
490.788 .0461445
491.647 .0461711
492.505 .0462104
493.362 .0462629
494.218 .0463288
495.073 .0464098
495.928 .0465925
496.781 .0467206
497.634 .0468701
498.486 .0470429
499.337 .0472410
500.187 .0474657
501.036 .0477194
501.884 .0480042
502.731 .0483231
503.578 .0486798
504.424 .0489430
505.268 .0493718
506.113 .0498515
506.956 .0503871
507.798 .0509859
508.640 .0516547
509.480 .0524025
510.320 .0532388
511.160 .0541758
511.998 .0552244
512.836 .0563999
513.672 .0577177
514.508 .0591971
515.344 .0608556
516.178 .0627136
517.012 .0647923
517.845 .0671135
518.677 .0696959
519.508 .0725549
520.339 .0757008
521.169 .0791393
521.998 .0828513
522.826 .0868091
523.654 .0909651
524.481 .0952618
525.307 .0996247
526.133 .1039718
526.958 .1082125
527.782 .1122580
528.605 .1160237
529.428 .1194356
530.250 .1224265
531.072 .1249494
531.892 .1269635
532.712 .1284452
533.532 .1293782
534.350 .1297566
535.168 .1295794
535.986 .1288533
536.802 .1275865
537.618 .1257892
538.434 .1234731
539.249 .1206744
540.063 .1174357
540.876 .1138153
541.689 .1098790
542.501 .1057054
543.313 .1013791
544.124 .0969905
544.934 .0926256
545.744 .0883617
546.553 .0842670
547.361 .0803984
548.169 .0767904
548.976 .0734681
549.783 .0704395
550.589 .0677014
551.395 .0652390
552.200 .0630311
553.004 .0610492
553.808 .0592665
554.611 .0576582
555.414 .0562025
556.216 .0548769
557.018 .0536620
557.819 .0525422
558.619 .0515042
559.419 .0505384
560.218 .0496362
561.017 .0487898
561.815 .0479920
562.613 .0472376
563.410 .0465204
564.207 .0458340
565.003 .0451735
565.799 .0445350
566.594 .0439153
567.388 .0433134
568.182 .0427278
568.976 .0421587
569.769 .0416074
570.562 .0410753
571.354 .0405631
572.145 .0400717
572.936 .0396015
573.727 .0391523
574.517 .0387235
575.307 .0383147
576.096 .0379242
576.885 .0375515
577.673 .0371963
578.461 .0368583
579.248 .0365377
580.035 .0362346
580.821 .0359493
581.607 .0356814
582.392 .0354306
583.177 .0351958
583.962 .0349760
584.746 .0347702
585.529 .0345776
586.313 .0343972
587.095 .0342283
587.878 .0340706
588.660 .0339239
589.441 .0337878
590.222 .0336617
591.003 .0335449
591.783 .0334368
592.563 .0333367
593.342 .0332435
594.121 .0331566
594.899 .0330752
595.678 .0329988
596.455 .0329267
597.233 .0328584
598.009 .0327935
598.786 .0327317
599.562 .0326725
600.338 .0326155
601.113 .0325604
601.888 .0324840
602.663 .0324329
603.437 .0323832
604.211 .0323351
604.984 .0322884
605.757 .0322430
606.530 .0321992
607.302 .0321566
608.074 .0321154
608.845 .0320755
609.616 .0320368
610.387 .0320196
611.158 .0319827
611.928 .0319470
612.697 .0319125
613.467 .0318792
614.236 .0318473
615.004 .0318168
615.773 .0317878
616.541 .0317602
617.308 .0317341
618.076 .0317094
618.843 .0316858
619.609 .0316632
620.375 .0316414
621.141 .0316202
621.907 .0315995
622.672 .0315793
623.437 .0315595
624.202 .0315401
624.966 .0315209
625.730 .0315019
626.493 .0314829
627.257 .0314636
628.020 .0314438
628.782 .0314235
629.545 .0314022
630.307 .0313801
631.068 .0313570
631.830 .0313328
632.591 .0313076
633.352 .0312815
634.112 .0312544
634.872 .0312265
635.632 .0311979
636.392 .0311687
637.151 .0311393
637.910 .0311097
638.668 .0310802
639.427 .0310508
640.185 .0310217
640.943 .0309929
641.700 .0309644
642.457 .0309363
643.214 .0309088
643.971 .0308819
644.727 .0308558
645.483 .0308307
646.239 .0308066
646.994 .0307836
647.750 .0307616
648.505 .0307405
649.259 .0307200
650.014 .0307001
650.768 .0306804
651.521 .0306609
652.275 .0306414
653.028 .0306220
653.781 .0306026
654.534 .0305832
655.286 .0305637
656.039 .0305442
656.791 .0305245
657.542 .0305047
658.294 .0304845
659.045 .0304640
659.796 .0304432
660.546 .0304220
661.297 .0304004
662.047 .0303785
662.796 .0303563
663.546 .0303339
664.295 .0303113
665.044 .0302886
665.793 .0302661
666.542 .0302437
667.290 .0302218
668.038 .0302003
668.786 .0301793
669.533 .0301589
670.281 .0301390
671.028 .0301197
671.774 .0301008
672.521 .0300822
673.267 .0300641
674.013 .0300463
674.759 .0300288
675.505 .0300118
676.250 .0299952
676.995 .0299790
677.740 .0299630
678.484 .0299473
679.229 .0299315
679.973 .0299157
680.717 .0298998
681.460 .0298835
682.204 .0298670
682.947 .0298501
683.690 .0298328
684.433 .0298153
685.175 .0297976
685.917 .0297795
686.659 .0297612
687.401 .0297427
688.142 .0297239
688.884 .0297048
689.625 .0296855
690.365 .0296660
691.106 .0296463
691.846 .0296265
692.586 .0296065
693.326 .0295865
694.066 .0295664
694.805 .0295464
695.545 .0295263
696.284 .0295064
697.022 .0294865
697.761 .0294668
698.499 .0294473
699.237 .0294279
699.975 .0294087
700.713 .0293896
701.450 .0293706
702.187 .0293516
702.924 .0293326
703.661 .0293135
704.397 .0292944
705.133 .0292752
705.869 .0292559
706.605 .0292364
707.341 .0292167
708.076 .0291969
708.811 .0291768
709.546 .0291566
710.281 .0291363
711.015 .0291158
711.749 .0290952
712.483 .0290746
713.217 .0290538
713.950 .0290329
714.684 .0290121
715.417 .0289911
716.150 .0289702
716.882 .0289493
717.615 .0289284
718.347 .0289077
719.079 .0288871
719.811 .0288666
720.542 .0288465
721.273 .0288265
722.005 .0288069
722.735 .0287875
723.466 .0287685
724.196 .0287499
724.927 .0287316
725.656 .0287138
726.386 .0286962
727.116 .0286791
727.845 .0286623
728.574 .0286459
729.303 .0286300
730.031 .0286145
730.760 .0285995
731.488 .0285850
732.216 .0285710
732.944 .0285575
733.671 .0285446
734.398 .0285322
735.125 .0285202
735.852 .0285087
736.579 .0284975
737.305 .0284867
738.031 .0284762
738.757 .0284661
739.483 .0284563
740.208 .0284469
740.933 .0284377
741.658 .0284289
742.383 .0284204
743.108 .0284121
743.832 .0284040
744.556 .0283959
745.280 .0283880
746.004 .0283800
746.727 .0283719
747.450 .0283637
748.173 .0283553
748.896 .0283469
749.618 .0283382
750.340 .0283293
751.062 .0283202
751.784 .0283109
752.506 .0283012
753.227 .0282913
753.948 .0282809
754.669 .0282702
755.389 .0282591
756.110 .0282476
756.830 .0282357
757.550 .0282234
758.269 .0282108
758.989 .0281979
759.708 .0281848
760.427 .0281716
761.146 .0281581
761.864 .0281446
762.582 .0281309
763.300 .0281172
764.018 .0281033
764.736 .0280894
765.453 .0280754
766.170 .0280613
766.887 .0280472
767.603 .0280331
768.320 .0280191
769.036 .0280053
769.751 .0279917
770.467 .0279784
771.182 .0279653
771.897 .0279527
772.612 .0279403
773.327 .0279284
774.041 .0279167
774.755 .0279055
775.469 .0278947
776.183 .0278842
776.896 .0278741
777.609 .0278643
778.322 .0278550
779.035 .0278459
779.747 .0278372
780.459 .0278288
781.171 .0278206
781.882 .0278125
782.594 .0278046
783.305 .0277967
784.016 .0277887
784.726 .0277806
785.436 .0277723
786.147 .0277588
786.856 .0277498
787.566 .0277404
788.275 .0277309
788.984 .0277211
789.693 .0277110
790.401 .0277007
791.110 .0276900
791.818 .0276790
792.525 .0276676
793.233 .0276558
793.940 .0276436
794.647 .0276366
795.353 .0276240
796.060 .0276112
796.766 .0275980
797.472 .0275846
798.177 .0275710
798.883 .0275572
799.588 .0275430
800.292 .0275285
800.997 .0275137
801.701 .0274986
802.405 .0274831
803.109 .0274672
803.812 .0274511
804.515 .0274346
805.218 .0274177
805.921 .0274005
806.623 .0273828
807.325 .0273646
808.027 .0273461
808.728 .0273271
809.429 .0273078
810.130 .0272883
810.831 .0272686
811.531 .0272490
812.231 .0272294
812.931 .0272100
813.630 .0271908
814.330 .0271720
815.029 .0271535
815.727 .0271356
816.426 .0271182
817.124 .0271014
817.821 .0270853
818.519 .0270701
819.216 .0270556
819.913 .0270420
820.609 .0270293
821.306 .0270174
822.002 .0270065
822.697 .0269964
823.393 .0269871
824.088 .0269788
824.783 .0269712
825.477 .0269644
826.171 .0269583
826.865 .0269530
827.559 .0269482
828.252 .0269440
828.945 .0269403
829.638 .0269370
830.330 .0269340
831.023 .0269311
831.714 .0269283
832.406 .0269255
833.097 .0269226
833.788 .0269195
834.479 .0269162
835.169 .0269128
835.859 .0269092
836.548 .0269055
837.238 .0269016
837.927 .0268976
838.615 .0268935
839.304 .0268893
839.992 .0268850
840.680 .0268807
841.367 .0268764
842.054 .0268722
842.741 .0268680
843.428 .0268639
844.114 .0268599
844.800 .0268560
845.485 .0268521
846.170 .0268483
846.855 .0268445
847.540 .0268406
848.224 .0268366
848.908 .0268326
849.592 .0268285
850.275 .0268242
850.958 .0268198
851.641 .0268153
852.323 .0268106
853.005 .0268059
853.687 .0268010
854.368 .0267960
855.049 .0267908
855.730 .0267855
856.410 .0267799
857.090 .0267741
857.769 .0267679
858.449 .0267615
859.128 .0267548
859.806 .0267478
860.485 .0267405
861.163 .0267329
861.840 .0267249
862.518 .0267165
863.195 .0267078
863.871 .0266987
864.548 .0266892
865.224 .0266793
865.899 .0266692
866.574 .0266588
867.249 .0266482
867.924 .0266375
868.598 .0266267
869.272 .0266159
869.946 .0266050
870.619 .0265941
871.292 .0265832
871.964 .0265723
872.636 .0265615
873.308 .0265508
873.979 .0265403
874.651 .0265300
875.321 .0265199
875.992 .0265100
876.662 .0265004
877.331 .0264909
878.001 .0264817
878.670 .0264726
879.338 .0264638
880.007 .0264551
880.675 .0264467
881.342 .0264385
882.009 .0264306
882.676 .0264229
883.343 .0264156
884.009 .0264084
884.675 .0264015
885.340 .0263947
886.005 .0263881
886.670 .0263815
887.334 .0263749
887.998 .0263684
888.662 .0263619
889.325 .0263554
889.988 .0263489
890.650 .0263424
891.312 .0263358
891.974 .0263290
892.636 .0263220
893.297 .0263148
893.957 .0263074
894.618 .0262996
895.278 .0262915
895.937 .0262830
896.596 .0262741
897.255 .0262647
897.914 .0262547
898.572 .0262441
899.230 .0262327
899.887 .0262206
900.544 .0262077
901.201 .0261940
901.857 .0261699
902.513 .0261543
903.168 .0261380
903.823 .0261210
904.478 .0261033
905.132 .0260849
905.786 .0260659
906.440 .0260461
907.093 .0260257
907.746 .0260047
908.399 .0259833
909.051 .0259614
909.703 .0259393
910.354 .0259279
911.005 .0259058
911.656 .0258836
912.306 .0258613
912.956 .0258390
913.605 .0258167
914.254 .0257945
914.903 .0257724
915.551 .0257505
916.199 .0257289
916.847 .0257076
917.494 .0256866
918.141 .0256660
918.788 .0256457
919.434 .0256256
920.079 .0256058
920.725 .0255863
921.370 .0255669
922.014 .0255477
922.658 .0255287
923.302 .0255097
923.946 .0254908
924.589 .0254718
925.231 .0254526
925.873 .0254332
926.515 .0254136
927.157 .0253936
927.798 .0253734
928.439 .0253531
929.079 .0253326
929.719 .0253121
930.359 .0252917
930.998 .0252715
931.637 .0252514
932.275 .0252316
932.913 .0252120
933.551 .0251928
934.188 .0251741
934.825 .0251560
935.462 .0251385
936.098 .0251218
936.733 .0251060
937.369 .0250910
938.004 .0250768
938.638 .0250634
939.273 .0250508
939.907 .0250390
940.540 .0250281
941.173 .0250180
941.806 .0250088
942.438 .0250006
943.070 .0249934
943.702 .0249872
944.333 .0249818
944.964 .0249773
945.594 .0249735
946.224 .0249703
946.854 .0249676
947.483 .0249654
948.112 .0249636
948.741 .0249622
949.369 .0249610
949.996 .0249600
950.624 .0249591
951.251 .0249583
951.878 .0249573
952.504 .0249562
953.130 .0249549
953.755 .0249533
954.380 .0249514
955.005 .0249494
955.629 .0249471
956.253 .0249448
956.877 .0249423
957.500 .0249397
958.123 .0249371
958.746 .0249345
959.368 .0249320
959.990 .0249297
960.611 .0249275
961.232 .0249256
961.853 .0249241
962.473 .0249228
963.093 .0249218
963.712 .0249211
964.331 .0249206
964.950 .0249203
965.569 .0249202
966.187 .0249203
966.804 .0249207
967.422 .0249212
968.039 .0249219
968.655 .0249228
969.272 .0249238
969.887 .0249249
970.503 .0249261
971.118 .0249272
971.733 .0249284
972.347 .0249294
972.961 .0249304
973.575 .0249312
974.188 .0249320
974.801 .0249327
975.414 .0249333
976.026 .0249339
976.638 .0249342
977.250 .0249345
977.861 .0249345
978.472 .0249343
979.083 .0249339
979.693 .0249333
980.303 .0249326
980.912 .0249311
981.521 .0249302
982.130 .0249292
982.738 .0249282
983.346 .0249271
983.954 .0249261
984.562 .0249252
985.169 .0249243
985.775 .0249235
986.382 .0249229
986.988 .0249224
987.594 .0249222
988.199 .0249222
988.804 .0249224
989.409 .0249233
990.013 .0249238
990.617 .0249246
991.221 .0249255
991.824 .0249266
992.427 .0249277
993.030 .0249289
993.632 .0249301
994.234 .0249313
994.836 .0249325
995.438 .0249336
996.039 .0249348
996.640 .0249361
997.240 .0249374
997.840 .0249388
998.440 .0249404
999.040 .0249421
999.639 .0249439
1000.238 .0249459
1000.836 .0249480
1001.435 .0249502
1002.033 .0249525
1002.630 .0249550
1003.228 .0249575
1003.825 .0249601
1004.422 .0249625
1005.018 .0249647
1005.614 .0249666
1006.210 .0249683
1006.806 .0249695
1007.401 .0249704
1007.996 .0249709
1008.591 .0249711
1009.186 .0249710
1009.780 .0249707
1010.374 .0249701
1010.967 .0249694
1011.561 .0249685
1012.154 .0249673
1012.746 .0249660
1013.339 .0249644
1013.931 .0249627
1014.523 .0249608
1015.115 .0249589
1015.706 .0249568
1016.298 .0249547
1016.888 .0249523
1017.479 .0249498
1018.069 .0249469
1018.660 .0249438
1019.250 .0249403
1019.839 .0249366
1020.429 .0249327
1021.018 .0249287
1021.607 .0249247
1022.195 .0249209
1022.784 .0249173
1023.372 .0249139
1023.960 .0249109
1024.547 .0249081
1025.135 .0249055
1025.722 .0249031
1026.309 .0249009
1026.896 .0248989
1027.483 .0248970
1028.069 .0248952
1028.655 .0248935
1029.241 .0248919
1029.827 .0248904
1030.412 .0248889
1030.997 .0248872
1031.582 .0248853
1032.167 .0248831
1032.752 .0248806
1033.336 .0248777
1033.921 .0248744
1034.505 .0248709
1035.089 .0248670
1035.672 .0248627
1036.256 .0248581
1036.839 .0248530
1037.422 .0248475
1038.005 .0248413
1038.588 .0248345
1039.171 .0248268
1039.753 .0248185
1040.335 .0248093
1040.918 .0247995
1041.500 .0247891
1042.081 .0247782
1042.663 .0247668
1043.244 .0247549
1043.826 .0247428
1044.407 .0247304
1044.988 .0247178
1045.569 .0247051
1046.150 .0246925
1046.730 .0246800
1047.311 .0246679
1047.891 .0246563
1048.471 .0246453
1049.052 .0246348
1049.632 .0246249
1050.211 .0246155
1050.791 .0246064
1051.371 .0245976
1051.950 .0245889
1052.530 .0245803
1053.109 .0245717
1053.688 .0245630
1054.268 .0245544
1054.847 .0245457
1055.426 .0245371
1056.005 .0245285
1056.583 .0245198
1057.162 .0245111
1057.741 .0245023
1058.319 .0244932
1058.898 .0244840
1059.476 .0244747
1060.055 .0244654
1060.633 .0244561
1061.211 .0244470
1061.790 .0244382
1062.368 .0244297
1062.946 .0244215
1063.524 .0244135
1064.102 .0244055
1064.680 .0243974
1065.258 .0243890
1065.836 .0243805
1066.414 .0243716
1066.992 .0243626
1067.570 .0243536
1068.148 .0243447
1068.726 .0243361
1069.304 .0243280
1069.882 .0243206
1070.460 .0243138
1071.038 .0243077
1071.616 .0243025
1072.194 .0242981
1072.772 .0242945
1073.350 .0242919
1073.928 .0242902
1074.506 .0242896
1075.084 .0242900
1075.662 .0242914
1076.240 .0242938
1076.819 .0242970
1077.397 .0243010
1077.976 .0243056
1078.554 .0243107
1079.133 .0243162
1079.711 .0243219
1080.290 .0243278
1080.869 .0243336
1081.448 .0243393
1082.027 .0243450
1082.606 .0243506
1083.185 .0243563
1083.764 .0243621
1084.343 .0243684
1084.923 .0243752
1085.502 .0243827
1086.082 .0243909
1086.662 .0243997
1087.242 .0244092
1087.822 .0244191
1088.402 .0244295
1088.983 .0244403
1089.563 .0244516
1090.144 .0244633
1090.725 .0244757
1091.306 .0244887
1091.887 .0245025
1092.469 .0245171
1093.050 .0245323
1093.632 .0245481
1094.214 .0245643
1094.796 .0245808
1095.379 .0245973
1095.961 .0246141
1096.544 .0246311
1097.127 .0246487
1097.710 .0246671
1098.294 .0246864
1098.877 .0247069
1099.461 .0247285
1100.046 .0247512
1100.630 .0247748
1101.215 .0247993
1101.800 .0248245
1102.385 .0248504
1102.970 .0248771
1103.556 .0249046
1104.142 .0249331
1104.728 .0249628
1105.315 .0249938
1105.902 .0250261
1106.489 .0250598
1107.077 .0250948
1107.664 .0251311
1108.253 .0251686
1108.841 .0252072
1109.430 .0252468
1110.019 .0252874
1110.609 .0253290
1111.198 .0253718
1111.789 .0254159
1112.379 .0254611
1112.970 .0255077
1113.561 .0255555
1114.153 .0256045
1114.745 .0256546
1115.338 .0257058
1115.931 .0257579
1116.524 .0258108
1117.117 .0258643
1117.712 .0259183
1118.306 .0259725
1118.901 .0260270
1119.496 .0260818
1120.092 .0261371
1120.689 .0261928
1121.285 .0262493
1121.882 .0263066
1122.480 .0263650
1123.078 .0264246
1123.677 .0264854
1124.276 .0265472
1124.875 .0266103
1125.476 .0266745
1126.076 .0267402
1126.677 .0268073
1127.279 .0268763
1127.881 .0269473
1128.484 .0270207
1129.087 .0270521
1129.691 .0271286
1130.295 .0272079
1130.900 .0272896
1131.505 .0273739
1132.111 .0274605
1132.718 .0275494
1133.325 .0276404
1133.933 .0277337
1134.541 .0278293
1135.150 .0279269
1135.760 .0280318
1136.370 .0281317
1136.981 .0282141
1137.592 .0283408
1138.204 .0284705
1138.817 .0286000
1139.431 .0287300
1140.045 .0288556
1140.660 .0289807
1141.275 .0290990
1141.891 .0292209
1142.508 .0293312
1143.126 .0294395
1143.744 .0296840
1144.363 .0295907
1144.983 .0298392
