Measurement Sequence started on: 15-12-46-377
Integration time: 28
Scans to Average: 2 
>>>>>Begin Spectral Data<<<<<
432.689 .0000100
433.621 .0000100
434.552 .0000100
435.482 .0000100
436.410 .0000100
437.337 .0000100
438.262 .0254127
439.187 .0537410
440.110 .0889603
441.031 .1287208
441.952 .1035202
442.871 .1081745
443.789 .1125132
444.705 .1166020
445.621 .1204878
446.535 .1242060
447.447 .1264470
448.359 .1270769
449.269 .1257507
450.178 .1222415
451.086 .1166198
451.993 .1093243
452.898 .1010834
453.803 .0927220
454.706 .0849427
455.608 .0781816
456.508 .0725864
457.408 .0688134
458.306 .0659190
459.204 .0635694
460.100 .0615992
460.995 .0599135
461.888 .0584480
462.781 .0571569
463.673 .0560062
464.563 .0549702
465.452 .0540308
466.340 .0531724
467.228 .0523857
468.114 .0516637
468.999 .0510019
469.882 .0503951
470.765 .0498391
471.647 .0493301
472.528 .0488643
473.407 .0484375
474.286 .0480467
475.163 .0476888
476.040 .0473620
476.915 .0470648
477.790 .0467970
478.663 .0465579
479.535 .0463477
480.407 .0461658
481.277 .0460117
482.147 .0458837
483.015 .0457809
483.883 .0457003
484.749 .0456402
485.615 .0455987
486.479 .0455739
487.343 .0455650
488.206 .0455717
489.067 .0455936
489.928 .0456315
490.788 .0456854
491.647 .0457559
492.505 .0458428
493.362 .0459468
494.218 .0460670
495.073 .0462031
495.928 .0464621
496.781 .0466361
497.634 .0468252
498.486 .0470302
499.337 .0472518
500.187 .0474930
501.036 .0477560
501.884 .0480440
502.731 .0483610
503.578 .0487114
504.424 .0489564
505.268 .0493745
506.113 .0498394
506.956 .0503558
507.798 .0509302
508.640 .0515708
509.480 .0522866
510.320 .0530879
511.160 .0539873
511.998 .0549997
512.836 .0561424
513.672 .0574362
514.508 .0589036
515.344 .0605683
516.178 .0624557
517.012 .0645918
517.845 .0669978
518.677 .0696927
519.508 .0726909
520.339 .0759985
521.169 .0796140
521.998 .0835111
522.826 .0876489
523.654 .0919742
524.481 .0964202
525.307 .1009110
526.133 .1053598
526.958 .1096783
527.782 .1137775
528.605 .1175739
529.428 .1209931
530.250 .1239682
531.072 .1264497
531.892 .1283983
532.712 .1297848
533.532 .1305924
534.350 .1308140
535.168 .1304552
535.986 .1295275
536.802 .1280436
537.618 .1260180
538.434 .1234682
539.249 .1204338
540.063 .1169680
540.876 .1131310
541.689 .1089965
542.501 .1046445
543.313 .1001619
544.124 .0956371
544.934 .0911563
545.744 .0867987
546.553 .0826317
547.361 .0787117
548.169 .0750726
548.976 .0717356
549.783 .0687089
550.589 .0659851
551.395 .0635455
552.200 .0613625
553.004 .0594047
553.808 .0576415
554.611 .0560495
555.414 .0546088
556.216 .0533015
557.018 .0521105
557.819 .0510235
558.619 .0500285
559.419 .0491143
560.218 .0482716
561.017 .0474909
561.815 .0467642
562.613 .0460839
563.410 .0454416
564.207 .0448308
565.003 .0442459
565.799 .0436825
566.594 .0431368
567.388 .0426065
568.182 .0420905
568.976 .0415874
569.769 .0410963
570.562 .0406177
571.354 .0401514
572.145 .0396974
572.936 .0392558
573.727 .0388262
574.517 .0384085
575.307 .0380026
576.096 .0376088
576.885 .0372279
577.673 .0368606
578.461 .0365072
579.248 .0361682
580.035 .0358444
580.821 .0355362
581.607 .0352439
582.392 .0349679
583.177 .0347086
583.962 .0344660
584.746 .0342399
585.529 .0340297
586.313 .0338350
587.095 .0336554
587.878 .0334902
588.660 .0333389
589.441 .0332009
590.222 .0330757
591.003 .0329628
591.783 .0328618
592.563 .0327720
593.342 .0326925
594.121 .0326223
594.899 .0325603
595.678 .0325052
596.455 .0324559
597.233 .0324113
598.009 .0323706
598.786 .0323332
599.562 .0322986
600.338 .0322664
601.113 .0322364
601.888 .0321965
602.663 .0321701
603.437 .0321450
604.211 .0321208
604.984 .0320970
605.757 .0320734
606.530 .0320499
607.302 .0320262
608.074 .0320025
608.845 .0319787
609.616 .0319547
610.387 .0319421
611.158 .0319181
611.928 .0318940
612.697 .0318698
613.467 .0318455
614.236 .0318209
615.004 .0317960
615.773 .0317708
616.541 .0317451
617.308 .0317189
618.076 .0316923
618.843 .0316652
619.609 .0316376
620.375 .0316092
621.141 .0315801
621.907 .0315502
622.672 .0315195
623.437 .0314880
624.202 .0314559
624.966 .0314230
625.730 .0313895
626.493 .0313554
627.257 .0313207
628.020 .0312855
628.782 .0312497
629.545 .0312136
630.307 .0311771
631.068 .0311403
631.830 .0311034
632.591 .0310665
633.352 .0310300
634.112 .0309938
634.872 .0309581
635.632 .0309230
636.392 .0308886
637.151 .0308550
637.910 .0308223
638.668 .0307906
639.427 .0307602
640.185 .0307310
640.943 .0307032
641.700 .0306770
642.457 .0306524
643.214 .0306295
643.971 .0306083
644.727 .0305888
645.483 .0305708
646.239 .0305543
646.994 .0305393
647.750 .0305256
648.505 .0305131
649.259 .0305017
650.014 .0304912
650.768 .0304815
651.521 .0304725
652.275 .0304639
653.028 .0304558
653.781 .0304479
654.534 .0304402
655.286 .0304325
656.039 .0304247
656.791 .0304166
657.542 .0304082
658.294 .0303993
659.045 .0303897
659.796 .0303794
660.546 .0303683
661.297 .0303562
662.047 .0303433
662.796 .0303295
663.546 .0303147
664.295 .0302991
665.044 .0302827
665.793 .0302655
666.542 .0302476
667.290 .0302292
668.038 .0302102
668.786 .0301908
669.533 .0301711
670.281 .0301510
671.028 .0301307
671.774 .0301103
672.521 .0300899
673.267 .0300694
674.013 .0300490
674.759 .0300287
675.505 .0300085
676.250 .0299884
676.995 .0299683
677.740 .0299483
678.484 .0299281
679.229 .0299079
679.973 .0298876
680.717 .0298670
681.460 .0298462
682.204 .0298251
682.947 .0298036
683.690 .0297817
684.433 .0297592
685.175 .0297361
685.917 .0297125
686.659 .0296881
687.401 .0296632
688.142 .0296376
688.884 .0296113
689.625 .0295845
690.365 .0295571
691.106 .0295292
691.846 .0295008
692.586 .0294721
693.326 .0294431
694.066 .0294141
694.805 .0293851
695.545 .0293563
696.284 .0293279
697.022 .0292999
697.761 .0292724
698.499 .0292456
699.237 .0292194
699.975 .0291939
700.713 .0291692
701.450 .0291453
702.187 .0291224
702.924 .0291003
703.661 .0290792
704.397 .0290590
705.133 .0290398
705.869 .0290215
706.605 .0290040
707.341 .0289873
708.076 .0289714
708.811 .0289562
709.546 .0289417
710.281 .0289278
711.015 .0289145
711.749 .0289018
712.483 .0288896
713.217 .0288780
713.950 .0288668
714.684 .0288561
715.417 .0288459
716.150 .0288360
716.882 .0288265
717.615 .0288173
718.347 .0288083
719.079 .0287995
719.811 .0287908
720.542 .0287822
721.273 .0287737
722.005 .0287653
722.735 .0287570
723.466 .0287489
724.196 .0287410
724.927 .0287333
725.656 .0287259
726.386 .0287186
727.116 .0287116
727.845 .0287048
728.574 .0286980
729.303 .0286913
730.031 .0286847
730.760 .0286780
731.488 .0286714
732.216 .0286648
732.944 .0286582
733.671 .0286518
734.398 .0286455
735.125 .0286393
735.852 .0286334
736.579 .0286275
737.305 .0286218
738.031 .0286161
738.757 .0286102
739.483 .0286042
740.208 .0285980
740.933 .0285914
741.658 .0285844
742.383 .0285770
743.108 .0285692
743.832 .0285609
744.556 .0285520
745.280 .0285425
746.004 .0285323
746.727 .0285212
747.450 .0285091
748.173 .0284960
748.896 .0284817
749.618 .0284663
750.340 .0284497
751.062 .0284321
751.784 .0284133
752.506 .0283934
753.227 .0283725
753.948 .0283506
754.669 .0283276
755.389 .0283037
756.110 .0282788
756.830 .0282531
757.550 .0282265
758.269 .0281993
758.989 .0281715
759.708 .0281432
760.427 .0281145
761.146 .0280855
761.864 .0280563
762.582 .0280269
763.300 .0279975
764.018 .0279682
764.736 .0279390
765.453 .0279099
766.170 .0278811
766.887 .0278526
767.603 .0278243
768.320 .0277965
769.036 .0277692
769.751 .0277424
770.467 .0277162
771.182 .0276909
771.897 .0276663
772.612 .0276427
773.327 .0276199
774.041 .0275980
774.755 .0275770
775.469 .0275569
776.183 .0275377
776.896 .0275194
777.609 .0275021
778.322 .0274858
779.035 .0274706
779.747 .0274564
780.459 .0274434
781.171 .0274315
781.882 .0274207
782.594 .0274109
783.305 .0274021
784.016 .0273941
784.726 .0273870
785.436 .0273806
786.147 .0273739
786.856 .0273691
787.566 .0273651
788.275 .0273618
788.984 .0273591
789.693 .0273571
790.401 .0273556
791.110 .0273546
791.818 .0273540
792.525 .0273537
793.233 .0273537
793.940 .0273539
794.647 .0273541
795.353 .0273546
796.060 .0273554
796.766 .0273563
797.472 .0273575
798.177 .0273587
798.883 .0273600
799.588 .0273612
800.292 .0273623
800.997 .0273632
801.701 .0273640
802.405 .0273647
803.109 .0273653
803.812 .0273657
804.515 .0273659
805.218 .0273659
805.921 .0273656
806.623 .0273647
807.325 .0273634
808.027 .0273616
808.728 .0273593
809.429 .0273564
810.130 .0273532
810.831 .0273497
811.531 .0273458
812.231 .0273417
812.931 .0273373
813.630 .0273327
814.330 .0273280
815.029 .0273231
815.727 .0273182
816.426 .0273134
817.124 .0273088
817.821 .0273045
818.519 .0273005
819.216 .0272968
819.913 .0272934
820.609 .0272903
821.306 .0272874
822.002 .0272847
822.697 .0272823
823.393 .0272800
824.088 .0272780
824.783 .0272763
825.477 .0272747
826.171 .0272733
826.865 .0272718
827.559 .0272701
828.252 .0272682
828.945 .0272658
829.638 .0272630
830.330 .0272595
831.023 .0272554
831.714 .0272507
832.406 .0272451
833.097 .0272388
833.788 .0272315
834.479 .0272232
835.169 .0272137
835.859 .0272032
836.548 .0271914
837.238 .0271786
837.927 .0271647
838.615 .0271497
839.304 .0271337
839.992 .0271167
840.680 .0270986
841.367 .0270795
842.054 .0270593
842.741 .0270382
843.428 .0270162
844.114 .0269932
844.800 .0269695
845.485 .0269450
846.170 .0269198
846.855 .0268939
847.540 .0268672
848.224 .0268398
848.908 .0268117
849.592 .0267828
850.275 .0267532
850.958 .0267229
851.641 .0266922
852.323 .0266609
853.005 .0266293
853.687 .0265973
854.368 .0265650
855.049 .0265325
855.730 .0264999
856.410 .0264671
857.090 .0264342
857.769 .0264013
858.449 .0263684
859.128 .0263357
859.806 .0263032
860.485 .0262710
861.163 .0262393
861.840 .0262081
862.518 .0261775
863.195 .0261476
863.871 .0261183
864.548 .0260898
865.224 .0260619
865.899 .0260348
866.574 .0260083
867.249 .0259825
867.924 .0259574
868.598 .0259331
869.272 .0259095
869.946 .0258868
870.619 .0258649
871.292 .0258439
871.964 .0258238
872.636 .0258045
873.308 .0257861
873.979 .0257685
874.651 .0257519
875.321 .0257362
875.992 .0257214
876.662 .0257077
877.331 .0256951
878.001 .0256837
878.670 .0256734
879.338 .0256643
880.007 .0256563
880.675 .0256496
881.342 .0256440
882.009 .0256396
882.676 .0256365
883.343 .0256346
884.009 .0256339
884.675 .0256346
885.340 .0256365
886.005 .0256396
886.670 .0256438
887.334 .0256492
887.998 .0256556
888.662 .0256630
889.325 .0256714
889.988 .0256807
890.650 .0256909
891.312 .0257018
891.974 .0257135
892.636 .0257258
893.297 .0257387
893.957 .0257519
894.618 .0257654
895.278 .0257792
895.937 .0257930
896.596 .0258068
897.255 .0258205
897.914 .0258339
898.572 .0258471
899.230 .0258600
899.887 .0258724
900.544 .0258842
901.201 .0258955
901.857 .0259094
902.513 .0259190
903.168 .0259279
903.823 .0259361
904.478 .0259437
905.132 .0259505
905.786 .0259566
906.440 .0259619
907.093 .0259666
907.746 .0259707
908.399 .0259741
909.051 .0259771
909.703 .0259797
910.354 .0259798
911.005 .0259821
911.656 .0259842
912.306 .0259860
912.956 .0259875
913.605 .0259888
914.254 .0259898
914.903 .0259906
915.551 .0259913
916.199 .0259917
916.847 .0259921
917.494 .0259922
918.141 .0259922
918.788 .0259919
919.434 .0259913
920.079 .0259903
920.725 .0259888
921.370 .0259867
922.014 .0259841
922.658 .0259810
923.302 .0259773
923.946 .0259730
924.589 .0259682
925.231 .0259628
925.873 .0259568
926.515 .0259502
927.157 .0259428
927.798 .0259348
928.439 .0259261
929.079 .0259167
929.719 .0259067
930.359 .0258960
930.998 .0258847
931.637 .0258729
932.275 .0258605
932.913 .0258476
933.551 .0258342
934.188 .0258203
934.825 .0258060
935.462 .0257913
936.098 .0257762
936.733 .0257608
937.369 .0257451
938.004 .0257290
938.638 .0257126
939.273 .0256959
939.907 .0256789
940.540 .0256616
941.173 .0256441
941.806 .0256263
942.438 .0256083
943.070 .0255901
943.702 .0255717
944.333 .0255531
944.964 .0255343
945.594 .0255153
946.224 .0254959
946.854 .0254763
947.483 .0254564
948.112 .0254362
948.741 .0254158
949.369 .0253951
949.996 .0253743
950.624 .0253533
951.251 .0253320
951.878 .0253105
952.504 .0252888
953.130 .0252668
953.755 .0252446
954.380 .0252223
955.005 .0251998
955.629 .0251772
956.253 .0251546
956.877 .0251319
957.500 .0251091
958.123 .0250862
958.746 .0250631
959.368 .0250399
959.990 .0250165
960.611 .0249930
961.232 .0249693
961.853 .0249454
962.473 .0249213
963.093 .0248971
963.712 .0248726
964.331 .0248478
964.950 .0248227
965.569 .0247972
966.187 .0247713
966.804 .0247449
967.422 .0247181
968.039 .0246909
968.655 .0246633
969.272 .0246354
969.887 .0246072
970.503 .0245788
971.118 .0245501
971.733 .0245213
972.347 .0244924
972.961 .0244632
973.575 .0244340
974.188 .0244048
974.801 .0243755
975.414 .0243463
976.026 .0243172
976.638 .0242883
977.250 .0242595
977.861 .0242310
978.472 .0242026
979.083 .0241746
979.693 .0241468
980.303 .0241194
980.912 .0240803
981.521 .0240539
982.130 .0240280
982.738 .0240027
983.346 .0239779
983.954 .0239539
984.562 .0239306
985.169 .0239082
985.775 .0238865
986.382 .0238657
986.988 .0238458
987.594 .0238267
988.199 .0238086
988.804 .0237913
989.409 .0237852
990.013 .0237693
990.617 .0237544
991.221 .0237405
991.824 .0237275
992.427 .0237154
993.030 .0237042
993.632 .0236938
994.234 .0236843
994.836 .0236754
995.438 .0236674
996.039 .0236601
996.640 .0236536
997.240 .0236480
997.840 .0236435
998.440 .0236399
999.040 .0236375
999.639 .0236362
1000.238 .0236360
1000.836 .0236367
1001.435 .0236385
1002.033 .0236412
1002.630 .0236447
1003.228 .0236492
1003.825 .0236545
1004.422 .0236606
1005.018 .0236676
1005.614 .0236754
1006.210 .0236839
1006.806 .0236932
1007.401 .0237031
1007.996 .0237135
1008.591 .0237243
1009.186 .0237356
1009.780 .0237472
1010.374 .0237592
1010.967 .0237717
1011.561 .0237847
1012.154 .0237983
1012.746 .0238124
1013.339 .0238272
1013.931 .0238426
1014.523 .0238586
1015.115 .0238751
1015.706 .0238921
1016.298 .0239094
1016.888 .0239272
1017.479 .0239454
1018.069 .0239642
1018.660 .0239834
1019.250 .0240033
1019.839 .0240237
1020.429 .0240448
1021.018 .0240665
1021.607 .0240886
1022.195 .0241112
1022.784 .0241343
1023.372 .0241578
1023.960 .0241819
1024.547 .0242065
1025.135 .0242318
1025.722 .0242578
1026.309 .0242846
1026.896 .0243122
1027.483 .0243404
1028.069 .0243692
1028.655 .0243983
1029.241 .0244277
1029.827 .0244572
1030.412 .0244868
1030.997 .0245164
1031.582 .0245460
1032.167 .0245756
1032.752 .0246052
1033.336 .0246347
1033.921 .0246639
1034.505 .0246929
1035.089 .0247214
1035.672 .0247492
1036.256 .0247763
1036.839 .0248026
1037.422 .0248281
1038.005 .0248529
1038.588 .0248771
1039.171 .0249007
1039.753 .0249238
1040.335 .0249463
1040.918 .0249682
1041.500 .0249895
1042.081 .0250100
1042.663 .0250297
1043.244 .0250487
1043.826 .0250669
1044.407 .0250844
1044.988 .0251014
1045.569 .0251180
1046.150 .0251342
1046.730 .0251501
1047.311 .0251656
1047.891 .0251808
1048.471 .0251954
1049.052 .0252096
1049.632 .0252233
1050.211 .0252366
1050.791 .0252496
1051.371 .0252624
1051.950 .0252751
1052.530 .0252877
1053.109 .0253003
1053.688 .0253128
1054.268 .0253252
1054.847 .0253374
1055.426 .0253494
1056.005 .0253611
1056.583 .0253724
1057.162 .0253832
1057.741 .0253936
1058.319 .0254034
1058.898 .0254128
1059.476 .0254217
1060.055 .0254301
1060.633 .0254380
1061.211 .0254456
1061.790 .0254527
1062.368 .0254593
1062.946 .0254656
1063.524 .0254713
1064.102 .0254766
1064.680 .0254813
1065.258 .0254855
1065.836 .0254892
1066.414 .0254925
1066.992 .0254952
1067.570 .0254975
1068.148 .0254993
1068.726 .0255007
1069.304 .0255014
1069.882 .0255017
1070.460 .0255014
1071.038 .0255005
1071.616 .0254990
1072.194 .0254967
1072.772 .0254938
1073.350 .0254903
1073.928 .0254863
1074.506 .0254820
1075.084 .0254774
1075.662 .0254726
1076.240 .0254678
1076.819 .0254629
1077.397 .0254580
1077.976 .0254530
1078.554 .0254480
1079.133 .0254428
1079.711 .0254374
1080.290 .0254318
1080.869 .0254262
1081.448 .0254205
1082.027 .0254147
1082.606 .0254090
1083.185 .0254032
1083.764 .0253972
1084.343 .0253910
1084.923 .0253846
1085.502 .0253779
1086.082 .0253708
1086.662 .0253636
1087.242 .0253564
1087.822 .0253492
1088.402 .0253423
1088.983 .0253358
1089.563 .0253298
1090.144 .0253244
1090.725 .0253197
1091.306 .0253155
1091.887 .0253120
1092.469 .0253092
1093.050 .0253070
1093.632 .0253055
1094.214 .0253046
1094.796 .0253044
1095.379 .0253049
1095.961 .0253061
1096.544 .0253079
1097.127 .0253102
1097.710 .0253131
1098.294 .0253165
1098.877 .0253201
1099.461 .0253239
1100.046 .0253278
1100.630 .0253318
1101.215 .0253357
1101.800 .0253397
1102.385 .0253438
1102.970 .0253480
1103.556 .0253523
1104.142 .0253569
1104.728 .0253617
1105.315 .0253669
1105.902 .0253724
1106.489 .0253782
1107.077 .0253846
1107.664 .0253913
1108.253 .0253985
1108.841 .0254065
1109.430 .0254153
1110.019 .0254250
1110.609 .0254359
1111.198 .0254479
1111.789 .0254612
1112.379 .0254755
1112.970 .0254908
1113.561 .0255070
1114.153 .0255240
1114.745 .0255418
1115.338 .0255604
1115.931 .0255799
1116.524 .0256006
1117.117 .0256228
1117.712 .0256469
1118.306 .0256728
1118.901 .0257008
1119.496 .0257310
1120.092 .0257632
1120.689 .0257972
1121.285 .0258327
1121.882 .0258695
1122.480 .0259074
1123.078 .0259464
1123.677 .0259866
1124.276 .0260282
1124.875 .0260716
1125.476 .0261169
1126.076 .0261642
1126.677 .0262135
1127.279 .0262646
1127.881 .0263172
1128.484 .0263714
1129.087 .0263941
1129.691 .0264497
1130.295 .0265068
1130.900 .0265658
1131.505 .0266272
1132.111 .0266913
1132.718 .0267585
1133.325 .0268293
1133.933 .0269040
1134.541 .0269873
1135.150 .0270653
1135.760 .0271510
1136.370 .0272436
1136.981 .0272580
1137.592 .0273477
1138.204 .0274335
1138.817 .0275263
1139.431 .0276300
1140.045 .0277368
1140.660 .0278556
1141.275 .0279875
1141.891 .0281331
1142.508 .0284164
1143.126 .0283168
1143.744 .0285817
1144.363 .0288244
1144.983 .0290268
