Measurement Sequence started on: 15-12-46-377
Integration time: 28
Scans to Average: 2 
>>>>>Begin Spectral Data<<<<<
432.689 .0000100
433.621 .0000100
434.552 .0000100
435.482 .0000100
436.410 .0000100
437.337 .0000100
438.262 .0250228
439.187 .0529181
440.110 .0875250
441.031 .1265023
441.952 .1007433
442.871 .1051392
443.789 .1092194
444.705 .1130471
445.621 .1166661
446.535 .1201115
447.447 .1220921
448.359 .1224772
449.269 .1209326
450.178 .1172414
451.086 .1114801
451.993 .1040880
452.898 .0957872
453.803 .0873934
454.706 .0795982
455.608 .0728278
456.508 .0672238
457.408 .0634262
458.306 .0605016
459.204 .0581174
460.100 .0561109
460.995 .0543914
461.888 .0528985
462.781 .0515910
463.673 .0504367
464.563 .0494121
465.452 .0484988
466.340 .0476795
467.228 .0469424
468.114 .0462773
468.999 .0456752
469.882 .0451288
470.765 .0446332
471.647 .0441842
472.528 .0437790
473.407 .0434150
474.286 .0430903
475.163 .0428030
476.040 .0425506
476.915 .0423308
477.790 .0421409
478.663 .0419790
479.535 .0418427
480.407 .0417300
481.277 .0416392
482.147 .0415679
483.015 .0415144
483.883 .0414775
484.749 .0414559
485.615 .0414490
486.479 .0414557
487.343 .0414754
488.206 .0415082
489.067 .0415530
489.928 .0416099
490.788 .0416789
491.647 .0417597
492.505 .0418526
493.362 .0419573
494.218 .0420739
495.073 .0422028
495.928 .0424463
496.781 .0426124
497.634 .0427949
498.486 .0429945
499.337 .0432131
500.187 .0434524
501.036 .0437140
501.884 .0440010
502.731 .0443163
503.578 .0446626
504.424 .0449023
505.268 .0453059
506.113 .0457496
506.956 .0462357
507.798 .0467683
508.640 .0473514
509.480 .0479912
510.320 .0486957
511.160 .0494753
511.998 .0503425
512.836 .0513144
513.672 .0524069
514.508 .0536380
515.344 .0550257
516.178 .0565871
517.012 .0583391
517.845 .0602972
518.677 .0624764
519.508 .0648867
520.339 .0675344
521.169 .0704245
521.998 .0735414
522.826 .0768623
523.654 .0803492
524.481 .0839530
525.307 .0876160
526.133 .0912692
526.958 .0948379
527.782 .0982478
528.605 .1014293
529.428 .1043201
530.250 .1068599
531.072 .1090098
531.892 .1107356
532.712 .1120144
533.532 .1128349
534.350 .1131905
535.168 .1130829
535.986 .1125167
536.802 .1114976
537.618 .1100328
538.434 .1081298
539.249 .1058172
540.063 .1031285
540.876 .1001106
541.689 .0968216
542.501 .0933233
543.313 .0896877
544.124 .0859906
544.934 .0823044
545.744 .0786920
546.553 .0752081
547.361 .0718993
548.169 .0687925
548.976 .0659077
549.783 .0632536
550.589 .0608279
551.395 .0586226
552.200 .0566227
553.004 .0548090
553.808 .0531645
554.611 .0516740
555.414 .0503216
556.216 .0490914
557.018 .0479689
557.819 .0469412
558.619 .0459965
559.419 .0451267
560.218 .0443249
561.017 .0435838
561.815 .0428973
562.613 .0422610
563.410 .0416692
564.207 .0411174
565.003 .0406000
565.799 .0401114
566.594 .0396463
567.388 .0392005
568.182 .0387696
568.976 .0383506
569.769 .0379421
570.562 .0375431
571.354 .0371530
572.145 .0367725
572.936 .0364019
573.727 .0360412
574.517 .0356906
575.307 .0353503
576.096 .0350195
576.885 .0346979
577.673 .0343854
578.461 .0340821
579.248 .0337886
580.035 .0335055
580.821 .0332333
581.607 .0329728
582.392 .0327248
583.177 .0324898
583.962 .0322681
584.746 .0320601
585.529 .0318656
586.313 .0316842
587.095 .0315154
587.878 .0313587
588.660 .0312137
589.441 .0310800
590.222 .0309567
591.003 .0308434
591.783 .0307395
592.563 .0306445
593.342 .0305578
594.121 .0304788
594.899 .0304069
595.678 .0303415
596.455 .0302820
597.233 .0302277
598.009 .0301782
598.786 .0301330
599.562 .0300916
600.338 .0300536
601.113 .0300185
601.888 .0299746
602.663 .0299454
603.437 .0299185
604.211 .0298934
604.984 .0298701
605.757 .0298483
606.530 .0298279
607.302 .0298088
608.074 .0297908
608.845 .0297737
609.616 .0297574
610.387 .0297504
611.158 .0297349
611.928 .0297199
612.697 .0297052
613.467 .0296906
614.236 .0296762
615.004 .0296618
615.773 .0296475
616.541 .0296332
617.308 .0296189
618.076 .0296047
618.843 .0295903
619.609 .0295757
620.375 .0295606
621.141 .0295451
621.907 .0295290
622.672 .0295121
623.437 .0294946
624.202 .0294764
624.966 .0294575
625.730 .0294381
626.493 .0294180
627.257 .0293974
628.020 .0293762
628.782 .0293544
629.545 .0293319
630.307 .0293088
631.068 .0292849
631.830 .0292604
632.591 .0292352
633.352 .0292094
634.112 .0291831
634.872 .0291564
635.632 .0291294
636.392 .0291020
637.151 .0290744
637.910 .0290467
638.668 .0290189
639.427 .0289912
640.185 .0289636
640.943 .0289363
641.700 .0289094
642.457 .0288831
643.214 .0288576
643.971 .0288328
644.727 .0288090
645.483 .0287862
646.239 .0287644
646.994 .0287437
647.750 .0287242
648.505 .0287059
649.259 .0286889
650.014 .0286732
650.768 .0286587
651.521 .0286454
652.275 .0286331
653.028 .0286217
653.781 .0286111
654.534 .0286011
655.286 .0285918
656.039 .0285829
656.791 .0285744
657.542 .0285664
658.294 .0285587
659.045 .0285514
659.796 .0285442
660.546 .0285370
661.297 .0285298
662.047 .0285224
662.796 .0285148
663.546 .0285070
664.295 .0284989
665.044 .0284906
665.793 .0284822
666.542 .0284737
667.290 .0284652
668.038 .0284567
668.786 .0284481
669.533 .0284396
670.281 .0284309
671.028 .0284222
671.774 .0284133
672.521 .0284044
673.267 .0283955
674.013 .0283865
674.759 .0283776
675.505 .0283686
676.250 .0283597
676.995 .0283506
677.740 .0283414
678.484 .0283320
679.229 .0283224
679.973 .0283123
680.717 .0283018
681.460 .0282907
682.204 .0282791
682.947 .0282668
683.690 .0282537
684.433 .0282399
685.175 .0282253
685.917 .0282098
686.659 .0281935
687.401 .0281764
688.142 .0281585
688.884 .0281397
689.625 .0281202
690.365 .0280998
691.106 .0280786
691.846 .0280566
692.586 .0280339
693.326 .0280104
694.066 .0279862
694.805 .0279614
695.545 .0279362
696.284 .0279105
697.022 .0278846
697.761 .0278585
698.499 .0278322
699.237 .0278059
699.975 .0277797
700.713 .0277536
701.450 .0277277
702.187 .0277022
702.924 .0276770
703.661 .0276524
704.397 .0276283
705.133 .0276049
705.869 .0275822
706.605 .0275602
707.341 .0275390
708.076 .0275187
708.811 .0274991
709.546 .0274804
710.281 .0274624
711.015 .0274453
711.749 .0274289
712.483 .0274133
713.217 .0273984
713.950 .0273841
714.684 .0273705
715.417 .0273575
716.150 .0273450
716.882 .0273329
717.615 .0273212
718.347 .0273098
719.079 .0272988
719.811 .0272880
720.542 .0272776
721.273 .0272676
722.005 .0272580
722.735 .0272489
723.466 .0272402
724.196 .0272320
724.927 .0272243
725.656 .0272171
726.386 .0272104
727.116 .0272042
727.845 .0271986
728.574 .0271934
729.303 .0271889
730.031 .0271849
730.760 .0271816
731.488 .0271789
732.216 .0271767
732.944 .0271751
733.671 .0271741
734.398 .0271734
735.125 .0271731
735.852 .0271730
736.579 .0271732
737.305 .0271734
738.031 .0271737
738.757 .0271739
739.483 .0271739
740.208 .0271737
740.933 .0271733
741.658 .0271725
742.383 .0271713
743.108 .0271697
743.832 .0271674
744.556 .0271646
745.280 .0271611
746.004 .0271568
746.727 .0271517
747.450 .0271458
748.173 .0271390
748.896 .0271315
749.618 .0271231
750.340 .0271139
751.062 .0271040
751.784 .0270933
752.506 .0270820
753.227 .0270699
753.948 .0270571
754.669 .0270436
755.389 .0270294
756.110 .0270144
756.830 .0269987
757.550 .0269822
758.269 .0269650
758.989 .0269471
759.708 .0269284
760.427 .0269090
761.146 .0268889
761.864 .0268682
762.582 .0268468
763.300 .0268248
764.018 .0268023
764.736 .0267792
765.453 .0267557
766.170 .0267317
766.887 .0267073
767.603 .0266826
768.320 .0266576
769.036 .0266325
769.751 .0266072
770.467 .0265820
771.182 .0265569
771.897 .0265320
772.612 .0265074
773.327 .0264831
774.041 .0264592
774.755 .0264358
775.469 .0264130
776.183 .0263906
776.896 .0263688
777.609 .0263477
778.322 .0263273
779.035 .0263076
779.747 .0262887
780.459 .0262705
781.171 .0262531
781.882 .0262364
782.594 .0262204
783.305 .0262051
784.016 .0261904
784.726 .0261763
785.436 .0261627
786.147 .0261444
786.856 .0261321
787.566 .0261203
788.275 .0261089
788.984 .0260981
789.693 .0260877
790.401 .0260777
791.110 .0260682
791.818 .0260590
792.525 .0260502
793.233 .0260418
793.940 .0260338
794.647 .0260305
795.353 .0260233
796.060 .0260165
796.766 .0260103
797.472 .0260047
798.177 .0259997
798.883 .0259952
799.588 .0259912
800.292 .0259877
800.997 .0259846
801.701 .0259820
802.405 .0259797
803.109 .0259778
803.812 .0259763
804.515 .0259750
805.218 .0259740
805.921 .0259733
806.623 .0259726
807.325 .0259721
808.027 .0259717
808.728 .0259713
809.429 .0259710
810.130 .0259708
810.831 .0259708
811.531 .0259708
812.231 .0259709
812.931 .0259710
813.630 .0259712
814.330 .0259714
815.029 .0259717
815.727 .0259722
816.426 .0259728
817.124 .0259736
817.821 .0259747
818.519 .0259762
819.216 .0259779
819.913 .0259798
820.609 .0259820
821.306 .0259844
822.002 .0259869
822.697 .0259895
823.393 .0259922
824.088 .0259952
824.783 .0259982
825.477 .0260015
826.171 .0260048
826.865 .0260082
827.559 .0260115
828.252 .0260147
828.945 .0260177
829.638 .0260204
830.330 .0260226
831.023 .0260244
831.714 .0260255
832.406 .0260259
833.097 .0260255
833.788 .0260244
834.479 .0260224
835.169 .0260196
835.859 .0260160
836.548 .0260116
837.238 .0260063
837.927 .0260003
838.615 .0259934
839.304 .0259856
839.992 .0259769
840.680 .0259672
841.367 .0259566
842.054 .0259450
842.741 .0259327
843.428 .0259196
844.114 .0259057
844.800 .0258910
845.485 .0258755
846.170 .0258592
846.855 .0258419
847.540 .0258236
848.224 .0258043
848.908 .0257840
849.592 .0257627
850.275 .0257404
850.958 .0257172
851.641 .0256933
852.323 .0256685
853.005 .0256429
853.687 .0256166
854.368 .0255895
855.049 .0255618
855.730 .0255335
856.410 .0255048
857.090 .0254757
857.769 .0254464
858.449 .0254170
859.128 .0253875
859.806 .0253580
860.485 .0253285
861.163 .0252990
861.840 .0252697
862.518 .0252405
863.195 .0252117
863.871 .0251833
864.548 .0251555
865.224 .0251282
865.899 .0251016
866.574 .0250756
867.249 .0250501
867.924 .0250253
868.598 .0250010
869.272 .0249772
869.946 .0249539
870.619 .0249312
871.292 .0249091
871.964 .0248876
872.636 .0248668
873.308 .0248465
873.979 .0248269
874.651 .0248079
875.321 .0247894
875.992 .0247715
876.662 .0247540
877.331 .0247370
878.001 .0247205
878.670 .0247046
879.338 .0246891
880.007 .0246743
880.675 .0246602
881.342 .0246468
882.009 .0246341
882.676 .0246222
883.343 .0246111
884.009 .0246009
884.675 .0245915
885.340 .0245830
886.005 .0245755
886.670 .0245690
887.334 .0245634
887.998 .0245589
888.662 .0245555
889.325 .0245530
889.988 .0245517
890.650 .0245513
891.312 .0245520
891.974 .0245537
892.636 .0245564
893.297 .0245600
893.957 .0245644
894.618 .0245697
895.278 .0245757
895.937 .0245825
896.596 .0245898
897.255 .0245977
897.914 .0246059
898.572 .0246145
899.230 .0246233
899.887 .0246323
900.544 .0246413
901.201 .0246503
901.857 .0246627
902.513 .0246710
903.168 .0246790
903.823 .0246866
904.478 .0246938
905.132 .0247006
905.786 .0247067
906.440 .0247123
907.093 .0247174
907.746 .0247219
908.399 .0247259
909.051 .0247295
909.703 .0247328
910.354 .0247333
911.005 .0247363
911.656 .0247390
912.306 .0247416
912.956 .0247440
913.605 .0247462
914.254 .0247483
914.903 .0247504
915.551 .0247523
916.199 .0247542
916.847 .0247561
917.494 .0247580
918.141 .0247598
918.788 .0247616
919.434 .0247633
920.079 .0247648
920.725 .0247662
921.370 .0247674
922.014 .0247684
922.658 .0247692
923.302 .0247698
923.946 .0247702
924.589 .0247703
925.231 .0247701
925.873 .0247697
926.515 .0247688
927.157 .0247676
927.798 .0247660
928.439 .0247639
929.079 .0247615
929.719 .0247587
930.359 .0247555
930.998 .0247520
931.637 .0247483
932.275 .0247443
932.913 .0247400
933.551 .0247355
934.188 .0247307
934.825 .0247258
935.462 .0247206
936.098 .0247154
936.733 .0247101
937.369 .0247047
938.004 .0246993
938.638 .0246938
939.273 .0246884
939.907 .0246829
940.540 .0246774
941.173 .0246718
941.806 .0246661
942.438 .0246604
943.070 .0246545
943.702 .0246484
944.333 .0246422
944.964 .0246357
945.594 .0246290
946.224 .0246218
946.854 .0246142
947.483 .0246062
948.112 .0245976
948.741 .0245885
949.369 .0245788
949.996 .0245685
950.624 .0245576
951.251 .0245461
951.878 .0245339
952.504 .0245209
953.130 .0245072
953.755 .0244927
954.380 .0244774
955.005 .0244613
955.629 .0244445
956.253 .0244271
956.877 .0244090
957.500 .0243903
958.123 .0243711
958.746 .0243515
959.368 .0243314
959.990 .0243108
960.611 .0242898
961.232 .0242684
961.853 .0242465
962.473 .0242243
963.093 .0242018
963.712 .0241790
964.331 .0241559
964.950 .0241325
965.569 .0241089
966.187 .0240850
966.804 .0240608
967.422 .0240363
968.039 .0240115
968.655 .0239865
969.272 .0239611
969.887 .0239354
970.503 .0239095
971.118 .0238833
971.733 .0238569
972.347 .0238301
972.961 .0238031
973.575 .0237758
974.188 .0237482
974.801 .0237203
975.414 .0236922
976.026 .0236638
976.638 .0236352
977.250 .0236063
977.861 .0235773
978.472 .0235481
979.083 .0235187
979.693 .0234893
980.303 .0234599
980.912 .0234160
981.521 .0233870
982.130 .0233583
982.738 .0233299
983.346 .0233019
983.954 .0232743
984.562 .0232473
985.169 .0232209
985.775 .0231953
986.382 .0231704
986.988 .0231465
987.594 .0231235
988.199 .0231016
988.804 .0230807
989.409 .0230735
990.013 .0230543
990.617 .0230362
991.221 .0230191
991.824 .0230029
992.427 .0229875
993.030 .0229730
993.632 .0229594
994.234 .0229465
994.836 .0229345
995.438 .0229232
996.039 .0229128
996.640 .0229032
997.240 .0228944
997.840 .0228864
998.440 .0228792
999.040 .0228726
999.639 .0228666
1000.238 .0228611
1000.836 .0228562
1001.435 .0228519
1002.033 .0228482
1002.630 .0228450
1003.228 .0228426
1003.825 .0228407
1004.422 .0228396
1005.018 .0228390
1005.614 .0228390
1006.210 .0228394
1006.806 .0228403
1007.401 .0228415
1007.996 .0228430
1008.591 .0228449
1009.186 .0228473
1009.780 .0228502
1010.374 .0228537
1010.967 .0228579
1011.561 .0228628
1012.154 .0228685
1012.746 .0228748
1013.339 .0228818
1013.931 .0228894
1014.523 .0228976
1015.115 .0229064
1015.706 .0229159
1016.298 .0229262
1016.888 .0229372
1017.479 .0229491
1018.069 .0229619
1018.660 .0229756
1019.250 .0229902
1019.839 .0230056
1020.429 .0230217
1021.018 .0230385
1021.607 .0230560
1022.195 .0230740
1022.784 .0230926
1023.372 .0231120
1023.960 .0231321
1024.547 .0231530
1025.135 .0231746
1025.722 .0231969
1026.309 .0232199
1026.896 .0232434
1027.483 .0232674
1028.069 .0232917
1028.655 .0233164
1029.241 .0233413
1029.827 .0233665
1030.412 .0233920
1030.997 .0234176
1031.582 .0234435
1032.167 .0234695
1032.752 .0234956
1033.336 .0235217
1033.921 .0235478
1034.505 .0235737
1035.089 .0235995
1035.672 .0236251
1036.256 .0236505
1036.839 .0236757
1037.422 .0237006
1038.005 .0237253
1038.588 .0237496
1039.171 .0237735
1039.753 .0237970
1040.335 .0238200
1040.918 .0238426
1041.500 .0238647
1042.081 .0238864
1042.663 .0239077
1043.244 .0239289
1043.826 .0239498
1044.407 .0239706
1044.988 .0239912
1045.569 .0240115
1046.150 .0240315
1046.730 .0240511
1047.311 .0240703
1047.891 .0240890
1048.471 .0241074
1049.052 .0241254
1049.632 .0241431
1050.211 .0241607
1050.791 .0241782
1051.371 .0241957
1051.950 .0242131
1052.530 .0242306
1053.109 .0242481
1053.688 .0242654
1054.268 .0242826
1054.847 .0242998
1055.426 .0243168
1056.005 .0243338
1056.583 .0243507
1057.162 .0243676
1057.741 .0243845
1058.319 .0244015
1058.898 .0244183
1059.476 .0244350
1060.055 .0244515
1060.633 .0244677
1061.211 .0244835
1061.790 .0244989
1062.368 .0245139
1062.946 .0245285
1063.524 .0245428
1064.102 .0245567
1064.680 .0245703
1065.258 .0245836
1065.836 .0245966
1066.414 .0246092
1066.992 .0246215
1067.570 .0246332
1068.148 .0246445
1068.726 .0246552
1069.304 .0246654
1069.882 .0246748
1070.460 .0246835
1071.038 .0246915
1071.616 .0246987
1072.194 .0247051
1072.772 .0247106
1073.350 .0247153
1073.928 .0247193
1074.506 .0247225
1075.084 .0247253
1075.662 .0247275
1076.240 .0247295
1076.819 .0247312
1077.397 .0247328
1077.976 .0247344
1078.554 .0247360
1079.133 .0247378
1079.711 .0247398
1080.290 .0247420
1080.869 .0247445
1081.448 .0247473
1082.027 .0247505
1082.606 .0247541
1083.185 .0247582
1083.764 .0247626
1084.343 .0247673
1084.923 .0247723
1085.502 .0247775
1086.082 .0247830
1086.662 .0247887
1087.242 .0247948
1087.822 .0248013
1088.402 .0248083
1088.983 .0248159
1089.563 .0248240
1090.144 .0248326
1090.725 .0248416
1091.306 .0248510
1091.887 .0248605
1092.469 .0248700
1093.050 .0248795
1093.632 .0248888
1094.214 .0248978
1094.796 .0249066
1095.379 .0249151
1095.961 .0249230
1096.544 .0249305
1097.127 .0249374
1097.710 .0249437
1098.294 .0249493
1098.877 .0249543
1099.461 .0249585
1100.046 .0249620
1100.630 .0249648
1101.215 .0249669
1101.800 .0249681
1102.385 .0249683
1102.970 .0249675
1103.556 .0249657
1104.142 .0249628
1104.728 .0249589
1105.315 .0249541
1105.902 .0249488
1106.489 .0249430
1107.077 .0249372
1107.664 .0249316
1108.253 .0249264
1108.841 .0249218
1109.430 .0249180
1110.019 .0249149
1110.609 .0249129
1111.198 .0249120
1111.789 .0249126
1112.379 .0249146
1112.970 .0249182
1113.561 .0249235
1114.153 .0249304
1114.745 .0249390
1115.338 .0249492
1115.931 .0249610
1116.524 .0249740
1117.117 .0249883
1117.712 .0250035
1118.306 .0250197
1118.901 .0250372
1119.496 .0250558
1120.092 .0250757
1120.689 .0250971
1121.285 .0251200
1121.882 .0251445
1122.480 .0251710
1123.078 .0251996
1123.677 .0252305
1124.276 .0252639
1124.875 .0252998
1125.476 .0253381
1126.076 .0253791
1126.677 .0254225
1127.279 .0254683
1127.881 .0255161
1128.484 .0255660
1129.087 .0255854
1129.691 .0256375
1130.295 .0256918
1130.900 .0257484
1131.505 .0258077
1132.111 .0258697
1132.718 .0259344
1133.325 .0260017
1133.933 .0260723
1134.541 .0261479
1135.150 .0262212
1135.760 .0262974
1136.370 .0263725
1136.981 .0264270
1137.592 .0265210
1138.204 .0266249
1138.817 .0267312
1139.431 .0268461
1140.045 .0269615
1140.660 .0270763
1141.275 .0271818
1141.891 .0273078
1142.508 .0274766
1143.126 .0274369
1143.744 .0275438
1144.363 .0275332
1144.983 .0283419
