Measurement Sequence started on: 15-12-46-377
Integration time: 28
Scans to Average: 2 
>>>>>Begin Spectral Data<<<<<
432.689 .0000100
433.621 .0000100
434.552 .0000100
435.482 .0000100
436.410 .0000100
437.337 .0000100
438.262 .0272140
439.187 .0576159
440.110 .0954843
441.031 .1382201
441.952 .1113326
442.871 .1163318
443.789 .1209835
444.705 .1253560
445.621 .1294976
446.535 .1334459
447.447 .1357965
448.359 .1364040
449.269 .1348950
450.178 .1310279
451.086 .1248788
451.993 .1169194
452.898 .1079325
453.803 .0988065
454.706 .0902985
455.608 .0828800
456.508 .0767119
457.408 .0724987
458.306 .0692329
459.204 .0665591
460.100 .0642989
460.995 .0623533
461.888 .0606566
462.781 .0591626
463.673 .0578361
464.563 .0566503
465.452 .0555840
466.340 .0546186
467.228 .0537406
468.114 .0529394
468.999 .0522062
469.882 .0515338
470.765 .0509167
471.647 .0503502
472.528 .0498311
473.407 .0493567
474.286 .0489242
475.163 .0485315
476.040 .0481757
476.915 .0478542
477.790 .0475646
478.663 .0473052
479.535 .0470745
480.407 .0468713
481.277 .0466958
482.147 .0465468
483.015 .0464238
483.883 .0463262
484.749 .0462528
485.615 .0462024
486.479 .0461737
487.343 .0461649
488.206 .0461745
489.067 .0462010
489.928 .0462432
490.788 .0463010
491.647 .0463746
492.505 .0464645
493.362 .0465712
494.218 .0466954
495.073 .0468388
495.928 .0471229
496.781 .0473194
497.634 .0475378
498.486 .0477796
499.337 .0480470
500.187 .0483426
501.036 .0486700
501.884 .0490328
502.731 .0494348
503.578 .0498798
504.424 .0501975
505.268 .0507192
506.113 .0512919
506.956 .0519192
507.798 .0526047
508.640 .0533539
509.480 .0541759
510.320 .0550821
511.160 .0560843
511.998 .0571972
512.836 .0584377
513.672 .0598226
514.508 .0613679
515.344 .0630921
516.178 .0650145
517.012 .0671555
517.845 .0695345
518.677 .0721720
519.508 .0750849
520.339 .0782847
521.169 .0817775
521.998 .0855474
522.826 .0895661
523.654 .0937852
524.481 .0981375
525.307 .1025487
526.133 .1069288
526.958 .1111819
527.782 .1152112
528.605 .1189321
529.428 .1222657
530.250 .1251443
531.072 .1275242
531.892 .1293747
532.712 .1306767
533.532 .1314241
534.350 .1316147
535.168 .1312569
535.986 .1303572
536.802 .1289231
537.618 .1269621
538.434 .1244865
539.249 .1215257
540.063 .1181214
540.876 .1143317
541.689 .1102343
542.501 .1059093
543.313 .1014497
544.124 .0969506
544.934 .0925036
545.744 .0881857
546.553 .0840651
547.361 .0801964
548.169 .0766102
548.976 .0733238
549.783 .0703414
550.589 .0676526
551.395 .0652408
552.200 .0630784
553.004 .0611362
553.808 .0593870
554.611 .0578081
555.414 .0563765
556.216 .0550741
557.018 .0538840
557.819 .0527924
558.619 .0517843
559.419 .0508499
560.218 .0499800
561.017 .0491654
561.815 .0483990
562.613 .0476754
563.410 .0469885
564.207 .0463332
565.003 .0457043
565.799 .0450975
566.594 .0445080
567.388 .0439328
568.182 .0433688
568.976 .0428145
569.769 .0422699
570.562 .0417357
571.354 .0412126
572.145 .0407027
572.936 .0402073
573.727 .0397274
574.517 .0392639
575.307 .0388174
576.096 .0383879
576.885 .0379755
577.673 .0375806
578.461 .0372037
579.248 .0368453
580.035 .0365063
580.821 .0361874
581.607 .0358891
582.392 .0356115
583.177 .0353543
583.962 .0351166
584.746 .0348973
585.529 .0346950
586.313 .0345084
587.095 .0343359
587.878 .0341765
588.660 .0340291
589.441 .0338929
590.222 .0337674
591.003 .0336516
591.783 .0335451
592.563 .0334470
593.342 .0333562
594.121 .0332718
594.899 .0331929
595.678 .0331186
596.455 .0330483
597.233 .0329813
598.009 .0329173
598.786 .0328559
599.562 .0327968
600.338 .0327401
601.113 .0326855
601.888 .0326101
602.663 .0325604
603.437 .0325125
604.211 .0324663
604.984 .0324217
605.757 .0323784
606.530 .0323366
607.302 .0322961
608.074 .0322570
608.845 .0322194
609.616 .0321833
610.387 .0321692
611.158 .0321355
611.928 .0321033
612.697 .0320725
613.467 .0320430
614.236 .0320147
615.004 .0319875
615.773 .0319610
616.541 .0319353
617.308 .0319101
618.076 .0318855
618.843 .0318613
619.609 .0318375
620.375 .0318138
621.141 .0317904
621.907 .0317669
622.672 .0317434
623.437 .0317198
624.202 .0316959
624.966 .0316716
625.730 .0316470
626.493 .0316219
627.257 .0315962
628.020 .0315701
628.782 .0315435
629.545 .0315165
630.307 .0314892
631.068 .0314617
631.830 .0314340
632.591 .0314062
633.352 .0313783
634.112 .0313506
634.872 .0313229
635.632 .0312953
636.392 .0312680
637.151 .0312409
637.910 .0312142
638.668 .0311879
639.427 .0311621
640.185 .0311369
640.943 .0311122
641.700 .0310880
642.457 .0310643
643.214 .0310410
643.971 .0310181
644.727 .0309954
645.483 .0309728
646.239 .0309503
646.994 .0309278
647.750 .0309054
648.505 .0308829
649.259 .0308604
650.014 .0308377
650.768 .0308149
651.521 .0307919
652.275 .0307687
653.028 .0307453
653.781 .0307216
654.534 .0306975
655.286 .0306731
656.039 .0306482
656.791 .0306230
657.542 .0305974
658.294 .0305715
659.045 .0305454
659.796 .0305190
660.546 .0304924
661.297 .0304657
662.047 .0304390
662.796 .0304122
663.546 .0303856
664.295 .0303592
665.044 .0303330
665.793 .0303070
666.542 .0302815
667.290 .0302565
668.038 .0302320
668.786 .0302081
669.533 .0301849
670.281 .0301623
671.028 .0301405
671.774 .0301193
672.521 .0300988
673.267 .0300788
674.013 .0300594
674.759 .0300405
675.505 .0300221
676.250 .0300043
676.995 .0299870
677.740 .0299702
678.484 .0299540
679.229 .0299382
679.973 .0299228
680.717 .0299078
681.460 .0298930
682.204 .0298783
682.947 .0298636
683.690 .0298489
684.433 .0298342
685.175 .0298194
685.917 .0298045
686.659 .0297894
687.401 .0297743
688.142 .0297590
688.884 .0297437
689.625 .0297282
690.365 .0297126
691.106 .0296968
691.846 .0296809
692.586 .0296647
693.326 .0296484
694.066 .0296320
694.805 .0296155
695.545 .0295990
696.284 .0295826
697.022 .0295665
697.761 .0295506
698.499 .0295350
699.237 .0295198
699.975 .0295049
700.713 .0294904
701.450 .0294760
702.187 .0294619
702.924 .0294479
703.661 .0294340
704.397 .0294201
705.133 .0294063
705.869 .0293925
706.605 .0293786
707.341 .0293646
708.076 .0293505
708.811 .0293361
709.546 .0293215
710.281 .0293065
711.015 .0292910
711.749 .0292750
712.483 .0292584
713.217 .0292411
713.950 .0292230
714.684 .0292042
715.417 .0291847
716.150 .0291645
716.882 .0291436
717.615 .0291223
718.347 .0291005
719.079 .0290783
719.811 .0290558
720.542 .0290330
721.273 .0290101
722.005 .0289870
722.735 .0289640
723.466 .0289411
724.196 .0289185
724.927 .0288962
725.656 .0288745
726.386 .0288534
727.116 .0288329
727.845 .0288131
728.574 .0287939
729.303 .0287754
730.031 .0287576
730.760 .0287405
731.488 .0287239
732.216 .0287079
732.944 .0286923
733.671 .0286772
734.398 .0286624
735.125 .0286478
735.852 .0286335
736.579 .0286193
737.305 .0286052
738.031 .0285911
738.757 .0285771
739.483 .0285631
740.208 .0285490
740.933 .0285347
741.658 .0285203
742.383 .0285057
743.108 .0284909
743.832 .0284759
744.556 .0284609
745.280 .0284457
746.004 .0284305
746.727 .0284154
747.450 .0284002
748.173 .0283851
748.896 .0283701
749.618 .0283551
750.340 .0283402
751.062 .0283253
751.784 .0283105
752.506 .0282958
753.227 .0282812
753.948 .0282666
754.669 .0282521
755.389 .0282377
756.110 .0282232
756.830 .0282087
757.550 .0281941
758.269 .0281796
758.989 .0281650
759.708 .0281503
760.427 .0281356
761.146 .0281208
761.864 .0281058
762.582 .0280907
763.300 .0280755
764.018 .0280601
764.736 .0280447
765.453 .0280293
766.170 .0280141
766.887 .0279990
767.603 .0279842
768.320 .0279697
769.036 .0279555
769.751 .0279416
770.467 .0279282
771.182 .0279153
771.897 .0279028
772.612 .0278909
773.327 .0278795
774.041 .0278686
774.755 .0278584
775.469 .0278488
776.183 .0278397
776.896 .0278313
777.609 .0278235
778.322 .0278163
779.035 .0278097
779.747 .0278037
780.459 .0277982
781.171 .0277933
781.882 .0277888
782.594 .0277846
783.305 .0277808
784.016 .0277772
784.726 .0277738
785.436 .0277705
786.147 .0277658
786.856 .0277625
787.566 .0277592
788.275 .0277558
788.984 .0277523
789.693 .0277487
790.401 .0277448
791.110 .0277407
791.818 .0277364
792.525 .0277317
793.233 .0277269
793.940 .0277218
794.647 .0277184
795.353 .0277131
796.060 .0277077
796.766 .0277021
797.472 .0276965
798.177 .0276906
798.883 .0276847
799.588 .0276787
800.292 .0276726
800.997 .0276664
801.701 .0276603
802.405 .0276541
803.109 .0276479
803.812 .0276417
804.515 .0276355
805.218 .0276293
805.921 .0276230
806.623 .0276166
807.325 .0276101
808.027 .0276035
808.728 .0275968
809.429 .0275899
810.130 .0275828
810.831 .0275755
811.531 .0275679
812.231 .0275600
812.931 .0275518
813.630 .0275433
814.330 .0275346
815.029 .0275255
815.727 .0275162
816.426 .0275068
817.124 .0274972
817.821 .0274874
818.519 .0274776
819.216 .0274675
819.913 .0274574
820.609 .0274472
821.306 .0274369
822.002 .0274266
822.697 .0274165
823.393 .0274065
824.088 .0273967
824.783 .0273872
825.477 .0273779
826.171 .0273689
826.865 .0273601
827.559 .0273514
828.252 .0273428
828.945 .0273343
829.638 .0273259
830.330 .0273176
831.023 .0273093
831.714 .0273010
832.406 .0272926
833.097 .0272843
833.788 .0272758
834.479 .0272673
835.169 .0272586
835.859 .0272497
836.548 .0272406
837.238 .0272314
837.927 .0272219
838.615 .0272122
839.304 .0272023
839.992 .0271920
840.680 .0271814
841.367 .0271704
842.054 .0271589
842.741 .0271469
843.428 .0271345
844.114 .0271216
844.800 .0271083
845.485 .0270947
846.170 .0270806
846.855 .0270662
847.540 .0270514
848.224 .0270362
848.908 .0270205
849.592 .0270043
850.275 .0269875
850.958 .0269702
851.641 .0269522
852.323 .0269337
853.005 .0269147
853.687 .0268952
854.368 .0268753
855.049 .0268551
855.730 .0268346
856.410 .0268137
857.090 .0267925
857.769 .0267711
858.449 .0267495
859.128 .0267277
859.806 .0267057
860.485 .0266837
861.163 .0266618
861.840 .0266399
862.518 .0266182
863.195 .0265967
863.871 .0265756
864.548 .0265548
865.224 .0265345
865.899 .0265145
866.574 .0264951
867.249 .0264760
867.924 .0264575
868.598 .0264394
869.272 .0264218
869.946 .0264047
870.619 .0263880
871.292 .0263718
871.964 .0263561
872.636 .0263407
873.308 .0263259
873.979 .0263115
874.651 .0262975
875.321 .0262840
875.992 .0262710
876.662 .0262584
877.331 .0262462
878.001 .0262345
878.670 .0262232
879.338 .0262123
880.007 .0262019
880.675 .0261920
881.342 .0261826
882.009 .0261738
882.676 .0261657
883.343 .0261582
884.009 .0261514
884.675 .0261453
885.340 .0261399
886.005 .0261352
886.670 .0261311
887.334 .0261277
887.998 .0261249
888.662 .0261227
889.325 .0261209
889.988 .0261197
890.650 .0261188
891.312 .0261183
891.974 .0261182
892.636 .0261182
893.297 .0261184
893.957 .0261187
894.618 .0261191
895.278 .0261194
895.937 .0261195
896.596 .0261194
897.255 .0261189
897.914 .0261179
898.572 .0261164
899.230 .0261143
899.887 .0261115
900.544 .0261082
901.201 .0261041
901.857 .0260952
902.513 .0260896
903.168 .0260835
903.823 .0260768
904.478 .0260695
905.132 .0260617
905.786 .0260534
906.440 .0260446
907.093 .0260355
907.746 .0260262
908.399 .0260166
909.051 .0260069
909.703 .0259973
910.354 .0259928
911.005 .0259834
911.656 .0259742
912.306 .0259652
912.956 .0259564
913.605 .0259479
914.254 .0259398
914.903 .0259319
915.551 .0259245
916.199 .0259174
916.847 .0259106
917.494 .0259041
918.141 .0258979
918.788 .0258920
919.434 .0258863
920.079 .0258808
920.725 .0258754
921.370 .0258702
922.014 .0258649
922.658 .0258597
923.302 .0258544
923.946 .0258490
924.589 .0258433
925.231 .0258375
925.873 .0258314
926.515 .0258250
927.157 .0258183
927.798 .0258114
928.439 .0258042
929.079 .0257968
929.719 .0257893
930.359 .0257817
930.998 .0257740
931.637 .0257663
932.275 .0257586
932.913 .0257510
933.551 .0257434
934.188 .0257361
934.825 .0257290
935.462 .0257221
936.098 .0257157
936.733 .0257096
937.369 .0257039
938.004 .0256986
938.638 .0256938
939.273 .0256894
939.907 .0256853
940.540 .0256816
941.173 .0256783
941.806 .0256753
942.438 .0256728
943.070 .0256707
943.702 .0256691
944.333 .0256678
944.964 .0256669
945.594 .0256662
946.224 .0256656
946.854 .0256651
947.483 .0256645
948.112 .0256638
948.741 .0256628
949.369 .0256615
949.996 .0256600
950.624 .0256582
951.251 .0256561
951.878 .0256537
952.504 .0256511
953.130 .0256481
953.755 .0256448
954.380 .0256412
955.005 .0256372
955.629 .0256328
956.253 .0256282
956.877 .0256232
957.500 .0256180
958.123 .0256127
958.746 .0256072
959.368 .0256015
959.990 .0255958
960.611 .0255899
961.232 .0255840
961.853 .0255781
962.473 .0255720
963.093 .0255659
963.712 .0255598
964.331 .0255536
964.950 .0255473
965.569 .0255410
966.187 .0255346
966.804 .0255281
967.422 .0255215
968.039 .0255146
968.655 .0255075
969.272 .0255001
969.887 .0254924
970.503 .0254842
971.118 .0254755
971.733 .0254663
972.347 .0254567
972.961 .0254465
973.575 .0254358
974.188 .0254245
974.801 .0254126
975.414 .0254000
976.026 .0253869
976.638 .0253731
977.250 .0253587
977.861 .0253436
978.472 .0253278
979.083 .0253115
979.693 .0252946
980.303 .0252772
980.912 .0252494
981.521 .0252314
982.130 .0252131
982.738 .0251948
983.346 .0251764
983.954 .0251579
984.562 .0251395
985.169 .0251212
985.775 .0251030
986.382 .0250850
986.988 .0250672
987.594 .0250498
988.199 .0250328
988.804 .0250162
989.409 .0250096
990.013 .0249938
990.617 .0249784
991.221 .0249634
991.824 .0249489
992.427 .0249347
993.030 .0249209
993.632 .0249072
994.234 .0248938
994.836 .0248807
995.438 .0248678
996.039 .0248551
996.640 .0248426
997.240 .0248304
997.840 .0248185
998.440 .0248068
999.040 .0247954
999.639 .0247840
1000.238 .0247728
1000.836 .0247616
1001.435 .0247503
1002.033 .0247391
1002.630 .0247278
1003.228 .0247165
1003.825 .0247050
1004.422 .0246935
1005.018 .0246818
1005.614 .0246700
1006.210 .0246580
1006.806 .0246458
1007.401 .0246333
1007.996 .0246208
1008.591 .0246081
1009.186 .0245955
1009.780 .0245830
1010.374 .0245708
1010.967 .0245588
1011.561 .0245472
1012.154 .0245359
1012.746 .0245249
1013.339 .0245144
1013.931 .0245042
1014.523 .0244945
1015.115 .0244852
1015.706 .0244765
1016.298 .0244683
1016.888 .0244607
1017.479 .0244538
1018.069 .0244474
1018.660 .0244415
1019.250 .0244361
1019.839 .0244313
1020.429 .0244270
1021.018 .0244232
1021.607 .0244200
1022.195 .0244174
1022.784 .0244154
1023.372 .0244141
1023.960 .0244133
1024.547 .0244132
1025.135 .0244136
1025.722 .0244143
1026.309 .0244153
1026.896 .0244165
1027.483 .0244180
1028.069 .0244196
1028.655 .0244213
1029.241 .0244232
1029.827 .0244252
1030.412 .0244272
1030.997 .0244294
1031.582 .0244315
1032.167 .0244335
1032.752 .0244354
1033.336 .0244372
1033.921 .0244387
1034.505 .0244401
1035.089 .0244413
1035.672 .0244424
1036.256 .0244434
1036.839 .0244442
1037.422 .0244449
1038.005 .0244453
1038.588 .0244456
1039.171 .0244455
1039.753 .0244450
1040.335 .0244442
1040.918 .0244431
1041.500 .0244417
1042.081 .0244401
1042.663 .0244384
1043.244 .0244368
1043.826 .0244354
1044.407 .0244342
1044.988 .0244332
1045.569 .0244326
1046.150 .0244322
1046.730 .0244321
1047.311 .0244324
1047.891 .0244328
1048.471 .0244336
1049.052 .0244346
1049.632 .0244358
1050.211 .0244373
1050.791 .0244390
1051.371 .0244409
1051.950 .0244429
1052.530 .0244450
1053.109 .0244471
1053.688 .0244491
1054.268 .0244510
1054.847 .0244529
1055.426 .0244549
1056.005 .0244570
1056.583 .0244595
1057.162 .0244624
1057.741 .0244657
1058.319 .0244695
1058.898 .0244738
1059.476 .0244785
1060.055 .0244836
1060.633 .0244890
1061.211 .0244945
1061.790 .0245002
1062.368 .0245059
1062.946 .0245116
1063.524 .0245173
1064.102 .0245229
1064.680 .0245283
1065.258 .0245336
1065.836 .0245386
1066.414 .0245434
1066.992 .0245480
1067.570 .0245524
1068.148 .0245566
1068.726 .0245609
1069.304 .0245652
1069.882 .0245699
1070.460 .0245749
1071.038 .0245803
1071.616 .0245863
1072.194 .0245929
1072.772 .0245999
1073.350 .0246073
1073.928 .0246150
1074.506 .0246229
1075.084 .0246308
1075.662 .0246387
1076.240 .0246466
1076.819 .0246543
1077.397 .0246618
1077.976 .0246693
1078.554 .0246769
1079.133 .0246845
1079.711 .0246921
1080.290 .0246999
1080.869 .0247078
1081.448 .0247159
1082.027 .0247242
1082.606 .0247328
1083.185 .0247418
1083.764 .0247512
1084.343 .0247612
1084.923 .0247718
1085.502 .0247831
1086.082 .0247952
1086.662 .0248081
1087.242 .0248218
1087.822 .0248363
1088.402 .0248515
1088.983 .0248673
1089.563 .0248839
1090.144 .0249011
1090.725 .0249189
1091.306 .0249374
1091.887 .0249567
1092.469 .0249769
1093.050 .0249978
1093.632 .0250197
1094.214 .0250426
1094.796 .0250662
1095.379 .0250905
1095.961 .0251156
1096.544 .0251412
1097.127 .0251676
1097.710 .0251945
1098.294 .0252220
1098.877 .0252502
1099.461 .0252790
1100.046 .0253083
1100.630 .0253383
1101.215 .0253687
1101.800 .0253997
1102.385 .0254312
1102.970 .0254633
1103.556 .0254958
1104.142 .0255291
1104.728 .0255630
1105.315 .0255978
1105.902 .0256333
1106.489 .0256698
1107.077 .0257072
1107.664 .0257454
1108.253 .0257847
1108.841 .0258249
1109.430 .0258662
1110.019 .0259086
1110.609 .0259522
1111.198 .0259970
1111.789 .0260429
1112.379 .0260900
1112.970 .0261379
1113.561 .0261865
1114.153 .0262358
1114.745 .0262855
1115.338 .0263357
1115.931 .0263863
1116.524 .0264375
1117.117 .0264894
1117.712 .0265420
1118.306 .0265953
1118.901 .0266492
1119.496 .0267035
1120.092 .0267579
1120.689 .0268124
1121.285 .0268667
1121.882 .0269209
1122.480 .0269750
1123.078 .0270292
1123.677 .0270837
1124.276 .0271390
1124.875 .0271952
1125.476 .0272528
1126.076 .0273119
1126.677 .0273727
1127.279 .0274351
1127.881 .0274989
1128.484 .0275642
1129.087 .0275912
1129.691 .0276581
1130.295 .0277267
1130.900 .0277974
1131.505 .0278705
1132.111 .0279465
1132.718 .0280254
1133.325 .0281066
1133.933 .0281898
1134.541 .0282844
1135.150 .0283826
1135.760 .0284679
1136.370 .0285396
1136.981 .0286375
1137.592 .0287456
1138.204 .0288496
1138.817 .0289545
1139.431 .0290679
1140.045 .0291910
1140.660 .0293112
1141.275 .0294166
1141.891 .0295160
1142.508 .0298811
1143.126 .0300354
1143.744 .0297273
1144.363 .0293993
1144.983 .0297380
