Measurement Sequence started on: 15-12-46-377
Integration time: 28
Scans to Average: 2 
>>>>>Begin Spectral Data<<<<<
432.689 .0000100
433.621 .0000100
434.552 .0000100
435.482 .0000100
436.410 .0000100
437.337 .0000100
438.262 .0272981
439.187 .0578284
440.110 .0957716
441.031 .1386172
441.952 .1114813
442.871 .1164588
443.789 .1210855
444.705 .1254325
445.621 .1295498
446.535 .1334759
447.447 .1358047
448.359 .1363899
449.269 .1348602
450.178 .1309717
451.086 .1247996
451.993 .1168170
452.898 .1078088
453.803 .0986638
454.706 .0901408
455.608 .0827137
456.508 .0765446
457.408 .0723407
458.306 .0690933
459.204 .0664423
460.100 .0642112
460.995 .0622991
461.888 .0606366
462.781 .0591754
463.673 .0578794
464.563 .0567206
465.452 .0556776
466.340 .0547343
467.228 .0538797
468.114 .0531053
468.999 .0524050
469.882 .0517716
470.765 .0511993
471.647 .0506826
472.528 .0502164
473.407 .0497954
474.286 .0494155
475.163 .0490727
476.040 .0487639
476.915 .0484871
477.790 .0482403
478.663 .0480221
479.535 .0478317
480.407 .0476674
481.277 .0475274
482.147 .0474089
483.015 .0473098
483.883 .0472282
484.749 .0471632
485.615 .0471140
486.479 .0470804
487.343 .0470628
488.206 .0470618
489.067 .0470772
489.928 .0471095
490.788 .0471593
491.647 .0472267
492.505 .0473120
493.362 .0474154
494.218 .0475366
495.073 .0476769
495.928 .0479576
496.781 .0481472
497.634 .0483567
498.486 .0485867
499.337 .0488379
500.187 .0491118
501.036 .0494106
501.884 .0497361
502.731 .0500924
503.578 .0504833
504.424 .0507513
505.268 .0512096
506.113 .0517143
506.956 .0522692
507.798 .0528795
508.640 .0535507
509.480 .0542909
510.320 .0551096
511.160 .0560187
511.998 .0570320
512.836 .0581674
513.672 .0594430
514.508 .0608792
515.344 .0624968
516.178 .0643184
517.012 .0663669
517.845 .0686644
518.677 .0712314
519.508 .0740846
520.339 .0772366
521.169 .0806947
521.998 .0844425
522.826 .0884520
523.654 .0926762
524.481 .0970527
525.307 .1015049
526.133 .1059439
526.958 .1102732
527.782 .1143978
528.605 .1182303
529.428 .1216915
530.250 .1247108
531.072 .1272417
531.892 .1292461
532.712 .1306999
533.532 .1315896
534.350 .1319087
535.168 .1316599
535.986 .1308496
536.802 .1294854
537.618 .1275755
538.434 .1251324
539.249 .1221905
540.063 .1187927
540.876 .1149981
541.689 .1108792
542.501 .1065181
543.313 .1020062
544.124 .0974386
544.934 .0929057
545.744 .0884874
546.553 .0842537
547.361 .0802608
548.169 .0765409
548.976 .0731161
549.783 .0699941
550.589 .0671705
551.395 .0646310
552.200 .0623523
553.004 .0603067
553.808 .0584686
554.611 .0568137
555.414 .0553183
556.216 .0539602
557.018 .0527204
557.819 .0515821
558.619 .0505311
559.419 .0495570
560.218 .0486520
561.017 .0478096
561.815 .0470246
562.613 .0462922
563.410 .0456074
564.207 .0449654
565.003 .0443615
565.799 .0437905
566.594 .0432469
567.388 .0427263
568.182 .0422249
568.976 .0417404
569.769 .0412710
570.562 .0408162
571.354 .0403757
572.145 .0399503
572.936 .0395397
573.727 .0391434
574.517 .0387614
575.307 .0383937
576.096 .0380396
576.885 .0376982
577.673 .0373694
578.461 .0370532
579.248 .0367494
580.035 .0364587
580.821 .0361815
581.607 .0359185
582.392 .0356702
583.177 .0354370
583.962 .0352188
584.746 .0350154
585.529 .0348263
586.313 .0346504
587.095 .0344870
587.878 .0343350
588.660 .0341935
589.441 .0340618
590.222 .0339396
591.003 .0338261
591.783 .0337210
592.563 .0336238
593.342 .0335337
594.121 .0334500
594.899 .0333719
595.678 .0332988
596.455 .0332299
597.233 .0331647
598.009 .0331026
598.786 .0330434
599.562 .0329868
600.338 .0329325
601.113 .0328803
601.888 .0328088
602.663 .0327614
603.437 .0327158
604.211 .0326719
604.984 .0326296
605.757 .0325890
606.530 .0325501
607.302 .0325129
608.074 .0324774
608.845 .0324435
609.616 .0324113
610.387 .0323987
611.158 .0323686
611.928 .0323399
612.697 .0323125
613.467 .0322862
614.236 .0322610
615.004 .0322368
615.773 .0322134
616.541 .0321907
617.308 .0321686
618.076 .0321470
618.843 .0321257
619.609 .0321045
620.375 .0320834
621.141 .0320622
621.907 .0320408
622.672 .0320191
623.437 .0319970
624.202 .0319746
624.966 .0319519
625.730 .0319288
626.493 .0319054
627.257 .0318818
628.020 .0318579
628.782 .0318336
629.545 .0318090
630.307 .0317841
631.068 .0317588
631.830 .0317333
632.591 .0317075
633.352 .0316815
634.112 .0316555
634.872 .0316295
635.632 .0316035
636.392 .0315776
637.151 .0315517
637.910 .0315258
638.668 .0315000
639.427 .0314742
640.185 .0314485
640.943 .0314228
641.700 .0313972
642.457 .0313717
643.214 .0313462
643.971 .0313206
644.727 .0312951
645.483 .0312696
646.239 .0312440
646.994 .0312184
647.750 .0311927
648.505 .0311669
649.259 .0311409
650.014 .0311149
650.768 .0310887
651.521 .0310624
652.275 .0310361
653.028 .0310098
653.781 .0309837
654.534 .0309579
655.286 .0309324
656.039 .0309073
656.791 .0308827
657.542 .0308586
658.294 .0308350
659.045 .0308118
659.796 .0307892
660.546 .0307671
661.297 .0307457
662.047 .0307249
662.796 .0307049
663.546 .0306856
664.295 .0306671
665.044 .0306496
665.793 .0306329
666.542 .0306171
667.290 .0306022
668.038 .0305879
668.786 .0305744
669.533 .0305614
670.281 .0305490
671.028 .0305370
671.774 .0305254
672.521 .0305142
673.267 .0305032
674.013 .0304925
674.759 .0304821
675.505 .0304718
676.250 .0304616
676.995 .0304515
677.740 .0304412
678.484 .0304307
679.229 .0304200
679.973 .0304090
680.717 .0303977
681.460 .0303860
682.204 .0303739
682.947 .0303614
683.690 .0303484
684.433 .0303350
685.175 .0303211
685.917 .0303068
686.659 .0302921
687.401 .0302768
688.142 .0302612
688.884 .0302451
689.625 .0302285
690.365 .0302115
691.106 .0301941
691.846 .0301762
692.586 .0301579
693.326 .0301392
694.066 .0301202
694.805 .0301007
695.545 .0300809
696.284 .0300607
697.022 .0300401
697.761 .0300191
698.499 .0299977
699.237 .0299759
699.975 .0299537
700.713 .0299312
701.450 .0299084
702.187 .0298851
702.924 .0298615
703.661 .0298374
704.397 .0298130
705.133 .0297881
705.869 .0297629
706.605 .0297373
707.341 .0297113
708.076 .0296851
708.811 .0296588
709.546 .0296322
710.281 .0296056
711.015 .0295790
711.749 .0295524
712.483 .0295260
713.217 .0294997
713.950 .0294738
714.684 .0294482
715.417 .0294230
716.150 .0293983
716.882 .0293739
717.615 .0293500
718.347 .0293265
719.079 .0293035
719.811 .0292810
720.542 .0292592
721.273 .0292379
722.005 .0292174
722.735 .0291976
723.466 .0291785
724.196 .0291600
724.927 .0291422
725.656 .0291248
726.386 .0291080
727.116 .0290917
727.845 .0290758
728.574 .0290604
729.303 .0290456
730.031 .0290312
730.760 .0290174
731.488 .0290040
732.216 .0289911
732.944 .0289786
733.671 .0289666
734.398 .0289550
735.125 .0289439
735.852 .0289332
736.579 .0289231
737.305 .0289134
738.031 .0289041
738.757 .0288954
739.483 .0288871
740.208 .0288791
740.933 .0288716
741.658 .0288645
742.383 .0288577
743.108 .0288513
743.832 .0288454
744.556 .0288399
745.280 .0288348
746.004 .0288300
746.727 .0288257
747.450 .0288216
748.173 .0288179
748.896 .0288144
749.618 .0288112
750.340 .0288082
751.062 .0288054
751.784 .0288027
752.506 .0288001
753.227 .0287976
753.948 .0287951
754.669 .0287925
755.389 .0287898
756.110 .0287871
756.830 .0287843
757.550 .0287814
758.269 .0287784
758.989 .0287753
759.708 .0287720
760.427 .0287683
761.146 .0287642
761.864 .0287597
762.582 .0287546
763.300 .0287489
764.018 .0287426
764.736 .0287357
765.453 .0287283
766.170 .0287204
766.887 .0287120
767.603 .0287032
768.320 .0286938
769.036 .0286839
769.751 .0286734
770.467 .0286624
771.182 .0286507
771.897 .0286385
772.612 .0286257
773.327 .0286124
774.041 .0285987
774.755 .0285846
775.469 .0285701
776.183 .0285553
776.896 .0285404
777.609 .0285252
778.322 .0285099
779.035 .0284944
779.747 .0284787
780.459 .0284627
781.171 .0284465
781.882 .0284300
782.594 .0284131
783.305 .0283959
784.016 .0283782
784.726 .0283602
785.436 .0283418
786.147 .0283128
786.856 .0282931
787.566 .0282731
788.275 .0282525
788.984 .0282316
789.693 .0282101
790.401 .0281882
791.110 .0281658
791.818 .0281430
792.525 .0281198
793.233 .0280963
793.940 .0280725
794.647 .0280598
795.353 .0280361
796.060 .0280124
796.766 .0279887
797.472 .0279650
798.177 .0279415
798.883 .0279180
799.588 .0278947
800.292 .0278715
800.997 .0278485
801.701 .0278257
802.405 .0278032
803.109 .0277810
803.812 .0277592
804.515 .0277377
805.218 .0277167
805.921 .0276960
806.623 .0276757
807.325 .0276558
808.027 .0276363
808.728 .0276171
809.429 .0275984
810.130 .0275800
810.831 .0275621
811.531 .0275446
812.231 .0275275
812.931 .0275108
813.630 .0274945
814.330 .0274787
815.029 .0274633
815.727 .0274485
816.426 .0274342
817.124 .0274206
817.821 .0274077
818.519 .0273955
819.216 .0273840
819.913 .0273733
820.609 .0273634
821.306 .0273542
822.002 .0273459
822.697 .0273382
823.393 .0273313
824.088 .0273251
824.783 .0273195
825.477 .0273145
826.171 .0273100
826.865 .0273059
827.559 .0273021
828.252 .0272987
828.945 .0272955
829.638 .0272926
830.330 .0272900
831.023 .0272876
831.714 .0272854
832.406 .0272835
833.097 .0272817
833.788 .0272802
834.479 .0272789
835.169 .0272778
835.859 .0272769
836.548 .0272764
837.238 .0272762
837.927 .0272765
838.615 .0272772
839.304 .0272783
839.992 .0272800
840.680 .0272821
841.367 .0272847
842.054 .0272877
842.741 .0272912
843.428 .0272950
844.114 .0272993
844.800 .0273039
845.485 .0273088
846.170 .0273140
846.855 .0273193
847.540 .0273247
848.224 .0273302
848.908 .0273355
849.592 .0273407
850.275 .0273457
850.958 .0273505
851.641 .0273549
852.323 .0273589
853.005 .0273625
853.687 .0273656
854.368 .0273681
855.049 .0273700
855.730 .0273713
856.410 .0273719
857.090 .0273719
857.769 .0273713
858.449 .0273702
859.128 .0273686
859.806 .0273666
860.485 .0273642
861.163 .0273615
861.840 .0273584
862.518 .0273549
863.195 .0273511
863.871 .0273470
864.548 .0273425
865.224 .0273376
865.899 .0273322
866.574 .0273265
867.249 .0273203
867.924 .0273136
868.598 .0273063
869.272 .0272984
869.946 .0272899
870.619 .0272807
871.292 .0272709
871.964 .0272604
872.636 .0272492
873.308 .0272373
873.979 .0272248
874.651 .0272115
875.321 .0271976
875.992 .0271829
876.662 .0271675
877.331 .0271514
878.001 .0271346
878.670 .0271171
879.338 .0270989
880.007 .0270800
880.675 .0270605
881.342 .0270404
882.009 .0270196
882.676 .0269984
883.343 .0269766
884.009 .0269544
884.675 .0269318
885.340 .0269088
886.005 .0268854
886.670 .0268616
887.334 .0268375
887.998 .0268130
888.662 .0267883
889.325 .0267634
889.988 .0267383
890.650 .0267131
891.312 .0266878
891.974 .0266625
892.636 .0266370
893.297 .0266115
893.957 .0265859
894.618 .0265603
895.278 .0265346
895.937 .0265088
896.596 .0264830
897.255 .0264572
897.914 .0264313
898.572 .0264053
899.230 .0263792
899.887 .0263529
900.544 .0263265
901.201 .0262999
901.857 .0262598
902.513 .0262332
903.168 .0262065
903.823 .0261800
904.478 .0261535
905.132 .0261270
905.786 .0261006
906.440 .0260742
907.093 .0260478
907.746 .0260216
908.399 .0259955
909.051 .0259696
909.703 .0259440
910.354 .0259321
911.005 .0259072
911.656 .0258828
912.306 .0258587
912.956 .0258351
913.605 .0258118
914.254 .0257889
914.903 .0257664
915.551 .0257444
916.199 .0257230
916.847 .0257020
917.494 .0256815
918.141 .0256615
918.788 .0256419
919.434 .0256228
920.079 .0256040
920.725 .0255857
921.370 .0255678
922.014 .0255503
922.658 .0255332
923.302 .0255166
923.946 .0255004
924.589 .0254847
925.231 .0254693
925.873 .0254542
926.515 .0254394
927.157 .0254249
927.798 .0254106
928.439 .0253965
929.079 .0253828
929.719 .0253694
930.359 .0253564
930.998 .0253438
931.637 .0253316
932.275 .0253199
932.913 .0253086
933.551 .0252977
934.188 .0252874
934.825 .0252776
935.462 .0252685
936.098 .0252600
936.733 .0252522
937.369 .0252450
938.004 .0252385
938.638 .0252327
939.273 .0252274
939.907 .0252227
940.540 .0252187
941.173 .0252151
941.806 .0252122
942.438 .0252098
943.070 .0252080
943.702 .0252068
944.333 .0252061
944.964 .0252060
945.594 .0252064
946.224 .0252073
946.854 .0252086
947.483 .0252105
948.112 .0252128
948.741 .0252157
949.369 .0252191
949.996 .0252229
950.624 .0252272
951.251 .0252319
951.878 .0252370
952.504 .0252423
953.130 .0252480
953.755 .0252540
954.380 .0252604
955.005 .0252671
955.629 .0252742
956.253 .0252817
956.877 .0252896
957.500 .0252979
958.123 .0253064
958.746 .0253152
959.368 .0253243
959.990 .0253337
960.611 .0253434
961.232 .0253535
961.853 .0253639
962.473 .0253748
963.093 .0253859
963.712 .0253973
964.331 .0254089
964.950 .0254206
965.569 .0254323
966.187 .0254440
966.804 .0254558
967.422 .0254675
968.039 .0254792
968.655 .0254909
969.272 .0255025
969.887 .0255140
970.503 .0255253
971.118 .0255363
971.733 .0255469
972.347 .0255572
972.961 .0255669
973.575 .0255763
974.188 .0255851
974.801 .0255935
975.414 .0256015
976.026 .0256089
976.638 .0256157
977.250 .0256218
977.861 .0256271
978.472 .0256317
979.083 .0256354
979.693 .0256383
980.303 .0256405
980.912 .0256410
981.521 .0256419
982.130 .0256425
982.738 .0256427
983.346 .0256427
983.954 .0256424
984.562 .0256418
985.169 .0256409
985.775 .0256398
986.382 .0256384
986.988 .0256368
987.594 .0256350
988.199 .0256331
988.804 .0256311
989.409 .0256304
990.013 .0256284
990.617 .0256263
991.221 .0256242
991.824 .0256220
992.427 .0256197
993.030 .0256174
993.632 .0256149
994.234 .0256124
994.836 .0256098
995.438 .0256072
996.039 .0256044
996.640 .0256015
997.240 .0255984
997.840 .0255952
998.440 .0255917
999.040 .0255879
999.639 .0255836
1000.238 .0255789
1000.836 .0255737
1001.435 .0255679
1002.033 .0255615
1002.630 .0255544
1003.228 .0255466
1003.825 .0255380
1004.422 .0255286
1005.018 .0255184
1005.614 .0255075
1006.210 .0254959
1006.806 .0254837
1007.401 .0254707
1007.996 .0254572
1008.591 .0254431
1009.186 .0254285
1009.780 .0254134
1010.374 .0253979
1010.967 .0253819
1011.561 .0253656
1012.154 .0253489
1012.746 .0253319
1013.339 .0253147
1013.931 .0252973
1014.523 .0252798
1015.115 .0252622
1015.706 .0252444
1016.298 .0252266
1016.888 .0252087
1017.479 .0251907
1018.069 .0251725
1018.660 .0251543
1019.250 .0251360
1019.839 .0251178
1020.429 .0250997
1021.018 .0250818
1021.607 .0250642
1022.195 .0250467
1022.784 .0250295
1023.372 .0250125
1023.960 .0249955
1024.547 .0249788
1025.135 .0249621
1025.722 .0249455
1026.309 .0249291
1026.896 .0249129
1027.483 .0248969
1028.069 .0248810
1028.655 .0248654
1029.241 .0248499
1029.827 .0248345
1030.412 .0248191
1030.997 .0248037
1031.582 .0247882
1032.167 .0247727
1032.752 .0247572
1033.336 .0247417
1033.921 .0247263
1034.505 .0247111
1035.089 .0246959
1035.672 .0246810
1036.256 .0246661
1036.839 .0246514
1037.422 .0246369
1038.005 .0246225
1038.588 .0246083
1039.171 .0245943
1039.753 .0245805
1040.335 .0245670
1040.918 .0245537
1041.500 .0245407
1042.081 .0245279
1042.663 .0245154
1043.244 .0245030
1043.826 .0244909
1044.407 .0244790
1044.988 .0244674
1045.569 .0244561
1046.150 .0244451
1046.730 .0244344
1047.311 .0244241
1047.891 .0244140
1048.471 .0244041
1049.052 .0243945
1049.632 .0243851
1050.211 .0243758
1050.791 .0243668
1051.371 .0243581
1051.950 .0243496
1052.530 .0243414
1053.109 .0243337
1053.688 .0243264
1054.268 .0243194
1054.847 .0243127
1055.426 .0243064
1056.005 .0243004
1056.583 .0242947
1057.162 .0242894
1057.741 .0242845
1058.319 .0242803
1058.898 .0242767
1059.476 .0242737
1060.055 .0242714
1060.633 .0242695
1061.211 .0242680
1061.790 .0242667
1062.368 .0242654
1062.946 .0242641
1063.524 .0242627
1064.102 .0242612
1064.680 .0242597
1065.258 .0242582
1065.836 .0242568
1066.414 .0242556
1066.992 .0242545
1067.570 .0242535
1068.148 .0242527
1068.726 .0242520
1069.304 .0242514
1069.882 .0242510
1070.460 .0242507
1071.038 .0242506
1071.616 .0242508
1072.194 .0242515
1072.772 .0242526
1073.350 .0242542
1073.928 .0242562
1074.506 .0242587
1075.084 .0242616
1075.662 .0242650
1076.240 .0242687
1076.819 .0242727
1077.397 .0242772
1077.976 .0242820
1078.554 .0242873
1079.133 .0242932
1079.711 .0242999
1080.290 .0243075
1080.869 .0243160
1081.448 .0243255
1082.027 .0243361
1082.606 .0243477
1083.185 .0243603
1083.764 .0243740
1084.343 .0243887
1084.923 .0244044
1085.502 .0244211
1086.082 .0244388
1086.662 .0244575
1087.242 .0244771
1087.822 .0244976
1088.402 .0245191
1088.983 .0245413
1089.563 .0245642
1090.144 .0245876
1090.725 .0246117
1091.306 .0246362
1091.887 .0246610
1092.469 .0246861
1093.050 .0247112
1093.632 .0247363
1094.214 .0247614
1094.796 .0247865
1095.379 .0248117
1095.961 .0248372
1096.544 .0248630
1097.127 .0248892
1097.710 .0249158
1098.294 .0249428
1098.877 .0249703
1099.461 .0249983
1100.046 .0250266
1100.630 .0250553
1101.215 .0250846
1101.800 .0251144
1102.385 .0251451
1102.970 .0251768
1103.556 .0252095
1104.142 .0252434
1104.728 .0252783
1105.315 .0253139
1105.902 .0253502
1106.489 .0253871
1107.077 .0254244
1107.664 .0254619
1108.253 .0254999
1108.841 .0255383
1109.430 .0255773
1110.019 .0256173
1110.609 .0256585
1111.198 .0257009
1111.789 .0257446
1112.379 .0257895
1112.970 .0258358
1113.561 .0258831
1114.153 .0259317
1114.745 .0259817
1115.338 .0260329
1115.931 .0260857
1116.524 .0261400
1117.117 .0261961
1117.712 .0262539
1118.306 .0263134
1118.901 .0263743
1119.496 .0264361
1120.092 .0264987
1120.689 .0265617
1121.285 .0266249
1121.882 .0266884
1122.480 .0267524
1123.078 .0268170
1123.677 .0268826
1124.276 .0269493
1124.875 .0270174
1125.476 .0270870
1126.076 .0271581
1126.677 .0272307
1127.279 .0273049
1127.881 .0273810
1128.484 .0274593
1129.087 .0274964
1129.691 .0275783
1130.295 .0276633
1130.900 .0277520
1131.505 .0278449
1132.111 .0279423
1132.718 .0280451
1133.325 .0281538
1133.933 .0282689
1134.541 .0283875
1135.150 .0285105
1135.760 .0286534
1136.370 .0288033
1136.981 .0286390
1137.592 .0287699
1138.204 .0289136
1138.817 .0290779
1139.431 .0292579
1140.045 .0294551
1140.660 .0296774
1141.275 .0299223
1141.891 .0301843
1142.508 .0303719
1143.126 .0305891
1143.744 .0312347
1144.363 .0315180
1144.983 .0316246
