Measurement Sequence started on: 15-12-46-377
Integration time: 28
Scans to Average: 2 
>>>>>Begin Spectral Data<<<<<
432.689 .0000100
433.621 .0000100
434.552 .0000100
435.482 .0000100
436.410 .0000100
437.337 .0000100
438.262 .0294691
439.187 .0624821
440.110 .1035294
441.031 .1498680
441.952 .1204891
442.871 .1258473
443.789 .1308287
444.705 .1355112
445.621 .1399514
446.535 .1441907
447.447 .1467090
448.359 .1473429
449.269 .1456888
450.178 .1414817
451.086 .1348020
451.993 .1261597
452.898 .1164037
453.803 .1064988
454.706 .0972688
455.608 .0892274
456.508 .0825513
457.408 .0780032
458.306 .0744919
459.204 .0716245
460.100 .0692044
460.995 .0671189
461.888 .0652930
462.781 .0636728
463.673 .0622201
464.563 .0609076
465.452 .0597158
466.340 .0586286
467.228 .0576351
468.114 .0567266
468.999 .0558951
469.882 .0551339
470.765 .0544364
471.647 .0537972
472.528 .0532119
473.407 .0526762
474.286 .0521874
475.163 .0517441
476.040 .0513444
476.915 .0509866
477.790 .0506685
478.663 .0503878
479.535 .0501414
480.407 .0499265
481.277 .0497396
482.147 .0495774
483.015 .0494376
483.883 .0493184
484.749 .0492180
485.615 .0491359
486.479 .0490711
487.343 .0490227
488.206 .0489902
489.067 .0489722
489.928 .0489684
490.788 .0489781
491.647 .0490022
492.505 .0490413
493.362 .0490974
494.218 .0491726
495.073 .0492692
495.928 .0495008
496.781 .0496610
497.634 .0498471
498.486 .0500603
499.337 .0503022
500.187 .0505744
501.036 .0508801
501.884 .0512227
502.731 .0516072
503.578 .0520378
504.424 .0523539
505.268 .0528695
506.113 .0534430
506.956 .0540784
507.798 .0547813
508.640 .0555577
509.480 .0564173
510.320 .0573712
511.160 .0584326
511.998 .0596159
512.836 .0609402
513.672 .0624231
514.508 .0640853
515.344 .0659477
516.178 .0680325
517.012 .0703619
517.845 .0729607
518.677 .0758488
519.508 .0790448
520.339 .0825572
521.169 .0863877
521.998 .0905117
522.826 .0948945
523.654 .0994805
524.481 .1042008
525.307 .1089733
526.133 .1137089
526.958 .1183098
527.782 .1226826
528.605 .1267369
529.428 .1303932
530.250 .1335781
531.072 .1362403
531.892 .1383362
532.712 .1398398
533.532 .1407369
534.350 .1410249
535.168 .1407052
535.986 .1397877
536.802 .1382798
537.618 .1361941
538.434 .1335483
539.249 .1303807
540.063 .1267383
540.876 .1226851
541.689 .1182972
542.501 .1136625
543.313 .1088733
544.124 .1040284
544.934 .0992189
545.744 .0945293
546.553 .0900318
547.361 .0857856
548.169 .0818287
548.976 .0781881
549.783 .0748711
550.589 .0718711
551.395 .0691679
552.200 .0667354
553.004 .0645424
553.808 .0625603
554.611 .0607642
555.414 .0591319
556.216 .0576449
557.018 .0562871
557.819 .0550450
558.619 .0539069
559.419 .0528606
560.218 .0518960
561.017 .0510014
561.815 .0501663
562.613 .0493819
563.410 .0486399
564.207 .0479337
565.003 .0472587
565.799 .0466098
566.594 .0459841
567.388 .0453800
568.182 .0447961
568.976 .0442313
569.769 .0436843
570.562 .0431550
571.354 .0426424
572.145 .0421463
572.936 .0416666
573.727 .0412030
574.517 .0407555
575.307 .0403244
576.096 .0399096
576.885 .0395112
577.673 .0391295
578.461 .0387648
579.248 .0384175
580.035 .0380878
580.821 .0377760
581.607 .0374819
582.392 .0372058
583.177 .0369474
583.962 .0367059
584.746 .0364807
585.529 .0362712
586.313 .0360761
587.095 .0358945
587.878 .0357257
588.660 .0355690
589.441 .0354240
590.222 .0352901
591.003 .0351667
591.783 .0350533
592.563 .0349490
593.342 .0348528
594.121 .0347637
594.899 .0346807
595.678 .0346028
596.455 .0345292
597.233 .0344594
598.009 .0343929
598.786 .0343295
599.562 .0342689
600.338 .0342112
601.113 .0341561
601.888 .0340815
602.663 .0340322
603.437 .0339851
604.211 .0339400
604.984 .0338966
605.757 .0338548
606.530 .0338145
607.302 .0337759
608.074 .0337388
608.845 .0337033
609.616 .0336694
610.387 .0336562
611.158 .0336242
611.928 .0335937
612.697 .0335643
613.467 .0335360
614.236 .0335086
615.004 .0334820
615.773 .0334559
616.541 .0334304
617.308 .0334053
618.076 .0333805
618.843 .0333558
619.609 .0333313
620.375 .0333068
621.141 .0332821
621.907 .0332571
622.672 .0332318
623.437 .0332059
624.202 .0331795
624.966 .0331524
625.730 .0331247
626.493 .0330963
627.257 .0330672
628.020 .0330374
628.782 .0330069
629.545 .0329757
630.307 .0329438
631.068 .0329111
631.830 .0328778
632.591 .0328438
633.352 .0328092
634.112 .0327741
634.872 .0327385
635.632 .0327025
636.392 .0326663
637.151 .0326300
637.910 .0325937
638.668 .0325577
639.427 .0325219
640.185 .0324865
640.943 .0324518
641.700 .0324176
642.457 .0323842
643.214 .0323514
643.971 .0323194
644.727 .0322882
645.483 .0322578
646.239 .0322281
646.994 .0321992
647.750 .0321711
648.505 .0321436
649.259 .0321167
650.014 .0320904
650.768 .0320644
651.521 .0320389
652.275 .0320135
653.028 .0319883
653.781 .0319632
654.534 .0319380
655.286 .0319128
656.039 .0318874
656.791 .0318619
657.542 .0318363
658.294 .0318105
659.045 .0317846
659.796 .0317585
660.546 .0317325
661.297 .0317064
662.047 .0316804
662.796 .0316545
663.546 .0316288
664.295 .0316033
665.044 .0315782
665.793 .0315535
666.542 .0315293
667.290 .0315059
668.038 .0314831
668.786 .0314610
669.533 .0314397
670.281 .0314192
671.028 .0313993
671.774 .0313801
672.521 .0313616
673.267 .0313437
674.013 .0313263
674.759 .0313095
675.505 .0312930
676.250 .0312769
676.995 .0312610
677.740 .0312452
678.484 .0312296
679.229 .0312138
679.973 .0311980
680.717 .0311820
681.460 .0311658
682.204 .0311492
682.947 .0311322
683.690 .0311147
684.433 .0310967
685.175 .0310780
685.917 .0310586
686.659 .0310387
687.401 .0310180
688.142 .0309968
688.884 .0309749
689.625 .0309523
690.365 .0309290
691.106 .0309050
691.846 .0308804
692.586 .0308551
693.326 .0308293
694.066 .0308031
694.805 .0307764
695.545 .0307495
696.284 .0307225
697.022 .0306954
697.761 .0306682
698.499 .0306412
699.237 .0306143
699.975 .0305876
700.713 .0305610
701.450 .0305347
702.187 .0305088
702.924 .0304831
703.661 .0304577
704.397 .0304326
705.133 .0304077
705.869 .0303831
706.605 .0303586
707.341 .0303344
708.076 .0303104
708.811 .0302864
709.546 .0302626
710.281 .0302388
711.015 .0302151
711.749 .0301914
712.483 .0301678
713.217 .0301443
713.950 .0301209
714.684 .0300976
715.417 .0300744
716.150 .0300514
716.882 .0300286
717.615 .0300059
718.347 .0299833
719.079 .0299608
719.811 .0299386
720.542 .0299166
721.273 .0298950
722.005 .0298739
722.735 .0298533
723.466 .0298332
724.196 .0298137
724.927 .0297947
725.656 .0297764
726.386 .0297588
727.116 .0297417
727.845 .0297253
728.574 .0297094
729.303 .0296942
730.031 .0296796
730.760 .0296657
731.488 .0296524
732.216 .0296398
732.944 .0296277
733.671 .0296163
734.398 .0296055
735.125 .0295953
735.852 .0295856
736.579 .0295765
737.305 .0295678
738.031 .0295595
738.757 .0295516
739.483 .0295440
740.208 .0295368
740.933 .0295298
741.658 .0295231
742.383 .0295167
743.108 .0295105
743.832 .0295045
744.556 .0294985
745.280 .0294926
746.004 .0294866
746.727 .0294805
747.450 .0294742
748.173 .0294676
748.896 .0294608
749.618 .0294537
750.340 .0294462
751.062 .0294384
751.784 .0294303
752.506 .0294217
753.227 .0294127
753.948 .0294033
754.669 .0293935
755.389 .0293833
756.110 .0293726
756.830 .0293615
757.550 .0293500
758.269 .0293382
758.989 .0293260
759.708 .0293134
760.427 .0293006
761.146 .0292875
761.864 .0292742
762.582 .0292605
763.300 .0292466
764.018 .0292324
764.736 .0292179
765.453 .0292031
766.170 .0291881
766.887 .0291729
767.603 .0291577
768.320 .0291424
769.036 .0291271
769.751 .0291119
770.467 .0290968
771.182 .0290818
771.897 .0290669
772.612 .0290520
773.327 .0290371
774.041 .0290223
774.755 .0290076
775.469 .0289929
776.183 .0289784
776.896 .0289640
777.609 .0289498
778.322 .0289358
779.035 .0289220
779.747 .0289084
780.459 .0288949
781.171 .0288815
781.882 .0288680
782.594 .0288545
783.305 .0288408
784.016 .0288270
784.726 .0288130
785.436 .0287987
786.147 .0287761
786.856 .0287611
787.566 .0287459
788.275 .0287304
788.984 .0287145
789.693 .0286983
790.401 .0286817
791.110 .0286647
791.818 .0286472
792.525 .0286293
793.233 .0286108
793.940 .0285919
794.647 .0285814
795.353 .0285619
796.060 .0285421
796.766 .0285218
797.472 .0285013
798.177 .0284804
798.883 .0284593
799.588 .0284380
800.292 .0284167
800.997 .0283954
801.701 .0283741
802.405 .0283528
803.109 .0283317
803.812 .0283107
804.515 .0282898
805.218 .0282689
805.921 .0282482
806.623 .0282277
807.325 .0282072
808.027 .0281870
808.728 .0281671
809.429 .0281475
810.130 .0281283
810.831 .0281096
811.531 .0280912
812.231 .0280734
812.931 .0280559
813.630 .0280390
814.330 .0280225
815.029 .0280066
815.727 .0279914
816.426 .0279769
817.124 .0279632
817.821 .0279503
818.519 .0279384
819.216 .0279274
819.913 .0279174
820.609 .0279084
821.306 .0279003
822.002 .0278932
822.697 .0278871
823.393 .0278821
824.088 .0278781
824.783 .0278751
825.477 .0278729
826.171 .0278717
826.865 .0278712
827.559 .0278715
828.252 .0278725
828.945 .0278741
829.638 .0278764
830.330 .0278792
831.023 .0278826
831.714 .0278865
832.406 .0278907
833.097 .0278953
833.788 .0279000
834.479 .0279047
835.169 .0279095
835.859 .0279141
836.548 .0279187
837.238 .0279231
837.927 .0279274
838.615 .0279316
839.304 .0279356
839.992 .0279395
840.680 .0279431
841.367 .0279465
842.054 .0279495
842.741 .0279522
843.428 .0279546
844.114 .0279565
844.800 .0279581
845.485 .0279593
846.170 .0279600
846.855 .0279602
847.540 .0279598
848.224 .0279588
848.908 .0279571
849.592 .0279546
850.275 .0279513
850.958 .0279473
851.641 .0279424
852.323 .0279367
853.005 .0279302
853.687 .0279229
854.368 .0279147
855.049 .0279058
855.730 .0278960
856.410 .0278854
857.090 .0278740
857.769 .0278619
858.449 .0278491
859.128 .0278358
859.806 .0278220
860.485 .0278078
861.163 .0277932
861.840 .0277783
862.518 .0277631
863.195 .0277477
863.871 .0277319
864.548 .0277160
865.224 .0276999
865.899 .0276838
866.574 .0276677
867.249 .0276517
867.924 .0276359
868.598 .0276203
869.272 .0276049
869.946 .0275897
870.619 .0275747
871.292 .0275597
871.964 .0275449
872.636 .0275302
873.308 .0275155
873.979 .0275010
874.651 .0274867
875.321 .0274724
875.992 .0274583
876.662 .0274442
877.331 .0274302
878.001 .0274161
878.670 .0274019
879.338 .0273875
880.007 .0273731
880.675 .0273586
881.342 .0273440
882.009 .0273294
882.676 .0273149
883.343 .0273005
884.009 .0272862
884.675 .0272721
885.340 .0272580
886.005 .0272441
886.670 .0272303
887.334 .0272166
887.998 .0272029
888.662 .0271894
889.325 .0271760
889.988 .0271627
890.650 .0271495
891.312 .0271363
891.974 .0271231
892.636 .0271099
893.297 .0270966
893.957 .0270831
894.618 .0270695
895.278 .0270557
895.937 .0270417
896.596 .0270273
897.255 .0270126
897.914 .0269975
898.572 .0269818
899.230 .0269654
899.887 .0269483
900.544 .0269304
901.201 .0269118
901.857 .0268801
902.513 .0268596
903.168 .0268384
903.823 .0268165
904.478 .0267940
905.132 .0267708
905.786 .0267471
906.440 .0267228
907.093 .0266980
907.746 .0266728
908.399 .0266473
909.051 .0266215
909.703 .0265957
910.354 .0265833
911.005 .0265578
911.656 .0265325
912.306 .0265075
912.956 .0264827
913.605 .0264583
914.254 .0264342
914.903 .0264106
915.551 .0263875
916.199 .0263649
916.847 .0263427
917.494 .0263211
918.141 .0263000
918.788 .0262793
919.434 .0262591
920.079 .0262393
920.725 .0262200
921.370 .0262009
922.014 .0261821
922.658 .0261635
923.302 .0261451
923.946 .0261267
924.589 .0261084
925.231 .0260902
925.873 .0260720
926.515 .0260538
927.157 .0260356
927.798 .0260174
928.439 .0259993
929.079 .0259814
929.719 .0259635
930.359 .0259459
930.998 .0259287
931.637 .0259118
932.275 .0258955
932.913 .0258798
933.551 .0258649
934.188 .0258509
934.825 .0258377
935.462 .0258254
936.098 .0258142
936.733 .0258039
937.369 .0257947
938.004 .0257866
938.638 .0257795
939.273 .0257737
939.907 .0257691
940.540 .0257657
941.173 .0257635
941.806 .0257625
942.438 .0257626
943.070 .0257638
943.702 .0257659
944.333 .0257690
944.964 .0257727
945.594 .0257772
946.224 .0257824
946.854 .0257880
947.483 .0257941
948.112 .0258005
948.741 .0258072
949.369 .0258141
949.996 .0258210
950.624 .0258278
951.251 .0258345
951.878 .0258411
952.504 .0258474
953.130 .0258534
953.755 .0258592
954.380 .0258647
955.005 .0258700
955.629 .0258752
956.253 .0258801
956.877 .0258850
957.500 .0258897
958.123 .0258942
958.746 .0258986
959.368 .0259028
959.990 .0259070
960.611 .0259110
961.232 .0259150
961.853 .0259190
962.473 .0259231
963.093 .0259272
963.712 .0259315
964.331 .0259357
964.950 .0259401
965.569 .0259445
966.187 .0259490
966.804 .0259534
967.422 .0259577
968.039 .0259619
968.655 .0259659
969.272 .0259697
969.887 .0259734
970.503 .0259767
971.118 .0259799
971.733 .0259827
972.347 .0259850
972.961 .0259869
973.575 .0259882
974.188 .0259889
974.801 .0259890
975.414 .0259883
976.026 .0259870
976.638 .0259850
977.250 .0259824
977.861 .0259792
978.472 .0259755
979.083 .0259713
979.693 .0259667
980.303 .0259617
980.912 .0259526
981.521 .0259468
982.130 .0259407
982.738 .0259343
983.346 .0259276
983.954 .0259208
984.562 .0259139
985.169 .0259071
985.775 .0259003
986.382 .0258936
986.988 .0258870
987.594 .0258804
988.199 .0258737
988.804 .0258670
989.409 .0258642
990.013 .0258575
990.617 .0258508
991.221 .0258442
991.824 .0258378
992.427 .0258316
993.030 .0258257
993.632 .0258199
994.234 .0258143
994.836 .0258087
995.438 .0258031
996.039 .0257974
996.640 .0257915
997.240 .0257855
997.840 .0257795
998.440 .0257735
999.040 .0257674
999.639 .0257613
1000.238 .0257552
1000.836 .0257490
1001.435 .0257427
1002.033 .0257361
1002.630 .0257292
1003.228 .0257219
1003.825 .0257143
1004.422 .0257064
1005.018 .0256981
1005.614 .0256896
1006.210 .0256809
1006.806 .0256719
1007.401 .0256627
1007.996 .0256532
1008.591 .0256436
1009.186 .0256337
1009.780 .0256236
1010.374 .0256134
1010.967 .0256030
1011.561 .0255926
1012.154 .0255821
1012.746 .0255717
1013.339 .0255614
1013.931 .0255511
1014.523 .0255408
1015.115 .0255306
1015.706 .0255203
1016.298 .0255101
1016.888 .0254998
1017.479 .0254897
1018.069 .0254796
1018.660 .0254697
1019.250 .0254599
1019.839 .0254503
1020.429 .0254411
1021.018 .0254320
1021.607 .0254233
1022.195 .0254150
1022.784 .0254071
1023.372 .0253996
1023.960 .0253927
1024.547 .0253863
1025.135 .0253803
1025.722 .0253749
1026.309 .0253700
1026.896 .0253654
1027.483 .0253612
1028.069 .0253573
1028.655 .0253536
1029.241 .0253501
1029.827 .0253467
1030.412 .0253434
1030.997 .0253402
1031.582 .0253370
1032.167 .0253337
1032.752 .0253303
1033.336 .0253266
1033.921 .0253226
1034.505 .0253182
1035.089 .0253133
1035.672 .0253080
1036.256 .0253021
1036.839 .0252957
1037.422 .0252888
1038.005 .0252815
1038.588 .0252735
1039.171 .0252651
1039.753 .0252561
1040.335 .0252464
1040.918 .0252361
1041.500 .0252251
1042.081 .0252134
1042.663 .0252010
1043.244 .0251880
1043.826 .0251743
1044.407 .0251602
1044.988 .0251456
1045.569 .0251306
1046.150 .0251153
1046.730 .0250999
1047.311 .0250843
1047.891 .0250686
1048.471 .0250529
1049.052 .0250372
1049.632 .0250216
1050.211 .0250061
1050.791 .0249907
1051.371 .0249755
1051.950 .0249605
1052.530 .0249459
1053.109 .0249318
1053.688 .0249182
1054.268 .0249052
1054.847 .0248929
1055.426 .0248814
1056.005 .0248705
1056.583 .0248603
1057.162 .0248508
1057.741 .0248419
1058.319 .0248334
1058.898 .0248254
1059.476 .0248178
1060.055 .0248108
1060.633 .0248043
1061.211 .0247985
1061.790 .0247935
1062.368 .0247893
1062.946 .0247859
1063.524 .0247832
1064.102 .0247811
1064.680 .0247796
1065.258 .0247785
1065.836 .0247780
1066.414 .0247779
1066.992 .0247782
1067.570 .0247792
1068.148 .0247808
1068.726 .0247832
1069.304 .0247864
1069.882 .0247902
1070.460 .0247947
1071.038 .0247997
1071.616 .0248053
1072.194 .0248112
1072.772 .0248175
1073.350 .0248242
1073.928 .0248312
1074.506 .0248387
1075.084 .0248467
1075.662 .0248550
1076.240 .0248639
1076.819 .0248731
1077.397 .0248826
1077.976 .0248921
1078.554 .0249017
1079.133 .0249110
1079.711 .0249202
1080.290 .0249291
1080.869 .0249378
1081.448 .0249463
1082.027 .0249547
1082.606 .0249632
1083.185 .0249719
1083.764 .0249810
1084.343 .0249905
1084.923 .0250008
1085.502 .0250117
1086.082 .0250235
1086.662 .0250361
1087.242 .0250496
1087.822 .0250641
1088.402 .0250795
1088.983 .0250958
1089.563 .0251130
1090.144 .0251311
1090.725 .0251500
1091.306 .0251698
1091.887 .0251905
1092.469 .0252121
1093.050 .0252346
1093.632 .0252580
1094.214 .0252821
1094.796 .0253071
1095.379 .0253328
1095.961 .0253593
1096.544 .0253867
1097.127 .0254149
1097.710 .0254441
1098.294 .0254744
1098.877 .0255057
1099.461 .0255380
1100.046 .0255713
1100.630 .0256054
1101.215 .0256402
1101.800 .0256755
1102.385 .0257111
1102.970 .0257469
1103.556 .0257829
1104.142 .0258190
1104.728 .0258552
1105.315 .0258915
1105.902 .0259281
1106.489 .0259649
1107.077 .0260023
1107.664 .0260404
1108.253 .0260792
1108.841 .0261192
1109.430 .0261604
1110.019 .0262030
1110.609 .0262472
1111.198 .0262930
1111.789 .0263406
1112.379 .0263899
1112.970 .0264407
1113.561 .0264928
1114.153 .0265460
1114.745 .0266000
1115.338 .0266547
1115.931 .0267100
1116.524 .0267660
1117.117 .0268225
1117.712 .0268798
1118.306 .0269381
1118.901 .0269975
1119.496 .0270581
1120.092 .0271199
1120.689 .0271829
1121.285 .0272468
1121.882 .0273116
1122.480 .0273771
1123.078 .0274436
1123.677 .0275114
1124.276 .0275808
1124.875 .0276522
1125.476 .0277258
1126.076 .0278017
1126.677 .0278796
1127.279 .0279594
1127.881 .0280405
1128.484 .0281226
1129.087 .0281579
1129.691 .0282407
1130.295 .0283240
1130.900 .0284081
1131.505 .0284935
1132.111 .0285804
1132.718 .0286690
1133.325 .0287593
1133.933 .0288520
1134.541 .0289516
1135.150 .0290443
1135.760 .0291383
1136.370 .0292332
1136.981 .0294325
1137.592 .0295276
1138.204 .0296174
1138.817 .0297057
1139.431 .0298020
1140.045 .0298988
1140.660 .0299990
1141.275 .0301002
1141.891 .0302223
1142.508 .0304694
1143.126 .0303386
1143.744 .0304461
1144.363 .0305423
1144.983 .0312045
