Measurement Sequence started on: 15-12-46-377
Integration time: 28
Scans to Average: 2 
>>>>>Begin Spectral Data<<<<<
432.689 .0000100
433.621 .0000100
434.552 .0000100
435.482 .0000100
436.410 .0000100
437.337 .0000100
438.262 .0279858
439.187 .0593035
440.110 .0981583
441.031 .1419510
441.952 .1141273
442.871 .1192946
443.789 .1241185
444.705 .1286661
445.621 .1329842
446.535 .1371086
447.447 .1395919
448.359 .1402800
449.269 .1387956
450.178 .1348928
451.086 .1286511
451.993 .1205568
452.898 .1114154
453.803 .1021385
454.706 .0934986
455.608 .0859729
456.508 .0797203
457.408 .0754583
458.306 .0721485
459.204 .0694184
460.100 .0670886
460.995 .0650635
461.888 .0632797
462.781 .0616941
463.673 .0602754
464.563 .0590015
465.452 .0578547
466.340 .0568183
467.228 .0558809
468.114 .0550318
468.999 .0542621
469.882 .0535634
470.765 .0529287
471.647 .0523521
472.528 .0518298
473.407 .0513577
474.286 .0509334
475.163 .0505550
476.040 .0502198
476.915 .0499246
477.790 .0496663
478.663 .0494410
479.535 .0492453
480.407 .0490750
481.277 .0489271
482.147 .0487984
483.015 .0486874
483.883 .0485930
484.749 .0485154
485.615 .0484552
486.479 .0484137
487.343 .0483914
488.206 .0483898
489.067 .0484085
489.928 .0484484
490.788 .0485087
491.647 .0485893
492.505 .0486897
493.362 .0488100
494.218 .0489498
495.073 .0491100
495.928 .0494273
496.781 .0496383
497.634 .0498707
498.486 .0501249
499.337 .0504016
500.187 .0507023
501.036 .0510282
501.884 .0513812
502.731 .0517651
503.578 .0521836
504.424 .0524629
505.268 .0529522
506.113 .0534919
506.956 .0540889
507.798 .0547520
508.640 .0554918
509.480 .0563205
510.320 .0572518
511.160 .0582993
511.998 .0594778
512.836 .0608057
513.672 .0623006
514.508 .0639822
515.344 .0658725
516.178 .0679923
517.012 .0703630
517.845 .0730093
518.677 .0759548
519.508 .0792189
520.339 .0828122
521.169 .0867409
521.998 .0909816
522.826 .0954962
523.654 .1002260
524.481 .1050940
525.307 .1100129
526.133 .1148838
526.958 .1196001
527.782 .1240624
528.605 .1281815
529.428 .1318813
530.250 .1350941
531.072 .1377765
531.892 .1398916
532.712 .1414133
533.532 .1423294
534.350 .1426344
535.168 .1423248
535.986 .1414024
536.802 .1398703
537.618 .1377377
538.434 .1350186
539.249 .1317538
540.063 .1279996
540.876 .1238295
541.689 .1193311
542.501 .1145978
543.313 .1097290
544.124 .1048282
544.934 .0999871
545.744 .0952848
546.553 .0907867
547.361 .0865455
548.169 .0825904
548.976 .0789431
549.783 .0756118
550.589 .0725916
551.395 .0698688
552.200 .0674223
553.004 .0652265
553.808 .0632559
554.611 .0614853
555.414 .0598893
556.216 .0584437
557.018 .0571238
557.819 .0559073
558.619 .0547761
559.419 .0537162
560.218 .0527170
561.017 .0517705
561.815 .0508713
562.613 .0500164
563.410 .0492025
564.207 .0484267
565.003 .0476856
565.799 .0469751
566.594 .0462905
567.388 .0456281
568.182 .0449844
568.976 .0443575
569.769 .0437459
570.562 .0431499
571.354 .0425707
572.145 .0420098
572.936 .0414690
573.727 .0409491
574.517 .0404506
575.307 .0399739
576.096 .0395182
576.885 .0390833
577.673 .0386687
578.461 .0382741
579.248 .0378990
580.035 .0375431
580.821 .0372063
581.607 .0368884
582.392 .0365894
583.177 .0363092
583.962 .0360478
584.746 .0358050
585.529 .0355804
586.313 .0353732
587.095 .0351830
587.878 .0350089
588.660 .0348501
589.441 .0347057
590.222 .0345748
591.003 .0344564
591.783 .0343498
592.563 .0342536
593.342 .0341666
594.121 .0340879
594.899 .0340163
595.678 .0339508
596.455 .0338904
597.233 .0338342
598.009 .0337816
598.786 .0337319
599.562 .0336846
600.338 .0336389
601.113 .0335946
601.888 .0335290
602.663 .0334863
603.437 .0334440
604.211 .0334020
604.984 .0333603
605.757 .0333189
606.530 .0332779
607.302 .0332374
608.074 .0331976
608.845 .0331587
609.616 .0331208
610.387 .0331052
611.158 .0330693
611.928 .0330348
612.697 .0330015
613.467 .0329695
614.236 .0329389
615.004 .0329097
615.773 .0328818
616.541 .0328551
617.308 .0328298
618.076 .0328056
618.843 .0327824
619.609 .0327601
620.375 .0327386
621.141 .0327176
621.907 .0326969
622.672 .0326763
623.437 .0326557
624.202 .0326347
624.966 .0326132
625.730 .0325911
626.493 .0325682
627.257 .0325443
628.020 .0325194
628.782 .0324934
629.545 .0324663
630.307 .0324380
631.068 .0324085
631.830 .0323777
632.591 .0323459
633.352 .0323129
634.112 .0322790
634.872 .0322442
635.632 .0322085
636.392 .0321723
637.151 .0321355
637.910 .0320983
638.668 .0320608
639.427 .0320233
640.185 .0319857
640.943 .0319482
641.700 .0319109
642.457 .0318740
643.214 .0318374
643.971 .0318013
644.727 .0317657
645.483 .0317307
646.239 .0316964
646.994 .0316627
647.750 .0316298
648.505 .0315976
649.259 .0315662
650.014 .0315357
650.768 .0315060
651.521 .0314770
652.275 .0314488
653.028 .0314212
653.781 .0313941
654.534 .0313675
655.286 .0313414
656.039 .0313156
656.791 .0312901
657.542 .0312650
658.294 .0312401
659.045 .0312156
659.796 .0311914
660.546 .0311673
661.297 .0311435
662.047 .0311199
662.796 .0310964
663.546 .0310730
664.295 .0310498
665.044 .0310268
665.793 .0310042
666.542 .0309820
667.290 .0309603
668.038 .0309390
668.786 .0309183
669.533 .0308981
670.281 .0308783
671.028 .0308590
671.774 .0308400
672.521 .0308215
673.267 .0308032
674.013 .0307853
674.759 .0307676
675.505 .0307502
676.250 .0307331
676.995 .0307162
677.740 .0306997
678.484 .0306834
679.229 .0306673
679.973 .0306516
680.717 .0306360
681.460 .0306206
682.204 .0306053
682.947 .0305899
683.690 .0305744
684.433 .0305587
685.175 .0305427
685.917 .0305266
686.659 .0305101
687.401 .0304935
688.142 .0304766
688.884 .0304595
689.625 .0304422
690.365 .0304247
691.106 .0304070
691.846 .0303891
692.586 .0303708
693.326 .0303523
694.066 .0303335
694.805 .0303143
695.545 .0302948
696.284 .0302750
697.022 .0302549
697.761 .0302346
698.499 .0302141
699.237 .0301934
699.975 .0301727
700.713 .0301518
701.450 .0301308
702.187 .0301097
702.924 .0300885
703.661 .0300670
704.397 .0300452
705.133 .0300231
705.869 .0300007
706.605 .0299780
707.341 .0299548
708.076 .0299313
708.811 .0299075
709.546 .0298833
710.281 .0298588
711.015 .0298340
711.749 .0298090
712.483 .0297837
713.217 .0297581
713.950 .0297323
714.684 .0297063
715.417 .0296800
716.150 .0296535
716.882 .0296268
717.615 .0295998
718.347 .0295727
719.079 .0295455
719.811 .0295181
720.542 .0294908
721.273 .0294635
722.005 .0294364
722.735 .0294095
723.466 .0293828
724.196 .0293565
724.927 .0293305
725.656 .0293048
726.386 .0292796
727.116 .0292547
727.845 .0292303
728.574 .0292063
729.303 .0291828
730.031 .0291598
730.760 .0291374
731.488 .0291156
732.216 .0290944
732.944 .0290739
733.671 .0290540
734.398 .0290348
735.125 .0290163
735.852 .0289984
736.579 .0289813
737.305 .0289649
738.031 .0289493
738.757 .0289346
739.483 .0289206
740.208 .0289074
740.933 .0288949
741.658 .0288832
742.383 .0288721
743.108 .0288617
743.832 .0288521
744.556 .0288432
745.280 .0288349
746.004 .0288274
746.727 .0288204
747.450 .0288139
748.173 .0288079
748.896 .0288020
749.618 .0287963
750.340 .0287907
751.062 .0287849
751.784 .0287789
752.506 .0287728
753.227 .0287663
753.948 .0287596
754.669 .0287525
755.389 .0287450
756.110 .0287371
756.830 .0287288
757.550 .0287202
758.269 .0287112
758.989 .0287019
759.708 .0286923
760.427 .0286824
761.146 .0286723
761.864 .0286621
762.582 .0286517
763.300 .0286413
764.018 .0286308
764.736 .0286204
765.453 .0286101
766.170 .0286000
766.887 .0285902
767.603 .0285808
768.320 .0285717
769.036 .0285630
769.751 .0285547
770.467 .0285469
771.182 .0285395
771.897 .0285325
772.612 .0285260
773.327 .0285200
774.041 .0285146
774.755 .0285096
775.469 .0285050
776.183 .0285009
776.896 .0284972
777.609 .0284938
778.322 .0284906
779.035 .0284877
779.747 .0284850
780.459 .0284824
781.171 .0284799
781.882 .0284774
782.594 .0284750
783.305 .0284724
784.016 .0284698
784.726 .0284670
785.436 .0284640
786.147 .0284582
786.856 .0284542
787.566 .0284497
788.275 .0284448
788.984 .0284393
789.693 .0284331
790.401 .0284264
791.110 .0284188
791.818 .0284106
792.525 .0284015
793.233 .0283917
793.940 .0283809
794.647 .0283732
795.353 .0283611
796.060 .0283482
796.766 .0283344
797.472 .0283196
798.177 .0283039
798.883 .0282873
799.588 .0282699
800.292 .0282516
800.997 .0282326
801.701 .0282128
802.405 .0281923
803.109 .0281712
803.812 .0281494
804.515 .0281271
805.218 .0281042
805.921 .0280808
806.623 .0280569
807.325 .0280326
808.027 .0280080
808.728 .0279830
809.429 .0279579
810.130 .0279326
810.831 .0279072
811.531 .0278817
812.231 .0278561
812.931 .0278306
813.630 .0278051
814.330 .0277798
815.029 .0277547
815.727 .0277299
816.426 .0277054
817.124 .0276814
817.821 .0276579
818.519 .0276348
819.216 .0276123
819.913 .0275903
820.609 .0275689
821.306 .0275480
822.002 .0275277
822.697 .0275081
823.393 .0274892
824.088 .0274709
824.783 .0274534
825.477 .0274364
826.171 .0274201
826.865 .0274044
827.559 .0273891
828.252 .0273743
828.945 .0273600
829.638 .0273460
830.330 .0273325
831.023 .0273193
831.714 .0273065
832.406 .0272940
833.097 .0272818
833.788 .0272699
834.479 .0272582
835.169 .0272466
835.859 .0272352
836.548 .0272239
837.238 .0272128
837.927 .0272017
838.615 .0271908
839.304 .0271800
839.992 .0271694
840.680 .0271588
841.367 .0271484
842.054 .0271381
842.741 .0271279
843.428 .0271178
844.114 .0271078
844.800 .0270980
845.485 .0270882
846.170 .0270786
846.855 .0270691
847.540 .0270598
848.224 .0270505
848.908 .0270412
849.592 .0270319
850.275 .0270225
850.958 .0270131
851.641 .0270036
852.323 .0269939
853.005 .0269842
853.687 .0269745
854.368 .0269647
855.049 .0269549
855.730 .0269451
856.410 .0269353
857.090 .0269254
857.769 .0269155
858.449 .0269055
859.128 .0268955
859.806 .0268856
860.485 .0268757
861.163 .0268661
861.840 .0268567
862.518 .0268476
863.195 .0268389
863.871 .0268306
864.548 .0268228
865.224 .0268154
865.899 .0268086
866.574 .0268023
867.249 .0267965
867.924 .0267914
868.598 .0267869
869.272 .0267831
869.946 .0267800
870.619 .0267775
871.292 .0267757
871.964 .0267745
872.636 .0267740
873.308 .0267741
873.979 .0267748
874.651 .0267762
875.321 .0267782
875.992 .0267807
876.662 .0267838
877.331 .0267873
878.001 .0267912
878.670 .0267953
879.338 .0267996
880.007 .0268041
880.675 .0268087
881.342 .0268136
882.009 .0268186
882.676 .0268239
883.343 .0268293
884.009 .0268350
884.675 .0268410
885.340 .0268470
886.005 .0268533
886.670 .0268596
887.334 .0268661
887.998 .0268727
888.662 .0268794
889.325 .0268862
889.988 .0268932
890.650 .0269002
891.312 .0269073
891.974 .0269145
892.636 .0269217
893.297 .0269288
893.957 .0269358
894.618 .0269427
895.278 .0269493
895.937 .0269556
896.596 .0269614
897.255 .0269667
897.914 .0269713
898.572 .0269751
899.230 .0269780
899.887 .0269798
900.544 .0269805
901.201 .0269800
901.857 .0269734
902.513 .0269694
903.168 .0269641
903.823 .0269574
904.478 .0269493
905.132 .0269398
905.786 .0269289
906.440 .0269166
907.093 .0269029
907.746 .0268878
908.399 .0268714
909.051 .0268538
909.703 .0268351
910.354 .0268232
911.005 .0268034
911.656 .0267826
912.306 .0267612
912.956 .0267390
913.605 .0267163
914.254 .0266932
914.903 .0266697
915.551 .0266459
916.199 .0266219
916.847 .0265978
917.494 .0265736
918.141 .0265494
918.788 .0265252
919.434 .0265009
920.079 .0264766
920.725 .0264522
921.370 .0264278
922.014 .0264031
922.658 .0263784
923.302 .0263534
923.946 .0263283
924.589 .0263031
925.231 .0262776
925.873 .0262519
926.515 .0262259
927.157 .0261996
927.798 .0261730
928.439 .0261461
929.079 .0261188
929.719 .0260912
930.359 .0260633
930.998 .0260352
931.637 .0260070
932.275 .0259786
932.913 .0259500
933.551 .0259215
934.188 .0258929
934.825 .0258644
935.462 .0258360
936.098 .0258077
936.733 .0257797
937.369 .0257520
938.004 .0257247
938.638 .0256977
939.273 .0256713
939.907 .0256453
940.540 .0256199
941.173 .0255951
941.806 .0255708
942.438 .0255471
943.070 .0255241
943.702 .0255017
944.333 .0254799
944.964 .0254586
945.594 .0254378
946.224 .0254175
946.854 .0253976
947.483 .0253780
948.112 .0253587
948.741 .0253397
949.369 .0253210
949.996 .0253025
950.624 .0252842
951.251 .0252661
951.878 .0252482
952.504 .0252304
953.130 .0252128
953.755 .0251952
954.380 .0251777
955.005 .0251603
955.629 .0251429
956.253 .0251256
956.877 .0251083
957.500 .0250911
958.123 .0250739
958.746 .0250568
959.368 .0250398
959.990 .0250229
960.611 .0250061
961.232 .0249896
961.853 .0249732
962.473 .0249571
963.093 .0249414
963.712 .0249260
964.331 .0249110
964.950 .0248964
965.569 .0248822
966.187 .0248684
966.804 .0248550
967.422 .0248420
968.039 .0248293
968.655 .0248169
969.272 .0248046
969.887 .0247926
970.503 .0247808
971.118 .0247691
971.733 .0247576
972.347 .0247463
972.961 .0247352
973.575 .0247242
974.188 .0247135
974.801 .0247030
975.414 .0246927
976.026 .0246827
976.638 .0246729
977.250 .0246634
977.861 .0246542
978.472 .0246454
979.083 .0246368
979.693 .0246286
980.303 .0246206
980.912 .0246098
981.521 .0246024
982.130 .0245953
982.738 .0245882
983.346 .0245813
983.954 .0245745
984.562 .0245680
985.169 .0245616
985.775 .0245555
986.382 .0245497
986.988 .0245443
987.594 .0245393
988.199 .0245348
988.804 .0245308
989.409 .0245297
990.013 .0245266
990.617 .0245241
991.221 .0245224
991.824 .0245213
992.427 .0245210
993.030 .0245213
993.632 .0245222
994.234 .0245236
994.836 .0245256
995.438 .0245282
996.039 .0245312
996.640 .0245348
997.240 .0245388
997.840 .0245435
998.440 .0245488
999.040 .0245546
999.639 .0245611
1000.238 .0245680
1000.836 .0245756
1001.435 .0245836
1002.033 .0245920
1002.630 .0246010
1003.228 .0246103
1003.825 .0246201
1004.422 .0246303
1005.018 .0246408
1005.614 .0246517
1006.210 .0246629
1006.806 .0246744
1007.401 .0246861
1007.996 .0246981
1008.591 .0247101
1009.186 .0247224
1009.780 .0247348
1010.374 .0247473
1010.967 .0247599
1011.561 .0247728
1012.154 .0247858
1012.746 .0247991
1013.339 .0248127
1013.931 .0248267
1014.523 .0248411
1015.115 .0248559
1015.706 .0248710
1016.298 .0248866
1016.888 .0249025
1017.479 .0249188
1018.069 .0249354
1018.660 .0249525
1019.250 .0249701
1019.839 .0249881
1020.429 .0250066
1021.018 .0250257
1021.607 .0250452
1022.195 .0250650
1022.784 .0250852
1023.372 .0251055
1023.960 .0251259
1024.547 .0251464
1025.135 .0251668
1025.722 .0251871
1026.309 .0252075
1026.896 .0252278
1027.483 .0252482
1028.069 .0252686
1028.655 .0252889
1029.241 .0253090
1029.827 .0253289
1030.412 .0253485
1030.997 .0253676
1031.582 .0253863
1032.167 .0254046
1032.752 .0254225
1033.336 .0254402
1033.921 .0254576
1034.505 .0254748
1035.089 .0254918
1035.672 .0255085
1036.256 .0255248
1036.839 .0255406
1037.422 .0255558
1038.005 .0255703
1038.588 .0255841
1039.171 .0255973
1039.753 .0256099
1040.335 .0256221
1040.918 .0256340
1041.500 .0256456
1042.081 .0256571
1042.663 .0256684
1043.244 .0256796
1043.826 .0256905
1044.407 .0257012
1044.988 .0257117
1045.569 .0257220
1046.150 .0257322
1046.730 .0257422
1047.311 .0257521
1047.891 .0257618
1048.471 .0257714
1049.052 .0257807
1049.632 .0257896
1050.211 .0257980
1050.791 .0258059
1051.371 .0258131
1051.950 .0258197
1052.530 .0258255
1053.109 .0258308
1053.688 .0258353
1054.268 .0258393
1054.847 .0258428
1055.426 .0258459
1056.005 .0258486
1056.583 .0258509
1057.162 .0258529
1057.741 .0258547
1058.319 .0258563
1058.898 .0258576
1059.476 .0258587
1060.055 .0258595
1060.633 .0258600
1061.211 .0258601
1061.790 .0258598
1062.368 .0258590
1062.946 .0258578
1063.524 .0258562
1064.102 .0258540
1064.680 .0258512
1065.258 .0258478
1065.836 .0258438
1066.414 .0258393
1066.992 .0258342
1067.570 .0258284
1068.148 .0258222
1068.726 .0258155
1069.304 .0258085
1069.882 .0258011
1070.460 .0257937
1071.038 .0257863
1071.616 .0257788
1072.194 .0257716
1072.772 .0257644
1073.350 .0257573
1073.928 .0257505
1074.506 .0257438
1075.084 .0257371
1075.662 .0257304
1076.240 .0257237
1076.819 .0257169
1077.397 .0257103
1077.976 .0257037
1078.554 .0256972
1079.133 .0256911
1079.711 .0256852
1080.290 .0256796
1080.869 .0256745
1081.448 .0256699
1082.027 .0256657
1082.606 .0256621
1083.185 .0256590
1083.764 .0256566
1084.343 .0256548
1084.923 .0256538
1085.502 .0256534
1086.082 .0256537
1086.662 .0256545
1087.242 .0256558
1087.822 .0256574
1088.402 .0256593
1088.983 .0256613
1089.563 .0256634
1090.144 .0256654
1090.725 .0256674
1091.306 .0256693
1091.887 .0256711
1092.469 .0256729
1093.050 .0256745
1093.632 .0256761
1094.214 .0256774
1094.796 .0256786
1095.379 .0256794
1095.961 .0256799
1096.544 .0256801
1097.127 .0256801
1097.710 .0256798
1098.294 .0256793
1098.877 .0256788
1099.461 .0256782
1100.046 .0256776
1100.630 .0256771
1101.215 .0256765
1101.800 .0256759
1102.385 .0256753
1102.970 .0256745
1103.556 .0256738
1104.142 .0256732
1104.728 .0256730
1105.315 .0256733
1105.902 .0256744
1106.489 .0256762
1107.077 .0256789
1107.664 .0256824
1108.253 .0256866
1108.841 .0256916
1109.430 .0256975
1110.019 .0257042
1110.609 .0257119
1111.198 .0257209
1111.789 .0257314
1112.379 .0257437
1112.970 .0257582
1113.561 .0257748
1114.153 .0257936
1114.745 .0258145
1115.338 .0258374
1115.931 .0258620
1116.524 .0258883
1117.117 .0259159
1117.712 .0259448
1118.306 .0259751
1118.901 .0260068
1119.496 .0260398
1120.092 .0260744
1120.689 .0261104
1121.285 .0261474
1121.882 .0261852
1122.480 .0262234
1123.078 .0262618
1123.677 .0263003
1124.276 .0263389
1124.875 .0263778
1125.476 .0264177
1126.076 .0264587
1126.677 .0265017
1127.279 .0265471
1127.881 .0265957
1128.484 .0266476
1129.087 .0266716
1129.691 .0267274
1130.295 .0267866
1130.900 .0268496
1131.505 .0269165
1132.111 .0269878
1132.718 .0270641
1133.325 .0271469
1133.933 .0272360
1134.541 .0273312
1135.150 .0274366
1135.760 .0275485
1136.370 .0276886
1136.981 .0274441
1137.592 .0275892
1138.204 .0277426
1138.817 .0279037
1139.431 .0280746
1140.045 .0282569
1140.660 .0284524
1141.275 .0286859
1141.891 .0289117
1142.508 .0291251
1143.126 .0294518
1143.744 .0296776
1144.363 .0305125
1144.983 .0297899
