Measurement Sequence started on: 15-12-46-377
Integration time: 28
Scans to Average: 2 
>>>>>Begin Spectral Data<<<<<
432.689 .0000100
433.621 .0000100
434.552 .0000100
435.482 .0000100
436.410 .0000100
437.337 .0000100
438.262 .0253979
439.187 .0538358
440.110 .0891097
441.031 .1289344
441.952 .1039285
442.871 .1086752
443.789 .1131165
444.705 .1173160
445.621 .1213152
446.535 .1251461
447.447 .1274959
448.359 .1282231
449.269 .1269832
450.178 .1235488
451.086 .1179884
451.993 .1107439
452.898 .1025431
453.803 .0942104
454.706 .0864466
455.608 .0796858
456.508 .0740719
457.408 .0702578
458.306 .0673004
459.204 .0648618
460.100 .0627802
460.995 .0609667
461.888 .0593614
462.781 .0579269
463.673 .0566346
464.563 .0554644
465.452 .0544005
466.340 .0534313
467.228 .0525473
468.114 .0517430
468.999 .0510119
469.882 .0503488
470.765 .0497502
471.647 .0492126
472.528 .0487331
473.407 .0483086
474.286 .0479356
475.163 .0476114
476.040 .0473317
476.915 .0470933
477.790 .0468920
478.663 .0467243
479.535 .0465868
480.407 .0464762
481.277 .0463891
482.147 .0463227
483.015 .0462733
483.883 .0462385
484.749 .0462162
485.615 .0462053
486.479 .0462050
487.343 .0462156
488.206 .0462379
489.067 .0462724
489.928 .0463199
490.788 .0463815
491.647 .0464575
492.505 .0465490
493.362 .0466564
494.218 .0467804
495.073 .0469221
495.928 .0472085
496.781 .0474030
497.634 .0476205
498.486 .0478618
499.337 .0481283
500.187 .0484217
501.036 .0487434
501.884 .0490951
502.731 .0494803
503.578 .0499022
504.424 .0501903
505.268 .0506826
506.113 .0512243
506.956 .0518201
507.798 .0524754
508.640 .0531974
509.480 .0539938
510.320 .0548749
511.160 .0558525
511.998 .0569409
512.836 .0581580
513.672 .0595229
514.508 .0610575
515.344 .0627850
516.178 .0647314
517.012 .0669209
517.845 .0693762
518.677 .0721190
519.508 .0751681
520.339 .0785351
521.169 .0822264
521.998 .0862233
522.826 .0904953
523.654 .0949921
524.481 .0996429
525.307 .1043664
526.133 .1090700
526.958 .1136519
527.782 .1180099
528.605 .1220486
529.428 .1256858
530.250 .1288478
531.072 .1314875
531.892 .1335659
532.712 .1350592
533.532 .1359572
534.350 .1362547
535.168 .1359560
535.986 .1350712
536.802 .1336073
537.618 .1315724
538.434 .1289758
539.249 .1258522
540.063 .1222453
540.876 .1182172
541.689 .1138492
542.501 .1092303
543.313 .1044568
544.124 .0996319
544.934 .0948528
545.744 .0902085
546.553 .0857722
547.361 .0816025
548.169 .0777311
548.976 .0741792
549.783 .0709512
550.589 .0680354
551.395 .0654154
552.200 .0630669
553.004 .0609584
553.808 .0590634
554.611 .0573582
555.414 .0558222
556.216 .0544347
557.018 .0531763
557.819 .0520292
558.619 .0509774
559.419 .0500077
560.218 .0491093
561.017 .0482728
561.815 .0474927
562.613 .0467633
563.410 .0460784
564.207 .0454330
565.003 .0448222
565.799 .0442403
566.594 .0436824
567.388 .0431442
568.182 .0426217
568.976 .0421118
569.769 .0416128
570.562 .0411241
571.354 .0406464
572.145 .0401812
572.936 .0397294
573.727 .0392924
574.517 .0388710
575.307 .0384657
576.096 .0380760
576.885 .0377022
577.673 .0373444
578.461 .0370022
579.248 .0366754
580.035 .0363646
580.821 .0360702
581.607 .0357926
582.392 .0355318
583.177 .0352878
583.962 .0350603
584.746 .0348493
585.529 .0346537
586.313 .0344727
587.095 .0343054
587.878 .0341505
588.660 .0340071
589.441 .0338737
590.222 .0337495
591.003 .0336334
591.783 .0335246
592.563 .0334222
593.342 .0333253
594.121 .0332333
594.899 .0331455
595.678 .0330617
596.455 .0329813
597.233 .0329040
598.009 .0328297
598.786 .0327582
599.562 .0326893
600.338 .0326227
601.113 .0325585
601.888 .0324694
602.663 .0324105
603.437 .0323537
604.211 .0322989
604.984 .0322460
605.757 .0321952
606.530 .0321464
607.302 .0320996
608.074 .0320547
608.845 .0320118
609.616 .0319709
610.387 .0319552
611.158 .0319170
611.928 .0318806
612.697 .0318460
613.467 .0318132
614.236 .0317821
615.004 .0317525
615.773 .0317243
616.541 .0316975
617.308 .0316718
618.076 .0316472
618.843 .0316234
619.609 .0316005
620.375 .0315782
621.141 .0315564
621.907 .0315350
622.672 .0315139
623.437 .0314930
624.202 .0314722
624.966 .0314514
625.730 .0314307
626.493 .0314100
627.257 .0313892
628.020 .0313684
628.782 .0313475
629.545 .0313264
630.307 .0313052
631.068 .0312838
631.830 .0312624
632.591 .0312409
633.352 .0312195
634.112 .0311983
634.872 .0311773
635.632 .0311567
636.392 .0311364
637.151 .0311164
637.910 .0310968
638.668 .0310774
639.427 .0310582
640.185 .0310391
640.943 .0310201
641.700 .0310013
642.457 .0309826
643.214 .0309641
643.971 .0309459
644.727 .0309280
645.483 .0309105
646.239 .0308932
646.994 .0308762
647.750 .0308593
648.505 .0308425
649.259 .0308255
650.014 .0308083
650.768 .0307909
651.521 .0307731
652.275 .0307549
653.028 .0307363
653.781 .0307173
654.534 .0306978
655.286 .0306780
656.039 .0306579
656.791 .0306374
657.542 .0306166
658.294 .0305954
659.045 .0305739
659.796 .0305521
660.546 .0305299
661.297 .0305073
662.047 .0304844
662.796 .0304612
663.546 .0304377
664.295 .0304141
665.044 .0303904
665.793 .0303667
666.542 .0303430
667.290 .0303193
668.038 .0302956
668.786 .0302719
669.533 .0302481
670.281 .0302243
671.028 .0302004
671.774 .0301764
672.521 .0301525
673.267 .0301286
674.013 .0301048
674.759 .0300811
675.505 .0300576
676.250 .0300344
676.995 .0300114
677.740 .0299887
678.484 .0299662
679.229 .0299439
679.973 .0299219
680.717 .0299000
681.460 .0298783
682.204 .0298568
682.947 .0298355
683.690 .0298144
684.433 .0297935
685.175 .0297728
685.917 .0297522
686.659 .0297318
687.401 .0297115
688.142 .0296912
688.884 .0296709
689.625 .0296507
690.365 .0296304
691.106 .0296101
691.846 .0295899
692.586 .0295697
693.326 .0295496
694.066 .0295295
694.805 .0295094
695.545 .0294894
696.284 .0294694
697.022 .0294494
697.761 .0294296
698.499 .0294099
699.237 .0293904
699.975 .0293711
700.713 .0293522
701.450 .0293335
702.187 .0293152
702.924 .0292972
703.661 .0292794
704.397 .0292619
705.133 .0292447
705.869 .0292278
706.605 .0292111
707.341 .0291946
708.076 .0291784
708.811 .0291624
709.546 .0291465
710.281 .0291307
711.015 .0291151
711.749 .0290995
712.483 .0290840
713.217 .0290686
713.950 .0290532
714.684 .0290378
715.417 .0290224
716.150 .0290068
716.882 .0289912
717.615 .0289753
718.347 .0289594
719.079 .0289434
719.811 .0289275
720.542 .0289115
721.273 .0288957
722.005 .0288801
722.735 .0288646
723.466 .0288494
724.196 .0288345
724.927 .0288198
725.656 .0288056
726.386 .0287918
727.116 .0287784
727.845 .0287656
728.574 .0287534
729.303 .0287418
730.031 .0287308
730.760 .0287204
731.488 .0287106
732.216 .0287013
732.944 .0286925
733.671 .0286842
734.398 .0286763
735.125 .0286687
735.852 .0286615
736.579 .0286546
737.305 .0286479
738.031 .0286414
738.757 .0286351
739.483 .0286289
740.208 .0286230
740.933 .0286171
741.658 .0286114
742.383 .0286057
743.108 .0286001
743.832 .0285944
744.556 .0285885
745.280 .0285825
746.004 .0285762
746.727 .0285696
747.450 .0285627
748.173 .0285555
748.896 .0285478
749.618 .0285398
750.340 .0285314
751.062 .0285225
751.784 .0285131
752.506 .0285032
753.227 .0284928
753.948 .0284818
754.669 .0284703
755.389 .0284582
756.110 .0284454
756.830 .0284321
757.550 .0284182
758.269 .0284038
758.989 .0283890
759.708 .0283738
760.427 .0283582
761.146 .0283424
761.864 .0283264
762.582 .0283102
763.300 .0282939
764.018 .0282774
764.736 .0282609
765.453 .0282444
766.170 .0282281
766.887 .0282119
767.603 .0281960
768.320 .0281804
769.036 .0281651
769.751 .0281503
770.467 .0281359
771.182 .0281218
771.897 .0281082
772.612 .0280949
773.327 .0280819
774.041 .0280692
774.755 .0280567
775.469 .0280445
776.183 .0280324
776.896 .0280204
777.609 .0280086
778.322 .0279967
779.035 .0279849
779.747 .0279731
780.459 .0279612
781.171 .0279492
781.882 .0279371
782.594 .0279248
783.305 .0279124
784.016 .0278996
784.726 .0278866
785.436 .0278734
786.147 .0278525
786.856 .0278386
787.566 .0278245
788.275 .0278101
788.984 .0277954
789.693 .0277806
790.401 .0277654
791.110 .0277500
791.818 .0277344
792.525 .0277184
793.233 .0277023
793.940 .0276859
794.647 .0276771
795.353 .0276605
796.060 .0276438
796.766 .0276270
797.472 .0276099
798.177 .0275927
798.883 .0275752
799.588 .0275575
800.292 .0275395
800.997 .0275213
801.701 .0275029
802.405 .0274843
803.109 .0274655
803.812 .0274464
804.515 .0274270
805.218 .0274074
805.921 .0273874
806.623 .0273671
807.325 .0273466
808.027 .0273259
808.728 .0273051
809.429 .0272842
810.130 .0272632
810.831 .0272423
811.531 .0272214
812.231 .0272006
812.931 .0271799
813.630 .0271594
814.330 .0271391
815.029 .0271193
815.727 .0271000
816.426 .0270813
817.124 .0270633
817.821 .0270460
818.519 .0270294
819.216 .0270136
819.913 .0269986
820.609 .0269844
821.306 .0269710
822.002 .0269586
822.697 .0269472
823.393 .0269369
824.088 .0269277
824.783 .0269196
825.477 .0269124
826.171 .0269062
826.865 .0269006
827.559 .0268958
828.252 .0268916
828.945 .0268880
829.638 .0268849
830.330 .0268824
831.023 .0268806
831.714 .0268792
832.406 .0268783
833.097 .0268777
833.788 .0268773
834.479 .0268770
835.169 .0268768
835.859 .0268766
836.548 .0268764
837.238 .0268763
837.927 .0268762
838.615 .0268762
839.304 .0268762
839.992 .0268762
840.680 .0268761
841.367 .0268758
842.054 .0268753
842.741 .0268746
843.428 .0268738
844.114 .0268729
844.800 .0268718
845.485 .0268707
846.170 .0268694
846.855 .0268679
847.540 .0268662
848.224 .0268640
848.908 .0268614
849.592 .0268584
850.275 .0268551
850.958 .0268514
851.641 .0268474
852.323 .0268434
853.005 .0268392
853.687 .0268348
854.368 .0268304
855.049 .0268257
855.730 .0268208
856.410 .0268156
857.090 .0268103
857.769 .0268048
858.449 .0267992
859.128 .0267936
859.806 .0267881
860.485 .0267827
861.163 .0267774
861.840 .0267723
862.518 .0267674
863.195 .0267626
863.871 .0267580
864.548 .0267536
865.224 .0267494
865.899 .0267455
866.574 .0267418
867.249 .0267384
867.924 .0267352
868.598 .0267322
869.272 .0267293
869.946 .0267264
870.619 .0267236
871.292 .0267207
871.964 .0267178
872.636 .0267150
873.308 .0267121
873.979 .0267093
874.651 .0267066
875.321 .0267039
875.992 .0267012
876.662 .0266985
877.331 .0266959
878.001 .0266932
878.670 .0266905
879.338 .0266878
880.007 .0266852
880.675 .0266828
881.342 .0266805
882.009 .0266784
882.676 .0266765
883.343 .0266748
884.009 .0266733
884.675 .0266720
885.340 .0266708
886.005 .0266697
886.670 .0266687
887.334 .0266678
887.998 .0266671
888.662 .0266665
889.325 .0266659
889.988 .0266654
890.650 .0266649
891.312 .0266644
891.974 .0266636
892.636 .0266627
893.297 .0266614
893.957 .0266598
894.618 .0266578
895.278 .0266553
895.937 .0266522
896.596 .0266485
897.255 .0266441
897.914 .0266389
898.572 .0266330
899.230 .0266261
899.887 .0266182
900.544 .0266094
901.201 .0265996
901.857 .0265806
902.513 .0265681
903.168 .0265547
903.823 .0265404
904.478 .0265251
905.132 .0265089
905.786 .0264918
906.440 .0264739
907.093 .0264552
907.746 .0264358
908.399 .0264157
909.051 .0263951
909.703 .0263740
910.354 .0263623
911.005 .0263408
911.656 .0263190
912.306 .0262968
912.956 .0262745
913.605 .0262518
914.254 .0262289
914.903 .0262058
915.551 .0261824
916.199 .0261589
916.847 .0261351
917.494 .0261111
918.141 .0260869
918.788 .0260626
919.434 .0260380
920.079 .0260132
920.725 .0259881
921.370 .0259627
922.014 .0259371
922.658 .0259110
923.302 .0258847
923.946 .0258580
924.589 .0258310
925.231 .0258037
925.873 .0257762
926.515 .0257484
927.157 .0257203
927.798 .0256921
928.439 .0256636
929.079 .0256351
929.719 .0256065
930.359 .0255778
930.998 .0255492
931.637 .0255207
932.275 .0254923
932.913 .0254643
933.551 .0254365
934.188 .0254091
934.825 .0253822
935.462 .0253558
936.098 .0253300
936.733 .0253048
937.369 .0252803
938.004 .0252565
938.638 .0252334
939.273 .0252110
939.907 .0251895
940.540 .0251687
941.173 .0251486
941.806 .0251293
942.438 .0251107
943.070 .0250928
943.702 .0250755
944.333 .0250589
944.964 .0250427
945.594 .0250270
946.224 .0250118
946.854 .0249969
947.483 .0249822
948.112 .0249678
948.741 .0249536
949.369 .0249394
949.996 .0249253
950.624 .0249113
951.251 .0248972
951.878 .0248832
952.504 .0248691
953.130 .0248550
953.755 .0248408
954.380 .0248266
955.005 .0248124
955.629 .0247981
956.253 .0247839
956.877 .0247696
957.500 .0247553
958.123 .0247411
958.746 .0247271
959.368 .0247131
959.990 .0246993
960.611 .0246857
961.232 .0246723
961.853 .0246591
962.473 .0246461
963.093 .0246333
963.712 .0246208
964.331 .0246086
964.950 .0245967
965.569 .0245852
966.187 .0245742
966.804 .0245636
967.422 .0245534
968.039 .0245436
968.655 .0245341
969.272 .0245249
969.887 .0245161
970.503 .0245074
971.118 .0244990
971.733 .0244909
972.347 .0244829
972.961 .0244751
973.575 .0244674
974.188 .0244597
974.801 .0244520
975.414 .0244442
976.026 .0244363
976.638 .0244282
977.250 .0244199
977.861 .0244115
978.472 .0244030
979.083 .0243945
979.693 .0243859
980.303 .0243773
980.912 .0243637
981.521 .0243551
982.130 .0243465
982.738 .0243378
983.346 .0243292
983.954 .0243208
984.562 .0243126
985.169 .0243047
985.775 .0242973
986.382 .0242903
986.988 .0242838
987.594 .0242779
988.199 .0242726
988.804 .0242680
989.409 .0242681
990.013 .0242648
990.617 .0242622
991.221 .0242605
991.824 .0242597
992.427 .0242597
993.030 .0242606
993.632 .0242623
994.234 .0242647
994.836 .0242678
995.438 .0242716
996.039 .0242760
996.640 .0242810
997.240 .0242866
997.840 .0242929
998.440 .0242997
999.040 .0243072
999.639 .0243152
1000.238 .0243237
1000.836 .0243326
1001.435 .0243419
1002.033 .0243515
1002.630 .0243615
1003.228 .0243717
1003.825 .0243823
1004.422 .0243931
1005.018 .0244042
1005.614 .0244155
1006.210 .0244270
1006.806 .0244385
1007.401 .0244501
1007.996 .0244616
1008.591 .0244731
1009.186 .0244846
1009.780 .0244960
1010.374 .0245076
1010.967 .0245192
1011.561 .0245311
1012.154 .0245432
1012.746 .0245556
1013.339 .0245683
1013.931 .0245813
1014.523 .0245945
1015.115 .0246080
1015.706 .0246217
1016.298 .0246357
1016.888 .0246500
1017.479 .0246645
1018.069 .0246794
1018.660 .0246945
1019.250 .0247098
1019.839 .0247252
1020.429 .0247407
1021.018 .0247561
1021.607 .0247715
1022.195 .0247867
1022.784 .0248019
1023.372 .0248170
1023.960 .0248321
1024.547 .0248472
1025.135 .0248625
1025.722 .0248779
1026.309 .0248933
1026.896 .0249089
1027.483 .0249246
1028.069 .0249403
1028.655 .0249561
1029.241 .0249719
1029.827 .0249878
1030.412 .0250038
1030.997 .0250199
1031.582 .0250361
1032.167 .0250525
1032.752 .0250689
1033.336 .0250854
1033.921 .0251019
1034.505 .0251183
1035.089 .0251345
1035.672 .0251506
1036.256 .0251664
1036.839 .0251820
1037.422 .0251973
1038.005 .0252125
1038.588 .0252274
1039.171 .0252421
1039.753 .0252566
1040.335 .0252708
1040.918 .0252847
1041.500 .0252983
1042.081 .0253115
1042.663 .0253243
1043.244 .0253366
1043.826 .0253486
1044.407 .0253603
1044.988 .0253717
1045.569 .0253827
1046.150 .0253935
1046.730 .0254040
1047.311 .0254142
1047.891 .0254242
1048.471 .0254338
1049.052 .0254430
1049.632 .0254518
1050.211 .0254600
1050.791 .0254678
1051.371 .0254750
1051.950 .0254818
1052.530 .0254881
1053.109 .0254941
1053.688 .0254999
1054.268 .0255055
1054.847 .0255112
1055.426 .0255169
1056.005 .0255229
1056.583 .0255292
1057.162 .0255358
1057.741 .0255427
1058.319 .0255499
1058.898 .0255574
1059.476 .0255651
1060.055 .0255731
1060.633 .0255812
1061.211 .0255894
1061.790 .0255978
1062.368 .0256061
1062.946 .0256145
1063.524 .0256227
1064.102 .0256304
1064.680 .0256378
1065.258 .0256445
1065.836 .0256505
1066.414 .0256558
1066.992 .0256604
1067.570 .0256643
1068.148 .0256676
1068.726 .0256706
1069.304 .0256732
1069.882 .0256757
1070.460 .0256780
1071.038 .0256801
1071.616 .0256819
1072.194 .0256834
1072.772 .0256845
1073.350 .0256853
1073.928 .0256858
1074.506 .0256861
1075.084 .0256863
1075.662 .0256866
1076.240 .0256871
1076.819 .0256878
1077.397 .0256888
1077.976 .0256898
1078.554 .0256910
1079.133 .0256922
1079.711 .0256931
1080.290 .0256940
1080.869 .0256947
1081.448 .0256956
1082.027 .0256967
1082.606 .0256981
1083.185 .0257000
1083.764 .0257025
1084.343 .0257056
1084.923 .0257091
1085.502 .0257129
1086.082 .0257169
1086.662 .0257209
1087.242 .0257248
1087.822 .0257286
1088.402 .0257325
1088.983 .0257365
1089.563 .0257407
1090.144 .0257451
1090.725 .0257497
1091.306 .0257544
1091.887 .0257590
1092.469 .0257633
1093.050 .0257669
1093.632 .0257697
1094.214 .0257716
1094.796 .0257726
1095.379 .0257728
1095.961 .0257725
1096.544 .0257720
1097.127 .0257718
1097.710 .0257721
1098.294 .0257730
1098.877 .0257748
1099.461 .0257775
1100.046 .0257810
1100.630 .0257852
1101.215 .0257902
1101.800 .0257961
1102.385 .0258029
1102.970 .0258108
1103.556 .0258199
1104.142 .0258306
1104.728 .0258427
1105.315 .0258561
1105.902 .0258705
1106.489 .0258858
1107.077 .0259015
1107.664 .0259175
1108.253 .0259338
1108.841 .0259505
1109.430 .0259679
1110.019 .0259862
1110.609 .0260057
1111.198 .0260268
1111.789 .0260497
1112.379 .0260746
1112.970 .0261013
1113.561 .0261296
1114.153 .0261593
1114.745 .0261904
1115.338 .0262224
1115.931 .0262554
1116.524 .0262892
1117.117 .0263238
1117.712 .0263591
1118.306 .0263949
1118.901 .0264311
1119.496 .0264677
1120.092 .0265043
1120.689 .0265407
1121.285 .0265766
1121.882 .0266120
1122.480 .0266471
1123.078 .0266822
1123.677 .0267179
1124.276 .0267546
1124.875 .0267929
1125.476 .0268332
1126.076 .0268758
1126.677 .0269208
1127.279 .0269682
1127.881 .0270180
1128.484 .0270701
1129.087 .0270927
1129.691 .0271475
1130.295 .0272048
1130.900 .0272651
1131.505 .0273285
1132.111 .0273952
1132.718 .0274655
1133.325 .0275391
1133.933 .0276161
1134.541 .0276952
1135.150 .0277799
1135.760 .0278669
1136.370 .0279534
1136.981 .0279083
1137.592 .0280161
1138.204 .0281320
1138.817 .0282628
1139.431 .0283998
1140.045 .0285449
1140.660 .0286936
1141.275 .0288371
1141.891 .0289824
1142.508 .0290884
1143.126 .0292895
1143.744 .0293937
1144.363 .0294128
1144.983 .0296610
