Measurement Sequence started on: 15-12-46-377
Integration time: 28
Scans to Average: 2 
>>>>>Begin Spectral Data<<<<<
432.689 .0000100
433.621 .0000100
434.552 .0000100
435.482 .0000100
436.410 .0000100
437.337 .0000100
438.262 .0246910
439.187 .0523440
440.110 .0867428
441.031 .1256011
441.952 .1018404
442.871 .1064916
443.789 .1108300
444.705 .1149234
445.621 .1188194
446.535 .1225522
447.447 .1248487
448.359 .1255696
449.269 .1243744
450.178 .1210402
451.086 .1156267
451.993 .1085569
452.898 .1005379
453.803 .0923726
454.706 .0847497
455.608 .0780989
456.508 .0725693
457.408 .0688035
458.306 .0658910
459.204 .0635068
460.100 .0614890
460.995 .0597482
461.888 .0582202
462.781 .0568603
463.673 .0556375
464.563 .0545279
465.452 .0535165
466.340 .0525903
467.228 .0517390
468.114 .0509555
468.999 .0502339
469.882 .0495695
470.765 .0489591
471.647 .0483998
472.528 .0478900
473.407 .0474273
474.286 .0470097
475.163 .0466353
476.040 .0463008
476.915 .0460031
477.790 .0457390
478.663 .0455055
479.535 .0453004
480.407 .0451213
481.277 .0449671
482.147 .0448362
483.015 .0447276
483.883 .0446402
484.749 .0445722
485.615 .0445227
486.479 .0444897
487.343 .0444710
488.206 .0444654
489.067 .0444714
489.928 .0444887
490.788 .0445180
491.647 .0445602
492.505 .0446168
493.362 .0446897
494.218 .0447806
495.073 .0448909
495.928 .0451327
496.781 .0453028
497.634 .0454980
498.486 .0457193
499.337 .0459683
500.187 .0462472
501.036 .0465592
501.884 .0469069
502.731 .0472948
503.578 .0477266
504.424 .0480405
505.268 .0485514
506.113 .0491170
506.956 .0497401
507.798 .0504250
508.640 .0511770
509.480 .0520025
510.320 .0529094
511.160 .0539077
511.998 .0550088
512.836 .0562274
513.672 .0575793
514.508 .0590838
515.344 .0607600
516.178 .0626298
517.012 .0647136
517.845 .0670329
518.677 .0696061
519.508 .0724479
520.339 .0755661
521.169 .0789662
521.998 .0826300
522.826 .0865288
523.654 .0906142
524.481 .0948285
525.307 .0991006
526.133 .1033488
526.958 .1074815
527.782 .1114091
528.605 .1150472
529.428 .1183191
530.250 .1211547
531.072 .1235082
531.892 .1253408
532.712 .1266311
533.532 .1273662
534.350 .1275457
535.168 .1271758
535.986 .1262678
536.802 .1248327
537.618 .1228832
538.434 .1204318
539.249 .1175114
540.063 .1141639
540.876 .1104473
541.689 .1064294
542.501 .1021873
543.313 .0978064
544.124 .0933786
544.934 .0889918
545.744 .0847251
546.553 .0806477
547.361 .0768189
548.169 .0732714
548.976 .0700275
549.783 .0670923
550.589 .0644586
551.395 .0621071
552.200 .0600093
553.004 .0581338
553.808 .0564514
554.611 .0549375
555.414 .0535700
556.216 .0523293
557.018 .0511980
557.819 .0501624
558.619 .0492090
559.419 .0483278
560.218 .0475103
561.017 .0467484
561.815 .0460350
562.613 .0453641
563.410 .0447291
564.207 .0441238
565.003 .0435434
565.799 .0429832
566.594 .0424388
567.388 .0419078
568.182 .0413889
568.976 .0408821
569.769 .0403878
570.562 .0399075
571.354 .0394424
572.145 .0389938
572.936 .0385627
573.727 .0381486
574.517 .0377510
575.307 .0373688
576.096 .0370003
576.885 .0366448
577.673 .0363021
578.461 .0359726
579.248 .0356570
580.035 .0353569
580.821 .0350731
581.607 .0348064
582.392 .0345573
583.177 .0343256
583.962 .0341105
584.746 .0339108
585.529 .0337249
586.313 .0335511
587.095 .0333883
587.878 .0332355
588.660 .0330920
589.441 .0329576
590.222 .0328322
591.003 .0327155
591.783 .0326075
592.563 .0325081
593.342 .0324166
594.121 .0323322
594.899 .0322539
595.678 .0321806
596.455 .0321114
597.233 .0320456
598.009 .0319826
598.786 .0319220
599.562 .0318636
600.338 .0318074
601.113 .0317534
601.888 .0316793
602.663 .0316307
603.437 .0315842
604.211 .0315398
604.984 .0314973
605.757 .0314564
606.530 .0314172
607.302 .0313796
608.074 .0313437
608.845 .0313094
609.616 .0312770
610.387 .0312655
611.158 .0312360
611.928 .0312084
612.697 .0311830
613.467 .0311595
614.236 .0311380
615.004 .0311183
615.773 .0311001
616.541 .0310834
617.308 .0310680
618.076 .0310535
618.843 .0310399
619.609 .0310271
620.375 .0310147
621.141 .0310026
621.907 .0309906
622.672 .0309785
623.437 .0309661
624.202 .0309532
624.966 .0309397
625.730 .0309254
626.493 .0309103
627.257 .0308942
628.020 .0308770
628.782 .0308588
629.545 .0308395
630.307 .0308190
631.068 .0307974
631.830 .0307748
632.591 .0307512
633.352 .0307269
634.112 .0307018
634.872 .0306761
635.632 .0306499
636.392 .0306234
637.151 .0305965
637.910 .0305695
638.668 .0305423
639.427 .0305151
640.185 .0304881
640.943 .0304615
641.700 .0304352
642.457 .0304095
643.214 .0303844
643.971 .0303598
644.727 .0303358
645.483 .0303122
646.239 .0302890
646.994 .0302661
647.750 .0302433
648.505 .0302207
649.259 .0301982
650.014 .0301757
650.768 .0301533
651.521 .0301308
652.275 .0301083
653.028 .0300856
653.781 .0300628
654.534 .0300396
655.286 .0300162
656.039 .0299924
656.791 .0299682
657.542 .0299437
658.294 .0299190
659.045 .0298939
659.796 .0298687
660.546 .0298433
661.297 .0298179
662.047 .0297925
662.796 .0297672
663.546 .0297421
664.295 .0297172
665.044 .0296926
665.793 .0296682
666.542 .0296443
667.290 .0296207
668.038 .0295976
668.786 .0295749
669.533 .0295529
670.281 .0295314
671.028 .0295105
671.774 .0294904
672.521 .0294710
673.267 .0294523
674.013 .0294344
674.759 .0294172
675.505 .0294006
676.250 .0293847
676.995 .0293693
677.740 .0293543
678.484 .0293399
679.229 .0293259
679.973 .0293123
680.717 .0292991
681.460 .0292863
682.204 .0292736
682.947 .0292612
683.690 .0292488
684.433 .0292365
685.175 .0292242
685.917 .0292120
686.659 .0291997
687.401 .0291876
688.142 .0291754
688.884 .0291633
689.625 .0291511
690.365 .0291388
691.106 .0291263
691.846 .0291135
692.586 .0291005
693.326 .0290872
694.066 .0290737
694.805 .0290602
695.545 .0290467
696.284 .0290334
697.022 .0290202
697.761 .0290073
698.499 .0289946
699.237 .0289821
699.975 .0289698
700.713 .0289578
701.450 .0289459
702.187 .0289342
702.924 .0289226
703.661 .0289112
704.397 .0288998
705.133 .0288885
705.869 .0288772
706.605 .0288658
707.341 .0288543
708.076 .0288428
708.811 .0288312
709.546 .0288194
710.281 .0288075
711.015 .0287954
711.749 .0287828
712.483 .0287697
713.217 .0287560
713.950 .0287416
714.684 .0287264
715.417 .0287105
716.150 .0286938
716.882 .0286764
717.615 .0286583
718.347 .0286396
719.079 .0286202
719.811 .0286001
720.542 .0285793
721.273 .0285579
722.005 .0285357
722.735 .0285130
723.466 .0284897
724.196 .0284661
724.927 .0284422
725.656 .0284181
726.386 .0283940
727.116 .0283700
727.845 .0283460
728.574 .0283221
729.303 .0282984
730.031 .0282751
730.760 .0282520
731.488 .0282294
732.216 .0282072
732.944 .0281854
733.671 .0281642
734.398 .0281434
735.125 .0281232
735.852 .0281034
736.579 .0280842
737.305 .0280655
738.031 .0280475
738.757 .0280300
739.483 .0280131
740.208 .0279969
740.933 .0279811
741.658 .0279658
742.383 .0279509
743.108 .0279363
743.832 .0279221
744.556 .0279082
745.280 .0278945
746.004 .0278812
746.727 .0278682
747.450 .0278555
748.173 .0278430
748.896 .0278307
749.618 .0278184
750.340 .0278062
751.062 .0277941
751.784 .0277819
752.506 .0277699
753.227 .0277579
753.948 .0277461
754.669 .0277345
755.389 .0277230
756.110 .0277116
756.830 .0277001
757.550 .0276887
758.269 .0276772
758.989 .0276657
759.708 .0276541
760.427 .0276425
761.146 .0276309
761.864 .0276193
762.582 .0276079
763.300 .0275965
764.018 .0275853
764.736 .0275744
765.453 .0275636
766.170 .0275532
766.887 .0275433
767.603 .0275337
768.320 .0275247
769.036 .0275163
769.751 .0275083
770.467 .0275008
771.182 .0274938
771.897 .0274874
772.612 .0274815
773.327 .0274762
774.041 .0274715
774.755 .0274676
775.469 .0274644
776.183 .0274620
776.896 .0274603
777.609 .0274594
778.322 .0274591
779.035 .0274594
779.747 .0274603
780.459 .0274617
781.171 .0274636
781.882 .0274658
782.594 .0274683
783.305 .0274711
784.016 .0274740
784.726 .0274769
785.436 .0274797
786.147 .0274831
786.856 .0274853
787.566 .0274871
788.275 .0274886
788.984 .0274897
789.693 .0274902
790.401 .0274903
791.110 .0274899
791.818 .0274890
792.525 .0274875
793.233 .0274854
793.940 .0274828
794.647 .0274797
795.353 .0274762
796.060 .0274721
796.766 .0274673
797.472 .0274620
798.177 .0274559
798.883 .0274492
799.588 .0274419
800.292 .0274339
800.997 .0274251
801.701 .0274157
802.405 .0274055
803.109 .0273945
803.812 .0273829
804.515 .0273705
805.218 .0273575
805.921 .0273438
806.623 .0273295
807.325 .0273146
808.027 .0272991
808.728 .0272830
809.429 .0272664
810.130 .0272493
810.831 .0272317
811.531 .0272137
812.231 .0271952
812.931 .0271764
813.630 .0271574
814.330 .0271381
815.029 .0271186
815.727 .0270992
816.426 .0270798
817.124 .0270606
817.821 .0270415
818.519 .0270228
819.216 .0270044
819.913 .0269864
820.609 .0269687
821.306 .0269515
822.002 .0269346
822.697 .0269181
823.393 .0269020
824.088 .0268864
824.783 .0268712
825.477 .0268564
826.171 .0268420
826.865 .0268280
827.559 .0268144
828.252 .0268011
828.945 .0267880
829.638 .0267751
830.330 .0267625
831.023 .0267500
831.714 .0267378
832.406 .0267256
833.097 .0267137
833.788 .0267018
834.479 .0266899
835.169 .0266781
835.859 .0266663
836.548 .0266545
837.238 .0266427
837.927 .0266308
838.615 .0266189
839.304 .0266068
839.992 .0265947
840.680 .0265824
841.367 .0265699
842.054 .0265573
842.741 .0265444
843.428 .0265314
844.114 .0265183
844.800 .0265050
845.485 .0264915
846.170 .0264780
846.855 .0264643
847.540 .0264505
848.224 .0264366
848.908 .0264224
849.592 .0264082
850.275 .0263937
850.958 .0263792
851.641 .0263644
852.323 .0263496
853.005 .0263347
853.687 .0263197
854.368 .0263047
855.049 .0262897
855.730 .0262747
856.410 .0262599
857.090 .0262452
857.769 .0262308
858.449 .0262166
859.128 .0262028
859.806 .0261892
860.485 .0261759
861.163 .0261630
861.840 .0261504
862.518 .0261382
863.195 .0261265
863.871 .0261152
864.548 .0261044
865.224 .0260940
865.899 .0260840
866.574 .0260745
867.249 .0260653
867.924 .0260565
868.598 .0260481
869.272 .0260401
869.946 .0260325
870.619 .0260254
871.292 .0260187
871.964 .0260125
872.636 .0260069
873.308 .0260017
873.979 .0259971
874.651 .0259931
875.321 .0259897
875.992 .0259869
876.662 .0259848
877.331 .0259833
878.001 .0259826
878.670 .0259825
879.338 .0259831
880.007 .0259843
880.675 .0259861
881.342 .0259884
882.009 .0259913
882.676 .0259948
883.343 .0259988
884.009 .0260034
884.675 .0260085
885.340 .0260141
886.005 .0260201
886.670 .0260267
887.334 .0260336
887.998 .0260409
888.662 .0260484
889.325 .0260563
889.988 .0260643
890.650 .0260725
891.312 .0260808
891.974 .0260891
892.636 .0260973
893.297 .0261054
893.957 .0261133
894.618 .0261208
895.278 .0261279
895.937 .0261346
896.596 .0261408
897.255 .0261464
897.914 .0261514
898.572 .0261558
899.230 .0261594
899.887 .0261622
900.544 .0261642
901.201 .0261654
901.857 .0261632
902.513 .0261621
903.168 .0261601
903.823 .0261573
904.478 .0261537
905.132 .0261492
905.786 .0261439
906.440 .0261377
907.093 .0261306
907.746 .0261227
908.399 .0261140
909.051 .0261045
909.703 .0260944
910.354 .0260879
911.005 .0260771
911.656 .0260658
912.306 .0260540
912.956 .0260419
913.605 .0260293
914.254 .0260163
914.903 .0260030
915.551 .0259894
916.199 .0259755
916.847 .0259613
917.494 .0259469
918.141 .0259322
918.788 .0259173
919.434 .0259021
920.079 .0258865
920.725 .0258705
921.370 .0258542
922.014 .0258373
922.658 .0258200
923.302 .0258021
923.946 .0257838
924.589 .0257650
925.231 .0257457
925.873 .0257260
926.515 .0257060
927.157 .0256856
927.798 .0256650
928.439 .0256441
929.079 .0256231
929.719 .0256019
930.359 .0255807
930.998 .0255594
931.637 .0255381
932.275 .0255170
932.913 .0254960
933.551 .0254754
934.188 .0254550
934.825 .0254352
935.462 .0254157
936.098 .0253969
936.733 .0253786
937.369 .0253610
938.004 .0253440
938.638 .0253275
939.273 .0253117
939.907 .0252964
940.540 .0252817
941.173 .0252674
941.806 .0252537
942.438 .0252404
943.070 .0252276
943.702 .0252152
944.333 .0252031
944.964 .0251914
945.594 .0251797
946.224 .0251682
946.854 .0251567
947.483 .0251452
948.112 .0251335
948.741 .0251217
949.369 .0251096
949.996 .0250974
950.624 .0250848
951.251 .0250720
951.878 .0250587
952.504 .0250449
953.130 .0250306
953.755 .0250158
954.380 .0250004
955.005 .0249844
955.629 .0249679
956.253 .0249509
956.877 .0249335
957.500 .0249159
958.123 .0248979
958.746 .0248798
959.368 .0248616
959.990 .0248434
960.611 .0248251
961.232 .0248070
961.853 .0247890
962.473 .0247712
963.093 .0247537
963.712 .0247365
964.331 .0247196
964.950 .0247031
965.569 .0246869
966.187 .0246709
966.804 .0246552
967.422 .0246396
968.039 .0246241
968.655 .0246087
969.272 .0245933
969.887 .0245779
970.503 .0245625
971.118 .0245471
971.733 .0245317
972.347 .0245164
972.961 .0245012
973.575 .0244861
974.188 .0244711
974.801 .0244564
975.414 .0244419
976.026 .0244275
976.638 .0244133
977.250 .0243993
977.861 .0243853
978.472 .0243713
979.083 .0243573
979.693 .0243432
980.303 .0243292
980.912 .0243090
981.521 .0242955
982.130 .0242821
982.738 .0242689
983.346 .0242559
983.954 .0242433
984.562 .0242310
985.169 .0242190
985.775 .0242076
986.382 .0241967
986.988 .0241864
987.594 .0241768
988.199 .0241681
988.804 .0241603
989.409 .0241583
990.013 .0241518
990.617 .0241461
991.221 .0241413
991.824 .0241372
992.427 .0241336
993.030 .0241306
993.632 .0241281
994.234 .0241259
994.836 .0241241
995.438 .0241227
996.039 .0241218
996.640 .0241213
997.240 .0241212
997.840 .0241217
998.440 .0241226
999.040 .0241240
999.639 .0241259
1000.238 .0241283
1000.836 .0241312
1001.435 .0241347
1002.033 .0241387
1002.630 .0241432
1003.228 .0241481
1003.825 .0241536
1004.422 .0241594
1005.018 .0241654
1005.614 .0241717
1006.210 .0241779
1006.806 .0241842
1007.401 .0241903
1007.996 .0241964
1008.591 .0242023
1009.186 .0242082
1009.780 .0242140
1010.374 .0242199
1010.967 .0242257
1011.561 .0242317
1012.154 .0242378
1012.746 .0242441
1013.339 .0242506
1013.931 .0242573
1014.523 .0242643
1015.115 .0242716
1015.706 .0242793
1016.298 .0242872
1016.888 .0242956
1017.479 .0243044
1018.069 .0243136
1018.660 .0243233
1019.250 .0243335
1019.839 .0243442
1020.429 .0243554
1021.018 .0243672
1021.607 .0243795
1022.195 .0243924
1022.784 .0244058
1023.372 .0244199
1023.960 .0244346
1024.547 .0244499
1025.135 .0244659
1025.722 .0244826
1026.309 .0245000
1026.896 .0245179
1027.483 .0245365
1028.069 .0245555
1028.655 .0245750
1029.241 .0245947
1029.827 .0246147
1030.412 .0246347
1030.997 .0246547
1031.582 .0246746
1032.167 .0246943
1032.752 .0247137
1033.336 .0247328
1033.921 .0247514
1034.505 .0247695
1035.089 .0247870
1035.672 .0248040
1036.256 .0248203
1036.839 .0248360
1037.422 .0248511
1038.005 .0248656
1038.588 .0248794
1039.171 .0248927
1039.753 .0249054
1040.335 .0249176
1040.918 .0249291
1041.500 .0249400
1042.081 .0249503
1042.663 .0249599
1043.244 .0249690
1043.826 .0249775
1044.407 .0249857
1044.988 .0249936
1045.569 .0250013
1046.150 .0250088
1046.730 .0250163
1047.311 .0250236
1047.891 .0250307
1048.471 .0250377
1049.052 .0250445
1049.632 .0250511
1050.211 .0250576
1050.791 .0250641
1051.371 .0250708
1051.950 .0250776
1052.530 .0250846
1053.109 .0250918
1053.688 .0250992
1054.268 .0251065
1054.847 .0251139
1055.426 .0251212
1056.005 .0251285
1056.583 .0251357
1057.162 .0251430
1057.741 .0251503
1058.319 .0251576
1058.898 .0251651
1059.476 .0251725
1060.055 .0251798
1060.633 .0251869
1061.211 .0251936
1061.790 .0251997
1062.368 .0252053
1062.946 .0252104
1063.524 .0252151
1064.102 .0252194
1064.680 .0252236
1065.258 .0252276
1065.836 .0252315
1066.414 .0252352
1066.992 .0252388
1067.570 .0252421
1068.148 .0252451
1068.726 .0252476
1069.304 .0252499
1069.882 .0252520
1070.460 .0252540
1071.038 .0252561
1071.616 .0252583
1072.194 .0252609
1072.772 .0252636
1073.350 .0252666
1073.928 .0252697
1074.506 .0252728
1075.084 .0252758
1075.662 .0252788
1076.240 .0252816
1076.819 .0252843
1077.397 .0252870
1077.976 .0252896
1078.554 .0252923
1079.133 .0252949
1079.711 .0252975
1080.290 .0253000
1080.869 .0253023
1081.448 .0253045
1082.027 .0253065
1082.606 .0253083
1083.185 .0253100
1083.764 .0253116
1084.343 .0253133
1084.923 .0253151
1085.502 .0253171
1086.082 .0253195
1086.662 .0253223
1087.242 .0253256
1087.822 .0253294
1088.402 .0253337
1088.983 .0253385
1089.563 .0253436
1090.144 .0253492
1090.725 .0253550
1091.306 .0253611
1091.887 .0253674
1092.469 .0253742
1093.050 .0253812
1093.632 .0253886
1094.214 .0253964
1094.796 .0254045
1095.379 .0254129
1095.961 .0254216
1096.544 .0254305
1097.127 .0254398
1097.710 .0254495
1098.294 .0254598
1098.877 .0254706
1099.461 .0254823
1100.046 .0254950
1100.630 .0255088
1101.215 .0255235
1101.800 .0255392
1102.385 .0255556
1102.970 .0255726
1103.556 .0255901
1104.142 .0256077
1104.728 .0256253
1105.315 .0256429
1105.902 .0256605
1106.489 .0256781
1107.077 .0256959
1107.664 .0257139
1108.253 .0257322
1108.841 .0257510
1109.430 .0257702
1110.019 .0257898
1110.609 .0258099
1111.198 .0258306
1111.789 .0258518
1112.379 .0258737
1112.970 .0258965
1113.561 .0259201
1114.153 .0259448
1114.745 .0259706
1115.338 .0259973
1115.931 .0260250
1116.524 .0260537
1117.117 .0260830
1117.712 .0261130
1118.306 .0261438
1118.901 .0261754
1119.496 .0262080
1120.092 .0262416
1120.689 .0262763
1121.285 .0263121
1121.882 .0263493
1122.480 .0263879
1123.078 .0264279
1123.677 .0264698
1124.276 .0265137
1124.875 .0265598
1125.476 .0266085
1126.076 .0266600
1126.677 .0267146
1127.279 .0267724
1127.881 .0268334
1128.484 .0268975
1129.087 .0269226
1129.691 .0269910
1130.295 .0270622
1130.900 .0271362
1131.505 .0272126
1132.111 .0272915
1132.718 .0273726
1133.325 .0274554
1133.933 .0275391
1134.541 .0276292
1135.150 .0277194
1135.760 .0278026
1136.370 .0278834
1136.981 .0280280
1137.592 .0281349
1138.204 .0282401
1138.817 .0283437
1139.431 .0284489
1140.045 .0285547
1140.660 .0286556
1141.275 .0287468
1141.891 .0288189
1142.508 .0290441
1143.126 .0290960
1143.744 .0289506
1144.363 .0289376
1144.983 .0287427
