Measurement Sequence started on: 15-12-46-377
Integration time: 28
Scans to Average: 2 
>>>>>Begin Spectral Data<<<<<
432.689 .0000100
433.621 .0000100
434.552 .0000100
435.482 .0000100
436.410 .0000100
437.337 .0000100
438.262 .0285197
439.187 .0603936
440.110 .1000145
441.031 .1446930
441.952 .1156425
442.871 .1207439
443.789 .1254964
444.705 .1299748
445.621 .1342273
446.535 .1382920
447.447 .1406928
448.359 .1412743
449.269 .1396470
450.178 .1355589
451.086 .1290933
451.993 .1207517
452.898 .1113580
453.803 .1018493
454.706 .0930180
455.608 .0853566
456.508 .0790275
457.408 .0747597
458.306 .0714873
459.204 .0688261
460.100 .0665831
460.995 .0646512
461.888 .0629585
462.781 .0614612
463.673 .0601244
464.563 .0589271
465.452 .0578505
466.340 .0568786
467.228 .0559986
468.114 .0551993
468.999 .0544699
469.882 .0538016
470.765 .0531867
471.647 .0526201
472.528 .0520982
473.407 .0516185
474.286 .0511802
475.163 .0507830
476.040 .0504262
476.915 .0501083
477.790 .0498269
478.663 .0495799
479.535 .0493632
480.407 .0491742
481.277 .0490102
482.147 .0488693
483.015 .0487504
483.883 .0486534
484.749 .0485781
485.615 .0485250
486.479 .0484945
487.343 .0484861
488.206 .0484998
489.067 .0485347
489.928 .0485899
490.788 .0486643
491.647 .0487574
492.505 .0488685
493.362 .0489974
494.218 .0491454
495.073 .0493132
495.928 .0496390
496.781 .0498609
497.634 .0501053
498.486 .0503727
499.337 .0506638
500.187 .0509794
501.036 .0513211
501.884 .0516918
502.731 .0520945
503.578 .0525337
504.424 .0528325
505.268 .0533444
506.113 .0539077
506.956 .0545283
507.798 .0552137
508.640 .0559717
509.480 .0568125
510.320 .0577481
511.160 .0587908
511.998 .0599559
512.836 .0612630
513.672 .0627316
514.508 .0643830
515.344 .0662386
516.178 .0683214
517.012 .0706546
517.845 .0732599
518.677 .0761595
519.508 .0793726
520.339 .0829080
521.169 .0867705
521.998 .0909342
522.826 .0953652
523.654 .1000076
524.481 .1047892
525.307 .1096255
526.133 .1144219
526.958 .1190787
527.782 .1234961
528.605 .1275829
529.428 .1312612
530.250 .1344550
531.072 .1371175
531.892 .1392079
532.712 .1407032
533.532 .1415909
534.350 .1418681
535.168 .1415404
535.986 .1406150
536.802 .1390971
537.618 .1369983
538.434 .1343310
539.249 .1311374
540.063 .1274643
540.876 .1233768
541.689 .1189560
542.501 .1142925
543.313 .1094821
544.124 .1046241
544.934 .0998126
545.744 .0951320
546.553 .0906494
547.361 .0864252
548.169 .0824896
548.976 .0788654
549.783 .0755569
550.589 .0725558
551.395 .0698435
552.200 .0673942
553.004 .0651784
553.808 .0631704
554.611 .0613467
555.414 .0596864
556.216 .0581679
557.018 .0567735
557.819 .0554884
558.619 .0542977
559.419 .0531886
560.218 .0521526
561.017 .0511805
561.815 .0502661
562.613 .0494031
563.410 .0485866
564.207 .0478118
565.003 .0470750
565.799 .0463720
566.594 .0456995
567.388 .0450550
568.182 .0444358
568.976 .0438400
569.769 .0432664
570.562 .0427146
571.354 .0421845
572.145 .0416765
572.936 .0411909
573.727 .0407267
574.517 .0402836
575.307 .0398607
576.096 .0394568
576.885 .0390712
577.673 .0387034
578.461 .0383531
579.248 .0380204
580.035 .0377053
580.821 .0374081
581.607 .0371292
582.392 .0368689
583.177 .0366267
583.962 .0364020
584.746 .0361939
585.529 .0360012
586.313 .0358227
587.095 .0356572
587.878 .0355033
588.660 .0353601
589.441 .0352272
590.222 .0351039
591.003 .0349896
591.783 .0348838
592.563 .0347861
593.342 .0346956
594.121 .0346112
594.899 .0345321
595.678 .0344571
596.455 .0343855
597.233 .0343164
598.009 .0342490
598.786 .0341829
599.562 .0341179
600.338 .0340536
601.113 .0339900
601.888 .0338948
602.663 .0338325
603.437 .0337706
604.211 .0337092
604.984 .0336483
605.757 .0335878
606.530 .0335280
607.302 .0334690
608.074 .0334111
608.845 .0333545
609.616 .0332996
610.387 .0332769
611.158 .0332250
611.928 .0331750
612.697 .0331270
613.467 .0330811
614.236 .0330372
615.004 .0329954
615.773 .0329556
616.541 .0329177
617.308 .0328817
618.076 .0328476
618.843 .0328152
619.609 .0327846
620.375 .0327555
621.141 .0327279
621.907 .0327014
622.672 .0326759
623.437 .0326513
624.202 .0326273
624.966 .0326038
625.730 .0325807
626.493 .0325578
627.257 .0325352
628.020 .0325126
628.782 .0324900
629.545 .0324675
630.307 .0324449
631.068 .0324221
631.830 .0323993
632.591 .0323763
633.352 .0323532
634.112 .0323300
634.872 .0323068
635.632 .0322835
636.392 .0322603
637.151 .0322372
637.910 .0322141
638.668 .0321912
639.427 .0321685
640.185 .0321460
640.943 .0321239
641.700 .0321021
642.457 .0320808
643.214 .0320599
643.971 .0320395
644.727 .0320196
645.483 .0320001
646.239 .0319809
646.994 .0319621
647.750 .0319434
648.505 .0319248
649.259 .0319060
650.014 .0318870
650.768 .0318676
651.521 .0318478
652.275 .0318273
653.028 .0318061
653.781 .0317842
654.534 .0317614
655.286 .0317378
656.039 .0317133
656.791 .0316878
657.542 .0316613
658.294 .0316337
659.045 .0316052
659.796 .0315755
660.546 .0315449
661.297 .0315134
662.047 .0314809
662.796 .0314477
663.546 .0314138
664.295 .0313794
665.044 .0313445
665.793 .0313094
666.542 .0312741
667.290 .0312387
668.038 .0312033
668.786 .0311681
669.533 .0311330
670.281 .0310981
671.028 .0310635
671.774 .0310293
672.521 .0309953
673.267 .0309618
674.013 .0309287
674.759 .0308960
675.505 .0308637
676.250 .0308318
676.995 .0308002
677.740 .0307690
678.484 .0307380
679.229 .0307074
679.973 .0306771
680.717 .0306471
681.460 .0306175
682.204 .0305882
682.947 .0305593
683.690 .0305308
684.433 .0305028
685.175 .0304754
685.917 .0304485
686.659 .0304222
687.401 .0303966
688.142 .0303717
688.884 .0303475
689.625 .0303239
690.365 .0303009
691.106 .0302783
691.846 .0302563
692.586 .0302348
693.326 .0302137
694.066 .0301930
694.805 .0301728
695.545 .0301531
696.284 .0301337
697.022 .0301147
697.761 .0300959
698.499 .0300773
699.237 .0300590
699.975 .0300409
700.713 .0300232
701.450 .0300058
702.187 .0299888
702.924 .0299721
703.661 .0299559
704.397 .0299401
705.133 .0299246
705.869 .0299094
706.605 .0298945
707.341 .0298800
708.076 .0298658
708.811 .0298520
709.546 .0298387
710.281 .0298257
711.015 .0298132
711.749 .0298010
712.483 .0297891
713.217 .0297775
713.950 .0297661
714.684 .0297550
715.417 .0297441
716.150 .0297336
716.882 .0297233
717.615 .0297132
718.347 .0297033
719.079 .0296935
719.811 .0296837
720.542 .0296739
721.273 .0296640
722.005 .0296540
722.735 .0296439
723.466 .0296337
724.196 .0296234
724.927 .0296131
725.656 .0296027
726.386 .0295924
727.116 .0295820
727.845 .0295716
728.574 .0295613
729.303 .0295511
730.031 .0295411
730.760 .0295311
731.488 .0295213
732.216 .0295115
732.944 .0295017
733.671 .0294919
734.398 .0294820
735.125 .0294719
735.852 .0294617
736.579 .0294515
737.305 .0294411
738.031 .0294307
738.757 .0294202
739.483 .0294096
740.208 .0293990
740.933 .0293882
741.658 .0293774
742.383 .0293663
743.108 .0293550
743.832 .0293435
744.556 .0293317
745.280 .0293197
746.004 .0293075
746.727 .0292949
747.450 .0292820
748.173 .0292686
748.896 .0292549
749.618 .0292406
750.340 .0292259
751.062 .0292105
751.784 .0291946
752.506 .0291780
753.227 .0291606
753.948 .0291425
754.669 .0291235
755.389 .0291037
756.110 .0290830
756.830 .0290614
757.550 .0290391
758.269 .0290161
758.989 .0289925
759.708 .0289684
760.427 .0289438
761.146 .0289188
761.864 .0288934
762.582 .0288676
763.300 .0288414
764.018 .0288150
764.736 .0287883
765.453 .0287615
766.170 .0287347
766.887 .0287079
767.603 .0286813
768.320 .0286550
769.036 .0286292
769.751 .0286038
770.467 .0285792
771.182 .0285552
771.897 .0285320
772.612 .0285097
773.327 .0284882
774.041 .0284675
774.755 .0284475
775.469 .0284282
776.183 .0284095
776.896 .0283914
777.609 .0283739
778.322 .0283569
779.035 .0283405
779.747 .0283246
780.459 .0283093
781.171 .0282946
781.882 .0282803
782.594 .0282664
783.305 .0282529
784.016 .0282397
784.726 .0282268
785.436 .0282141
786.147 .0281956
786.856 .0281833
787.566 .0281712
788.275 .0281593
788.984 .0281475
789.693 .0281359
790.401 .0281246
791.110 .0281134
791.818 .0281024
792.525 .0280915
793.233 .0280809
793.940 .0280704
794.647 .0280655
795.353 .0280553
796.060 .0280451
796.766 .0280349
797.472 .0280248
798.177 .0280148
798.883 .0280048
799.588 .0279949
800.292 .0279851
800.997 .0279755
801.701 .0279659
802.405 .0279565
803.109 .0279472
803.812 .0279380
804.515 .0279287
805.218 .0279196
805.921 .0279104
806.623 .0279012
807.325 .0278921
808.027 .0278830
808.728 .0278739
809.429 .0278651
810.130 .0278564
810.831 .0278480
811.531 .0278398
812.231 .0278320
812.931 .0278245
813.630 .0278175
814.330 .0278109
815.029 .0278049
815.727 .0277995
816.426 .0277947
817.124 .0277907
817.821 .0277874
818.519 .0277849
819.216 .0277832
819.913 .0277822
820.609 .0277821
821.306 .0277827
822.002 .0277842
822.697 .0277865
823.393 .0277896
824.088 .0277936
824.783 .0277984
825.477 .0278040
826.171 .0278103
826.865 .0278171
827.559 .0278245
828.252 .0278323
828.945 .0278405
829.638 .0278489
830.330 .0278575
831.023 .0278663
831.714 .0278750
832.406 .0278838
833.097 .0278924
833.788 .0279008
834.479 .0279089
835.169 .0279167
835.859 .0279240
836.548 .0279309
837.238 .0279372
837.927 .0279429
838.615 .0279480
839.304 .0279524
839.992 .0279559
840.680 .0279587
841.367 .0279606
842.054 .0279616
842.741 .0279618
843.428 .0279610
844.114 .0279593
844.800 .0279567
845.485 .0279531
846.170 .0279485
846.855 .0279429
847.540 .0279364
848.224 .0279288
848.908 .0279204
849.592 .0279109
850.275 .0279006
850.958 .0278894
851.641 .0278773
852.323 .0278644
853.005 .0278507
853.687 .0278362
854.368 .0278210
855.049 .0278052
855.730 .0277887
856.410 .0277717
857.090 .0277541
857.769 .0277361
858.449 .0277176
859.128 .0276986
859.806 .0276791
860.485 .0276592
861.163 .0276389
861.840 .0276183
862.518 .0275974
863.195 .0275762
863.871 .0275549
864.548 .0275335
865.224 .0275120
865.899 .0274904
866.574 .0274687
867.249 .0274469
867.924 .0274250
868.598 .0274030
869.272 .0273809
869.946 .0273588
870.619 .0273368
871.292 .0273148
871.964 .0272929
872.636 .0272710
873.308 .0272493
873.979 .0272277
874.651 .0272062
875.321 .0271849
875.992 .0271638
876.662 .0271429
877.331 .0271222
878.001 .0271017
878.670 .0270815
879.338 .0270615
880.007 .0270417
880.675 .0270221
881.342 .0270027
882.009 .0269836
882.676 .0269649
883.343 .0269465
884.009 .0269286
884.675 .0269112
885.340 .0268941
886.005 .0268775
886.670 .0268612
887.334 .0268452
887.998 .0268295
888.662 .0268142
889.325 .0267991
889.988 .0267843
890.650 .0267698
891.312 .0267556
891.974 .0267417
892.636 .0267279
893.297 .0267143
893.957 .0267007
894.618 .0266872
895.278 .0266735
895.937 .0266597
896.596 .0266457
897.255 .0266316
897.914 .0266171
898.572 .0266023
899.230 .0265870
899.887 .0265711
900.544 .0265546
901.201 .0265374
901.857 .0265081
902.513 .0264889
903.168 .0264690
903.823 .0264484
904.478 .0264270
905.132 .0264050
905.786 .0263822
906.440 .0263588
907.093 .0263346
907.746 .0263099
908.399 .0262846
909.051 .0262588
909.703 .0262327
910.354 .0262192
911.005 .0261932
911.656 .0261671
912.306 .0261411
912.956 .0261152
913.605 .0260895
914.254 .0260642
914.903 .0260392
915.551 .0260147
916.199 .0259907
916.847 .0259673
917.494 .0259445
918.141 .0259225
918.788 .0259010
919.434 .0258803
920.079 .0258601
920.725 .0258406
921.370 .0258216
922.014 .0258030
922.658 .0257850
923.302 .0257675
923.946 .0257504
924.589 .0257337
925.231 .0257175
925.873 .0257016
926.515 .0256861
927.157 .0256710
927.798 .0256562
928.439 .0256417
929.079 .0256276
929.719 .0256140
930.359 .0256009
930.998 .0255883
931.637 .0255763
932.275 .0255650
932.913 .0255544
933.551 .0255445
934.188 .0255354
934.825 .0255270
935.462 .0255195
936.098 .0255128
936.733 .0255070
937.369 .0255021
938.004 .0254981
938.638 .0254950
939.273 .0254930
939.907 .0254918
940.540 .0254916
941.173 .0254922
941.806 .0254938
942.438 .0254961
943.070 .0254992
943.702 .0255030
944.333 .0255076
944.964 .0255129
945.594 .0255188
946.224 .0255253
946.854 .0255324
947.483 .0255400
948.112 .0255479
948.741 .0255561
949.369 .0255645
949.996 .0255730
950.624 .0255815
951.251 .0255900
951.878 .0255983
952.504 .0256064
953.130 .0256143
953.755 .0256221
954.380 .0256296
955.005 .0256370
955.629 .0256442
956.253 .0256513
956.877 .0256583
957.500 .0256651
958.123 .0256718
958.746 .0256785
959.368 .0256851
959.990 .0256917
960.611 .0256984
961.232 .0257052
961.853 .0257121
962.473 .0257191
963.093 .0257263
963.712 .0257334
964.331 .0257407
964.950 .0257480
965.569 .0257553
966.187 .0257626
966.804 .0257701
967.422 .0257777
968.039 .0257853
968.655 .0257931
969.272 .0258009
969.887 .0258087
970.503 .0258163
971.118 .0258237
971.733 .0258309
972.347 .0258377
972.961 .0258442
973.575 .0258503
974.188 .0258561
974.801 .0258616
975.414 .0258668
976.026 .0258716
976.638 .0258759
977.250 .0258798
977.861 .0258829
978.472 .0258854
979.083 .0258872
979.693 .0258883
980.303 .0258887
980.912 .0258863
981.521 .0258854
982.130 .0258840
982.738 .0258821
983.346 .0258799
983.954 .0258772
984.562 .0258742
985.169 .0258709
985.775 .0258673
986.382 .0258637
986.988 .0258600
987.594 .0258563
988.199 .0258527
988.804 .0258492
989.409 .0258481
990.013 .0258448
990.617 .0258417
991.221 .0258389
991.824 .0258363
992.427 .0258339
993.030 .0258319
993.632 .0258301
994.234 .0258285
994.836 .0258270
995.438 .0258257
996.039 .0258245
996.640 .0258233
997.240 .0258222
997.840 .0258213
998.440 .0258204
999.040 .0258196
999.639 .0258190
1000.238 .0258184
1000.836 .0258178
1001.435 .0258171
1002.033 .0258162
1002.630 .0258151
1003.228 .0258136
1003.825 .0258118
1004.422 .0258096
1005.018 .0258072
1005.614 .0258044
1006.210 .0258014
1006.806 .0257981
1007.401 .0257945
1007.996 .0257905
1008.591 .0257862
1009.186 .0257814
1009.780 .0257760
1010.374 .0257703
1010.967 .0257641
1011.561 .0257576
1012.154 .0257509
1012.746 .0257440
1013.339 .0257371
1013.931 .0257301
1014.523 .0257230
1015.115 .0257158
1015.706 .0257084
1016.298 .0257008
1016.888 .0256929
1017.479 .0256849
1018.069 .0256768
1018.660 .0256685
1019.250 .0256604
1019.839 .0256524
1020.429 .0256446
1021.018 .0256370
1021.607 .0256298
1022.195 .0256230
1022.784 .0256166
1023.372 .0256106
1023.960 .0256050
1024.547 .0256000
1025.135 .0255955
1025.722 .0255914
1026.309 .0255879
1026.896 .0255847
1027.483 .0255818
1028.069 .0255790
1028.655 .0255764
1029.241 .0255737
1029.827 .0255710
1030.412 .0255681
1030.997 .0255651
1031.582 .0255617
1032.167 .0255581
1032.752 .0255540
1033.336 .0255494
1033.921 .0255443
1034.505 .0255385
1035.089 .0255322
1035.672 .0255252
1036.256 .0255176
1036.839 .0255095
1037.422 .0255008
1038.005 .0254917
1038.588 .0254819
1039.171 .0254715
1039.753 .0254603
1040.335 .0254484
1040.918 .0254357
1041.500 .0254221
1042.081 .0254079
1042.663 .0253930
1043.244 .0253777
1043.826 .0253621
1044.407 .0253462
1044.988 .0253301
1045.569 .0253138
1046.150 .0252973
1046.730 .0252806
1047.311 .0252637
1047.891 .0252466
1048.471 .0252296
1049.052 .0252126
1049.632 .0251959
1050.211 .0251795
1050.791 .0251635
1051.371 .0251479
1051.950 .0251326
1052.530 .0251177
1053.109 .0251028
1053.688 .0250881
1054.268 .0250733
1054.847 .0250586
1055.426 .0250440
1056.005 .0250295
1056.583 .0250153
1057.162 .0250013
1057.741 .0249874
1058.319 .0249736
1058.898 .0249597
1059.476 .0249455
1060.055 .0249310
1060.633 .0249159
1061.211 .0249004
1061.790 .0248845
1062.368 .0248684
1062.946 .0248522
1063.524 .0248362
1064.102 .0248202
1064.680 .0248045
1065.258 .0247888
1065.836 .0247733
1066.414 .0247579
1066.992 .0247428
1067.570 .0247279
1068.148 .0247134
1068.726 .0246995
1069.304 .0246862
1069.882 .0246736
1070.460 .0246619
1071.038 .0246507
1071.616 .0246402
1072.194 .0246301
1072.772 .0246202
1073.350 .0246105
1073.928 .0246009
1074.506 .0245916
1075.084 .0245827
1075.662 .0245742
1076.240 .0245665
1076.819 .0245597
1077.397 .0245538
1077.976 .0245489
1078.554 .0245449
1079.133 .0245419
1079.711 .0245396
1080.290 .0245381
1080.869 .0245372
1081.448 .0245369
1082.027 .0245371
1082.606 .0245380
1083.185 .0245395
1083.764 .0245416
1084.343 .0245443
1084.923 .0245475
1085.502 .0245511
1086.082 .0245550
1086.662 .0245592
1087.242 .0245635
1087.822 .0245680
1088.402 .0245728
1088.983 .0245779
1089.563 .0245834
1090.144 .0245897
1090.725 .0245969
1091.306 .0246052
1091.887 .0246145
1092.469 .0246248
1093.050 .0246361
1093.632 .0246483
1094.214 .0246612
1094.796 .0246747
1095.379 .0246887
1095.961 .0247034
1096.544 .0247187
1097.127 .0247348
1097.710 .0247518
1098.294 .0247697
1098.877 .0247887
1099.461 .0248084
1100.046 .0248290
1100.630 .0248501
1101.215 .0248717
1101.800 .0248937
1102.385 .0249161
1102.970 .0249390
1103.556 .0249625
1104.142 .0249869
1104.728 .0250122
1105.315 .0250387
1105.902 .0250662
1106.489 .0250947
1107.077 .0251243
1107.664 .0251548
1108.253 .0251863
1108.841 .0252187
1109.430 .0252523
1110.019 .0252873
1110.609 .0253238
1111.198 .0253621
1111.789 .0254025
1112.379 .0254449
1112.970 .0254893
1113.561 .0255356
1114.153 .0255837
1114.745 .0256333
1115.338 .0256843
1115.931 .0257364
1116.524 .0257898
1117.117 .0258441
1117.712 .0258994
1118.306 .0259557
1118.901 .0260128
1119.496 .0260706
1120.092 .0261289
1120.689 .0261874
1121.285 .0262460
1121.882 .0263045
1122.480 .0263631
1123.078 .0264219
1123.677 .0264813
1124.276 .0265417
1124.875 .0266034
1125.476 .0266671
1126.076 .0267328
1126.677 .0268007
1127.279 .0268709
1127.881 .0269430
1128.484 .0270169
1129.087 .0270500
1129.691 .0271250
1130.295 .0272013
1130.900 .0272793
1131.505 .0273590
1132.111 .0274409
1132.718 .0275247
1133.325 .0276102
1133.933 .0276977
1134.541 .0277915
1135.150 .0278900
1135.760 .0279723
1136.370 .0280592
1136.981 .0281481
1137.592 .0282704
1138.204 .0283918
1138.817 .0285176
1139.431 .0286468
1140.045 .0287810
1140.660 .0289035
1141.275 .0290221
1141.891 .0291421
1142.508 .0293817
1143.126 .0295672
1143.744 .0291688
1144.363 .0293485
1144.983 .0297657
