Measurement Sequence started on: 15-12-46-377
Integration time: 28
Scans to Average: 2 
>>>>>Begin Spectral Data<<<<<
432.689 .0000100
433.621 .0000100
434.552 .0000100
435.482 .0000100
436.410 .0000100
437.337 .0000100
438.262 .0262973
439.187 .0556564
440.110 .0921635
441.031 .1333009
441.952 .1064331
442.871 .1111127
443.789 .1154708
444.705 .1195777
445.621 .1234797
446.535 .1272108
447.447 .1294127
448.359 .1299440
449.269 .1284444
450.178 .1246836
451.086 .1187368
451.993 .1110658
452.898 .1024306
453.803 .0936900
454.706 .0855753
455.608 .0785389
456.508 .0727305
457.408 .0688229
458.306 .0658326
459.204 .0634069
460.100 .0613669
460.995 .0596131
461.888 .0580773
462.781 .0567151
463.673 .0554943
464.563 .0543911
465.452 .0533874
466.340 .0524692
467.228 .0516257
468.114 .0508484
468.999 .0501305
469.882 .0494662
470.765 .0488513
471.647 .0482831
472.528 .0477584
473.407 .0472746
474.286 .0468295
475.163 .0464216
476.040 .0460490
476.915 .0457110
477.790 .0454067
478.663 .0451352
479.535 .0448957
480.407 .0446869
481.277 .0445077
482.147 .0443559
483.015 .0442294
483.883 .0441260
484.749 .0440437
485.615 .0439807
486.479 .0439355
487.343 .0439078
488.206 .0438971
489.067 .0439032
489.928 .0439266
490.788 .0439667
491.647 .0440236
492.505 .0440968
493.362 .0441858
494.218 .0442908
495.073 .0444120
495.928 .0446565
496.781 .0448223
497.634 .0450069
498.486 .0452113
499.337 .0454376
500.187 .0456881
501.036 .0459647
501.884 .0462705
502.731 .0466085
503.578 .0469815
504.424 .0472423
505.268 .0476815
506.113 .0481661
506.956 .0487007
507.798 .0492915
508.640 .0499465
509.480 .0506762
510.320 .0514946
511.160 .0524140
511.998 .0534490
512.836 .0546159
513.672 .0559303
514.508 .0574104
515.344 .0590758
516.178 .0609441
517.012 .0630383
517.845 .0653786
518.677 .0679856
519.508 .0708751
520.339 .0740584
521.169 .0775389
521.998 .0812964
522.826 .0852995
523.654 .0894962
524.481 .0938215
525.307 .0982028
526.133 .1025537
526.958 .1067837
527.782 .1108033
528.605 .1145309
529.428 .1178942
530.250 .1208296
531.072 .1232942
531.892 .1252516
532.712 .1266775
533.532 .1275598
534.350 .1278898
535.168 .1276684
535.986 .1269022
536.802 .1255974
537.618 .1237645
538.434 .1214179
539.249 .1185934
540.063 .1153359
540.876 .1117075
541.689 .1077804
542.501 .1036303
543.313 .0993430
544.124 .0950067
544.934 .0907031
545.744 .0865075
546.553 .0824835
547.361 .0786846
548.169 .0751430
548.976 .0718816
549.783 .0689077
550.589 .0662181
551.395 .0637987
552.200 .0616280
553.004 .0596775
553.808 .0579224
554.611 .0563378
555.414 .0549021
556.216 .0535957
557.018 .0524009
557.819 .0513023
558.619 .0502872
559.419 .0493461
560.218 .0484714
561.017 .0476539
561.815 .0468874
562.613 .0461657
563.410 .0454819
564.207 .0448293
565.003 .0442029
565.799 .0435972
566.594 .0430092
567.388 .0424363
568.182 .0418772
568.976 .0413313
569.769 .0407990
570.562 .0402804
571.354 .0397764
572.145 .0392880
572.936 .0388151
573.727 .0383576
574.517 .0379166
575.307 .0374923
576.096 .0370845
576.885 .0366936
577.673 .0363203
578.461 .0359648
579.248 .0356271
580.035 .0353073
580.821 .0350054
581.607 .0347214
582.392 .0344551
583.177 .0342062
583.962 .0339743
584.746 .0337587
585.529 .0335585
586.313 .0333728
587.095 .0332008
587.878 .0330413
588.660 .0328935
589.441 .0327569
590.222 .0326310
591.003 .0325151
591.783 .0324086
592.563 .0323108
593.342 .0322211
594.121 .0321387
594.899 .0320628
595.678 .0319925
596.455 .0319273
597.233 .0318665
598.009 .0318094
598.786 .0317557
599.562 .0317049
600.338 .0316566
601.113 .0316103
601.888 .0315463
602.663 .0315037
603.437 .0314622
604.211 .0314221
604.984 .0313832
605.757 .0313455
606.530 .0313089
607.302 .0312737
608.074 .0312396
608.845 .0312068
609.616 .0311751
610.387 .0311616
611.158 .0311315
611.928 .0311025
612.697 .0310746
613.467 .0310477
614.236 .0310219
615.004 .0309972
615.773 .0309736
616.541 .0309509
617.308 .0309293
618.076 .0309085
618.843 .0308887
619.609 .0308698
620.375 .0308515
621.141 .0308338
621.907 .0308163
622.672 .0307989
623.437 .0307814
624.202 .0307635
624.966 .0307452
625.730 .0307264
626.493 .0307070
627.257 .0306870
628.020 .0306666
628.782 .0306458
629.545 .0306245
630.307 .0306027
631.068 .0305802
631.830 .0305570
632.591 .0305330
633.352 .0305083
634.112 .0304830
634.872 .0304572
635.632 .0304311
636.392 .0304050
637.151 .0303791
637.910 .0303537
638.668 .0303287
639.427 .0303044
640.185 .0302807
640.943 .0302576
641.700 .0302353
642.457 .0302137
643.214 .0301928
643.971 .0301727
644.727 .0301534
645.483 .0301348
646.239 .0301169
646.994 .0300994
647.750 .0300823
648.505 .0300654
649.259 .0300487
650.014 .0300320
650.768 .0300152
651.521 .0299982
652.275 .0299809
653.028 .0299631
653.781 .0299448
654.534 .0299258
655.286 .0299060
656.039 .0298854
656.791 .0298641
657.542 .0298420
658.294 .0298194
659.045 .0297964
659.796 .0297730
660.546 .0297494
661.297 .0297255
662.047 .0297015
662.796 .0296773
663.546 .0296530
664.295 .0296287
665.044 .0296045
665.793 .0295805
666.542 .0295568
667.290 .0295337
668.038 .0295111
668.786 .0294891
669.533 .0294677
670.281 .0294470
671.028 .0294267
671.774 .0294070
672.521 .0293879
673.267 .0293694
674.013 .0293515
674.759 .0293343
675.505 .0293177
676.250 .0293019
676.995 .0292867
677.740 .0292720
678.484 .0292579
679.229 .0292442
679.973 .0292308
680.717 .0292178
681.460 .0292051
682.204 .0291927
682.947 .0291804
683.690 .0291683
684.433 .0291561
685.175 .0291440
685.917 .0291317
686.659 .0291193
687.401 .0291066
688.142 .0290936
688.884 .0290803
689.625 .0290667
690.365 .0290527
691.106 .0290382
691.846 .0290233
692.586 .0290079
693.326 .0289921
694.066 .0289758
694.805 .0289591
695.545 .0289421
696.284 .0289249
697.022 .0289075
697.761 .0288900
698.499 .0288724
699.237 .0288547
699.975 .0288370
700.713 .0288193
701.450 .0288018
702.187 .0287844
702.924 .0287674
703.661 .0287507
704.397 .0287344
705.133 .0287186
705.869 .0287031
706.605 .0286881
707.341 .0286733
708.076 .0286587
708.811 .0286443
709.546 .0286298
710.281 .0286154
711.015 .0286009
711.749 .0285862
712.483 .0285715
713.217 .0285565
713.950 .0285412
714.684 .0285257
715.417 .0285099
716.150 .0284938
716.882 .0284774
717.615 .0284606
718.347 .0284435
719.079 .0284262
719.811 .0284086
720.542 .0283909
721.273 .0283730
722.005 .0283552
722.735 .0283374
723.466 .0283198
724.196 .0283024
724.927 .0282855
725.656 .0282690
726.386 .0282529
727.116 .0282374
727.845 .0282224
728.574 .0282079
729.303 .0281939
730.031 .0281805
730.760 .0281676
731.488 .0281553
732.216 .0281436
732.944 .0281324
733.671 .0281218
734.398 .0281117
735.125 .0281021
735.852 .0280929
736.579 .0280840
737.305 .0280754
738.031 .0280669
738.757 .0280585
739.483 .0280501
740.208 .0280417
740.933 .0280333
741.658 .0280247
742.383 .0280161
743.108 .0280072
743.832 .0279983
744.556 .0279891
745.280 .0279796
746.004 .0279700
746.727 .0279601
747.450 .0279500
748.173 .0279396
748.896 .0279291
749.618 .0279184
750.340 .0279075
751.062 .0278965
751.784 .0278855
752.506 .0278744
753.227 .0278632
753.948 .0278518
754.669 .0278403
755.389 .0278286
756.110 .0278167
756.830 .0278045
757.550 .0277921
758.269 .0277794
758.989 .0277665
759.708 .0277532
760.427 .0277398
761.146 .0277260
761.864 .0277119
762.582 .0276974
763.300 .0276826
764.018 .0276674
764.736 .0276519
765.453 .0276362
766.170 .0276202
766.887 .0276041
767.603 .0275879
768.320 .0275718
769.036 .0275558
769.751 .0275400
770.467 .0275244
771.182 .0275093
771.897 .0274946
772.612 .0274804
773.327 .0274667
774.041 .0274536
774.755 .0274411
775.469 .0274294
776.183 .0274183
776.896 .0274078
777.609 .0273981
778.322 .0273890
779.035 .0273805
779.747 .0273727
780.459 .0273654
781.171 .0273586
781.882 .0273522
782.594 .0273461
783.305 .0273401
784.016 .0273343
784.726 .0273284
785.436 .0273225
786.147 .0273128
786.856 .0273064
787.566 .0272997
788.275 .0272929
788.984 .0272859
789.693 .0272785
790.401 .0272707
791.110 .0272625
791.818 .0272538
792.525 .0272445
793.233 .0272347
793.940 .0272243
794.647 .0272180
795.353 .0272070
796.060 .0271955
796.766 .0271837
797.472 .0271714
798.177 .0271587
798.883 .0271456
799.588 .0271321
800.292 .0271181
800.997 .0271037
801.701 .0270889
802.405 .0270738
803.109 .0270584
803.812 .0270428
804.515 .0270269
805.218 .0270109
805.921 .0269948
806.623 .0269784
807.325 .0269620
808.027 .0269454
808.728 .0269288
809.429 .0269122
810.130 .0268956
810.831 .0268791
811.531 .0268627
812.231 .0268465
812.931 .0268305
813.630 .0268147
814.330 .0267994
815.029 .0267846
815.727 .0267703
816.426 .0267567
817.124 .0267438
817.821 .0267316
818.519 .0267201
819.216 .0267093
819.913 .0266993
820.609 .0266899
821.306 .0266811
822.002 .0266731
822.697 .0266656
823.393 .0266589
824.088 .0266528
824.783 .0266473
825.477 .0266424
826.171 .0266380
826.865 .0266341
827.559 .0266306
828.252 .0266274
828.945 .0266245
829.638 .0266218
830.330 .0266193
831.023 .0266169
831.714 .0266147
832.406 .0266124
833.097 .0266103
833.788 .0266081
834.479 .0266059
835.169 .0266036
835.859 .0266013
836.548 .0265990
837.238 .0265965
837.927 .0265939
838.615 .0265912
839.304 .0265882
839.992 .0265851
840.680 .0265817
841.367 .0265781
842.054 .0265740
842.741 .0265697
843.428 .0265649
844.114 .0265598
844.800 .0265544
845.485 .0265487
846.170 .0265427
846.855 .0265363
847.540 .0265296
848.224 .0265225
848.908 .0265149
849.592 .0265068
850.275 .0264981
850.958 .0264888
851.641 .0264789
852.323 .0264684
853.005 .0264573
853.687 .0264458
854.368 .0264337
855.049 .0264213
855.730 .0264085
856.410 .0263953
857.090 .0263817
857.769 .0263679
858.449 .0263536
859.128 .0263391
859.806 .0263244
860.485 .0263096
861.163 .0262947
861.840 .0262798
862.518 .0262651
863.195 .0262505
863.871 .0262360
864.548 .0262218
865.224 .0262079
865.899 .0261942
866.574 .0261808
867.249 .0261678
867.924 .0261551
868.598 .0261427
869.272 .0261307
869.946 .0261191
870.619 .0261078
871.292 .0260969
871.964 .0260863
872.636 .0260761
873.308 .0260662
873.979 .0260568
874.651 .0260478
875.321 .0260392
875.992 .0260311
876.662 .0260235
877.331 .0260163
878.001 .0260095
878.670 .0260029
879.338 .0259967
880.007 .0259907
880.675 .0259849
881.342 .0259793
882.009 .0259739
882.676 .0259686
883.343 .0259635
884.009 .0259585
884.675 .0259537
885.340 .0259490
886.005 .0259444
886.670 .0259398
887.334 .0259352
887.998 .0259307
888.662 .0259261
889.325 .0259214
889.988 .0259167
890.650 .0259119
891.312 .0259069
891.974 .0259017
892.636 .0258964
893.297 .0258909
893.957 .0258852
894.618 .0258793
895.278 .0258731
895.937 .0258668
896.596 .0258601
897.255 .0258531
897.914 .0258457
898.572 .0258379
899.230 .0258296
899.887 .0258208
900.544 .0258115
901.201 .0258017
901.857 .0257848
902.513 .0257738
903.168 .0257624
903.823 .0257505
904.478 .0257382
905.132 .0257253
905.786 .0257119
906.440 .0256979
907.093 .0256834
907.746 .0256684
908.399 .0256528
909.051 .0256368
909.703 .0256204
910.354 .0256112
911.005 .0255944
911.656 .0255773
912.306 .0255599
912.956 .0255423
913.605 .0255244
914.254 .0255064
914.903 .0254882
915.551 .0254700
916.199 .0254518
916.847 .0254337
917.494 .0254156
918.141 .0253975
918.788 .0253795
919.434 .0253615
920.079 .0253435
920.725 .0253255
921.370 .0253074
922.014 .0252894
922.658 .0252713
923.302 .0252533
923.946 .0252354
924.589 .0252175
925.231 .0251997
925.873 .0251821
926.515 .0251644
927.157 .0251468
927.798 .0251292
928.439 .0251117
929.079 .0250942
929.719 .0250769
930.359 .0250599
930.998 .0250431
931.637 .0250266
932.275 .0250104
932.913 .0249946
933.551 .0249791
934.188 .0249640
934.825 .0249493
935.462 .0249349
936.098 .0249210
936.733 .0249075
937.369 .0248946
938.004 .0248822
938.638 .0248705
939.273 .0248593
939.907 .0248487
940.540 .0248387
941.173 .0248292
941.806 .0248203
942.438 .0248119
943.070 .0248041
943.702 .0247967
944.333 .0247900
944.964 .0247837
945.594 .0247780
946.224 .0247728
946.854 .0247680
947.483 .0247635
948.112 .0247593
948.741 .0247552
949.369 .0247513
949.996 .0247474
950.624 .0247434
951.251 .0247394
951.878 .0247353
952.504 .0247310
953.130 .0247265
953.755 .0247219
954.380 .0247171
955.005 .0247122
955.629 .0247072
956.253 .0247020
956.877 .0246967
957.500 .0246914
958.123 .0246859
958.746 .0246805
959.368 .0246752
959.990 .0246700
960.611 .0246651
961.232 .0246604
961.853 .0246561
962.473 .0246522
963.093 .0246485
963.712 .0246451
964.331 .0246419
964.950 .0246389
965.569 .0246359
966.187 .0246331
966.804 .0246304
967.422 .0246279
968.039 .0246256
968.655 .0246234
969.272 .0246214
969.887 .0246196
970.503 .0246177
971.118 .0246158
971.733 .0246137
972.347 .0246115
972.961 .0246090
973.575 .0246062
974.188 .0246032
974.801 .0245999
975.414 .0245964
976.026 .0245926
976.638 .0245884
977.250 .0245837
977.861 .0245784
978.472 .0245726
979.083 .0245660
979.693 .0245588
980.303 .0245510
980.912 .0245377
981.521 .0245292
982.130 .0245204
982.738 .0245116
983.346 .0245029
983.954 .0244943
984.562 .0244858
985.169 .0244775
985.775 .0244694
986.382 .0244616
986.988 .0244540
987.594 .0244468
988.199 .0244400
988.804 .0244337
989.409 .0244323
990.013 .0244270
990.617 .0244224
991.221 .0244184
991.824 .0244151
992.427 .0244124
993.030 .0244102
993.632 .0244086
994.234 .0244075
994.836 .0244069
995.438 .0244068
996.039 .0244072
996.640 .0244081
997.240 .0244095
997.840 .0244115
998.440 .0244141
999.040 .0244170
999.639 .0244203
1000.238 .0244238
1000.836 .0244274
1001.435 .0244309
1002.033 .0244343
1002.630 .0244376
1003.228 .0244406
1003.825 .0244435
1004.422 .0244461
1005.018 .0244486
1005.614 .0244509
1006.210 .0244531
1006.806 .0244550
1007.401 .0244567
1007.996 .0244581
1008.591 .0244592
1009.186 .0244600
1009.780 .0244606
1010.374 .0244609
1010.967 .0244610
1011.561 .0244609
1012.154 .0244606
1012.746 .0244603
1013.339 .0244600
1013.931 .0244598
1014.523 .0244596
1015.115 .0244596
1015.706 .0244598
1016.298 .0244602
1016.888 .0244607
1017.479 .0244615
1018.069 .0244626
1018.660 .0244640
1019.250 .0244659
1019.839 .0244682
1020.429 .0244712
1021.018 .0244749
1021.607 .0244792
1022.195 .0244843
1022.784 .0244901
1023.372 .0244965
1023.960 .0245033
1024.547 .0245105
1025.135 .0245180
1025.722 .0245258
1026.309 .0245337
1026.896 .0245418
1027.483 .0245501
1028.069 .0245585
1028.655 .0245670
1029.241 .0245755
1029.827 .0245840
1030.412 .0245922
1030.997 .0246000
1031.582 .0246075
1032.167 .0246143
1032.752 .0246206
1033.336 .0246262
1033.921 .0246311
1034.505 .0246355
1035.089 .0246393
1035.672 .0246425
1036.256 .0246453
1036.839 .0246475
1037.422 .0246491
1038.005 .0246501
1038.588 .0246504
1039.171 .0246501
1039.753 .0246490
1040.335 .0246472
1040.918 .0246448
1041.500 .0246418
1042.081 .0246382
1042.663 .0246343
1043.244 .0246300
1043.826 .0246255
1044.407 .0246208
1044.988 .0246159
1045.569 .0246110
1046.150 .0246060
1046.730 .0246010
1047.311 .0245960
1047.891 .0245911
1048.471 .0245863
1049.052 .0245816
1049.632 .0245772
1050.211 .0245730
1050.791 .0245693
1051.371 .0245659
1051.950 .0245630
1052.530 .0245604
1053.109 .0245583
1053.688 .0245564
1054.268 .0245548
1054.847 .0245534
1055.426 .0245522
1056.005 .0245511
1056.583 .0245502
1057.162 .0245494
1057.741 .0245487
1058.319 .0245480
1058.898 .0245472
1059.476 .0245462
1060.055 .0245450
1060.633 .0245435
1061.211 .0245417
1061.790 .0245396
1062.368 .0245372
1062.946 .0245346
1063.524 .0245319
1064.102 .0245290
1064.680 .0245260
1065.258 .0245228
1065.836 .0245195
1066.414 .0245160
1066.992 .0245124
1067.570 .0245086
1068.148 .0245046
1068.726 .0245006
1069.304 .0244965
1069.882 .0244924
1070.460 .0244883
1071.038 .0244841
1071.616 .0244799
1072.194 .0244756
1072.772 .0244711
1073.350 .0244667
1073.928 .0244624
1074.506 .0244583
1075.084 .0244546
1075.662 .0244514
1076.240 .0244490
1076.819 .0244473
1077.397 .0244465
1077.976 .0244466
1078.554 .0244474
1079.133 .0244490
1079.711 .0244513
1080.290 .0244544
1080.869 .0244583
1081.448 .0244630
1082.027 .0244685
1082.606 .0244747
1083.185 .0244814
1083.764 .0244886
1084.343 .0244960
1084.923 .0245036
1085.502 .0245111
1086.082 .0245186
1086.662 .0245258
1087.242 .0245330
1087.822 .0245400
1088.402 .0245470
1088.983 .0245539
1089.563 .0245607
1090.144 .0245674
1090.725 .0245739
1091.306 .0245803
1091.887 .0245865
1092.469 .0245925
1093.050 .0245984
1093.632 .0246043
1094.214 .0246101
1094.796 .0246161
1095.379 .0246223
1095.961 .0246288
1096.544 .0246356
1097.127 .0246430
1097.710 .0246509
1098.294 .0246595
1098.877 .0246689
1099.461 .0246792
1100.046 .0246905
1100.630 .0247029
1101.215 .0247165
1101.800 .0247311
1102.385 .0247470
1102.970 .0247642
1103.556 .0247827
1104.142 .0248028
1104.728 .0248245
1105.315 .0248480
1105.902 .0248736
1106.489 .0249016
1107.077 .0249320
1107.664 .0249651
1108.253 .0250008
1108.841 .0250391
1109.430 .0250799
1110.019 .0251229
1110.609 .0251678
1111.198 .0252143
1111.789 .0252623
1112.379 .0253112
1112.970 .0253609
1113.561 .0254109
1114.153 .0254609
1114.745 .0255107
1115.338 .0255598
1115.931 .0256080
1116.524 .0256551
1117.117 .0257011
1117.712 .0257460
1118.306 .0257899
1118.901 .0258330
1119.496 .0258756
1120.092 .0259183
1120.689 .0259611
1121.285 .0260044
1121.882 .0260486
1122.480 .0260939
1123.078 .0261403
1123.677 .0261879
1124.276 .0262367
1124.875 .0262868
1125.476 .0263382
1126.076 .0263911
1126.677 .0264454
1127.279 .0265014
1127.881 .0265593
1128.484 .0266195
1129.087 .0266396
1129.691 .0267026
1130.295 .0267686
1130.900 .0268379
1131.505 .0269110
1132.111 .0269882
1132.718 .0270699
1133.325 .0271567
1133.933 .0272490
1134.541 .0273505
1135.150 .0274524
1135.760 .0275556
1136.370 .0276824
1136.981 .0277435
1137.592 .0278693
1138.204 .0279947
1138.817 .0281245
1139.431 .0282634
1140.045 .0284036
1140.660 .0285448
1141.275 .0287052
1141.891 .0288647
1142.508 .0291300
1143.126 .0291509
1143.744 .0291940
1144.363 .0298697
1144.983 .0296654
