Measurement Sequence started on: 15-12-46-377
Integration time: 28
Scans to Average: 2 
>>>>>Begin Spectral Data<<<<<
432.689 .0000100
433.621 .0000100
434.552 .0000100
435.482 .0000100
436.410 .0000100
437.337 .0000100
438.262 .0273383
439.187 .0579615
440.110 .0961098
441.031 .1391602
441.952 .1117254
442.871 .1166812
443.789 .1212954
444.705 .1256401
445.621 .1297628
446.535 .1336997
447.447 .1360378
448.359 .1366239
449.269 .1350794
450.178 .1311606
451.086 .1249451
451.993 .1169111
452.898 .1078492
453.803 .0986579
454.706 .0901033
455.608 .0826625
456.508 .0764963
457.408 .0723080
458.306 .0690808
459.204 .0664483
460.100 .0642230
460.995 .0623003
461.888 .0606111
462.781 .0591112
463.673 .0577676
464.563 .0565573
465.452 .0554631
466.340 .0544698
467.228 .0535658
468.114 .0527397
468.999 .0519822
469.882 .0512853
470.765 .0506428
471.647 .0500505
472.528 .0495055
473.407 .0490060
474.286 .0485506
475.163 .0481386
476.040 .0477689
476.915 .0474396
477.790 .0471488
478.663 .0468943
479.535 .0466737
480.407 .0464839
481.277 .0463223
482.147 .0461855
483.015 .0460708
483.883 .0459756
484.749 .0458981
485.615 .0458369
486.479 .0457911
487.343 .0457605
488.206 .0457451
489.067 .0457446
489.928 .0457593
490.788 .0457893
491.647 .0458343
492.505 .0458942
493.362 .0459687
494.218 .0460579
495.073 .0461631
495.928 .0463895
496.781 .0465467
497.634 .0467285
498.486 .0469385
499.337 .0471808
500.187 .0474590
501.036 .0477757
501.884 .0481344
502.731 .0485377
503.578 .0489874
504.424 .0493168
505.268 .0498483
506.113 .0504358
506.956 .0510837
507.798 .0517980
508.640 .0525854
509.480 .0534544
510.320 .0544150
511.160 .0554776
511.998 .0566531
512.836 .0579559
513.672 .0593997
514.508 .0609992
515.344 .0627732
516.178 .0647396
517.012 .0669185
517.845 .0693299
518.677 .0719899
519.508 .0749107
520.339 .0780988
521.169 .0815589
521.998 .0852683
522.826 .0891974
523.654 .0932988
524.481 .0975102
525.307 .1017600
526.133 .1059644
526.958 .1100305
527.782 .1138689
528.605 .1173948
529.428 .1205329
530.250 .1232157
531.072 .1254027
531.892 .1270632
532.712 .1281808
533.532 .1287501
534.350 .1287712
535.168 .1282508
535.986 .1272032
536.802 .1256387
537.618 .1235703
538.434 .1210108
539.249 .1179978
540.063 .1145753
540.876 .1108018
541.689 .1067487
542.501 .1024945
543.313 .0981265
544.124 .0937368
544.934 .0894098
545.744 .0852229
546.553 .0812420
547.361 .0775216
548.169 .0740884
548.976 .0709592
549.783 .0681320
550.589 .0655949
551.395 .0633263
552.200 .0612998
553.004 .0594844
553.808 .0578548
554.611 .0563891
555.414 .0550671
556.216 .0538690
557.018 .0527761
557.819 .0517722
558.619 .0508427
559.419 .0499735
560.218 .0491542
561.017 .0483758
561.815 .0476335
562.613 .0469236
563.410 .0462430
564.207 .0455890
565.003 .0449595
565.799 .0443518
566.594 .0437631
567.388 .0431910
568.182 .0426343
568.976 .0420909
569.769 .0415606
570.562 .0410436
571.354 .0405406
572.145 .0400527
572.936 .0395816
573.727 .0391273
574.517 .0386905
575.307 .0382712
576.096 .0378692
576.885 .0374843
577.673 .0371173
578.461 .0367679
579.248 .0364365
580.035 .0361236
580.821 .0358294
581.607 .0355535
582.392 .0352962
583.177 .0350571
583.962 .0348356
584.746 .0346308
585.529 .0344415
586.313 .0342663
587.095 .0341043
587.878 .0339543
588.660 .0338152
589.441 .0336861
590.222 .0335662
591.003 .0334548
591.783 .0333515
592.563 .0332558
593.342 .0331670
594.121 .0330844
594.899 .0330075
595.678 .0329353
596.455 .0328674
597.233 .0328031
598.009 .0327422
598.786 .0326844
599.562 .0326292
600.338 .0325763
601.113 .0325254
601.888 .0324535
602.663 .0324063
603.437 .0323604
604.211 .0323158
604.984 .0322723
605.757 .0322299
606.530 .0321889
607.302 .0321491
608.074 .0321107
608.845 .0320736
609.616 .0320379
610.387 .0320236
611.158 .0319897
611.928 .0319570
612.697 .0319254
613.467 .0318950
614.236 .0318656
615.004 .0318373
615.773 .0318100
616.541 .0317836
617.308 .0317580
618.076 .0317333
618.843 .0317092
619.609 .0316857
620.375 .0316624
621.141 .0316393
621.907 .0316162
622.672 .0315930
623.437 .0315696
624.202 .0315458
624.966 .0315217
625.730 .0314971
626.493 .0314722
627.257 .0314469
628.020 .0314212
628.782 .0313950
629.545 .0313681
630.307 .0313407
631.068 .0313126
631.830 .0312837
632.591 .0312542
633.352 .0312241
634.112 .0311936
634.872 .0311626
635.632 .0311314
636.392 .0311001
637.151 .0310688
637.910 .0310376
638.668 .0310067
639.427 .0309760
640.185 .0309458
640.943 .0309161
641.700 .0308870
642.457 .0308585
643.214 .0308307
643.971 .0308037
644.727 .0307774
645.483 .0307519
646.239 .0307271
646.994 .0307032
647.750 .0306800
648.505 .0306576
649.259 .0306358
650.014 .0306146
650.768 .0305940
651.521 .0305737
652.275 .0305538
653.028 .0305341
653.781 .0305146
654.534 .0304951
655.286 .0304756
656.039 .0304560
656.791 .0304364
657.542 .0304165
658.294 .0303964
659.045 .0303761
659.796 .0303555
660.546 .0303347
661.297 .0303138
662.047 .0302928
662.796 .0302717
663.546 .0302506
664.295 .0302296
665.044 .0302087
665.793 .0301880
666.542 .0301675
667.290 .0301475
668.038 .0301278
668.786 .0301086
669.533 .0300898
670.281 .0300715
671.028 .0300536
671.774 .0300361
672.521 .0300189
673.267 .0300020
674.013 .0299853
674.759 .0299688
675.505 .0299525
676.250 .0299363
676.995 .0299202
677.740 .0299040
678.484 .0298877
679.229 .0298713
679.973 .0298547
680.717 .0298380
681.460 .0298212
682.204 .0298044
682.947 .0297875
683.690 .0297706
684.433 .0297537
685.175 .0297368
685.917 .0297200
686.659 .0297031
687.401 .0296863
688.142 .0296694
688.884 .0296526
689.625 .0296358
690.365 .0296191
691.106 .0296025
691.846 .0295860
692.586 .0295695
693.326 .0295531
694.066 .0295366
694.805 .0295200
695.545 .0295033
696.284 .0294865
697.022 .0294695
697.761 .0294525
698.499 .0294353
699.237 .0294179
699.975 .0294004
700.713 .0293826
701.450 .0293647
702.187 .0293463
702.924 .0293277
703.661 .0293086
704.397 .0292892
705.133 .0292694
705.869 .0292493
706.605 .0292289
707.341 .0292082
708.076 .0291873
708.811 .0291661
709.546 .0291447
710.281 .0291232
711.015 .0291015
711.749 .0290797
712.483 .0290579
713.217 .0290359
713.950 .0290140
714.684 .0289920
715.417 .0289699
716.150 .0289479
716.882 .0289258
717.615 .0289037
718.347 .0288816
719.079 .0288594
719.811 .0288373
720.542 .0288152
721.273 .0287931
722.005 .0287710
722.735 .0287490
723.466 .0287270
724.196 .0287052
724.927 .0286834
725.656 .0286619
726.386 .0286407
727.116 .0286198
727.845 .0285993
728.574 .0285792
729.303 .0285597
730.031 .0285408
730.760 .0285225
731.488 .0285048
732.216 .0284877
732.944 .0284712
733.671 .0284553
734.398 .0284401
735.125 .0284255
735.852 .0284115
736.579 .0283982
737.305 .0283855
738.031 .0283735
738.757 .0283620
739.483 .0283512
740.208 .0283408
740.933 .0283308
741.658 .0283211
742.383 .0283117
743.108 .0283023
743.832 .0282931
744.556 .0282839
745.280 .0282747
746.004 .0282654
746.727 .0282561
747.450 .0282467
748.173 .0282372
748.896 .0282275
749.618 .0282177
750.340 .0282077
751.062 .0281975
751.784 .0281871
752.506 .0281765
753.227 .0281658
753.948 .0281550
754.669 .0281441
755.389 .0281331
756.110 .0281222
756.830 .0281114
757.550 .0281006
758.269 .0280900
758.989 .0280797
759.708 .0280695
760.427 .0280595
761.146 .0280498
761.864 .0280402
762.582 .0280307
763.300 .0280212
764.018 .0280118
764.736 .0280023
765.453 .0279928
766.170 .0279833
766.887 .0279737
767.603 .0279642
768.320 .0279549
769.036 .0279456
769.751 .0279366
770.467 .0279279
771.182 .0279194
771.897 .0279112
772.612 .0279034
773.327 .0278960
774.041 .0278889
774.755 .0278823
775.469 .0278762
776.183 .0278707
776.896 .0278657
777.609 .0278614
778.322 .0278578
779.035 .0278548
779.747 .0278525
780.459 .0278507
781.171 .0278494
781.882 .0278485
782.594 .0278479
783.305 .0278475
784.016 .0278472
784.726 .0278469
785.436 .0278465
786.147 .0278445
786.856 .0278431
787.566 .0278414
788.275 .0278392
788.984 .0278366
789.693 .0278336
790.401 .0278301
791.110 .0278262
791.818 .0278218
792.525 .0278168
793.233 .0278112
793.940 .0278050
794.647 .0278004
795.353 .0277934
796.060 .0277857
796.766 .0277774
797.472 .0277685
798.177 .0277590
798.883 .0277491
799.588 .0277388
800.292 .0277280
800.997 .0277167
801.701 .0277049
802.405 .0276925
803.109 .0276795
803.812 .0276659
804.515 .0276516
805.218 .0276366
805.921 .0276210
806.623 .0276047
807.325 .0275876
808.027 .0275698
808.728 .0275512
809.429 .0275318
810.130 .0275118
810.831 .0274910
811.531 .0274696
812.231 .0274477
812.931 .0274253
813.630 .0274025
814.330 .0273794
815.029 .0273561
815.727 .0273326
816.426 .0273092
817.124 .0272858
817.821 .0272627
818.519 .0272399
819.216 .0272177
819.913 .0271960
820.609 .0271750
821.306 .0271548
822.002 .0271354
822.697 .0271167
823.393 .0270989
824.088 .0270818
824.783 .0270656
825.477 .0270501
826.171 .0270352
826.865 .0270209
827.559 .0270072
828.252 .0269939
828.945 .0269809
829.638 .0269681
830.330 .0269556
831.023 .0269432
831.714 .0269309
832.406 .0269186
833.097 .0269064
833.788 .0268942
834.479 .0268819
835.169 .0268696
835.859 .0268571
836.548 .0268444
837.238 .0268317
837.927 .0268188
838.615 .0268057
839.304 .0267925
839.992 .0267791
840.680 .0267657
841.367 .0267521
842.054 .0267385
842.741 .0267248
843.428 .0267109
844.114 .0266970
844.800 .0266831
845.485 .0266690
846.170 .0266548
846.855 .0266406
847.540 .0266262
848.224 .0266117
848.908 .0265971
849.592 .0265824
850.275 .0265677
850.958 .0265528
851.641 .0265379
852.323 .0265229
853.005 .0265079
853.687 .0264928
854.368 .0264775
855.049 .0264621
855.730 .0264466
856.410 .0264310
857.090 .0264153
857.769 .0263996
858.449 .0263837
859.128 .0263679
859.806 .0263521
860.485 .0263364
861.163 .0263209
861.840 .0263057
862.518 .0262908
863.195 .0262763
863.871 .0262624
864.548 .0262489
865.224 .0262360
865.899 .0262235
866.574 .0262116
867.249 .0262003
867.924 .0261894
868.598 .0261790
869.272 .0261693
869.946 .0261602
870.619 .0261517
871.292 .0261440
871.964 .0261370
872.636 .0261307
873.308 .0261252
873.979 .0261205
874.651 .0261165
875.321 .0261132
875.992 .0261107
876.662 .0261088
877.331 .0261076
878.001 .0261071
878.670 .0261072
879.338 .0261080
880.007 .0261095
880.675 .0261116
881.342 .0261144
882.009 .0261178
882.676 .0261217
883.343 .0261262
884.009 .0261311
884.675 .0261364
885.340 .0261421
886.005 .0261481
886.670 .0261543
887.334 .0261608
887.998 .0261676
888.662 .0261745
889.325 .0261817
889.988 .0261891
890.650 .0261966
891.312 .0262042
891.974 .0262119
892.636 .0262195
893.297 .0262270
893.957 .0262344
894.618 .0262415
895.278 .0262484
895.937 .0262548
896.596 .0262609
897.255 .0262665
897.914 .0262716
898.572 .0262761
899.230 .0262800
899.887 .0262833
900.544 .0262860
901.201 .0262879
901.857 .0262873
902.513 .0262871
903.168 .0262859
903.823 .0262839
904.478 .0262809
905.132 .0262770
905.786 .0262723
906.440 .0262666
907.093 .0262602
907.746 .0262531
908.399 .0262453
909.051 .0262370
909.703 .0262281
910.354 .0262224
911.005 .0262132
911.656 .0262039
912.306 .0261943
912.956 .0261846
913.605 .0261749
914.254 .0261651
914.903 .0261554
915.551 .0261456
916.199 .0261358
916.847 .0261261
917.494 .0261164
918.141 .0261067
918.788 .0260970
919.434 .0260874
920.079 .0260779
920.725 .0260683
921.370 .0260587
922.014 .0260489
922.658 .0260390
923.302 .0260289
923.946 .0260185
924.589 .0260079
925.231 .0259970
925.873 .0259859
926.515 .0259744
927.157 .0259628
927.798 .0259508
928.439 .0259386
929.079 .0259260
929.719 .0259132
930.359 .0259000
930.998 .0258866
931.637 .0258728
932.275 .0258587
932.913 .0258444
933.551 .0258298
934.188 .0258152
934.825 .0258005
935.462 .0257858
936.098 .0257710
936.733 .0257564
937.369 .0257417
938.004 .0257272
938.638 .0257128
939.273 .0256985
939.907 .0256843
940.540 .0256703
941.173 .0256565
941.806 .0256429
942.438 .0256295
943.070 .0256163
943.702 .0256033
944.333 .0255905
944.964 .0255778
945.594 .0255651
946.224 .0255525
946.854 .0255398
947.483 .0255269
948.112 .0255139
948.741 .0255007
949.369 .0254873
949.996 .0254737
950.624 .0254600
951.251 .0254459
951.878 .0254317
952.504 .0254172
953.130 .0254025
953.755 .0253876
954.380 .0253725
955.005 .0253572
955.629 .0253418
956.253 .0253263
956.877 .0253107
957.500 .0252950
958.123 .0252794
958.746 .0252637
959.368 .0252480
959.990 .0252323
960.611 .0252166
961.232 .0252010
961.853 .0251853
962.473 .0251697
963.093 .0251540
963.712 .0251383
964.331 .0251226
964.950 .0251067
965.569 .0250908
966.187 .0250748
966.804 .0250587
967.422 .0250424
968.039 .0250259
968.655 .0250093
969.272 .0249925
969.887 .0249755
970.503 .0249584
971.118 .0249411
971.733 .0249237
972.347 .0249060
972.961 .0248883
973.575 .0248704
974.188 .0248523
974.801 .0248339
975.414 .0248154
976.026 .0247965
976.638 .0247772
977.250 .0247576
977.861 .0247375
978.472 .0247170
979.083 .0246961
979.693 .0246750
980.303 .0246535
980.912 .0246211
981.521 .0245996
982.130 .0245782
982.738 .0245568
983.346 .0245356
983.954 .0245145
984.562 .0244935
985.169 .0244729
985.775 .0244525
986.382 .0244325
986.988 .0244130
987.594 .0243940
988.199 .0243755
988.804 .0243576
989.409 .0243502
990.013 .0243330
990.617 .0243163
991.221 .0242999
991.824 .0242839
992.427 .0242683
993.030 .0242530
993.632 .0242381
994.234 .0242237
994.836 .0242097
995.438 .0241961
996.039 .0241829
996.640 .0241702
997.240 .0241579
997.840 .0241461
998.440 .0241349
999.040 .0241242
999.639 .0241140
1000.238 .0241045
1000.836 .0240956
1001.435 .0240872
1002.033 .0240794
1002.630 .0240720
1003.228 .0240650
1003.825 .0240583
1004.422 .0240519
1005.018 .0240456
1005.614 .0240396
1006.210 .0240337
1006.806 .0240281
1007.401 .0240227
1007.996 .0240176
1008.591 .0240127
1009.186 .0240082
1009.780 .0240039
1010.374 .0240000
1010.967 .0239964
1011.561 .0239932
1012.154 .0239905
1012.746 .0239882
1013.339 .0239865
1013.931 .0239854
1014.523 .0239848
1015.115 .0239849
1015.706 .0239854
1016.298 .0239864
1016.888 .0239879
1017.479 .0239899
1018.069 .0239923
1018.660 .0239951
1019.250 .0239984
1019.839 .0240022
1020.429 .0240066
1021.018 .0240114
1021.607 .0240168
1022.195 .0240227
1022.784 .0240290
1023.372 .0240358
1023.960 .0240430
1024.547 .0240508
1025.135 .0240590
1025.722 .0240678
1026.309 .0240771
1026.896 .0240870
1027.483 .0240975
1028.069 .0241084
1028.655 .0241197
1029.241 .0241314
1029.827 .0241432
1030.412 .0241551
1030.997 .0241671
1031.582 .0241791
1032.167 .0241911
1032.752 .0242032
1033.336 .0242154
1033.921 .0242277
1034.505 .0242400
1035.089 .0242524
1035.672 .0242648
1036.256 .0242770
1036.839 .0242890
1037.422 .0243008
1038.005 .0243123
1038.588 .0243235
1039.171 .0243344
1039.753 .0243451
1040.335 .0243556
1040.918 .0243659
1041.500 .0243760
1042.081 .0243858
1042.663 .0243953
1043.244 .0244044
1043.826 .0244132
1044.407 .0244218
1044.988 .0244302
1045.569 .0244386
1046.150 .0244471
1046.730 .0244559
1047.311 .0244650
1047.891 .0244745
1048.471 .0244844
1049.052 .0244945
1049.632 .0245049
1050.211 .0245154
1050.791 .0245260
1051.371 .0245367
1051.950 .0245475
1052.530 .0245584
1053.109 .0245694
1053.688 .0245805
1054.268 .0245917
1054.847 .0246030
1055.426 .0246144
1056.005 .0246261
1056.583 .0246380
1057.162 .0246501
1057.741 .0246626
1058.319 .0246754
1058.898 .0246885
1059.476 .0247021
1060.055 .0247161
1060.633 .0247305
1061.211 .0247450
1061.790 .0247598
1062.368 .0247745
1062.946 .0247892
1063.524 .0248037
1064.102 .0248179
1064.680 .0248317
1065.258 .0248451
1065.836 .0248579
1066.414 .0248700
1066.992 .0248814
1067.570 .0248920
1068.148 .0249019
1068.726 .0249111
1069.304 .0249199
1069.882 .0249283
1070.460 .0249366
1071.038 .0249452
1071.616 .0249540
1072.194 .0249633
1072.772 .0249730
1073.350 .0249831
1073.928 .0249935
1074.506 .0250041
1075.084 .0250150
1075.662 .0250260
1076.240 .0250372
1076.819 .0250487
1077.397 .0250605
1077.976 .0250726
1078.554 .0250850
1079.133 .0250976
1079.711 .0251101
1080.290 .0251225
1080.869 .0251345
1081.448 .0251463
1082.027 .0251577
1082.606 .0251691
1083.185 .0251805
1083.764 .0251923
1084.343 .0252048
1084.923 .0252181
1085.502 .0252324
1086.082 .0252476
1086.662 .0252637
1087.242 .0252804
1087.822 .0252975
1088.402 .0253150
1088.983 .0253326
1089.563 .0253504
1090.144 .0253684
1090.725 .0253867
1091.306 .0254053
1091.887 .0254243
1092.469 .0254438
1093.050 .0254638
1093.632 .0254840
1094.214 .0255045
1094.796 .0255250
1095.379 .0255455
1095.961 .0255659
1096.544 .0255864
1097.127 .0256072
1097.710 .0256283
1098.294 .0256499
1098.877 .0256722
1099.461 .0256953
1100.046 .0257194
1100.630 .0257443
1101.215 .0257699
1101.800 .0257962
1102.385 .0258230
1102.970 .0258502
1103.556 .0258776
1104.142 .0259053
1104.728 .0259334
1105.315 .0259619
1105.902 .0259909
1106.489 .0260207
1107.077 .0260513
1107.664 .0260830
1108.253 .0261157
1108.841 .0261494
1109.430 .0261839
1110.019 .0262192
1110.609 .0262553
1111.198 .0262922
1111.789 .0263300
1112.379 .0263689
1112.970 .0264088
1113.561 .0264499
1114.153 .0264922
1114.745 .0265356
1115.338 .0265801
1115.931 .0266256
1116.524 .0266717
1117.117 .0267184
1117.712 .0267656
1118.306 .0268134
1118.901 .0268621
1119.496 .0269118
1120.092 .0269629
1120.689 .0270152
1121.285 .0270689
1121.882 .0271239
1122.480 .0271800
1123.078 .0272370
1123.677 .0272946
1124.276 .0273529
1124.875 .0274117
1125.476 .0274714
1126.076 .0275323
1126.677 .0275948
1127.279 .0276593
1127.881 .0277260
1128.484 .0277948
1129.087 .0278238
1129.691 .0278952
1130.295 .0279685
1130.900 .0280433
1131.505 .0281196
1132.111 .0281974
1132.718 .0282765
1133.325 .0283567
1133.933 .0284370
1134.541 .0285235
1135.150 .0286157
1135.760 .0286988
1136.370 .0287702
1136.981 .0289265
1137.592 .0290325
1138.204 .0291328
1138.817 .0292251
1139.431 .0293130
1140.045 .0294006
1140.660 .0294837
1141.275 .0295549
1141.891 .0296049
1142.508 .0298258
1143.126 .0300299
1143.744 .0298321
1144.363 .0295692
1144.983 .0292616
