Measurement Sequence started on: 15-12-46-377
Integration time: 28
Scans to Average: 2 
>>>>>Begin Spectral Data<<<<<
432.689 .0000100
433.621 .0000100
434.552 .0000100
435.482 .0000100
436.410 .0000100
437.337 .0000100
438.262 .0301665
439.187 .0638818
440.110 .1057671
441.031 .1529504
441.952 .1217887
442.871 .1270834
443.789 .1319998
444.705 .1366153
445.621 .1409833
446.535 .1451461
447.447 .1475470
448.359 .1480235
449.269 .1461661
450.178 .1417133
451.086 .1347551
451.993 .1258218
452.898 .1157853
453.803 .1056345
454.706 .0962082
455.608 .0880258
456.508 .0812575
457.408 .0766773
458.306 .0731596
459.204 .0703000
460.100 .0678961
460.995 .0658349
461.888 .0640414
462.781 .0624650
463.673 .0610657
464.563 .0598150
465.452 .0586898
466.340 .0576714
467.228 .0567441
468.114 .0558977
468.999 .0551226
469.882 .0544112
470.765 .0537570
471.647 .0531549
472.528 .0526003
473.407 .0520893
474.286 .0516183
475.163 .0511849
476.040 .0507866
476.915 .0504212
477.790 .0500868
478.663 .0497826
479.535 .0495082
480.407 .0492629
481.277 .0490472
482.147 .0488606
483.015 .0487027
483.883 .0485735
484.749 .0484728
485.615 .0484005
486.479 .0483568
487.343 .0483413
488.206 .0483544
489.067 .0483960
489.928 .0484658
490.788 .0485633
491.647 .0486881
492.505 .0488398
493.362 .0490173
494.218 .0492197
495.073 .0494463
495.928 .0498627
496.781 .0501447
497.634 .0504481
498.486 .0507729
499.337 .0511199
500.187 .0514906
501.036 .0518871
501.884 .0523118
502.731 .0527682
503.578 .0532601
504.424 .0535826
505.268 .0541442
506.113 .0547532
506.956 .0554144
507.798 .0561343
508.640 .0569191
509.480 .0577767
510.320 .0587175
511.160 .0597553
511.998 .0609045
512.836 .0621840
513.672 .0636150
514.508 .0652223
515.344 .0670318
516.178 .0690718
517.012 .0713720
517.845 .0739599
518.677 .0768607
519.508 .0800954
520.339 .0836725
521.169 .0875966
521.998 .0918440
522.826 .0963806
523.654 .1011474
524.481 .1060678
525.307 .1110498
526.133 .1159937
526.958 .1207931
527.782 .1253437
528.605 .1295474
529.428 .1333255
530.250 .1366057
531.072 .1393416
531.892 .1414943
532.712 .1430436
533.532 .1439766
534.350 .1442855
535.168 .1439661
535.986 .1430213
536.802 .1414538
537.618 .1392764
538.434 .1365012
539.249 .1331709
540.063 .1293365
540.876 .1250703
541.689 .1204606
542.501 .1156077
543.313 .1106151
544.124 .1055902
544.934 .1006325
545.744 .0958297
546.553 .0912495
547.361 .0869491
548.169 .0829571
548.976 .0792932
549.783 .0759566
550.589 .0729358
551.395 .0702113
552.200 .0677613
553.004 .0655564
553.808 .0635702
554.611 .0617772
555.414 .0601550
556.216 .0586791
557.018 .0573271
557.819 .0560808
558.619 .0549235
559.419 .0538419
560.218 .0528267
561.017 .0518696
561.815 .0509657
562.613 .0501121
563.410 .0493043
564.207 .0485381
565.003 .0478090
565.799 .0471111
566.594 .0464388
567.388 .0457881
568.182 .0451558
568.976 .0445389
569.769 .0439370
570.562 .0433505
571.354 .0427803
572.145 .0422286
572.936 .0416972
573.727 .0411872
574.517 .0406996
575.307 .0402343
576.096 .0397904
576.885 .0393674
577.673 .0389651
578.461 .0385826
579.248 .0382199
580.035 .0378773
580.821 .0375553
581.607 .0372540
582.392 .0369739
583.177 .0367147
583.962 .0364760
584.746 .0362568
585.529 .0360558
586.313 .0358717
587.095 .0357034
587.878 .0355497
588.660 .0354093
589.441 .0352812
590.222 .0351643
591.003 .0350576
591.783 .0349600
592.563 .0348705
593.342 .0347880
594.121 .0347115
594.899 .0346401
595.678 .0345727
596.455 .0345087
597.233 .0344471
598.009 .0343874
598.786 .0343289
599.562 .0342711
600.338 .0342136
601.113 .0341562
601.888 .0340689
602.663 .0340116
603.437 .0339544
604.211 .0338974
604.984 .0338405
605.757 .0337841
606.530 .0337282
607.302 .0336730
608.074 .0336186
608.845 .0335653
609.616 .0335131
610.387 .0334909
611.158 .0334414
611.928 .0333935
612.697 .0333472
613.467 .0333026
614.236 .0332597
615.004 .0332187
615.773 .0331795
616.541 .0331421
617.308 .0331063
618.076 .0330720
618.843 .0330393
619.609 .0330078
620.375 .0329775
621.141 .0329482
621.907 .0329196
622.672 .0328917
623.437 .0328644
624.202 .0328373
624.966 .0328105
625.730 .0327837
626.493 .0327568
627.257 .0327296
628.020 .0327020
628.782 .0326739
629.545 .0326452
630.307 .0326160
631.068 .0325862
631.830 .0325561
632.591 .0325255
633.352 .0324947
634.112 .0324638
634.872 .0324329
635.632 .0324020
636.392 .0323713
637.151 .0323409
637.910 .0323109
638.668 .0322815
639.427 .0322529
640.185 .0322251
640.943 .0321983
641.700 .0321725
642.457 .0321478
643.214 .0321241
643.971 .0321015
644.727 .0320800
645.483 .0320595
646.239 .0320399
646.994 .0320213
647.750 .0320035
648.505 .0319863
649.259 .0319697
650.014 .0319534
650.768 .0319373
651.521 .0319211
652.275 .0319048
653.028 .0318881
653.781 .0318710
654.534 .0318532
655.286 .0318347
656.039 .0318155
656.791 .0317954
657.542 .0317745
658.294 .0317527
659.045 .0317301
659.796 .0317066
660.546 .0316823
661.297 .0316572
662.047 .0316313
662.796 .0316048
663.546 .0315775
664.295 .0315496
665.044 .0315212
665.793 .0314924
666.542 .0314634
667.290 .0314342
668.038 .0314048
668.786 .0313754
669.533 .0313458
670.281 .0313162
671.028 .0312864
671.774 .0312565
672.521 .0312264
673.267 .0311961
674.013 .0311656
674.759 .0311350
675.505 .0311042
676.250 .0310734
676.995 .0310426
677.740 .0310118
678.484 .0309810
679.229 .0309505
679.973 .0309201
680.717 .0308902
681.460 .0308606
682.204 .0308315
682.947 .0308028
683.690 .0307748
684.433 .0307473
685.175 .0307205
685.917 .0306944
686.659 .0306692
687.401 .0306448
688.142 .0306213
688.884 .0305987
689.625 .0305770
690.365 .0305561
691.106 .0305360
691.846 .0305165
692.586 .0304977
693.326 .0304795
694.066 .0304619
694.805 .0304448
695.545 .0304282
696.284 .0304120
697.022 .0303963
697.761 .0303808
698.499 .0303657
699.237 .0303508
699.975 .0303362
700.713 .0303218
701.450 .0303075
702.187 .0302935
702.924 .0302797
703.661 .0302659
704.397 .0302523
705.133 .0302387
705.869 .0302250
706.605 .0302114
707.341 .0301978
708.076 .0301842
708.811 .0301707
709.546 .0301573
710.281 .0301439
711.015 .0301307
711.749 .0301174
712.483 .0301041
713.217 .0300907
713.950 .0300771
714.684 .0300633
715.417 .0300493
716.150 .0300350
716.882 .0300205
717.615 .0300058
718.347 .0299908
719.079 .0299758
719.811 .0299606
720.542 .0299453
721.273 .0299299
722.005 .0299145
722.735 .0298992
723.466 .0298838
724.196 .0298686
724.927 .0298533
725.656 .0298382
726.386 .0298232
727.116 .0298082
727.845 .0297933
728.574 .0297786
729.303 .0297640
730.031 .0297496
730.760 .0297353
731.488 .0297210
732.216 .0297068
732.944 .0296927
733.671 .0296784
734.398 .0296640
735.125 .0296495
735.852 .0296348
736.579 .0296199
737.305 .0296048
738.031 .0295895
738.757 .0295740
739.483 .0295583
740.208 .0295425
740.933 .0295265
741.658 .0295103
742.383 .0294938
743.108 .0294772
743.832 .0294602
744.556 .0294430
745.280 .0294255
746.004 .0294078
746.727 .0293897
747.450 .0293712
748.173 .0293525
748.896 .0293336
749.618 .0293144
750.340 .0292949
751.062 .0292753
751.784 .0292554
752.506 .0292353
753.227 .0292150
753.948 .0291945
754.669 .0291738
755.389 .0291529
756.110 .0291318
756.830 .0291105
757.550 .0290891
758.269 .0290676
758.989 .0290460
759.708 .0290243
760.427 .0290025
761.146 .0289806
761.864 .0289587
762.582 .0289368
763.300 .0289149
764.018 .0288930
764.736 .0288712
765.453 .0288495
766.170 .0288279
766.887 .0288066
767.603 .0287856
768.320 .0287649
769.036 .0287446
769.751 .0287246
770.467 .0287052
771.182 .0286862
771.897 .0286679
772.612 .0286500
773.327 .0286328
774.041 .0286162
774.755 .0286002
775.469 .0285849
776.183 .0285702
776.896 .0285562
777.609 .0285428
778.322 .0285300
779.035 .0285180
779.747 .0285066
780.459 .0284959
781.171 .0284859
781.882 .0284765
782.594 .0284677
783.305 .0284596
784.016 .0284519
784.726 .0284448
785.436 .0284381
786.147 .0284295
786.856 .0284237
787.566 .0284182
788.275 .0284131
788.984 .0284083
789.693 .0284038
790.401 .0283996
791.110 .0283956
791.818 .0283918
792.525 .0283882
793.233 .0283847
793.940 .0283813
794.647 .0283799
795.353 .0283766
796.060 .0283735
796.766 .0283705
797.472 .0283676
798.177 .0283648
798.883 .0283622
799.588 .0283596
800.292 .0283570
800.997 .0283543
801.701 .0283516
802.405 .0283487
803.109 .0283456
803.812 .0283423
804.515 .0283388
805.218 .0283350
805.921 .0283308
806.623 .0283264
807.325 .0283216
808.027 .0283164
808.728 .0283108
809.429 .0283047
810.130 .0282983
810.831 .0282915
811.531 .0282843
812.231 .0282768
812.931 .0282691
813.630 .0282612
814.330 .0282530
815.029 .0282446
815.727 .0282361
816.426 .0282274
817.124 .0282186
817.821 .0282098
818.519 .0282010
819.216 .0281924
819.913 .0281840
820.609 .0281758
821.306 .0281679
822.002 .0281603
822.697 .0281530
823.393 .0281460
824.088 .0281394
824.783 .0281331
825.477 .0281272
826.171 .0281217
826.865 .0281166
827.559 .0281118
828.252 .0281073
828.945 .0281030
829.638 .0280989
830.330 .0280948
831.023 .0280907
831.714 .0280865
832.406 .0280821
833.097 .0280775
833.788 .0280726
834.479 .0280674
835.169 .0280618
835.859 .0280559
836.548 .0280495
837.238 .0280427
837.927 .0280353
838.615 .0280274
839.304 .0280190
839.992 .0280099
840.680 .0280002
841.367 .0279898
842.054 .0279788
842.741 .0279671
843.428 .0279546
844.114 .0279415
844.800 .0279276
845.485 .0279128
846.170 .0278973
846.855 .0278809
847.540 .0278636
848.224 .0278454
848.908 .0278263
849.592 .0278062
850.275 .0277853
850.958 .0277634
851.641 .0277407
852.323 .0277172
853.005 .0276929
853.687 .0276679
854.368 .0276422
855.049 .0276158
855.730 .0275889
856.410 .0275614
857.090 .0275335
857.769 .0275052
858.449 .0274765
859.128 .0274476
859.806 .0274185
860.485 .0273894
861.163 .0273603
861.840 .0273314
862.518 .0273026
863.195 .0272741
863.871 .0272461
864.548 .0272184
865.224 .0271913
865.899 .0271646
866.574 .0271386
867.249 .0271132
867.924 .0270885
868.598 .0270644
869.272 .0270410
869.946 .0270183
870.619 .0269964
871.292 .0269751
871.964 .0269545
872.636 .0269345
873.308 .0269153
873.979 .0268967
874.651 .0268787
875.321 .0268614
875.992 .0268447
876.662 .0268286
877.331 .0268131
878.001 .0267981
878.670 .0267838
879.338 .0267700
880.007 .0267569
880.675 .0267446
881.342 .0267330
882.009 .0267222
882.676 .0267123
883.343 .0267033
884.009 .0266951
884.675 .0266878
885.340 .0266814
886.005 .0266759
886.670 .0266713
887.334 .0266675
887.998 .0266647
888.662 .0266627
889.325 .0266616
889.988 .0266612
890.650 .0266617
891.312 .0266628
891.974 .0266644
892.636 .0266666
893.297 .0266692
893.957 .0266721
894.618 .0266754
895.278 .0266789
895.937 .0266825
896.596 .0266861
897.255 .0266897
897.914 .0266931
898.572 .0266961
899.230 .0266987
899.887 .0267008
900.544 .0267023
901.201 .0267031
901.857 .0267010
902.513 .0267000
903.168 .0266983
903.823 .0266959
904.478 .0266928
905.132 .0266890
905.786 .0266844
906.440 .0266793
907.093 .0266736
907.746 .0266675
908.399 .0266610
909.051 .0266543
909.703 .0266475
910.354 .0266438
911.005 .0266371
911.656 .0266304
912.306 .0266236
912.956 .0266170
913.605 .0266103
914.254 .0266038
914.903 .0265973
915.551 .0265910
916.199 .0265849
916.847 .0265789
917.494 .0265731
918.141 .0265675
918.788 .0265620
919.434 .0265565
920.079 .0265511
920.725 .0265457
921.370 .0265403
922.014 .0265348
922.658 .0265293
923.302 .0265236
923.946 .0265178
924.589 .0265118
925.231 .0265056
925.873 .0264992
926.515 .0264926
927.157 .0264856
927.798 .0264783
928.439 .0264707
929.079 .0264629
929.719 .0264548
930.359 .0264464
930.998 .0264380
931.637 .0264294
932.275 .0264208
932.913 .0264123
933.551 .0264039
934.188 .0263959
934.825 .0263882
935.462 .0263810
936.098 .0263743
936.733 .0263682
937.369 .0263627
938.004 .0263578
938.638 .0263536
939.273 .0263501
939.907 .0263471
940.540 .0263449
941.173 .0263432
941.806 .0263422
942.438 .0263417
943.070 .0263417
943.702 .0263421
944.333 .0263428
944.964 .0263437
945.594 .0263446
946.224 .0263456
946.854 .0263464
947.483 .0263470
948.112 .0263473
948.741 .0263472
949.369 .0263467
949.996 .0263457
950.624 .0263441
951.251 .0263418
951.878 .0263387
952.504 .0263346
953.130 .0263297
953.755 .0263239
954.380 .0263171
955.005 .0263094
955.629 .0263009
956.253 .0262917
956.877 .0262817
957.500 .0262710
958.123 .0262596
958.746 .0262475
959.368 .0262349
959.990 .0262217
960.611 .0262081
961.232 .0261941
961.853 .0261797
962.473 .0261651
963.093 .0261502
963.712 .0261351
964.331 .0261198
964.950 .0261044
965.569 .0260888
966.187 .0260732
966.804 .0260575
967.422 .0260418
968.039 .0260260
968.655 .0260102
969.272 .0259944
969.887 .0259785
970.503 .0259626
971.118 .0259465
971.733 .0259303
972.347 .0259139
972.961 .0258973
973.575 .0258804
974.188 .0258633
974.801 .0258457
975.414 .0258278
976.026 .0258094
976.638 .0257903
977.250 .0257706
977.861 .0257501
978.472 .0257289
979.083 .0257069
979.693 .0256842
980.303 .0256606
980.912 .0256220
981.521 .0255966
982.130 .0255707
982.738 .0255443
983.346 .0255174
983.954 .0254901
984.562 .0254626
985.169 .0254349
985.775 .0254071
986.382 .0253794
986.988 .0253517
987.594 .0253242
988.199 .0252969
988.804 .0252699
989.409 .0252576
990.013 .0252315
990.617 .0252059
991.221 .0251807
991.824 .0251561
992.427 .0251321
993.030 .0251087
993.632 .0250860
994.234 .0250639
994.836 .0250426
995.438 .0250220
996.039 .0250021
996.640 .0249830
997.240 .0249648
997.840 .0249473
998.440 .0249307
999.040 .0249148
999.639 .0248996
1000.238 .0248851
1000.836 .0248712
1001.435 .0248578
1002.033 .0248449
1002.630 .0248322
1003.228 .0248199
1003.825 .0248078
1004.422 .0247959
1005.018 .0247841
1005.614 .0247724
1006.210 .0247609
1006.806 .0247493
1007.401 .0247379
1007.996 .0247266
1008.591 .0247155
1009.186 .0247046
1009.780 .0246941
1010.374 .0246838
1010.967 .0246738
1011.561 .0246642
1012.154 .0246550
1012.746 .0246463
1013.339 .0246380
1013.931 .0246304
1014.523 .0246233
1015.115 .0246170
1015.706 .0246114
1016.298 .0246065
1016.888 .0246025
1017.479 .0245992
1018.069 .0245968
1018.660 .0245950
1019.250 .0245940
1019.839 .0245938
1020.429 .0245944
1021.018 .0245957
1021.607 .0245978
1022.195 .0246008
1022.784 .0246044
1023.372 .0246088
1023.960 .0246138
1024.547 .0246192
1025.135 .0246251
1025.722 .0246313
1026.309 .0246377
1026.896 .0246443
1027.483 .0246510
1028.069 .0246580
1028.655 .0246651
1029.241 .0246724
1029.827 .0246798
1030.412 .0246873
1030.997 .0246949
1031.582 .0247025
1032.167 .0247102
1032.752 .0247181
1033.336 .0247261
1033.921 .0247344
1034.505 .0247430
1035.089 .0247518
1035.672 .0247610
1036.256 .0247705
1036.839 .0247803
1037.422 .0247903
1038.005 .0248005
1038.588 .0248109
1039.171 .0248216
1039.753 .0248324
1040.335 .0248434
1040.918 .0248548
1041.500 .0248664
1042.081 .0248782
1042.663 .0248904
1043.244 .0249027
1043.826 .0249154
1044.407 .0249282
1044.988 .0249413
1045.569 .0249545
1046.150 .0249679
1046.730 .0249813
1047.311 .0249948
1047.891 .0250083
1048.471 .0250219
1049.052 .0250354
1049.632 .0250489
1050.211 .0250623
1050.791 .0250756
1051.371 .0250886
1051.950 .0251015
1052.530 .0251141
1053.109 .0251264
1053.688 .0251383
1054.268 .0251499
1054.847 .0251613
1055.426 .0251726
1056.005 .0251838
1056.583 .0251951
1057.162 .0252065
1057.741 .0252180
1058.319 .0252296
1058.898 .0252413
1059.476 .0252530
1060.055 .0252647
1060.633 .0252765
1061.211 .0252882
1061.790 .0253001
1062.368 .0253121
1062.946 .0253245
1063.524 .0253374
1064.102 .0253508
1064.680 .0253647
1065.258 .0253790
1065.836 .0253936
1066.414 .0254085
1066.992 .0254235
1067.570 .0254387
1068.148 .0254540
1068.726 .0254694
1069.304 .0254852
1069.882 .0255014
1070.460 .0255180
1071.038 .0255351
1071.616 .0255526
1072.194 .0255703
1072.772 .0255881
1073.350 .0256059
1073.928 .0256236
1074.506 .0256411
1075.084 .0256585
1075.662 .0256760
1076.240 .0256936
1076.819 .0257116
1077.397 .0257300
1077.976 .0257490
1078.554 .0257685
1079.133 .0257884
1079.711 .0258085
1080.290 .0258289
1080.869 .0258494
1081.448 .0258700
1082.027 .0258907
1082.606 .0259115
1083.185 .0259324
1083.764 .0259537
1084.343 .0259752
1084.923 .0259971
1085.502 .0260193
1086.082 .0260417
1086.662 .0260643
1087.242 .0260868
1087.822 .0261093
1088.402 .0261318
1088.983 .0261541
1089.563 .0261766
1090.144 .0261992
1090.725 .0262220
1091.306 .0262453
1091.887 .0262689
1092.469 .0262931
1093.050 .0263175
1093.632 .0263422
1094.214 .0263670
1094.796 .0263918
1095.379 .0264165
1095.961 .0264411
1096.544 .0264658
1097.127 .0264905
1097.710 .0265155
1098.294 .0265407
1098.877 .0265663
1099.461 .0265921
1100.046 .0266183
1100.630 .0266447
1101.215 .0266711
1101.800 .0266975
1102.385 .0267238
1102.970 .0267501
1103.556 .0267765
1104.142 .0268034
1104.728 .0268309
1105.315 .0268592
1105.902 .0268887
1106.489 .0269190
1107.077 .0269504
1107.664 .0269828
1108.253 .0270158
1108.841 .0270494
1109.430 .0270833
1110.019 .0271176
1110.609 .0271521
1111.198 .0271871
1111.789 .0272225
1112.379 .0272585
1112.970 .0272951
1113.561 .0273320
1114.153 .0273692
1114.745 .0274065
1115.338 .0274439
1115.931 .0274814
1116.524 .0275192
1117.117 .0275572
1117.712 .0275955
1118.306 .0276345
1118.901 .0276744
1119.496 .0277152
1120.092 .0277569
1120.689 .0277993
1121.285 .0278423
1121.882 .0278856
1122.480 .0279292
1123.078 .0279731
1123.677 .0280176
1124.276 .0280628
1124.875 .0281088
1125.476 .0281559
1126.076 .0282042
1126.677 .0282538
1127.279 .0283047
1127.881 .0283572
1128.484 .0284113
1129.087 .0284341
1129.691 .0284903
1130.295 .0285487
1130.900 .0286099
1131.505 .0286746
1132.111 .0287427
1132.718 .0288146
1133.325 .0288904
1133.933 .0289709
1134.541 .0290617
1135.150 .0291382
1135.760 .0292283
1136.370 .0293265
1136.981 .0292947
1137.592 .0293878
1138.204 .0294903
1138.817 .0296057
1139.431 .0297410
1140.045 .0298693
1140.660 .0300083
1141.275 .0301524
1141.891 .0303238
1142.508 .0306502
1143.126 .0302943
1143.744 .0307195
1144.363 .0309970
1144.983 .0317725
