Measurement Sequence started on: 15-12-46-377
Integration time: 28
Scans to Average: 2 
>>>>>Begin Spectral Data<<<<<
432.689 .0000100
433.621 .0000100
434.552 .0000100
435.482 .0000100
436.410 .0000100
437.337 .0000100
438.262 .0256532
439.187 .0543471
440.110 .0900257
441.031 .1302519
441.952 .1045999
442.871 .1092939
443.789 .1136764
444.705 .1178138
445.621 .1217515
446.535 .1255236
447.447 .1278045
448.359 .1284532
449.269 .1271172
450.178 .1235692
451.086 .1178793
451.993 .1104929
452.898 .1021474
453.803 .0936799
454.706 .0858021
455.608 .0789561
456.508 .0732886
457.408 .0694594
458.306 .0665145
459.204 .0641126
460.100 .0620824
460.995 .0603304
461.888 .0587937
462.781 .0574306
463.673 .0562101
464.563 .0551110
465.452 .0541164
466.340 .0532133
467.228 .0523918
468.114 .0516450
468.999 .0509664
469.882 .0503513
470.765 .0497947
471.647 .0492926
472.528 .0488410
473.407 .0484367
474.286 .0480765
475.163 .0477575
476.040 .0474767
476.915 .0472306
477.790 .0470163
478.663 .0468313
479.535 .0466733
480.407 .0465405
481.277 .0464310
482.147 .0463430
483.015 .0462747
483.883 .0462245
484.749 .0461911
485.615 .0461737
486.479 .0461717
487.343 .0461850
488.206 .0462140
489.067 .0462588
489.928 .0463202
490.788 .0463983
491.647 .0464940
492.505 .0466071
493.362 .0467370
494.218 .0468832
495.073 .0470450
495.928 .0473417
496.781 .0475415
497.634 .0477568
498.486 .0479883
499.337 .0482375
500.187 .0485062
501.036 .0487962
501.884 .0491107
502.731 .0494530
503.578 .0498264
504.424 .0500773
505.268 .0505117
506.113 .0509880
506.956 .0515102
507.798 .0520831
508.640 .0527137
509.480 .0534111
510.320 .0541871
511.160 .0550561
511.998 .0560343
512.836 .0571399
513.672 .0583906
514.508 .0598057
515.344 .0614032
516.178 .0632008
517.012 .0652193
517.845 .0674772
518.677 .0699944
519.508 .0727881
520.339 .0758697
521.169 .0792480
521.998 .0829089
522.826 .0868251
523.654 .0909505
524.481 .0952234
525.307 .0995716
526.133 .1039109
526.958 .1081519
527.782 .1122073
528.605 .1159952
529.428 .1194421
530.250 .1224801
531.072 .1250620
531.892 .1271485
532.712 .1287127
533.532 .1297389
534.350 .1302164
535.168 .1301425
535.986 .1295203
536.802 .1283535
537.618 .1266492
538.434 .1244161
539.249 .1216846
540.063 .1184975
540.876 .1149120
541.689 .1109999
542.501 .1068405
543.313 .1025211
544.124 .0981318
544.934 .0937560
545.744 .0894671
546.553 .0853294
547.361 .0813984
548.169 .0777079
548.976 .0742826
549.783 .0711351
550.589 .0682654
551.395 .0656654
552.200 .0633197
553.004 .0612053
553.808 .0592993
554.611 .0575812
555.414 .0560304
556.216 .0546264
557.018 .0533503
557.819 .0521860
558.619 .0511182
559.419 .0501344
560.218 .0492238
561.017 .0483759
561.815 .0475832
562.613 .0468402
563.410 .0461396
564.207 .0454754
565.003 .0448430
565.799 .0442372
566.594 .0436534
567.388 .0430888
568.182 .0425402
568.976 .0420054
569.769 .0414832
570.562 .0409732
571.354 .0404754
572.145 .0399902
572.936 .0395186
573.727 .0390608
574.517 .0386177
575.307 .0381899
576.096 .0377777
576.885 .0373821
577.673 .0370038
578.461 .0366434
579.248 .0363010
580.035 .0359774
580.821 .0356725
581.607 .0353863
582.392 .0351189
583.177 .0348704
583.962 .0346406
584.746 .0344292
585.529 .0342357
586.313 .0340592
587.095 .0338987
587.878 .0337528
588.660 .0336202
589.441 .0334993
590.222 .0333891
591.003 .0332880
591.783 .0331953
592.563 .0331101
593.342 .0330314
594.121 .0329584
594.899 .0328904
595.678 .0328265
596.455 .0327661
597.233 .0327084
598.009 .0326529
598.786 .0325992
599.562 .0325468
600.338 .0324954
601.113 .0324449
601.888 .0323715
602.663 .0323230
603.437 .0322752
604.211 .0322284
604.984 .0321824
605.757 .0321374
606.530 .0320934
607.302 .0320504
608.074 .0320084
608.845 .0319672
609.616 .0319270
610.387 .0319096
611.158 .0318709
611.928 .0318333
612.697 .0317968
613.467 .0317613
614.236 .0317269
615.004 .0316936
615.773 .0316612
616.541 .0316298
617.308 .0315992
618.076 .0315693
618.843 .0315401
619.609 .0315115
620.375 .0314834
621.141 .0314557
621.907 .0314283
622.672 .0314013
623.437 .0313744
624.202 .0313475
624.966 .0313206
625.730 .0312937
626.493 .0312666
627.257 .0312395
628.020 .0312122
628.782 .0311848
629.545 .0311571
630.307 .0311291
631.068 .0311007
631.830 .0310721
632.591 .0310430
633.352 .0310136
634.112 .0309839
634.872 .0309541
635.632 .0309241
636.392 .0308942
637.151 .0308645
637.910 .0308349
638.668 .0308054
639.427 .0307762
640.185 .0307472
640.943 .0307185
641.700 .0306902
642.457 .0306623
643.214 .0306349
643.971 .0306081
644.727 .0305818
645.483 .0305562
646.239 .0305312
646.994 .0305068
647.750 .0304829
648.505 .0304595
649.259 .0304366
650.014 .0304141
650.768 .0303920
651.521 .0303704
652.275 .0303493
653.028 .0303287
653.781 .0303086
654.534 .0302888
655.286 .0302694
656.039 .0302504
656.791 .0302317
657.542 .0302133
658.294 .0301950
659.045 .0301771
659.796 .0301593
660.546 .0301418
661.297 .0301245
662.047 .0301073
662.796 .0300902
663.546 .0300732
664.295 .0300562
665.044 .0300393
665.793 .0300225
666.542 .0300059
667.290 .0299896
668.038 .0299734
668.786 .0299574
669.533 .0299416
670.281 .0299259
671.028 .0299104
671.774 .0298948
672.521 .0298793
673.267 .0298638
674.013 .0298484
674.759 .0298330
675.505 .0298177
676.250 .0298025
676.995 .0297874
677.740 .0297723
678.484 .0297573
679.229 .0297424
679.973 .0297276
680.717 .0297128
681.460 .0296982
682.204 .0296838
682.947 .0296695
683.690 .0296553
684.433 .0296413
685.175 .0296273
685.917 .0296133
686.659 .0295993
687.401 .0295851
688.142 .0295707
688.884 .0295561
689.625 .0295412
690.365 .0295259
691.106 .0295102
691.846 .0294941
692.586 .0294774
693.326 .0294602
694.066 .0294425
694.805 .0294243
695.545 .0294054
696.284 .0293861
697.022 .0293663
697.761 .0293461
698.499 .0293256
699.237 .0293048
699.975 .0292838
700.713 .0292626
701.450 .0292414
702.187 .0292202
702.924 .0291990
703.661 .0291779
704.397 .0291570
705.133 .0291362
705.869 .0291158
706.605 .0290956
707.341 .0290757
708.076 .0290560
708.811 .0290364
709.546 .0290170
710.281 .0289976
711.015 .0289781
711.749 .0289586
712.483 .0289390
713.217 .0289194
713.950 .0288995
714.684 .0288795
715.417 .0288593
716.150 .0288387
716.882 .0288177
717.615 .0287963
718.347 .0287744
719.079 .0287520
719.811 .0287291
720.542 .0287057
721.273 .0286818
722.005 .0286575
722.735 .0286328
723.466 .0286078
724.196 .0285827
724.927 .0285574
725.656 .0285322
726.386 .0285071
727.116 .0284824
727.845 .0284580
728.574 .0284342
729.303 .0284109
730.031 .0283882
730.760 .0283661
731.488 .0283448
732.216 .0283242
732.944 .0283044
733.671 .0282855
734.398 .0282674
735.125 .0282501
735.852 .0282337
736.579 .0282181
737.305 .0282033
738.031 .0281892
738.757 .0281757
739.483 .0281628
740.208 .0281503
740.933 .0281381
741.658 .0281262
742.383 .0281145
743.108 .0281029
743.832 .0280915
744.556 .0280801
745.280 .0280688
746.004 .0280576
746.727 .0280464
747.450 .0280352
748.173 .0280239
748.896 .0280125
749.618 .0280010
750.340 .0279894
751.062 .0279776
751.784 .0279657
752.506 .0279537
753.227 .0279417
753.948 .0279297
754.669 .0279177
755.389 .0279059
756.110 .0278943
756.830 .0278828
757.550 .0278716
758.269 .0278607
758.989 .0278501
759.708 .0278397
760.427 .0278296
761.146 .0278197
761.864 .0278100
762.582 .0278006
763.300 .0277915
764.018 .0277825
764.736 .0277738
765.453 .0277653
766.170 .0277570
766.887 .0277487
767.603 .0277406
768.320 .0277325
769.036 .0277244
769.751 .0277164
770.467 .0277085
771.182 .0277006
771.897 .0276928
772.612 .0276852
773.327 .0276779
774.041 .0276709
774.755 .0276641
775.469 .0276577
776.183 .0276516
776.896 .0276458
777.609 .0276405
778.322 .0276354
779.035 .0276308
779.747 .0276265
780.459 .0276227
781.171 .0276192
781.882 .0276162
782.594 .0276136
783.305 .0276116
784.016 .0276099
784.726 .0276087
785.436 .0276077
786.147 .0276071
786.856 .0276065
787.566 .0276059
788.275 .0276053
788.984 .0276046
789.693 .0276038
790.401 .0276027
791.110 .0276014
791.818 .0275998
792.525 .0275979
793.233 .0275957
793.940 .0275931
794.647 .0275905
795.353 .0275873
796.060 .0275837
796.766 .0275797
797.472 .0275752
798.177 .0275703
798.883 .0275650
799.588 .0275593
800.292 .0275532
800.997 .0275467
801.701 .0275400
802.405 .0275330
803.109 .0275257
803.812 .0275180
804.515 .0275099
805.218 .0275013
805.921 .0274921
806.623 .0274824
807.325 .0274721
808.027 .0274612
808.728 .0274499
809.429 .0274381
810.130 .0274259
810.831 .0274132
811.531 .0274002
812.231 .0273868
812.931 .0273730
813.630 .0273589
814.330 .0273445
815.029 .0273300
815.727 .0273153
816.426 .0273007
817.124 .0272862
817.821 .0272718
818.519 .0272576
819.216 .0272436
819.913 .0272298
820.609 .0272163
821.306 .0272031
822.002 .0271904
822.697 .0271782
823.393 .0271665
824.088 .0271554
824.783 .0271449
825.477 .0271350
826.171 .0271257
826.865 .0271168
827.559 .0271084
828.252 .0271002
828.945 .0270924
829.638 .0270847
830.330 .0270772
831.023 .0270698
831.714 .0270623
832.406 .0270548
833.097 .0270471
833.788 .0270391
834.479 .0270308
835.169 .0270221
835.859 .0270129
836.548 .0270034
837.238 .0269934
837.927 .0269830
838.615 .0269722
839.304 .0269609
839.992 .0269491
840.680 .0269369
841.367 .0269241
842.054 .0269109
842.741 .0268973
843.428 .0268832
844.114 .0268687
844.800 .0268539
845.485 .0268387
846.170 .0268232
846.855 .0268072
847.540 .0267908
848.224 .0267739
848.908 .0267565
849.592 .0267385
850.275 .0267199
850.958 .0267008
851.641 .0266811
852.323 .0266608
853.005 .0266399
853.687 .0266185
854.368 .0265965
855.049 .0265739
855.730 .0265508
856.410 .0265273
857.090 .0265034
857.769 .0264792
858.449 .0264546
859.128 .0264298
859.806 .0264049
860.485 .0263798
861.163 .0263547
861.840 .0263296
862.518 .0263047
863.195 .0262801
863.871 .0262559
864.548 .0262322
865.224 .0262092
865.899 .0261869
866.574 .0261654
867.249 .0261447
867.924 .0261247
868.598 .0261055
869.272 .0260871
869.946 .0260695
870.619 .0260525
871.292 .0260363
871.964 .0260208
872.636 .0260060
873.308 .0259920
873.979 .0259786
874.651 .0259659
875.321 .0259539
875.992 .0259424
876.662 .0259315
877.331 .0259212
878.001 .0259112
878.670 .0259017
879.338 .0258925
880.007 .0258837
880.675 .0258751
881.342 .0258668
882.009 .0258588
882.676 .0258511
883.343 .0258438
884.009 .0258368
884.675 .0258302
885.340 .0258240
886.005 .0258181
886.670 .0258126
887.334 .0258075
887.998 .0258027
888.662 .0257983
889.325 .0257942
889.988 .0257906
890.650 .0257874
891.312 .0257846
891.974 .0257821
892.636 .0257799
893.297 .0257779
893.957 .0257761
894.618 .0257745
895.278 .0257728
895.937 .0257712
896.596 .0257696
897.255 .0257678
897.914 .0257658
898.572 .0257636
899.230 .0257611
899.887 .0257581
900.544 .0257547
901.201 .0257507
901.857 .0257423
902.513 .0257370
903.168 .0257314
903.823 .0257255
904.478 .0257192
905.132 .0257127
905.786 .0257058
906.440 .0256986
907.093 .0256911
907.746 .0256832
908.399 .0256751
909.051 .0256667
909.703 .0256583
910.354 .0256543
911.005 .0256461
911.656 .0256380
912.306 .0256302
912.956 .0256225
913.605 .0256149
914.254 .0256076
914.903 .0256005
915.551 .0255935
916.199 .0255867
916.847 .0255802
917.494 .0255739
918.141 .0255677
918.788 .0255618
919.434 .0255559
920.079 .0255500
920.725 .0255440
921.370 .0255377
922.014 .0255312
922.658 .0255243
923.302 .0255171
923.946 .0255095
924.589 .0255016
925.231 .0254933
925.873 .0254846
926.515 .0254756
927.157 .0254662
927.798 .0254565
928.439 .0254465
929.079 .0254362
929.719 .0254258
930.359 .0254153
930.998 .0254049
931.637 .0253946
932.275 .0253845
932.913 .0253748
933.551 .0253654
934.188 .0253566
934.825 .0253482
935.462 .0253404
936.098 .0253333
936.733 .0253269
937.369 .0253212
938.004 .0253164
938.638 .0253123
939.273 .0253092
939.907 .0253069
940.540 .0253055
941.173 .0253050
941.806 .0253053
942.438 .0253064
943.070 .0253084
943.702 .0253111
944.333 .0253144
944.964 .0253182
945.594 .0253225
946.224 .0253270
946.854 .0253317
947.483 .0253366
948.112 .0253415
948.741 .0253463
949.369 .0253510
949.996 .0253555
950.624 .0253597
951.251 .0253637
951.878 .0253672
952.504 .0253703
953.130 .0253728
953.755 .0253749
954.380 .0253765
955.005 .0253777
955.629 .0253785
956.253 .0253789
956.877 .0253791
957.500 .0253790
958.123 .0253786
958.746 .0253780
959.368 .0253771
959.990 .0253760
960.611 .0253748
961.232 .0253734
961.853 .0253719
962.473 .0253703
963.093 .0253686
963.712 .0253669
964.331 .0253650
964.950 .0253631
965.569 .0253610
966.187 .0253587
966.804 .0253563
967.422 .0253538
968.039 .0253511
968.655 .0253483
969.272 .0253453
969.887 .0253424
970.503 .0253393
971.118 .0253363
971.733 .0253332
972.347 .0253300
972.961 .0253266
973.575 .0253231
974.188 .0253193
974.801 .0253153
975.414 .0253109
976.026 .0253062
976.638 .0253011
977.250 .0252956
977.861 .0252898
978.472 .0252835
979.083 .0252769
979.693 .0252700
980.303 .0252627
980.912 .0252503
981.521 .0252421
982.130 .0252336
982.738 .0252249
983.346 .0252160
983.954 .0252070
984.562 .0251979
985.169 .0251888
985.775 .0251797
986.382 .0251707
986.988 .0251617
987.594 .0251527
988.199 .0251437
988.804 .0251346
989.409 .0251305
990.013 .0251216
990.617 .0251126
991.221 .0251035
991.824 .0250944
992.427 .0250853
993.030 .0250762
993.632 .0250672
994.234 .0250581
994.836 .0250491
995.438 .0250400
996.039 .0250309
996.640 .0250219
997.240 .0250129
997.840 .0250040
998.440 .0249953
999.040 .0249867
999.639 .0249783
1000.238 .0249701
1000.836 .0249620
1001.435 .0249540
1002.033 .0249462
1002.630 .0249384
1003.228 .0249306
1003.825 .0249229
1004.422 .0249153
1005.018 .0249076
1005.614 .0249001
1006.210 .0248924
1006.806 .0248847
1007.401 .0248769
1007.996 .0248690
1008.591 .0248610
1009.186 .0248530
1009.780 .0248450
1010.374 .0248370
1010.967 .0248291
1011.561 .0248214
1012.154 .0248138
1012.746 .0248065
1013.339 .0247993
1013.931 .0247925
1014.523 .0247859
1015.115 .0247796
1015.706 .0247737
1016.298 .0247681
1016.888 .0247631
1017.479 .0247584
1018.069 .0247541
1018.660 .0247502
1019.250 .0247466
1019.839 .0247431
1020.429 .0247399
1021.018 .0247368
1021.607 .0247338
1022.195 .0247309
1022.784 .0247282
1023.372 .0247258
1023.960 .0247236
1024.547 .0247216
1025.135 .0247200
1025.722 .0247186
1026.309 .0247173
1026.896 .0247162
1027.483 .0247152
1028.069 .0247142
1028.655 .0247134
1029.241 .0247126
1029.827 .0247120
1030.412 .0247114
1030.997 .0247109
1031.582 .0247104
1032.167 .0247098
1032.752 .0247090
1033.336 .0247078
1033.921 .0247061
1034.505 .0247039
1035.089 .0247012
1035.672 .0246980
1036.256 .0246943
1036.839 .0246903
1037.422 .0246859
1038.005 .0246811
1038.588 .0246760
1039.171 .0246705
1039.753 .0246645
1040.335 .0246580
1040.918 .0246510
1041.500 .0246434
1042.081 .0246354
1042.663 .0246270
1043.244 .0246183
1043.826 .0246092
1044.407 .0245999
1044.988 .0245903
1045.569 .0245804
1046.150 .0245702
1046.730 .0245596
1047.311 .0245486
1047.891 .0245372
1048.471 .0245254
1049.052 .0245132
1049.632 .0245007
1050.211 .0244880
1050.791 .0244752
1051.371 .0244625
1051.950 .0244499
1052.530 .0244375
1053.109 .0244254
1053.688 .0244136
1054.268 .0244021
1054.847 .0243909
1055.426 .0243800
1056.005 .0243695
1056.583 .0243594
1057.162 .0243498
1057.741 .0243407
1058.319 .0243322
1058.898 .0243244
1059.476 .0243173
1060.055 .0243108
1060.633 .0243048
1061.211 .0242992
1061.790 .0242940
1062.368 .0242891
1062.946 .0242843
1063.524 .0242797
1064.102 .0242752
1064.680 .0242711
1065.258 .0242673
1065.836 .0242638
1066.414 .0242608
1066.992 .0242583
1067.570 .0242561
1068.148 .0242542
1068.726 .0242523
1069.304 .0242503
1069.882 .0242480
1070.460 .0242455
1071.038 .0242427
1071.616 .0242396
1072.194 .0242363
1072.772 .0242328
1073.350 .0242293
1073.928 .0242257
1074.506 .0242220
1075.084 .0242183
1075.662 .0242144
1076.240 .0242102
1076.819 .0242057
1077.397 .0242011
1077.976 .0241963
1078.554 .0241916
1079.133 .0241872
1079.711 .0241833
1080.290 .0241800
1080.869 .0241774
1081.448 .0241756
1082.027 .0241745
1082.606 .0241741
1083.185 .0241741
1083.764 .0241745
1084.343 .0241751
1084.923 .0241760
1085.502 .0241769
1086.082 .0241782
1086.662 .0241797
1087.242 .0241817
1087.822 .0241841
1088.402 .0241870
1088.983 .0241904
1089.563 .0241942
1090.144 .0241983
1090.725 .0242027
1091.306 .0242072
1091.887 .0242120
1092.469 .0242172
1093.050 .0242227
1093.632 .0242290
1094.214 .0242360
1094.796 .0242438
1095.379 .0242525
1095.961 .0242620
1096.544 .0242723
1097.127 .0242832
1097.710 .0242946
1098.294 .0243062
1098.877 .0243181
1099.461 .0243302
1100.046 .0243424
1100.630 .0243550
1101.215 .0243679
1101.800 .0243814
1102.385 .0243955
1102.970 .0244103
1103.556 .0244257
1104.142 .0244420
1104.728 .0244590
1105.315 .0244770
1105.902 .0244960
1106.489 .0245162
1107.077 .0245377
1107.664 .0245607
1108.253 .0245851
1108.841 .0246109
1109.430 .0246382
1110.019 .0246668
1110.609 .0246968
1111.198 .0247280
1111.789 .0247607
1112.379 .0247947
1112.970 .0248303
1113.561 .0248673
1114.153 .0249056
1114.745 .0249454
1115.338 .0249863
1115.931 .0250282
1116.524 .0250710
1117.117 .0251147
1117.712 .0251595
1118.306 .0252054
1118.901 .0252528
1119.496 .0253020
1120.092 .0253531
1120.689 .0254060
1121.285 .0254605
1121.882 .0255162
1122.480 .0255730
1123.078 .0256303
1123.677 .0256880
1124.276 .0257462
1124.875 .0258050
1125.476 .0258652
1126.076 .0259272
1126.677 .0259917
1127.279 .0260589
1127.881 .0261292
1128.484 .0262024
1129.087 .0262344
1129.691 .0263106
1130.295 .0263891
1130.900 .0264701
1131.505 .0265538
1132.111 .0266403
1132.718 .0267300
1133.325 .0268230
1133.933 .0269196
1134.541 .0270260
1135.150 .0271336
1135.760 .0272424
1136.370 .0273409
1136.981 .0273692
1137.592 .0275059
1138.204 .0276423
1138.817 .0277796
1139.431 .0279224
1140.045 .0280688
1140.660 .0282180
1141.275 .0283596
1141.891 .0285084
1142.508 .0288299
1143.126 .0289089
1143.744 .0289974
1144.363 .0287701
1144.983 .0291575
