Measurement Sequence started on: 15-12-46-377
Integration time: 28
Scans to Average: 2 
>>>>>Begin Spectral Data<<<<<
432.689 .0000100
433.621 .0000100
434.552 .0000100
435.482 .0000100
436.410 .0000100
437.337 .0000100
438.262 .0251434
439.187 .0532604
440.110 .0882423
441.031 .1276797
441.952 .1025826
442.871 .1072016
443.789 .1115121
444.705 .1155767
445.621 .1194371
446.535 .1231242
447.447 .1253386
448.359 .1259435
449.269 .1245944
450.178 .1210692
451.086 .1154376
451.993 .1081378
452.898 .0998941
453.803 .0915263
454.706 .0837315
455.608 .0769423
456.508 .0713038
457.408 .0674629
458.306 .0644862
459.204 .0620426
460.100 .0599676
460.995 .0581735
461.888 .0566012
462.781 .0552117
463.673 .0539767
464.563 .0528746
465.452 .0518874
466.340 .0510000
467.228 .0502017
468.114 .0494842
468.999 .0488410
469.882 .0482662
470.765 .0477543
471.647 .0473000
472.528 .0468986
473.407 .0465440
474.286 .0462307
475.163 .0459543
476.040 .0457098
476.915 .0454932
477.790 .0453008
478.663 .0451298
479.535 .0449781
480.407 .0448441
481.277 .0447262
482.147 .0446229
483.015 .0445329
483.883 .0444549
484.749 .0443877
485.615 .0443308
486.479 .0442839
487.343 .0442469
488.206 .0442206
489.067 .0442056
489.928 .0442026
490.788 .0442131
491.647 .0442383
492.505 .0442793
493.362 .0443371
494.218 .0444129
495.073 .0445072
495.928 .0447197
496.781 .0448658
497.634 .0450330
498.486 .0452221
499.337 .0454343
500.187 .0456718
501.036 .0459373
501.884 .0462339
502.731 .0465641
503.578 .0469314
504.424 .0471942
505.268 .0476275
506.113 .0481049
506.956 .0486297
507.798 .0492066
508.640 .0498418
509.480 .0505432
510.320 .0513205
511.160 .0521840
511.998 .0531472
512.836 .0542256
513.672 .0554344
514.508 .0567911
515.344 .0583128
516.178 .0600159
517.012 .0619211
517.845 .0640473
518.677 .0664120
519.508 .0690319
520.339 .0719200
521.169 .0750853
521.998 .0785104
522.826 .0821707
523.654 .0860243
524.481 .0900191
525.307 .0940887
526.133 .0981533
526.958 .1021287
527.782 .1059327
528.605 .1094860
529.428 .1127175
530.250 .1155616
531.072 .1179760
531.892 .1199214
532.712 .1213731
533.532 .1223159
534.350 .1227428
535.168 .1226526
535.986 .1220491
536.802 .1209331
537.618 .1193080
538.434 .1171792
539.249 .1145795
540.063 .1115499
540.876 .1081454
541.689 .1044293
542.501 .1004767
543.313 .0963712
544.124 .0921983
544.934 .0880374
545.744 .0839631
546.553 .0800392
547.361 .0763203
548.169 .0728367
548.976 .0696140
549.783 .0666633
550.589 .0639855
551.395 .0615680
552.200 .0593933
553.004 .0574383
553.808 .0556826
554.611 .0541067
555.414 .0526928
556.216 .0514212
557.018 .0502718
557.819 .0492278
558.619 .0482741
559.419 .0473964
560.218 .0465838
561.017 .0458254
561.815 .0451136
562.613 .0444419
563.410 .0438038
564.207 .0431940
565.003 .0426094
565.799 .0420461
566.594 .0415003
567.388 .0409695
568.182 .0404523
568.976 .0399474
569.769 .0394544
570.562 .0389736
571.354 .0385056
572.145 .0380515
572.936 .0376131
573.727 .0371911
574.517 .0367868
575.307 .0364006
576.096 .0360328
576.885 .0356840
577.673 .0353544
578.461 .0350441
579.248 .0347528
580.035 .0344805
580.821 .0342266
581.607 .0339903
582.392 .0337709
583.177 .0335679
583.962 .0333806
584.746 .0332078
585.529 .0330485
586.313 .0329015
587.095 .0327660
587.878 .0326411
588.660 .0325257
589.441 .0324189
590.222 .0323199
591.003 .0322279
591.783 .0321422
592.563 .0320621
593.342 .0319871
594.121 .0319165
594.899 .0318498
595.678 .0317865
596.455 .0317263
597.233 .0316688
598.009 .0316140
598.786 .0315618
599.562 .0315118
600.338 .0314639
601.113 .0314182
601.888 .0313575
602.663 .0313167
603.437 .0312777
604.211 .0312403
604.984 .0312046
605.757 .0311703
606.530 .0311375
607.302 .0311059
608.074 .0310757
608.845 .0310467
609.616 .0310189
610.387 .0310072
611.158 .0309807
611.928 .0309551
612.697 .0309302
613.467 .0309060
614.236 .0308822
615.004 .0308587
615.773 .0308353
616.541 .0308120
617.308 .0307886
618.076 .0307653
618.843 .0307421
619.609 .0307192
620.375 .0306967
621.141 .0306746
621.907 .0306528
622.672 .0306313
623.437 .0306101
624.202 .0305889
624.966 .0305678
625.730 .0305467
626.493 .0305256
627.257 .0305047
628.020 .0304841
628.782 .0304638
629.545 .0304437
630.307 .0304241
631.068 .0304047
631.830 .0303854
632.591 .0303661
633.352 .0303468
634.112 .0303274
634.872 .0303077
635.632 .0302878
636.392 .0302675
637.151 .0302468
637.910 .0302258
638.668 .0302045
639.427 .0301829
640.185 .0301611
640.943 .0301392
641.700 .0301173
642.457 .0300954
643.214 .0300735
643.971 .0300517
644.727 .0300297
645.483 .0300078
646.239 .0299857
646.994 .0299636
647.750 .0299416
648.505 .0299196
649.259 .0298980
650.014 .0298767
650.768 .0298559
651.521 .0298357
652.275 .0298161
653.028 .0297969
653.781 .0297783
654.534 .0297602
655.286 .0297423
656.039 .0297247
656.791 .0297073
657.542 .0296899
658.294 .0296727
659.045 .0296554
659.796 .0296381
660.546 .0296209
661.297 .0296036
662.047 .0295863
662.796 .0295689
663.546 .0295516
664.295 .0295343
665.044 .0295169
665.793 .0294994
666.542 .0294818
667.290 .0294641
668.038 .0294463
668.786 .0294283
669.533 .0294102
670.281 .0293920
671.028 .0293738
671.774 .0293557
672.521 .0293377
673.267 .0293198
674.013 .0293022
674.759 .0292848
675.505 .0292676
676.250 .0292509
676.995 .0292344
677.740 .0292184
678.484 .0292027
679.229 .0291875
679.973 .0291728
680.717 .0291586
681.460 .0291449
682.204 .0291318
682.947 .0291192
683.690 .0291070
684.433 .0290952
685.175 .0290837
685.917 .0290725
686.659 .0290614
687.401 .0290504
688.142 .0290395
688.884 .0290284
689.625 .0290173
690.365 .0290061
691.106 .0289948
691.846 .0289833
692.586 .0289716
693.326 .0289598
694.066 .0289476
694.805 .0289352
695.545 .0289224
696.284 .0289094
697.022 .0288961
697.761 .0288825
698.499 .0288687
699.237 .0288547
699.975 .0288407
700.713 .0288266
701.450 .0288125
702.187 .0287984
702.924 .0287842
703.661 .0287699
704.397 .0287554
705.133 .0287408
705.869 .0287261
706.605 .0287112
707.341 .0286960
708.076 .0286807
708.811 .0286653
709.546 .0286497
710.281 .0286340
711.015 .0286181
711.749 .0286020
712.483 .0285855
713.217 .0285688
713.950 .0285517
714.684 .0285342
715.417 .0285163
716.150 .0284981
716.882 .0284795
717.615 .0284606
718.347 .0284415
719.079 .0284222
719.811 .0284028
720.542 .0283832
721.273 .0283636
722.005 .0283438
722.735 .0283240
723.466 .0283042
724.196 .0282843
724.927 .0282644
725.656 .0282446
726.386 .0282248
727.116 .0282052
727.845 .0281856
728.574 .0281663
729.303 .0281470
730.031 .0281280
730.760 .0281091
731.488 .0280905
732.216 .0280720
732.944 .0280537
733.671 .0280355
734.398 .0280175
735.125 .0279994
735.852 .0279814
736.579 .0279634
737.305 .0279455
738.031 .0279275
738.757 .0279096
739.483 .0278918
740.208 .0278741
740.933 .0278565
741.658 .0278390
742.383 .0278217
743.108 .0278045
743.832 .0277874
744.556 .0277706
745.280 .0277540
746.004 .0277378
746.727 .0277219
747.450 .0277066
748.173 .0276917
748.896 .0276772
749.618 .0276632
750.340 .0276497
751.062 .0276366
751.784 .0276240
752.506 .0276119
753.227 .0276002
753.948 .0275890
754.669 .0275782
755.389 .0275679
756.110 .0275580
756.830 .0275484
757.550 .0275391
758.269 .0275302
758.989 .0275216
759.708 .0275133
760.427 .0275053
761.146 .0274975
761.864 .0274900
762.582 .0274827
763.300 .0274756
764.018 .0274686
764.736 .0274617
765.453 .0274550
766.170 .0274484
766.887 .0274419
767.603 .0274356
768.320 .0274294
769.036 .0274233
769.751 .0274173
770.467 .0274114
771.182 .0274055
771.897 .0273996
772.612 .0273937
773.327 .0273877
774.041 .0273816
774.755 .0273754
775.469 .0273690
776.183 .0273624
776.896 .0273556
777.609 .0273485
778.322 .0273412
779.035 .0273336
779.747 .0273257
780.459 .0273175
781.171 .0273089
781.882 .0273000
782.594 .0272906
783.305 .0272807
784.016 .0272703
784.726 .0272593
785.436 .0272477
786.147 .0272287
786.856 .0272158
787.566 .0272024
788.275 .0271885
788.984 .0271740
789.693 .0271589
790.401 .0271432
791.110 .0271269
791.818 .0271100
792.525 .0270925
793.233 .0270745
793.940 .0270560
794.647 .0270450
795.353 .0270261
796.060 .0270071
796.766 .0269879
797.472 .0269686
798.177 .0269491
798.883 .0269296
799.588 .0269100
800.292 .0268905
800.997 .0268710
801.701 .0268517
802.405 .0268326
803.109 .0268137
803.812 .0267951
804.515 .0267766
805.218 .0267584
805.921 .0267405
806.623 .0267227
807.325 .0267051
808.027 .0266877
808.728 .0266705
809.429 .0266535
810.130 .0266367
810.831 .0266199
811.531 .0266030
812.231 .0265861
812.931 .0265689
813.630 .0265515
814.330 .0265339
815.029 .0265160
815.727 .0264978
816.426 .0264794
817.124 .0264607
817.821 .0264417
818.519 .0264225
819.216 .0264030
819.913 .0263833
820.609 .0263634
821.306 .0263434
822.002 .0263234
822.697 .0263036
823.393 .0262839
824.088 .0262646
824.783 .0262457
825.477 .0262270
826.171 .0262088
826.865 .0261909
827.559 .0261733
828.252 .0261562
828.945 .0261396
829.638 .0261234
830.330 .0261078
831.023 .0260927
831.714 .0260781
832.406 .0260641
833.097 .0260506
833.788 .0260376
834.479 .0260251
835.169 .0260132
835.859 .0260019
836.548 .0259912
837.238 .0259811
837.927 .0259716
838.615 .0259627
839.304 .0259543
839.992 .0259462
840.680 .0259386
841.367 .0259313
842.054 .0259245
842.741 .0259182
843.428 .0259125
844.114 .0259074
844.800 .0259030
845.485 .0258993
846.170 .0258961
846.855 .0258934
847.540 .0258911
848.224 .0258891
848.908 .0258874
849.592 .0258859
850.275 .0258846
850.958 .0258836
851.641 .0258828
852.323 .0258822
853.005 .0258818
853.687 .0258816
854.368 .0258814
855.049 .0258812
855.730 .0258811
856.410 .0258809
857.090 .0258808
857.769 .0258806
858.449 .0258805
859.128 .0258804
859.806 .0258803
860.485 .0258802
861.163 .0258801
861.840 .0258800
862.518 .0258800
863.195 .0258799
863.871 .0258799
864.548 .0258800
865.224 .0258801
865.899 .0258802
866.574 .0258802
867.249 .0258800
867.924 .0258797
868.598 .0258791
869.272 .0258781
869.946 .0258768
870.619 .0258751
871.292 .0258730
871.964 .0258704
872.636 .0258675
873.308 .0258643
873.979 .0258606
874.651 .0258565
875.321 .0258521
875.992 .0258472
876.662 .0258419
877.331 .0258361
878.001 .0258298
878.670 .0258230
879.338 .0258156
880.007 .0258076
880.675 .0257991
881.342 .0257901
882.009 .0257806
882.676 .0257707
883.343 .0257604
884.009 .0257497
884.675 .0257387
885.340 .0257274
886.005 .0257158
886.670 .0257040
887.334 .0256920
887.998 .0256798
888.662 .0256673
889.325 .0256547
889.988 .0256419
890.650 .0256289
891.312 .0256157
891.974 .0256024
892.636 .0255889
893.297 .0255752
893.957 .0255613
894.618 .0255472
895.278 .0255328
895.937 .0255181
896.596 .0255031
897.255 .0254877
897.914 .0254719
898.572 .0254556
899.230 .0254388
899.887 .0254214
900.544 .0254033
901.201 .0253846
901.857 .0253537
902.513 .0253334
903.168 .0253126
903.823 .0252913
904.478 .0252695
905.132 .0252473
905.786 .0252245
906.440 .0252013
907.093 .0251776
907.746 .0251534
908.399 .0251287
909.051 .0251037
909.703 .0250784
910.354 .0250653
911.005 .0250401
911.656 .0250147
912.306 .0249892
912.956 .0249638
913.605 .0249383
914.254 .0249129
914.903 .0248875
915.551 .0248623
916.199 .0248374
916.847 .0248126
917.494 .0247882
918.141 .0247642
918.788 .0247404
919.434 .0247170
920.079 .0246938
920.725 .0246708
921.370 .0246480
922.014 .0246253
922.658 .0246028
923.302 .0245805
923.946 .0245584
924.589 .0245364
925.231 .0245145
925.873 .0244928
926.515 .0244711
927.157 .0244494
927.798 .0244277
928.439 .0244060
929.079 .0243843
929.719 .0243626
930.359 .0243410
930.998 .0243195
931.637 .0242982
932.275 .0242770
932.913 .0242560
933.551 .0242352
934.188 .0242147
934.825 .0241944
935.462 .0241743
936.098 .0241545
936.733 .0241350
937.369 .0241159
938.004 .0240970
938.638 .0240786
939.273 .0240605
939.907 .0240428
940.540 .0240255
941.173 .0240086
941.806 .0239922
942.438 .0239762
943.070 .0239608
943.702 .0239459
944.333 .0239316
944.964 .0239177
945.594 .0239044
946.224 .0238916
946.854 .0238794
947.483 .0238676
948.112 .0238563
948.741 .0238455
949.369 .0238352
949.996 .0238256
950.624 .0238165
951.251 .0238079
951.878 .0238000
952.504 .0237927
953.130 .0237859
953.755 .0237797
954.380 .0237740
955.005 .0237688
955.629 .0237641
956.253 .0237599
956.877 .0237562
957.500 .0237531
958.123 .0237506
958.746 .0237486
959.368 .0237472
959.990 .0237464
960.611 .0237461
961.232 .0237464
961.853 .0237472
962.473 .0237486
963.093 .0237505
963.712 .0237529
964.331 .0237558
964.950 .0237592
965.569 .0237630
966.187 .0237672
966.804 .0237719
967.422 .0237768
968.039 .0237821
968.655 .0237877
969.272 .0237934
969.887 .0237994
970.503 .0238055
971.118 .0238117
971.733 .0238181
972.347 .0238245
972.961 .0238311
973.575 .0238377
974.188 .0238444
974.801 .0238511
975.414 .0238579
976.026 .0238648
976.638 .0238716
977.250 .0238786
977.861 .0238855
978.472 .0238924
979.083 .0238994
979.693 .0239064
980.303 .0239134
980.912 .0239241
981.521 .0239312
982.130 .0239384
982.738 .0239456
983.346 .0239528
983.954 .0239601
984.562 .0239674
985.169 .0239748
985.775 .0239823
986.382 .0239900
986.988 .0239979
987.594 .0240059
988.199 .0240141
988.804 .0240224
989.409 .0240268
990.013 .0240351
990.617 .0240434
991.221 .0240516
991.824 .0240597
992.427 .0240678
993.030 .0240757
993.632 .0240834
994.234 .0240910
994.836 .0240984
995.438 .0241056
996.039 .0241126
996.640 .0241194
997.240 .0241259
997.840 .0241321
998.440 .0241381
999.040 .0241437
999.639 .0241492
1000.238 .0241543
1000.836 .0241592
1001.435 .0241638
1002.033 .0241681
1002.630 .0241720
1003.228 .0241757
1003.825 .0241788
1004.422 .0241815
1005.018 .0241837
1005.614 .0241853
1006.210 .0241865
1006.806 .0241872
1007.401 .0241874
1007.996 .0241873
1008.591 .0241868
1009.186 .0241860
1009.780 .0241849
1010.374 .0241835
1010.967 .0241819
1011.561 .0241801
1012.154 .0241781
1012.746 .0241760
1013.339 .0241738
1013.931 .0241715
1014.523 .0241691
1015.115 .0241666
1015.706 .0241640
1016.298 .0241613
1016.888 .0241584
1017.479 .0241553
1018.069 .0241520
1018.660 .0241483
1019.250 .0241444
1019.839 .0241401
1020.429 .0241355
1021.018 .0241305
1021.607 .0241253
1022.195 .0241198
1022.784 .0241140
1023.372 .0241080
1023.960 .0241017
1024.547 .0240952
1025.135 .0240885
1025.722 .0240815
1026.309 .0240743
1026.896 .0240669
1027.483 .0240592
1028.069 .0240514
1028.655 .0240433
1029.241 .0240351
1029.827 .0240265
1030.412 .0240176
1030.997 .0240084
1031.582 .0239988
1032.167 .0239886
1032.752 .0239781
1033.336 .0239670
1033.921 .0239556
1034.505 .0239438
1035.089 .0239317
1035.672 .0239194
1036.256 .0239069
1036.839 .0238942
1037.422 .0238813
1038.005 .0238683
1038.588 .0238552
1039.171 .0238420
1039.753 .0238289
1040.335 .0238157
1040.918 .0238027
1041.500 .0237897
1042.081 .0237769
1042.663 .0237643
1043.244 .0237517
1043.826 .0237392
1044.407 .0237268
1044.988 .0237144
1045.569 .0237020
1046.150 .0236896
1046.730 .0236773
1047.311 .0236650
1047.891 .0236529
1048.471 .0236409
1049.052 .0236291
1049.632 .0236175
1050.211 .0236062
1050.791 .0235950
1051.371 .0235841
1051.950 .0235734
1052.530 .0235630
1053.109 .0235528
1053.688 .0235430
1054.268 .0235336
1054.847 .0235245
1055.426 .0235158
1056.005 .0235074
1056.583 .0234993
1057.162 .0234915
1057.741 .0234839
1058.319 .0234763
1058.898 .0234688
1059.476 .0234615
1060.055 .0234541
1060.633 .0234469
1061.211 .0234397
1061.790 .0234326
1062.368 .0234255
1062.946 .0234185
1063.524 .0234114
1064.102 .0234043
1064.680 .0233971
1065.258 .0233899
1065.836 .0233826
1066.414 .0233751
1066.992 .0233674
1067.570 .0233595
1068.148 .0233514
1068.726 .0233430
1069.304 .0233343
1069.882 .0233253
1070.460 .0233162
1071.038 .0233070
1071.616 .0232977
1072.194 .0232886
1072.772 .0232796
1073.350 .0232710
1073.928 .0232626
1074.506 .0232546
1075.084 .0232471
1075.662 .0232401
1076.240 .0232337
1076.819 .0232280
1077.397 .0232231
1077.976 .0232191
1078.554 .0232160
1079.133 .0232137
1079.711 .0232125
1080.290 .0232122
1080.869 .0232129
1081.448 .0232146
1082.027 .0232173
1082.606 .0232210
1083.185 .0232257
1083.764 .0232312
1084.343 .0232377
1084.923 .0232449
1085.502 .0232527
1086.082 .0232610
1086.662 .0232698
1087.242 .0232790
1087.822 .0232886
1088.402 .0232984
1088.983 .0233085
1089.563 .0233188
1090.144 .0233292
1090.725 .0233397
1091.306 .0233504
1091.887 .0233611
1092.469 .0233718
1093.050 .0233827
1093.632 .0233938
1094.214 .0234052
1094.796 .0234171
1095.379 .0234295
1095.961 .0234426
1096.544 .0234563
1097.127 .0234706
1097.710 .0234852
1098.294 .0235002
1098.877 .0235154
1099.461 .0235309
1100.046 .0235468
1100.630 .0235632
1101.215 .0235804
1101.800 .0235985
1102.385 .0236177
1102.970 .0236379
1103.556 .0236590
1104.142 .0236810
1104.728 .0237035
1105.315 .0237265
1105.902 .0237501
1106.489 .0237743
1107.077 .0237994
1107.664 .0238257
1108.253 .0238536
1108.841 .0238833
1109.430 .0239150
1110.019 .0239487
1110.609 .0239842
1111.198 .0240212
1111.789 .0240595
1112.379 .0240986
1112.970 .0241383
1113.561 .0241787
1114.153 .0242197
1114.745 .0242616
1115.338 .0243047
1115.931 .0243491
1116.524 .0243953
1117.117 .0244432
1117.712 .0244928
1118.306 .0245441
1118.901 .0245970
1119.496 .0246510
1120.092 .0247063
1120.689 .0247627
1121.285 .0248202
1121.882 .0248791
1122.480 .0249396
1123.078 .0250017
1123.677 .0250656
1124.276 .0251312
1124.875 .0251981
1125.476 .0252661
1126.076 .0253348
1126.677 .0254039
1127.279 .0254732
1127.881 .0255426
1128.484 .0256123
1129.087 .0256456
1129.691 .0257162
1130.295 .0257879
1130.900 .0258609
1131.505 .0259357
1132.111 .0260124
1132.718 .0260912
1133.325 .0261719
1133.933 .0262544
1134.541 .0263401
1135.150 .0264308
1135.760 .0265188
1136.370 .0266082
1136.981 .0266370
1137.592 .0267190
1138.204 .0268058
1138.817 .0268990
1139.431 .0270013
1140.045 .0271133
1140.660 .0272325
1141.275 .0273561
1141.891 .0274754
1142.508 .0276440
1143.126 .0278650
1143.744 .0278676
1144.363 .0279840
1144.983 .0279116
