Measurement Sequence started on: 15-12-46-377
Integration time: 28
Scans to Average: 2 
>>>>>Begin Spectral Data<<<<<
432.689 .0000100
433.621 .0000100
434.552 .0000100
435.482 .0000100
436.410 .0000100
437.337 .0000100
438.262 .0252557
439.187 .0535516
440.110 .0887636
441.031 .1285000
441.952 .1043088
442.871 .1091239
443.789 .1136171
444.705 .1178515
445.621 .1218706
446.535 .1257096
447.447 .1280665
448.359 .1288022
449.269 .1275714
450.178 .1241494
451.086 .1186020
451.993 .1113643
452.898 .1031572
453.803 .0948022
454.706 .0869989
455.608 .0801837
456.508 .0745065
457.408 .0706229
458.306 .0676039
459.204 .0651221
460.100 .0630146
460.995 .0611962
461.888 .0596059
462.781 .0582028
463.673 .0569530
464.563 .0558314
465.452 .0548182
466.340 .0538964
467.228 .0530547
468.114 .0522837
468.999 .0515760
469.882 .0509272
470.765 .0503318
471.647 .0497862
472.528 .0492870
473.407 .0488313
474.286 .0484159
475.163 .0480384
476.040 .0476954
476.915 .0473842
477.790 .0471023
478.663 .0468480
479.535 .0466199
480.407 .0464174
481.277 .0462400
482.147 .0460863
483.015 .0459556
483.883 .0458463
484.749 .0457568
485.615 .0456854
486.479 .0456306
487.343 .0455909
488.206 .0455659
489.067 .0455551
489.928 .0455594
490.788 .0455802
491.647 .0456198
492.505 .0456796
493.362 .0457615
494.218 .0458669
495.073 .0459967
495.928 .0462810
496.781 .0464731
497.634 .0466883
498.486 .0469271
499.337 .0471900
500.187 .0474786
501.036 .0477953
501.884 .0481427
502.731 .0485249
503.578 .0489446
504.424 .0492303
505.268 .0497153
506.113 .0502460
506.956 .0508251
507.798 .0514562
508.640 .0521436
509.480 .0528946
510.320 .0537185
511.160 .0546281
511.998 .0556381
512.836 .0567676
513.672 .0580366
514.508 .0594682
515.344 .0610862
516.178 .0629122
517.012 .0649673
517.845 .0672715
518.677 .0698421
519.508 .0726949
520.339 .0758388
521.169 .0792809
521.998 .0830038
522.826 .0869831
523.654 .0911743
524.481 .0955190
525.307 .0999449
526.133 .1043650
526.958 .1086841
527.782 .1128086
528.605 .1166454
529.428 .1201142
530.250 .1231414
531.072 .1256784
531.892 .1276816
532.712 .1291243
533.532 .1299924
534.350 .1302844
535.168 .1300062
535.986 .1291666
536.802 .1277729
537.618 .1258390
538.434 .1233771
539.249 .1204237
540.063 .1170198
540.876 .1132234
541.689 .1091040
542.501 .1047428
543.313 .1002309
544.124 .0956644
544.934 .0911346
545.744 .0867282
546.553 .0825171
547.361 .0785608
548.169 .0748917
548.976 .0715348
549.783 .0684960
550.589 .0657691
551.395 .0633337
552.200 .0611628
553.004 .0592271
553.808 .0575004
554.611 .0559560
555.414 .0545721
556.216 .0533264
557.018 .0521997
557.819 .0511757
558.619 .0502392
559.419 .0493765
560.218 .0485776
561.017 .0478323
561.815 .0471321
562.613 .0464685
563.410 .0458343
564.207 .0452238
565.003 .0446332
565.799 .0440585
566.594 .0434970
567.388 .0429475
568.182 .0424109
568.976 .0418869
569.769 .0413769
570.562 .0408818
571.354 .0404019
572.145 .0399376
572.936 .0394887
573.727 .0390543
574.517 .0386339
575.307 .0382278
576.096 .0378357
576.885 .0374581
577.673 .0370956
578.461 .0367491
579.248 .0364195
580.035 .0361072
580.821 .0358124
581.607 .0355345
582.392 .0352732
583.177 .0350279
583.962 .0347976
584.746 .0345818
585.529 .0343798
586.313 .0341910
587.095 .0340149
587.878 .0338511
588.660 .0336991
589.441 .0335586
590.222 .0334290
591.003 .0333097
591.783 .0331995
592.563 .0330975
593.342 .0330027
594.121 .0329141
594.899 .0328308
595.678 .0327522
596.455 .0326776
597.233 .0326067
598.009 .0325392
598.786 .0324748
599.562 .0324133
600.338 .0323546
601.113 .0322981
601.888 .0322198
602.663 .0321680
603.437 .0321179
604.211 .0320695
604.984 .0320228
605.757 .0319776
606.530 .0319342
607.302 .0318925
608.074 .0318528
608.845 .0318150
609.616 .0317791
610.387 .0317654
611.158 .0317320
611.928 .0317005
612.697 .0316706
613.467 .0316424
614.236 .0316157
615.004 .0315905
615.773 .0315666
616.541 .0315441
617.308 .0315228
618.076 .0315026
618.843 .0314833
619.609 .0314645
620.375 .0314461
621.141 .0314277
621.907 .0314091
622.672 .0313899
623.437 .0313702
624.202 .0313498
624.966 .0313285
625.730 .0313064
626.493 .0312834
627.257 .0312596
628.020 .0312350
628.782 .0312095
629.545 .0311832
630.307 .0311560
631.068 .0311281
631.830 .0310995
632.591 .0310704
633.352 .0310411
634.112 .0310116
634.872 .0309821
635.632 .0309530
636.392 .0309241
637.151 .0308959
637.910 .0308683
638.668 .0308414
639.427 .0308152
640.185 .0307899
640.943 .0307653
641.700 .0307414
642.457 .0307184
643.214 .0306961
643.971 .0306746
644.727 .0306539
645.483 .0306340
646.239 .0306147
646.994 .0305962
647.750 .0305784
648.505 .0305611
649.259 .0305443
650.014 .0305276
650.768 .0305110
651.521 .0304942
652.275 .0304772
653.028 .0304599
653.781 .0304422
654.534 .0304241
655.286 .0304055
656.039 .0303865
656.791 .0303670
657.542 .0303471
658.294 .0303267
659.045 .0303059
659.796 .0302848
660.546 .0302633
661.297 .0302415
662.047 .0302193
662.796 .0301969
663.546 .0301743
664.295 .0301514
665.044 .0301282
665.793 .0301048
666.542 .0300812
667.290 .0300576
668.038 .0300339
668.786 .0300104
669.533 .0299870
670.281 .0299638
671.028 .0299410
671.774 .0299185
672.521 .0298965
673.267 .0298749
674.013 .0298538
674.759 .0298333
675.505 .0298134
676.250 .0297942
676.995 .0297755
677.740 .0297575
678.484 .0297400
679.229 .0297231
679.973 .0297067
680.717 .0296908
681.460 .0296753
682.204 .0296601
682.947 .0296452
683.690 .0296304
684.433 .0296158
685.175 .0296011
685.917 .0295863
686.659 .0295714
687.401 .0295562
688.142 .0295407
688.884 .0295249
689.625 .0295088
690.365 .0294924
691.106 .0294757
691.846 .0294586
692.586 .0294412
693.326 .0294235
694.066 .0294054
694.805 .0293871
695.545 .0293684
696.284 .0293495
697.022 .0293304
697.761 .0293111
698.499 .0292918
699.237 .0292724
699.975 .0292531
700.713 .0292340
701.450 .0292151
702.187 .0291965
702.924 .0291782
703.661 .0291602
704.397 .0291426
705.133 .0291252
705.869 .0291080
706.605 .0290910
707.341 .0290740
708.076 .0290571
708.811 .0290403
709.546 .0290234
710.281 .0290064
711.015 .0289894
711.749 .0289723
712.483 .0289550
713.217 .0289377
713.950 .0289202
714.684 .0289025
715.417 .0288846
716.150 .0288665
716.882 .0288481
717.615 .0288294
718.347 .0288104
719.079 .0287910
719.811 .0287713
720.542 .0287514
721.273 .0287313
722.005 .0287112
722.735 .0286912
723.466 .0286714
724.196 .0286518
724.927 .0286326
725.656 .0286137
726.386 .0285951
727.116 .0285770
727.845 .0285592
728.574 .0285418
729.303 .0285249
730.031 .0285083
730.760 .0284923
731.488 .0284767
732.216 .0284616
732.944 .0284469
733.671 .0284326
734.398 .0284187
735.125 .0284052
735.852 .0283920
736.579 .0283792
737.305 .0283666
738.031 .0283544
738.757 .0283424
739.483 .0283308
740.208 .0283193
740.933 .0283081
741.658 .0282972
742.383 .0282864
743.108 .0282759
743.832 .0282656
744.556 .0282557
745.280 .0282459
746.004 .0282365
746.727 .0282272
747.450 .0282181
748.173 .0282089
748.896 .0281997
749.618 .0281902
750.340 .0281805
751.062 .0281704
751.784 .0281600
752.506 .0281493
753.227 .0281383
753.948 .0281270
754.669 .0281154
755.389 .0281035
756.110 .0280913
756.830 .0280787
757.550 .0280658
758.269 .0280525
758.989 .0280388
759.708 .0280249
760.427 .0280106
761.146 .0279961
761.864 .0279814
762.582 .0279664
763.300 .0279513
764.018 .0279362
764.736 .0279210
765.453 .0279058
766.170 .0278909
766.887 .0278762
767.603 .0278618
768.320 .0278479
769.036 .0278343
769.751 .0278211
770.467 .0278083
771.182 .0277958
771.897 .0277838
772.612 .0277722
773.327 .0277611
774.041 .0277505
774.755 .0277405
775.469 .0277310
776.183 .0277220
776.896 .0277136
777.609 .0277055
778.322 .0276979
779.035 .0276905
779.747 .0276835
780.459 .0276767
781.171 .0276702
781.882 .0276640
782.594 .0276581
783.305 .0276523
784.016 .0276468
784.726 .0276413
785.436 .0276360
786.147 .0276279
786.856 .0276225
787.566 .0276169
788.275 .0276113
788.984 .0276055
789.693 .0275994
790.401 .0275931
791.110 .0275864
791.818 .0275793
792.525 .0275718
793.233 .0275638
793.940 .0275554
794.647 .0275499
795.353 .0275408
796.060 .0275312
796.766 .0275211
797.472 .0275105
798.177 .0274995
798.883 .0274880
799.588 .0274760
800.292 .0274636
800.997 .0274509
801.701 .0274378
802.405 .0274245
803.109 .0274109
803.812 .0273971
804.515 .0273832
805.218 .0273690
805.921 .0273547
806.623 .0273402
807.325 .0273256
808.027 .0273110
808.728 .0272963
809.429 .0272817
810.130 .0272672
810.831 .0272527
811.531 .0272384
812.231 .0272243
812.931 .0272103
813.630 .0271964
814.330 .0271828
815.029 .0271694
815.727 .0271563
816.426 .0271435
817.124 .0271311
817.821 .0271190
818.519 .0271074
819.216 .0270961
819.913 .0270851
820.609 .0270744
821.306 .0270640
822.002 .0270538
822.697 .0270439
823.393 .0270342
824.088 .0270247
824.783 .0270155
825.477 .0270064
826.171 .0269975
826.865 .0269888
827.559 .0269803
828.252 .0269720
828.945 .0269638
829.638 .0269558
830.330 .0269480
831.023 .0269404
831.714 .0269330
832.406 .0269257
833.097 .0269184
833.788 .0269112
834.479 .0269039
835.169 .0268965
835.859 .0268890
836.548 .0268814
837.238 .0268737
837.927 .0268659
838.615 .0268580
839.304 .0268501
839.992 .0268419
840.680 .0268336
841.367 .0268251
842.054 .0268162
842.741 .0268070
843.428 .0267975
844.114 .0267877
844.800 .0267775
845.485 .0267671
846.170 .0267563
846.855 .0267451
847.540 .0267336
848.224 .0267216
848.908 .0267092
849.592 .0266962
850.275 .0266828
850.958 .0266689
851.641 .0266546
852.323 .0266397
853.005 .0266245
853.687 .0266087
854.368 .0265925
855.049 .0265758
855.730 .0265588
856.410 .0265413
857.090 .0265235
857.769 .0265054
858.449 .0264871
859.128 .0264687
859.806 .0264502
860.485 .0264316
861.163 .0264131
861.840 .0263945
862.518 .0263760
863.195 .0263576
863.871 .0263393
864.548 .0263211
865.224 .0263032
865.899 .0262857
866.574 .0262685
867.249 .0262517
867.924 .0262354
868.598 .0262197
869.272 .0262046
869.946 .0261901
870.619 .0261763
871.292 .0261632
871.964 .0261508
872.636 .0261391
873.308 .0261282
873.979 .0261180
874.651 .0261086
875.321 .0260999
875.992 .0260920
876.662 .0260848
877.331 .0260783
878.001 .0260725
878.670 .0260673
879.338 .0260627
880.007 .0260585
880.675 .0260547
881.342 .0260514
882.009 .0260484
882.676 .0260457
883.343 .0260433
884.009 .0260413
884.675 .0260396
885.340 .0260382
886.005 .0260372
886.670 .0260364
887.334 .0260359
887.998 .0260356
888.662 .0260355
889.325 .0260357
889.988 .0260362
890.650 .0260368
891.312 .0260377
891.974 .0260388
892.636 .0260400
893.297 .0260413
893.957 .0260427
894.618 .0260440
895.278 .0260453
895.937 .0260464
896.596 .0260475
897.255 .0260483
897.914 .0260490
898.572 .0260494
899.230 .0260494
899.887 .0260490
900.544 .0260481
901.201 .0260466
901.857 .0260409
902.513 .0260373
903.168 .0260330
903.823 .0260278
904.478 .0260219
905.132 .0260152
905.786 .0260078
906.440 .0259995
907.093 .0259905
907.746 .0259807
908.399 .0259702
909.051 .0259591
909.703 .0259474
910.354 .0259403
911.005 .0259281
911.656 .0259157
912.306 .0259030
912.956 .0258901
913.605 .0258771
914.254 .0258640
914.903 .0258508
915.551 .0258375
916.199 .0258243
916.847 .0258111
917.494 .0257979
918.141 .0257849
918.788 .0257719
919.434 .0257589
920.079 .0257460
920.725 .0257331
921.370 .0257201
922.014 .0257070
922.658 .0256938
923.302 .0256806
923.946 .0256672
924.589 .0256538
925.231 .0256403
925.873 .0256268
926.515 .0256132
927.157 .0255996
927.798 .0255859
928.439 .0255723
929.079 .0255586
929.719 .0255449
930.359 .0255314
930.998 .0255179
931.637 .0255047
932.275 .0254917
932.913 .0254790
933.551 .0254666
934.188 .0254546
934.825 .0254431
935.462 .0254320
936.098 .0254214
936.733 .0254113
937.369 .0254018
938.004 .0253927
938.638 .0253841
939.273 .0253760
939.907 .0253682
940.540 .0253609
941.173 .0253538
941.806 .0253471
942.438 .0253407
943.070 .0253345
943.702 .0253285
944.333 .0253226
944.964 .0253168
945.594 .0253109
946.224 .0253050
946.854 .0252988
947.483 .0252924
948.112 .0252858
948.741 .0252790
949.369 .0252719
949.996 .0252645
950.624 .0252569
951.251 .0252490
951.878 .0252408
952.504 .0252323
953.130 .0252235
953.755 .0252144
954.380 .0252052
955.005 .0251958
955.629 .0251863
956.253 .0251768
956.877 .0251673
957.500 .0251579
958.123 .0251486
958.746 .0251394
959.368 .0251303
959.990 .0251213
960.611 .0251124
961.232 .0251037
961.853 .0250952
962.473 .0250868
963.093 .0250785
963.712 .0250702
964.331 .0250619
964.950 .0250535
965.569 .0250450
966.187 .0250365
966.804 .0250278
967.422 .0250189
968.039 .0250097
968.655 .0250003
969.272 .0249906
969.887 .0249805
970.503 .0249700
971.118 .0249590
971.733 .0249477
972.347 .0249359
972.961 .0249236
973.575 .0249110
974.188 .0248980
974.801 .0248846
975.414 .0248708
976.026 .0248565
976.638 .0248417
977.250 .0248263
977.861 .0248105
978.472 .0247942
979.083 .0247775
979.693 .0247605
980.303 .0247433
980.912 .0247166
981.521 .0246991
982.130 .0246815
982.738 .0246639
983.346 .0246462
983.954 .0246287
984.562 .0246115
985.169 .0245945
985.775 .0245780
986.382 .0245620
986.988 .0245467
987.594 .0245320
988.199 .0245180
988.804 .0245046
989.409 .0245001
990.013 .0244879
990.617 .0244762
991.221 .0244651
991.824 .0244545
992.427 .0244445
993.030 .0244349
993.632 .0244258
994.234 .0244170
994.836 .0244086
995.438 .0244005
996.039 .0243927
996.640 .0243851
997.240 .0243780
997.840 .0243711
998.440 .0243646
999.040 .0243585
999.639 .0243528
1000.238 .0243475
1000.836 .0243425
1001.435 .0243378
1002.033 .0243335
1002.630 .0243294
1003.228 .0243255
1003.825 .0243219
1004.422 .0243183
1005.018 .0243149
1005.614 .0243114
1006.210 .0243078
1006.806 .0243041
1007.401 .0243002
1007.996 .0242961
1008.591 .0242917
1009.186 .0242872
1009.780 .0242826
1010.374 .0242780
1010.967 .0242734
1011.561 .0242689
1012.154 .0242646
1012.746 .0242603
1013.339 .0242562
1013.931 .0242523
1014.523 .0242485
1015.115 .0242450
1015.706 .0242418
1016.298 .0242390
1016.888 .0242367
1017.479 .0242349
1018.069 .0242337
1018.660 .0242329
1019.250 .0242326
1019.839 .0242326
1020.429 .0242330
1021.018 .0242337
1021.607 .0242348
1022.195 .0242363
1022.784 .0242384
1023.372 .0242410
1023.960 .0242444
1024.547 .0242484
1025.135 .0242532
1025.722 .0242585
1026.309 .0242645
1026.896 .0242709
1027.483 .0242777
1028.069 .0242848
1028.655 .0242921
1029.241 .0242997
1029.827 .0243074
1030.412 .0243154
1030.997 .0243234
1031.582 .0243315
1032.167 .0243395
1032.752 .0243475
1033.336 .0243551
1033.921 .0243625
1034.505 .0243696
1035.089 .0243763
1035.672 .0243826
1036.256 .0243885
1036.839 .0243940
1037.422 .0243991
1038.005 .0244040
1038.588 .0244085
1039.171 .0244128
1039.753 .0244167
1040.335 .0244204
1040.918 .0244237
1041.500 .0244268
1042.081 .0244296
1042.663 .0244321
1043.244 .0244343
1043.826 .0244364
1044.407 .0244382
1044.988 .0244399
1045.569 .0244416
1046.150 .0244434
1046.730 .0244452
1047.311 .0244473
1047.891 .0244496
1048.471 .0244521
1049.052 .0244549
1049.632 .0244578
1050.211 .0244610
1050.791 .0244644
1051.371 .0244679
1051.950 .0244717
1052.530 .0244757
1053.109 .0244799
1053.688 .0244845
1054.268 .0244893
1054.847 .0244943
1055.426 .0244994
1056.005 .0245046
1056.583 .0245097
1057.162 .0245148
1057.741 .0245199
1058.319 .0245249
1058.898 .0245300
1059.476 .0245352
1060.055 .0245405
1060.633 .0245459
1061.211 .0245514
1061.790 .0245570
1062.368 .0245626
1062.946 .0245682
1063.524 .0245738
1064.102 .0245794
1064.680 .0245851
1065.258 .0245909
1065.836 .0245968
1066.414 .0246026
1066.992 .0246083
1067.570 .0246137
1068.148 .0246188
1068.726 .0246235
1069.304 .0246276
1069.882 .0246313
1070.460 .0246346
1071.038 .0246376
1071.616 .0246405
1072.194 .0246434
1072.772 .0246463
1073.350 .0246494
1073.928 .0246524
1074.506 .0246555
1075.084 .0246586
1075.662 .0246618
1076.240 .0246652
1076.819 .0246690
1077.397 .0246734
1077.976 .0246786
1078.554 .0246848
1079.133 .0246919
1079.711 .0246999
1080.290 .0247087
1080.869 .0247182
1081.448 .0247282
1082.027 .0247385
1082.606 .0247491
1083.185 .0247599
1083.764 .0247711
1084.343 .0247828
1084.923 .0247949
1085.502 .0248076
1086.082 .0248211
1086.662 .0248351
1087.242 .0248497
1087.822 .0248647
1088.402 .0248800
1088.983 .0248957
1089.563 .0249117
1090.144 .0249283
1090.725 .0249455
1091.306 .0249637
1091.887 .0249828
1092.469 .0250029
1093.050 .0250239
1093.632 .0250457
1094.214 .0250681
1094.796 .0250908
1095.379 .0251136
1095.961 .0251364
1096.544 .0251593
1097.127 .0251824
1097.710 .0252058
1098.294 .0252296
1098.877 .0252540
1099.461 .0252789
1100.046 .0253043
1100.630 .0253301
1101.215 .0253561
1101.800 .0253822
1102.385 .0254084
1102.970 .0254347
1103.556 .0254613
1104.142 .0254886
1104.728 .0255166
1105.315 .0255457
1105.902 .0255759
1106.489 .0256070
1107.077 .0256389
1107.664 .0256713
1108.253 .0257039
1108.841 .0257365
1109.430 .0257691
1110.019 .0258017
1110.609 .0258344
1111.198 .0258674
1111.789 .0259006
1112.379 .0259344
1112.970 .0259686
1113.561 .0260031
1114.153 .0260378
1114.745 .0260726
1115.338 .0261075
1115.931 .0261424
1116.524 .0261775
1117.117 .0262129
1117.712 .0262490
1118.306 .0262859
1118.901 .0263241
1119.496 .0263638
1120.092 .0264053
1120.689 .0264484
1121.285 .0264935
1121.882 .0265404
1122.480 .0265891
1123.078 .0266396
1123.677 .0266920
1124.276 .0267460
1124.875 .0268017
1125.476 .0268588
1126.076 .0269174
1126.677 .0269777
1127.279 .0270398
1127.881 .0271038
1128.484 .0271702
1129.087 .0271974
1129.691 .0272671
1130.295 .0273397
1130.900 .0274156
1131.505 .0274951
1132.111 .0275786
1132.718 .0276664
1133.325 .0277592
1133.933 .0278582
1134.541 .0279606
1135.150 .0280673
1135.760 .0281866
1136.370 .0283168
1136.981 .0282888
1137.592 .0284087
1138.204 .0285324
1138.817 .0286630
1139.431 .0288018
1140.045 .0289450
1140.660 .0291019
1141.275 .0292751
1141.891 .0294876
1142.508 .0296159
1143.126 .0297837
1143.744 .0301770
1144.363 .0305339
1144.983 .0312998
