Measurement Sequence started on: 15-12-46-377
Integration time: 28
Scans to Average: 2 
>>>>>Begin Spectral Data<<<<<
432.689 .0000100
433.621 .0000100
434.552 .0000100
435.482 .0000100
436.410 .0000100
437.337 .0000100
438.262 .0275172
439.187 .0583766
440.110 .0968417
441.031 .1402318
441.952 .1127762
442.871 .1178353
443.789 .1225591
444.705 .1270171
445.621 .1312578
446.535 .1353155
447.447 .1377689
448.359 .1384615
449.269 .1370115
450.178 .1331733
451.086 .1270236
451.993 .1190404
452.898 .1100199
453.803 .1008637
454.706 .0923427
455.608 .0849340
456.508 .0787990
457.408 .0746444
458.306 .0714478
459.204 .0688405
460.100 .0666342
460.995 .0647250
461.888 .0630463
462.781 .0615519
463.673 .0602104
464.563 .0589970
465.452 .0578939
466.340 .0568846
467.228 .0559573
468.114 .0551029
468.999 .0543146
469.882 .0535863
470.765 .0529144
471.647 .0522951
472.528 .0517261
473.407 .0512039
474.286 .0507261
475.163 .0502906
476.040 .0498949
476.915 .0495368
477.790 .0492143
478.663 .0489261
479.535 .0486712
480.407 .0484482
481.277 .0482562
482.147 .0480939
483.015 .0479599
483.883 .0478523
484.749 .0477693
485.615 .0477085
486.479 .0476686
487.343 .0476476
488.206 .0476450
489.067 .0476599
489.928 .0476924
490.788 .0477429
491.647 .0478114
492.505 .0478981
493.362 .0480023
494.218 .0481236
495.073 .0482616
495.928 .0485253
496.781 .0487042
497.634 .0489003
498.486 .0491145
499.337 .0493494
500.187 .0496078
501.036 .0498933
501.884 .0502100
502.731 .0505620
503.578 .0509528
504.424 .0512314
505.268 .0516928
506.113 .0522021
506.956 .0527637
507.798 .0533834
508.640 .0540691
509.480 .0548303
510.320 .0556806
511.160 .0566338
511.998 .0577053
512.836 .0589138
513.672 .0602773
514.508 .0618160
515.344 .0635490
516.178 .0654955
517.012 .0676773
517.845 .0701165
518.677 .0728328
519.508 .0758441
520.339 .0791630
521.169 .0827971
521.998 .0867293
522.826 .0909324
523.654 .0953576
524.481 .0999368
525.307 .1045946
526.133 .1092381
526.958 .1137667
527.782 .1180791
528.605 .1220809
529.428 .1256906
530.250 .1288330
531.072 .1314573
531.892 .1335218
532.712 .1350043
533.532 .1358977
534.350 .1361953
535.168 .1359020
535.986 .1350274
536.802 .1335800
537.618 .1315676
538.434 .1290013
539.249 .1259173
540.063 .1223593
540.876 .1183889
541.689 .1140851
542.501 .1095306
543.313 .1048212
544.124 .1000573
544.934 .0953347
545.744 .0907410
546.553 .0863485
547.361 .0822189
548.169 .0783897
548.976 .0748866
549.783 .0717149
550.589 .0688643
551.395 .0663192
552.200 .0640520
553.004 .0620297
553.808 .0602218
554.611 .0586025
555.414 .0571486
556.216 .0558372
557.018 .0546474
557.819 .0535622
558.619 .0525654
559.419 .0516433
560.218 .0507852
561.017 .0499803
561.815 .0492203
562.613 .0484978
563.410 .0478057
564.207 .0471386
565.003 .0464913
565.799 .0458598
566.594 .0452410
567.388 .0446334
568.182 .0440361
568.976 .0434484
569.769 .0428716
570.562 .0423075
571.354 .0417584
572.145 .0412264
572.936 .0407132
573.727 .0402193
574.517 .0397452
575.307 .0392912
576.096 .0388568
576.885 .0384418
577.673 .0380466
578.461 .0376711
579.248 .0373157
580.035 .0369810
580.821 .0366672
581.607 .0363742
582.392 .0361018
583.177 .0358494
583.962 .0356156
584.746 .0353992
585.529 .0351987
586.313 .0350127
587.095 .0348399
587.878 .0346790
588.660 .0345287
589.441 .0343883
590.222 .0342573
591.003 .0341351
591.783 .0340214
592.563 .0339156
593.342 .0338173
594.121 .0337259
594.899 .0336409
595.678 .0335618
596.455 .0334880
597.233 .0334188
598.009 .0333535
598.786 .0332914
599.562 .0332321
600.338 .0331752
601.113 .0331204
601.888 .0330453
602.663 .0329955
603.437 .0329477
604.211 .0329018
604.984 .0328577
605.757 .0328152
606.530 .0327740
607.302 .0327340
608.074 .0326951
608.845 .0326571
609.616 .0326201
610.387 .0326042
611.158 .0325691
611.928 .0325351
612.697 .0325025
613.467 .0324712
614.236 .0324413
615.004 .0324128
615.773 .0323856
616.541 .0323598
617.308 .0323352
618.076 .0323117
618.843 .0322891
619.609 .0322673
620.375 .0322460
621.141 .0322252
621.907 .0322048
622.672 .0321845
623.437 .0321644
624.202 .0321443
624.966 .0321240
625.730 .0321035
626.493 .0320825
627.257 .0320609
628.020 .0320385
628.782 .0320153
629.545 .0319910
630.307 .0319658
631.068 .0319395
631.830 .0319123
632.591 .0318841
633.352 .0318551
634.112 .0318254
634.872 .0317950
635.632 .0317639
636.392 .0317324
637.151 .0317006
637.910 .0316685
638.668 .0316363
639.427 .0316041
640.185 .0315721
640.943 .0315403
641.700 .0315091
642.457 .0314783
643.214 .0314482
643.971 .0314187
644.727 .0313898
645.483 .0313616
646.239 .0313339
646.994 .0313070
647.750 .0312806
648.505 .0312548
649.259 .0312297
650.014 .0312050
650.768 .0311808
651.521 .0311570
652.275 .0311334
653.028 .0311100
653.781 .0310866
654.534 .0310633
655.286 .0310399
656.039 .0310164
656.791 .0309929
657.542 .0309694
658.294 .0309459
659.045 .0309224
659.796 .0308989
660.546 .0308756
661.297 .0308523
662.047 .0308290
662.796 .0308058
663.546 .0307827
664.295 .0307597
665.044 .0307369
665.793 .0307141
666.542 .0306915
667.290 .0306691
668.038 .0306469
668.786 .0306248
669.533 .0306029
670.281 .0305812
671.028 .0305597
671.774 .0305384
672.521 .0305172
673.267 .0304961
674.013 .0304751
674.759 .0304542
675.505 .0304333
676.250 .0304124
676.995 .0303914
677.740 .0303704
678.484 .0303495
679.229 .0303287
679.973 .0303081
680.717 .0302877
681.460 .0302677
682.204 .0302478
682.947 .0302282
683.690 .0302088
684.433 .0301894
685.175 .0301701
685.917 .0301507
686.659 .0301314
687.401 .0301120
688.142 .0300927
688.884 .0300734
689.625 .0300541
690.365 .0300347
691.106 .0300153
691.846 .0299956
692.586 .0299758
693.326 .0299556
694.066 .0299353
694.805 .0299147
695.545 .0298939
696.284 .0298731
697.022 .0298521
697.761 .0298311
698.499 .0298100
699.237 .0297888
699.975 .0297675
700.713 .0297461
701.450 .0297247
702.187 .0297033
702.924 .0296819
703.661 .0296608
704.397 .0296399
705.133 .0296192
705.869 .0295987
706.605 .0295783
707.341 .0295581
708.076 .0295381
708.811 .0295182
709.546 .0294985
710.281 .0294789
711.015 .0294594
711.749 .0294401
712.483 .0294208
713.217 .0294016
713.950 .0293823
714.684 .0293631
715.417 .0293437
716.150 .0293244
716.882 .0293051
717.615 .0292858
718.347 .0292667
719.079 .0292476
719.811 .0292286
720.542 .0292097
721.273 .0291909
722.005 .0291721
722.735 .0291535
723.466 .0291351
724.196 .0291169
724.927 .0290992
725.656 .0290819
726.386 .0290651
727.116 .0290489
727.845 .0290332
728.574 .0290180
729.303 .0290034
730.031 .0289892
730.760 .0289754
731.488 .0289622
732.216 .0289494
732.944 .0289370
733.671 .0289250
734.398 .0289133
735.125 .0289018
735.852 .0288907
736.579 .0288797
737.305 .0288690
738.031 .0288585
738.757 .0288481
739.483 .0288379
740.208 .0288278
740.933 .0288178
741.658 .0288078
742.383 .0287977
743.108 .0287875
743.832 .0287772
744.556 .0287667
745.280 .0287560
746.004 .0287452
746.727 .0287343
747.450 .0287233
748.173 .0287121
748.896 .0287009
749.618 .0286895
750.340 .0286779
751.062 .0286661
751.784 .0286541
752.506 .0286419
753.227 .0286293
753.948 .0286165
754.669 .0286035
755.389 .0285902
756.110 .0285766
756.830 .0285628
757.550 .0285488
758.269 .0285346
758.989 .0285202
759.708 .0285056
760.427 .0284908
761.146 .0284759
761.864 .0284608
762.582 .0284455
763.300 .0284302
764.018 .0284147
764.736 .0283992
765.453 .0283837
766.170 .0283681
766.887 .0283525
767.603 .0283370
768.320 .0283215
769.036 .0283063
769.751 .0282913
770.467 .0282766
771.182 .0282623
771.897 .0282484
772.612 .0282350
773.327 .0282219
774.041 .0282094
774.755 .0281972
775.469 .0281854
776.183 .0281741
776.896 .0281633
777.609 .0281528
778.322 .0281429
779.035 .0281333
779.747 .0281241
780.459 .0281152
781.171 .0281066
781.882 .0280982
782.594 .0280901
783.305 .0280821
784.016 .0280743
784.726 .0280666
785.436 .0280591
786.147 .0280479
786.856 .0280406
787.566 .0280332
788.275 .0280259
788.984 .0280185
789.693 .0280110
790.401 .0280033
791.110 .0279954
791.818 .0279872
792.525 .0279788
793.233 .0279700
793.940 .0279609
794.647 .0279552
795.353 .0279452
796.060 .0279346
796.766 .0279234
797.472 .0279115
798.177 .0278989
798.883 .0278856
799.588 .0278715
800.292 .0278568
800.997 .0278415
801.701 .0278256
802.405 .0278091
803.109 .0277922
803.812 .0277749
804.515 .0277571
805.218 .0277389
805.921 .0277203
806.623 .0277014
807.325 .0276822
808.027 .0276630
808.728 .0276437
809.429 .0276245
810.130 .0276054
810.831 .0275865
811.531 .0275679
812.231 .0275496
812.931 .0275316
813.630 .0275139
814.330 .0274966
815.029 .0274797
815.727 .0274634
816.426 .0274477
817.124 .0274326
817.821 .0274181
818.519 .0274043
819.216 .0273910
819.913 .0273783
820.609 .0273660
821.306 .0273541
822.002 .0273426
822.697 .0273315
823.393 .0273208
824.088 .0273105
824.783 .0273006
825.477 .0272910
826.171 .0272817
826.865 .0272727
827.559 .0272639
828.252 .0272552
828.945 .0272467
829.638 .0272385
830.330 .0272305
831.023 .0272228
831.714 .0272153
832.406 .0272081
833.097 .0272012
833.788 .0271945
834.479 .0271880
835.169 .0271817
835.859 .0271756
836.548 .0271696
837.238 .0271637
837.927 .0271580
838.615 .0271523
839.304 .0271466
839.992 .0271408
840.680 .0271349
841.367 .0271288
842.054 .0271225
842.741 .0271160
843.428 .0271093
844.114 .0271023
844.800 .0270951
845.485 .0270876
846.170 .0270798
846.855 .0270717
847.540 .0270632
848.224 .0270543
848.908 .0270449
849.592 .0270352
850.275 .0270250
850.958 .0270143
851.641 .0270033
852.323 .0269918
853.005 .0269799
853.687 .0269676
854.368 .0269549
855.049 .0269419
855.730 .0269287
856.410 .0269152
857.090 .0269017
857.769 .0268880
858.449 .0268744
859.128 .0268608
859.806 .0268473
860.485 .0268340
861.163 .0268208
861.840 .0268080
862.518 .0267955
863.195 .0267833
863.871 .0267716
864.548 .0267603
865.224 .0267495
865.899 .0267392
866.574 .0267293
867.249 .0267200
867.924 .0267112
868.598 .0267029
869.272 .0266952
869.946 .0266880
870.619 .0266813
871.292 .0266751
871.964 .0266694
872.636 .0266641
873.308 .0266593
873.979 .0266550
874.651 .0266510
875.321 .0266475
875.992 .0266444
876.662 .0266415
877.331 .0266388
878.001 .0266362
878.670 .0266337
879.338 .0266313
880.007 .0266288
880.675 .0266263
881.342 .0266238
882.009 .0266214
882.676 .0266190
883.343 .0266167
884.009 .0266146
884.675 .0266125
885.340 .0266106
886.005 .0266088
886.670 .0266071
887.334 .0266055
887.998 .0266041
888.662 .0266030
889.325 .0266020
889.988 .0266012
890.650 .0266007
891.312 .0266003
891.974 .0266001
892.636 .0265999
893.297 .0265997
893.957 .0265995
894.618 .0265992
895.278 .0265989
895.937 .0265983
896.596 .0265976
897.255 .0265966
897.914 .0265954
898.572 .0265937
899.230 .0265916
899.887 .0265888
900.544 .0265855
901.201 .0265816
901.857 .0265722
902.513 .0265664
903.168 .0265600
903.823 .0265528
904.478 .0265449
905.132 .0265363
905.786 .0265269
906.440 .0265167
907.093 .0265058
907.746 .0264941
908.399 .0264817
909.051 .0264686
909.703 .0264550
910.354 .0264470
911.005 .0264327
911.656 .0264179
912.306 .0264027
912.956 .0263869
913.605 .0263707
914.254 .0263540
914.903 .0263369
915.551 .0263194
916.199 .0263015
916.847 .0262831
917.494 .0262644
918.141 .0262453
918.788 .0262258
919.434 .0262058
920.079 .0261854
920.725 .0261645
921.370 .0261432
922.014 .0261213
922.658 .0260991
923.302 .0260764
923.946 .0260534
924.589 .0260300
925.231 .0260064
925.873 .0259825
926.515 .0259583
927.157 .0259340
927.798 .0259094
928.439 .0258847
929.079 .0258599
929.719 .0258352
930.359 .0258107
930.998 .0257864
931.637 .0257626
932.275 .0257392
932.913 .0257163
933.551 .0256940
934.188 .0256724
934.825 .0256516
935.462 .0256315
936.098 .0256121
936.733 .0255937
937.369 .0255760
938.004 .0255592
938.638 .0255431
939.273 .0255278
939.907 .0255133
940.540 .0254994
941.173 .0254861
941.806 .0254734
942.438 .0254612
943.070 .0254494
943.702 .0254381
944.333 .0254271
944.964 .0254164
945.594 .0254059
946.224 .0253957
946.854 .0253855
947.483 .0253754
948.112 .0253653
948.741 .0253552
949.369 .0253450
949.996 .0253348
950.624 .0253245
951.251 .0253141
951.878 .0253036
952.504 .0252930
953.130 .0252824
953.755 .0252717
954.380 .0252610
955.005 .0252502
955.629 .0252395
956.253 .0252287
956.877 .0252180
957.500 .0252072
958.123 .0251965
958.746 .0251858
959.368 .0251752
959.990 .0251648
960.611 .0251545
961.232 .0251444
961.853 .0251345
962.473 .0251247
963.093 .0251151
963.712 .0251056
964.331 .0250960
964.950 .0250865
965.569 .0250768
966.187 .0250670
966.804 .0250570
967.422 .0250468
968.039 .0250362
968.655 .0250253
969.272 .0250140
969.887 .0250023
970.503 .0249901
971.118 .0249775
971.733 .0249644
972.347 .0249510
972.961 .0249372
973.575 .0249232
974.188 .0249089
974.801 .0248944
975.414 .0248798
976.026 .0248650
976.638 .0248500
977.250 .0248350
977.861 .0248199
978.472 .0248048
979.083 .0247897
979.693 .0247747
980.303 .0247598
980.912 .0247387
981.521 .0247242
982.130 .0247099
982.738 .0246957
983.346 .0246817
983.954 .0246679
984.562 .0246543
985.169 .0246411
985.775 .0246284
986.382 .0246161
986.988 .0246044
987.594 .0245933
988.199 .0245828
988.804 .0245728
989.409 .0245691
990.013 .0245601
990.617 .0245515
991.221 .0245436
991.824 .0245361
992.427 .0245293
993.030 .0245229
993.632 .0245170
994.234 .0245116
994.836 .0245067
995.438 .0245021
996.039 .0244980
996.640 .0244942
997.240 .0244908
997.840 .0244879
998.440 .0244856
999.040 .0244838
999.639 .0244826
1000.238 .0244820
1000.836 .0244820
1001.435 .0244826
1002.033 .0244837
1002.630 .0244852
1003.228 .0244871
1003.825 .0244893
1004.422 .0244918
1005.018 .0244944
1005.614 .0244973
1006.210 .0245003
1006.806 .0245033
1007.401 .0245064
1007.996 .0245095
1008.591 .0245126
1009.186 .0245158
1009.780 .0245192
1010.374 .0245227
1010.967 .0245265
1011.561 .0245305
1012.154 .0245350
1012.746 .0245398
1013.339 .0245450
1013.931 .0245507
1014.523 .0245568
1015.115 .0245633
1015.706 .0245704
1016.298 .0245779
1016.888 .0245859
1017.479 .0245944
1018.069 .0246035
1018.660 .0246130
1019.250 .0246231
1019.839 .0246335
1020.429 .0246444
1021.018 .0246557
1021.607 .0246674
1022.195 .0246796
1022.784 .0246922
1023.372 .0247054
1023.960 .0247191
1024.547 .0247334
1025.135 .0247482
1025.722 .0247635
1026.309 .0247790
1026.896 .0247948
1027.483 .0248106
1028.069 .0248265
1028.655 .0248423
1029.241 .0248580
1029.827 .0248737
1030.412 .0248893
1030.997 .0249048
1031.582 .0249201
1032.167 .0249352
1032.752 .0249500
1033.336 .0249644
1033.921 .0249783
1034.505 .0249917
1035.089 .0250047
1035.672 .0250174
1036.256 .0250298
1036.839 .0250420
1037.422 .0250541
1038.005 .0250661
1038.588 .0250781
1039.171 .0250898
1039.753 .0251013
1040.335 .0251125
1040.918 .0251233
1041.500 .0251337
1042.081 .0251438
1042.663 .0251537
1043.244 .0251635
1043.826 .0251731
1044.407 .0251828
1044.988 .0251923
1045.569 .0252017
1046.150 .0252109
1046.730 .0252197
1047.311 .0252282
1047.891 .0252363
1048.471 .0252440
1049.052 .0252514
1049.632 .0252586
1050.211 .0252655
1050.791 .0252724
1051.371 .0252792
1051.950 .0252859
1052.530 .0252924
1053.109 .0252986
1053.688 .0253045
1054.268 .0253100
1054.847 .0253151
1055.426 .0253198
1056.005 .0253241
1056.583 .0253283
1057.162 .0253322
1057.741 .0253360
1058.319 .0253398
1058.898 .0253434
1059.476 .0253469
1060.055 .0253502
1060.633 .0253532
1061.211 .0253559
1061.790 .0253584
1062.368 .0253605
1062.946 .0253626
1063.524 .0253645
1064.102 .0253665
1064.680 .0253684
1065.258 .0253705
1065.836 .0253727
1066.414 .0253750
1066.992 .0253774
1067.570 .0253798
1068.148 .0253823
1068.726 .0253849
1069.304 .0253876
1069.882 .0253906
1070.460 .0253939
1071.038 .0253976
1071.616 .0254017
1072.194 .0254063
1072.772 .0254113
1073.350 .0254166
1073.928 .0254223
1074.506 .0254282
1075.084 .0254343
1075.662 .0254406
1076.240 .0254471
1076.819 .0254539
1077.397 .0254610
1077.976 .0254683
1078.554 .0254758
1079.133 .0254834
1079.711 .0254910
1080.290 .0254985
1080.869 .0255057
1081.448 .0255126
1082.027 .0255192
1082.606 .0255255
1083.185 .0255316
1083.764 .0255375
1084.343 .0255433
1084.923 .0255491
1085.502 .0255547
1086.082 .0255603
1086.662 .0255657
1087.242 .0255709
1087.822 .0255760
1088.402 .0255810
1088.983 .0255862
1089.563 .0255915
1090.144 .0255973
1090.725 .0256036
1091.306 .0256106
1091.887 .0256183
1092.469 .0256266
1093.050 .0256356
1093.632 .0256454
1094.214 .0256558
1094.796 .0256670
1095.379 .0256788
1095.961 .0256915
1096.544 .0257052
1097.127 .0257197
1097.710 .0257352
1098.294 .0257516
1098.877 .0257689
1099.461 .0257872
1100.046 .0258064
1100.630 .0258267
1101.215 .0258480
1101.800 .0258705
1102.385 .0258942
1102.970 .0259191
1103.556 .0259452
1104.142 .0259722
1104.728 .0260002
1105.315 .0260288
1105.902 .0260579
1106.489 .0260873
1107.077 .0261171
1107.664 .0261474
1108.253 .0261780
1108.841 .0262091
1109.430 .0262406
1110.019 .0262723
1110.609 .0263042
1111.198 .0263359
1111.789 .0263674
1112.379 .0263985
1112.970 .0264292
1113.561 .0264595
1114.153 .0264896
1114.745 .0265199
1115.338 .0265506
1115.931 .0265820
1116.524 .0266141
1117.117 .0266470
1117.712 .0266806
1118.306 .0267146
1118.901 .0267488
1119.496 .0267831
1120.092 .0268171
1120.689 .0268511
1121.285 .0268853
1121.882 .0269197
1122.480 .0269549
1123.078 .0269911
1123.677 .0270285
1124.276 .0270669
1124.875 .0271063
1125.476 .0271465
1126.076 .0271874
1126.677 .0272290
1127.279 .0272711
1127.881 .0273142
1128.484 .0273587
1129.087 .0273773
1129.691 .0274249
1130.295 .0274752
1130.900 .0275285
1131.505 .0275852
1132.111 .0276453
1132.718 .0277090
1133.325 .0277763
1133.933 .0278483
1134.541 .0279202
1135.150 .0280008
1135.760 .0280810
1136.370 .0281715
1136.981 .0281087
1137.592 .0281844
1138.204 .0282753
1138.817 .0283745
1139.431 .0284854
1140.045 .0286091
1140.660 .0287407
1141.275 .0288842
1141.891 .0290594
1142.508 .0291050
1143.126 .0293953
1143.744 .0294355
1144.363 .0297635
1144.983 .0305985
