Measurement Sequence started on: 15-12-46-377
Integration time: 28
Scans to Average: 2 
>>>>>Begin Spectral Data<<<<<
432.689 .0000100
433.621 .0000100
434.552 .0000100
435.482 .0000100
436.410 .0000100
437.337 .0000100
438.262 .0267067
439.187 .0565564
440.110 .0936996
441.031 .1355798
441.952 .1089285
442.871 .1137845
443.789 .1182994
444.705 .1225407
445.621 .1265580
446.535 .1303898
447.447 .1326585
448.359 .1332205
449.269 .1317092
450.178 .1278876
451.086 .1218304
451.993 .1139989
452.898 .1051612
453.803 .0961886
454.706 .0878227
455.608 .0805265
456.508 .0744565
457.408 .0703038
458.306 .0670797
459.204 .0644336
460.100 .0621908
460.995 .0602531
461.888 .0585564
462.781 .0570548
463.673 .0557129
464.563 .0545065
465.452 .0534159
466.340 .0524269
467.228 .0515295
468.114 .0507158
468.999 .0499797
469.882 .0493145
470.765 .0487148
471.647 .0481756
472.528 .0476921
473.407 .0472601
474.286 .0468757
475.163 .0465357
476.040 .0462362
476.915 .0459731
477.790 .0457427
478.663 .0455417
479.535 .0453666
480.407 .0452148
481.277 .0450833
482.147 .0449695
483.015 .0448715
483.883 .0447871
484.749 .0447148
485.615 .0446536
486.479 .0446021
487.343 .0445603
488.206 .0445280
489.067 .0445058
489.928 .0444944
490.788 .0444961
491.647 .0445127
492.505 .0445460
493.362 .0445977
494.218 .0446694
495.073 .0447620
495.928 .0449849
496.781 .0451358
497.634 .0453105
498.486 .0455104
499.337 .0457370
500.187 .0459918
501.036 .0462765
501.884 .0465933
502.731 .0469441
503.578 .0473320
504.424 .0476011
505.268 .0480535
506.113 .0485525
506.956 .0491034
507.798 .0497114
508.640 .0503837
509.480 .0511294
510.320 .0519585
511.160 .0528823
511.998 .0539157
512.836 .0550739
513.672 .0563724
514.508 .0578322
515.344 .0594754
516.178 .0613235
517.012 .0634001
517.845 .0657269
518.677 .0683230
519.508 .0712035
520.339 .0743775
521.169 .0778462
521.998 .0815885
522.826 .0855713
523.654 .0897428
524.481 .0940404
525.307 .0983919
526.133 .1027121
526.958 .1069123
527.782 .1109087
528.605 .1146192
529.428 .1179690
530.250 .1208931
531.072 .1233487
531.892 .1252955
532.712 .1267052
533.532 .1275607
534.350 .1278541
535.168 .1275886
535.986 .1267735
536.802 .1254172
537.618 .1235333
538.434 .1211391
539.249 .1182727
540.063 .1149797
540.876 .1113207
541.689 .1073636
542.501 .1031848
543.313 .0988695
544.124 .0945052
544.934 .0901722
545.744 .0859480
546.553 .0819001
547.361 .0780837
548.169 .0745302
548.976 .0712629
549.783 .0682904
550.589 .0656087
551.395 .0632014
552.200 .0610430
553.004 .0591041
553.808 .0573591
554.611 .0557837
555.414 .0543564
556.216 .0530573
557.018 .0518701
557.819 .0507807
558.619 .0497772
559.419 .0488485
560.218 .0479855
561.017 .0471790
561.815 .0464221
562.613 .0457073
563.410 .0450271
564.207 .0443760
565.003 .0437498
565.799 .0431448
566.594 .0425586
567.388 .0419899
568.182 .0414378
568.976 .0409023
569.769 .0403836
570.562 .0398817
571.354 .0393967
572.145 .0389291
572.936 .0384795
573.727 .0380476
574.517 .0376339
575.307 .0372386
576.096 .0368615
576.885 .0365027
577.673 .0361624
578.461 .0358401
579.248 .0355355
580.035 .0352484
580.821 .0349782
581.607 .0347241
582.392 .0344856
583.177 .0342621
583.962 .0340532
584.746 .0338585
585.529 .0336774
586.313 .0335091
587.095 .0333531
587.878 .0332084
588.660 .0330739
589.441 .0329487
590.222 .0328320
591.003 .0327229
591.783 .0326211
592.563 .0325261
593.342 .0324375
594.121 .0323550
594.899 .0322782
595.678 .0322068
596.455 .0321403
597.233 .0320781
598.009 .0320197
598.786 .0319647
599.562 .0319126
600.338 .0318628
601.113 .0318152
601.888 .0317497
602.663 .0317063
603.437 .0316646
604.211 .0316243
604.984 .0315854
605.757 .0315477
606.530 .0315112
607.302 .0314758
608.074 .0314415
608.845 .0314083
609.616 .0313762
610.387 .0313629
611.158 .0313326
611.928 .0313033
612.697 .0312751
613.467 .0312479
614.236 .0312216
615.004 .0311963
615.773 .0311719
616.541 .0311485
617.308 .0311259
618.076 .0311043
618.843 .0310834
619.609 .0310632
620.375 .0310437
621.141 .0310245
621.907 .0310057
622.672 .0309872
623.437 .0309687
624.202 .0309503
624.966 .0309318
625.730 .0309132
626.493 .0308944
627.257 .0308755
628.020 .0308562
628.782 .0308366
629.545 .0308167
630.307 .0307963
631.068 .0307754
631.830 .0307541
632.591 .0307323
633.352 .0307100
634.112 .0306872
634.872 .0306640
635.632 .0306404
636.392 .0306164
637.151 .0305920
637.910 .0305673
638.668 .0305422
639.427 .0305170
640.185 .0304915
640.943 .0304660
641.700 .0304406
642.457 .0304153
643.214 .0303902
643.971 .0303653
644.727 .0303408
645.483 .0303167
646.239 .0302930
646.994 .0302697
647.750 .0302470
648.505 .0302247
649.259 .0302030
650.014 .0301818
650.768 .0301611
651.521 .0301408
652.275 .0301209
653.028 .0301012
653.781 .0300818
654.534 .0300625
655.286 .0300434
656.039 .0300243
656.791 .0300054
657.542 .0299865
658.294 .0299676
659.045 .0299486
659.796 .0299294
660.546 .0299101
661.297 .0298905
662.047 .0298708
662.796 .0298510
663.546 .0298311
664.295 .0298113
665.044 .0297915
665.793 .0297717
666.542 .0297521
667.290 .0297325
668.038 .0297131
668.786 .0296938
669.533 .0296746
670.281 .0296556
671.028 .0296369
671.774 .0296187
672.521 .0296009
673.267 .0295836
674.013 .0295669
674.759 .0295506
675.505 .0295349
676.250 .0295196
676.995 .0295047
677.740 .0294902
678.484 .0294760
679.229 .0294621
679.973 .0294484
680.717 .0294351
681.460 .0294220
682.204 .0294091
682.947 .0293964
683.690 .0293838
684.433 .0293712
685.175 .0293587
685.917 .0293461
686.659 .0293333
687.401 .0293204
688.142 .0293073
688.884 .0292940
689.625 .0292804
690.365 .0292666
691.106 .0292527
691.846 .0292386
692.586 .0292243
693.326 .0292097
694.066 .0291950
694.805 .0291799
695.545 .0291646
696.284 .0291490
697.022 .0291330
697.761 .0291166
698.499 .0290999
699.237 .0290829
699.975 .0290657
700.713 .0290482
701.450 .0290307
702.187 .0290131
702.924 .0289956
703.661 .0289780
704.397 .0289606
705.133 .0289432
705.869 .0289259
706.605 .0289086
707.341 .0288914
708.076 .0288742
708.811 .0288572
709.546 .0288404
710.281 .0288238
711.015 .0288076
711.749 .0287917
712.483 .0287761
713.217 .0287608
713.950 .0287458
714.684 .0287310
715.417 .0287163
716.150 .0287018
716.882 .0286873
717.615 .0286728
718.347 .0286583
719.079 .0286439
719.811 .0286294
720.542 .0286149
721.273 .0286003
722.005 .0285857
722.735 .0285712
723.466 .0285566
724.196 .0285422
724.927 .0285278
725.656 .0285135
726.386 .0284993
727.116 .0284852
727.845 .0284712
728.574 .0284573
729.303 .0284436
730.031 .0284301
730.760 .0284169
731.488 .0284040
732.216 .0283914
732.944 .0283791
733.671 .0283672
734.398 .0283556
735.125 .0283443
735.852 .0283333
736.579 .0283227
737.305 .0283124
738.031 .0283024
738.757 .0282926
739.483 .0282830
740.208 .0282735
740.933 .0282641
741.658 .0282547
742.383 .0282451
743.108 .0282355
743.832 .0282258
744.556 .0282160
745.280 .0282062
746.004 .0281963
746.727 .0281863
747.450 .0281762
748.173 .0281660
748.896 .0281556
749.618 .0281451
750.340 .0281343
751.062 .0281234
751.784 .0281122
752.506 .0281009
753.227 .0280894
753.948 .0280779
754.669 .0280662
755.389 .0280545
756.110 .0280427
756.830 .0280309
757.550 .0280190
758.269 .0280070
758.989 .0279949
759.708 .0279827
760.427 .0279703
761.146 .0279576
761.864 .0279448
762.582 .0279317
763.300 .0279184
764.018 .0279050
764.736 .0278914
765.453 .0278779
766.170 .0278643
766.887 .0278509
767.603 .0278376
768.320 .0278244
769.036 .0278116
769.751 .0277991
770.467 .0277869
771.182 .0277751
771.897 .0277637
772.612 .0277529
773.327 .0277426
774.041 .0277329
774.755 .0277237
775.469 .0277151
776.183 .0277071
776.896 .0276997
777.609 .0276929
778.322 .0276865
779.035 .0276806
779.747 .0276750
780.459 .0276696
781.171 .0276644
781.882 .0276592
782.594 .0276540
783.305 .0276486
784.016 .0276430
784.726 .0276371
785.436 .0276308
786.147 .0276190
786.856 .0276115
787.566 .0276034
788.275 .0275949
788.984 .0275857
789.693 .0275761
790.401 .0275660
791.110 .0275555
791.818 .0275446
792.525 .0275334
793.233 .0275220
793.940 .0275104
794.647 .0275044
795.353 .0274926
796.060 .0274807
796.766 .0274687
797.472 .0274564
798.177 .0274438
798.883 .0274311
799.588 .0274181
800.292 .0274049
800.997 .0273914
801.701 .0273777
802.405 .0273637
803.109 .0273495
803.812 .0273350
804.515 .0273202
805.218 .0273052
805.921 .0272898
806.623 .0272740
807.325 .0272580
808.027 .0272416
808.728 .0272249
809.429 .0272080
810.130 .0271908
810.831 .0271733
811.531 .0271558
812.231 .0271381
812.931 .0271206
813.630 .0271032
814.330 .0270860
815.029 .0270691
815.727 .0270527
816.426 .0270367
817.124 .0270212
817.821 .0270063
818.519 .0269920
819.216 .0269783
819.913 .0269654
820.609 .0269532
821.306 .0269418
822.002 .0269313
822.697 .0269216
823.393 .0269128
824.088 .0269047
824.783 .0268974
825.477 .0268907
826.171 .0268846
826.865 .0268791
827.559 .0268740
828.252 .0268693
828.945 .0268649
829.638 .0268607
830.330 .0268566
831.023 .0268527
831.714 .0268488
832.406 .0268450
833.097 .0268411
833.788 .0268372
834.479 .0268332
835.169 .0268293
835.859 .0268254
836.548 .0268214
837.238 .0268174
837.927 .0268134
838.615 .0268091
839.304 .0268047
839.992 .0268000
840.680 .0267951
841.367 .0267900
842.054 .0267847
842.741 .0267793
843.428 .0267738
844.114 .0267682
844.800 .0267625
845.485 .0267567
846.170 .0267506
846.855 .0267443
847.540 .0267376
848.224 .0267305
848.908 .0267230
849.592 .0267151
850.275 .0267068
850.958 .0266980
851.641 .0266889
852.323 .0266793
853.005 .0266692
853.687 .0266587
854.368 .0266477
855.049 .0266362
855.730 .0266242
856.410 .0266118
857.090 .0265991
857.769 .0265860
858.449 .0265728
859.128 .0265592
859.806 .0265455
860.485 .0265317
861.163 .0265177
861.840 .0265037
862.518 .0264897
863.195 .0264759
863.871 .0264624
864.548 .0264491
865.224 .0264362
865.899 .0264237
866.574 .0264117
867.249 .0264001
867.924 .0263889
868.598 .0263782
869.272 .0263680
869.946 .0263582
870.619 .0263489
871.292 .0263401
871.964 .0263320
872.636 .0263244
873.308 .0263173
873.979 .0263109
874.651 .0263049
875.321 .0262993
875.992 .0262942
876.662 .0262894
877.331 .0262849
878.001 .0262806
878.670 .0262764
879.338 .0262725
880.007 .0262687
880.675 .0262651
881.342 .0262615
882.009 .0262581
882.676 .0262547
883.343 .0262513
884.009 .0262480
884.675 .0262447
885.340 .0262414
886.005 .0262381
886.670 .0262347
887.334 .0262312
887.998 .0262276
888.662 .0262239
889.325 .0262202
889.988 .0262164
890.650 .0262126
891.312 .0262086
891.974 .0262046
892.636 .0262003
893.297 .0261959
893.957 .0261913
894.618 .0261865
895.278 .0261813
895.937 .0261759
896.596 .0261702
897.255 .0261642
897.914 .0261579
898.572 .0261512
899.230 .0261442
899.887 .0261369
900.544 .0261292
901.201 .0261211
901.857 .0261071
902.513 .0260978
903.168 .0260880
903.823 .0260778
904.478 .0260671
905.132 .0260559
905.786 .0260441
906.440 .0260317
907.093 .0260188
907.746 .0260052
908.399 .0259911
909.051 .0259765
909.703 .0259615
910.354 .0259528
911.005 .0259373
911.656 .0259215
912.306 .0259055
912.956 .0258893
913.605 .0258729
914.254 .0258563
914.903 .0258394
915.551 .0258223
916.199 .0258049
916.847 .0257872
917.494 .0257693
918.141 .0257511
918.788 .0257328
919.434 .0257142
920.079 .0256953
920.725 .0256763
921.370 .0256569
922.014 .0256373
922.658 .0256173
923.302 .0255971
923.946 .0255765
924.589 .0255558
925.231 .0255348
925.873 .0255137
926.515 .0254926
927.157 .0254714
927.798 .0254502
928.439 .0254290
929.079 .0254080
929.719 .0253871
930.359 .0253665
930.998 .0253461
931.637 .0253261
932.275 .0253065
932.913 .0252873
933.551 .0252687
934.188 .0252506
934.825 .0252332
935.462 .0252165
936.098 .0252005
936.733 .0251852
937.369 .0251707
938.004 .0251569
938.638 .0251438
939.273 .0251315
939.907 .0251200
940.540 .0251091
941.173 .0250989
941.806 .0250894
942.438 .0250805
943.070 .0250722
943.702 .0250644
944.333 .0250570
944.964 .0250500
945.594 .0250433
946.224 .0250368
946.854 .0250304
947.483 .0250240
948.112 .0250176
948.741 .0250111
949.369 .0250045
949.996 .0249979
950.624 .0249911
951.251 .0249843
951.878 .0249773
952.504 .0249701
953.130 .0249628
953.755 .0249553
954.380 .0249478
955.005 .0249403
955.629 .0249327
956.253 .0249252
956.877 .0249178
957.500 .0249107
958.123 .0249037
958.746 .0248970
959.368 .0248906
959.990 .0248845
960.611 .0248787
961.232 .0248732
961.853 .0248681
962.473 .0248633
963.093 .0248588
963.712 .0248547
964.331 .0248508
964.950 .0248473
965.569 .0248440
966.187 .0248411
966.804 .0248383
967.422 .0248358
968.039 .0248334
968.655 .0248311
969.272 .0248290
969.887 .0248269
970.503 .0248247
971.118 .0248225
971.733 .0248202
972.347 .0248177
972.961 .0248150
973.575 .0248120
974.188 .0248086
974.801 .0248048
975.414 .0248005
976.026 .0247956
976.638 .0247900
977.250 .0247839
977.861 .0247772
978.472 .0247700
979.083 .0247622
979.693 .0247539
980.303 .0247453
980.912 .0247303
981.521 .0247209
982.130 .0247112
982.738 .0247013
983.346 .0246912
983.954 .0246810
984.562 .0246708
985.169 .0246607
985.775 .0246509
986.382 .0246415
986.988 .0246325
987.594 .0246239
988.199 .0246158
988.804 .0246082
989.409 .0246068
990.013 .0246002
990.617 .0245941
991.221 .0245888
991.824 .0245842
992.427 .0245804
993.030 .0245775
993.632 .0245754
994.234 .0245741
994.836 .0245736
995.438 .0245737
996.039 .0245745
996.640 .0245757
997.240 .0245775
997.840 .0245797
998.440 .0245825
999.040 .0245858
999.639 .0245897
1000.238 .0245942
1000.836 .0245991
1001.435 .0246045
1002.033 .0246102
1002.630 .0246160
1003.228 .0246219
1003.825 .0246278
1004.422 .0246336
1005.018 .0246394
1005.614 .0246451
1006.210 .0246508
1006.806 .0246566
1007.401 .0246623
1007.996 .0246681
1008.591 .0246738
1009.186 .0246793
1009.780 .0246846
1010.374 .0246895
1010.967 .0246942
1011.561 .0246985
1012.154 .0247026
1012.746 .0247064
1013.339 .0247102
1013.931 .0247140
1014.523 .0247178
1015.115 .0247217
1015.706 .0247256
1016.298 .0247294
1016.888 .0247332
1017.479 .0247368
1018.069 .0247403
1018.660 .0247438
1019.250 .0247474
1019.839 .0247512
1020.429 .0247553
1021.018 .0247598
1021.607 .0247647
1022.195 .0247701
1022.784 .0247759
1023.372 .0247820
1023.960 .0247885
1024.547 .0247954
1025.135 .0248025
1025.722 .0248100
1026.309 .0248179
1026.896 .0248261
1027.483 .0248348
1028.069 .0248438
1028.655 .0248531
1029.241 .0248625
1029.827 .0248720
1030.412 .0248815
1030.997 .0248910
1031.582 .0249003
1032.167 .0249094
1032.752 .0249183
1033.336 .0249271
1033.921 .0249357
1034.505 .0249441
1035.089 .0249523
1035.672 .0249601
1036.256 .0249674
1036.839 .0249743
1037.422 .0249805
1038.005 .0249862
1038.588 .0249912
1039.171 .0249956
1039.753 .0249994
1040.335 .0250027
1040.918 .0250053
1041.500 .0250073
1042.081 .0250088
1042.663 .0250097
1043.244 .0250100
1043.826 .0250099
1044.407 .0250093
1044.988 .0250083
1045.569 .0250071
1046.150 .0250058
1046.730 .0250043
1047.311 .0250027
1047.891 .0250010
1048.471 .0249992
1049.052 .0249971
1049.632 .0249949
1050.211 .0249924
1050.791 .0249896
1051.371 .0249867
1051.950 .0249835
1052.530 .0249801
1053.109 .0249766
1053.688 .0249728
1054.268 .0249689
1054.847 .0249645
1055.426 .0249599
1056.005 .0249548
1056.583 .0249493
1057.162 .0249434
1057.741 .0249371
1058.319 .0249305
1058.898 .0249237
1059.476 .0249167
1060.055 .0249096
1060.633 .0249024
1061.211 .0248953
1061.790 .0248880
1062.368 .0248809
1062.946 .0248737
1063.524 .0248667
1064.102 .0248597
1064.680 .0248528
1065.258 .0248460
1065.836 .0248393
1066.414 .0248327
1066.992 .0248262
1067.570 .0248199
1068.148 .0248139
1068.726 .0248080
1069.304 .0248025
1069.882 .0247973
1070.460 .0247925
1071.038 .0247881
1071.616 .0247841
1072.194 .0247805
1072.772 .0247773
1073.350 .0247745
1073.928 .0247721
1074.506 .0247702
1075.084 .0247690
1075.662 .0247684
1076.240 .0247685
1076.819 .0247694
1077.397 .0247709
1077.976 .0247731
1078.554 .0247760
1079.133 .0247792
1079.711 .0247828
1080.290 .0247866
1080.869 .0247905
1081.448 .0247947
1082.027 .0247990
1082.606 .0248036
1083.185 .0248084
1083.764 .0248135
1084.343 .0248188
1084.923 .0248244
1085.502 .0248302
1086.082 .0248363
1086.662 .0248426
1087.242 .0248492
1087.822 .0248562
1088.402 .0248637
1088.983 .0248719
1089.563 .0248809
1090.144 .0248907
1090.725 .0249015
1091.306 .0249131
1091.887 .0249255
1092.469 .0249385
1093.050 .0249520
1093.632 .0249660
1094.214 .0249803
1094.796 .0249948
1095.379 .0250094
1095.961 .0250242
1096.544 .0250391
1097.127 .0250542
1097.710 .0250696
1098.294 .0250851
1098.877 .0251009
1099.461 .0251168
1100.046 .0251330
1100.630 .0251493
1101.215 .0251658
1101.800 .0251825
1102.385 .0251993
1102.970 .0252163
1103.556 .0252336
1104.142 .0252514
1104.728 .0252698
1105.315 .0252890
1105.902 .0253090
1106.489 .0253299
1107.077 .0253516
1107.664 .0253743
1108.253 .0253978
1108.841 .0254220
1109.430 .0254470
1110.019 .0254728
1110.609 .0254995
1111.198 .0255273
1111.789 .0255564
1112.379 .0255873
1112.970 .0256199
1113.561 .0256543
1114.153 .0256904
1114.745 .0257282
1115.338 .0257676
1115.931 .0258084
1116.524 .0258507
1117.117 .0258944
1117.712 .0259398
1118.306 .0259870
1118.901 .0260359
1119.496 .0260868
1120.092 .0261396
1120.689 .0261939
1121.285 .0262495
1121.882 .0263063
1122.480 .0263638
1123.078 .0264221
1123.677 .0264811
1124.276 .0265408
1124.875 .0266014
1125.476 .0266630
1126.076 .0267256
1126.677 .0267894
1127.279 .0268542
1127.881 .0269198
1128.484 .0269859
1129.087 .0270173
1129.691 .0270836
1130.295 .0271498
1130.900 .0272159
1131.505 .0272820
1132.111 .0273478
1132.718 .0274134
1133.325 .0274789
1133.933 .0275431
1134.541 .0276066
1135.150 .0276691
1135.760 .0277298
1136.370 .0277974
1136.981 .0279608
1137.592 .0280317
1138.204 .0280966
1138.817 .0281620
1139.431 .0282217
1140.045 .0282763
1140.660 .0283233
1141.275 .0283733
1141.891 .0283880
1142.508 .0284201
1143.126 .0284514
1143.744 .0284598
1144.363 .0287169
1144.983 .0278622
