Measurement Sequence started on: 15-12-46-377
Integration time: 28
Scans to Average: 2 
>>>>>Begin Spectral Data<<<<<
432.689 .0000100
433.621 .0000100
434.552 .0000100
435.482 .0000100
436.410 .0000100
437.337 .0000100
438.262 .0282959
439.187 .0599246
440.110 .0992345
441.031 .1435002
441.952 .1146900
442.871 .1197485
443.789 .1244575
444.705 .1288911
445.621 .1331009
446.535 .1371254
447.447 .1395045
448.359 .1400850
449.269 .1384799
450.178 .1344417
451.086 .1280514
451.993 .1198025
452.898 .1105116
453.803 .1011040
454.706 .0923655
455.608 .0847831
456.508 .0785183
457.408 .0742957
458.306 .0710618
459.204 .0684378
460.100 .0662313
460.995 .0643372
461.888 .0626838
462.781 .0612217
463.673 .0599148
464.563 .0587373
465.452 .0576697
466.340 .0566969
467.228 .0558083
468.114 .0549948
468.999 .0542499
469.882 .0535671
470.765 .0529400
471.647 .0523630
472.528 .0518317
473.407 .0513413
474.286 .0508893
475.163 .0504730
476.040 .0500899
476.915 .0497385
477.790 .0494173
478.663 .0491246
479.535 .0488593
480.407 .0486201
481.277 .0484051
482.147 .0482126
483.015 .0480410
483.883 .0478887
484.749 .0477545
485.615 .0476379
486.479 .0475387
487.343 .0474572
488.206 .0473945
489.067 .0473512
489.928 .0473290
490.788 .0473297
491.647 .0473550
492.505 .0474061
493.362 .0474844
494.218 .0475910
495.073 .0477264
495.928 .0480360
496.781 .0482457
497.634 .0484851
498.486 .0487546
499.337 .0490550
500.187 .0493888
501.036 .0497590
501.884 .0501673
502.731 .0506175
503.578 .0511125
504.424 .0514517
505.268 .0520237
506.113 .0526493
506.956 .0533314
507.798 .0540748
508.640 .0548850
509.480 .0557700
510.320 .0567400
511.160 .0578074
511.998 .0589868
512.836 .0602962
513.672 .0617548
514.508 .0633840
515.344 .0652070
516.178 .0672501
517.012 .0695398
517.845 .0721023
518.677 .0749614
519.508 .0781368
520.339 .0816402
521.169 .0854792
521.998 .0896315
522.826 .0940636
523.654 .0987208
524.481 .1035351
525.307 .1084232
526.133 .1132918
526.958 .1180419
527.782 .1225764
528.605 .1268047
529.428 .1306442
530.250 .1340207
531.072 .1368857
531.892 .1391962
532.712 .1409220
533.532 .1420413
534.350 .1425446
535.168 .1424275
535.986 .1416907
536.802 .1403381
537.618 .1383792
538.434 .1358258
539.249 .1327171
540.063 .1291032
540.876 .1250504
541.689 .1206373
542.501 .1159531
543.313 .1110929
544.124 .1061558
544.934 .1012352
545.744 .0964157
546.553 .0917727
547.361 .0873705
548.169 .0832444
548.976 .0794231
549.783 .0759189
550.589 .0727311
551.395 .0698443
552.200 .0672364
553.004 .0648807
553.808 .0627511
554.611 .0608231
555.414 .0590739
556.216 .0574839
557.018 .0560342
557.819 .0547093
558.619 .0534948
559.419 .0523798
560.218 .0513556
561.017 .0504127
561.815 .0495425
562.613 .0487375
563.410 .0479889
564.207 .0472877
565.003 .0466270
565.799 .0459995
566.594 .0453988
567.388 .0448206
568.182 .0442620
568.976 .0437207
569.769 .0431958
570.562 .0426865
571.354 .0421925
572.145 .0417135
572.936 .0412492
573.727 .0407981
574.517 .0403599
575.307 .0399345
576.096 .0395213
576.885 .0391207
577.673 .0387337
578.461 .0383611
579.248 .0380040
580.035 .0376631
580.821 .0373389
581.607 .0370314
582.392 .0367406
583.177 .0364664
583.962 .0362084
584.746 .0359664
585.529 .0357402
586.313 .0355295
587.095 .0353342
587.878 .0351540
588.660 .0349883
589.441 .0348365
590.222 .0346977
591.003 .0345710
591.783 .0344552
592.563 .0343491
593.342 .0342513
594.121 .0341608
594.899 .0340763
595.678 .0339971
596.455 .0339220
597.233 .0338505
598.009 .0337821
598.786 .0337165
599.562 .0336530
600.338 .0335915
601.113 .0335317
601.888 .0334461
602.663 .0333898
603.437 .0333348
604.211 .0332813
604.984 .0332292
605.757 .0331785
606.530 .0331294
607.302 .0330819
608.074 .0330360
608.845 .0329919
609.616 .0329495
610.387 .0329331
611.158 .0328935
611.928 .0328555
612.697 .0328194
613.467 .0327849
614.236 .0327520
615.004 .0327205
615.773 .0326903
616.541 .0326613
617.308 .0326333
618.076 .0326063
618.843 .0325801
619.609 .0325547
620.375 .0325298
621.141 .0325053
621.907 .0324811
622.672 .0324570
623.437 .0324329
624.202 .0324087
624.966 .0323844
625.730 .0323599
626.493 .0323353
627.257 .0323105
628.020 .0322856
628.782 .0322604
629.545 .0322350
630.307 .0322092
631.068 .0321831
631.830 .0321566
632.591 .0321299
633.352 .0321030
634.112 .0320760
634.872 .0320490
635.632 .0320221
636.392 .0319952
637.151 .0319684
637.910 .0319417
638.668 .0319151
639.427 .0318885
640.185 .0318620
640.943 .0318355
641.700 .0318091
642.457 .0317828
643.214 .0317566
643.971 .0317305
644.727 .0317045
645.483 .0316785
646.239 .0316525
646.994 .0316265
647.750 .0316006
648.505 .0315749
649.259 .0315493
650.014 .0315238
650.768 .0314986
651.521 .0314736
652.275 .0314488
653.028 .0314242
653.781 .0313996
654.534 .0313752
655.286 .0313508
656.039 .0313265
656.791 .0313021
657.542 .0312779
658.294 .0312537
659.045 .0312297
659.796 .0312057
660.546 .0311820
661.297 .0311583
662.047 .0311348
662.796 .0311114
663.546 .0310880
664.295 .0310647
665.044 .0310414
665.793 .0310183
666.542 .0309951
667.290 .0309721
668.038 .0309491
668.786 .0309262
669.533 .0309033
670.281 .0308804
671.028 .0308575
671.774 .0308347
672.521 .0308119
673.267 .0307893
674.013 .0307667
674.759 .0307441
675.505 .0307214
676.250 .0306986
676.995 .0306755
677.740 .0306522
678.484 .0306286
679.229 .0306047
679.973 .0305806
680.717 .0305564
681.460 .0305320
682.204 .0305076
682.947 .0304830
683.690 .0304583
684.433 .0304333
685.175 .0304081
685.917 .0303825
686.659 .0303567
687.401 .0303305
688.142 .0303041
688.884 .0302776
689.625 .0302509
690.365 .0302242
691.106 .0301975
691.846 .0301708
692.586 .0301442
693.326 .0301177
694.066 .0300913
694.805 .0300649
695.545 .0300385
696.284 .0300123
697.022 .0299861
697.761 .0299601
698.499 .0299344
699.237 .0299089
699.975 .0298838
700.713 .0298592
701.450 .0298351
702.187 .0298115
702.924 .0297883
703.661 .0297657
704.397 .0297434
705.133 .0297214
705.869 .0296997
706.605 .0296783
707.341 .0296571
708.076 .0296363
708.811 .0296158
709.546 .0295956
710.281 .0295760
711.015 .0295567
711.749 .0295380
712.483 .0295199
713.217 .0295022
713.950 .0294850
714.684 .0294683
715.417 .0294520
716.150 .0294362
716.882 .0294207
717.615 .0294055
718.347 .0293906
719.079 .0293760
719.811 .0293616
720.542 .0293474
721.273 .0293335
722.005 .0293198
722.735 .0293064
723.466 .0292932
724.196 .0292803
724.927 .0292675
725.656 .0292549
726.386 .0292424
727.116 .0292300
727.845 .0292177
728.574 .0292056
729.303 .0291938
730.031 .0291823
730.760 .0291713
731.488 .0291607
732.216 .0291507
732.944 .0291411
733.671 .0291320
734.398 .0291234
735.125 .0291150
735.852 .0291071
736.579 .0290994
737.305 .0290919
738.031 .0290848
738.757 .0290778
739.483 .0290710
740.208 .0290643
740.933 .0290578
741.658 .0290513
742.383 .0290447
743.108 .0290382
743.832 .0290315
744.556 .0290248
745.280 .0290179
746.004 .0290107
746.727 .0290033
747.450 .0289953
748.173 .0289868
748.896 .0289777
749.618 .0289679
750.340 .0289575
751.062 .0289464
751.784 .0289346
752.506 .0289223
753.227 .0289095
753.948 .0288962
754.669 .0288823
755.389 .0288680
756.110 .0288531
756.830 .0288377
757.550 .0288218
758.269 .0288055
758.989 .0287890
759.708 .0287722
760.427 .0287552
761.146 .0287381
761.864 .0287209
762.582 .0287036
763.300 .0286862
764.018 .0286688
764.736 .0286513
765.453 .0286337
766.170 .0286160
766.887 .0285982
767.603 .0285804
768.320 .0285625
769.036 .0285446
769.751 .0285266
770.467 .0285087
771.182 .0284908
771.897 .0284731
772.612 .0284556
773.327 .0284383
774.041 .0284211
774.755 .0284041
775.469 .0283872
776.183 .0283703
776.896 .0283534
777.609 .0283365
778.322 .0283196
779.035 .0283027
779.747 .0282859
780.459 .0282693
781.171 .0282528
781.882 .0282365
782.594 .0282204
783.305 .0282044
784.016 .0281884
784.726 .0281726
785.436 .0281568
786.147 .0281335
786.856 .0281179
787.566 .0281022
788.275 .0280866
788.984 .0280710
789.693 .0280554
790.401 .0280397
791.110 .0280240
791.818 .0280083
792.525 .0279925
793.233 .0279766
793.940 .0279606
794.647 .0279520
795.353 .0279359
796.060 .0279197
796.766 .0279034
797.472 .0278869
798.177 .0278702
798.883 .0278533
799.588 .0278363
800.292 .0278191
800.997 .0278019
801.701 .0277846
802.405 .0277672
803.109 .0277499
803.812 .0277324
804.515 .0277149
805.218 .0276973
805.921 .0276796
806.623 .0276619
807.325 .0276442
808.027 .0276265
808.728 .0276091
809.429 .0275919
810.130 .0275750
810.831 .0275585
811.531 .0275425
812.231 .0275269
812.931 .0275119
813.630 .0274973
814.330 .0274834
815.029 .0274701
815.727 .0274575
816.426 .0274457
817.124 .0274348
817.821 .0274247
818.519 .0274155
819.216 .0274072
819.913 .0273998
820.609 .0273932
821.306 .0273876
822.002 .0273828
822.697 .0273790
823.393 .0273760
824.088 .0273739
824.783 .0273727
825.477 .0273724
826.171 .0273728
826.865 .0273740
827.559 .0273759
828.252 .0273783
828.945 .0273814
829.638 .0273850
830.330 .0273890
831.023 .0273933
831.714 .0273980
832.406 .0274028
833.097 .0274077
833.788 .0274127
834.479 .0274177
835.169 .0274226
835.859 .0274276
836.548 .0274325
837.238 .0274375
837.927 .0274424
838.615 .0274474
839.304 .0274522
839.992 .0274570
840.680 .0274615
841.367 .0274658
842.054 .0274698
842.741 .0274734
843.428 .0274767
844.114 .0274795
844.800 .0274820
845.485 .0274840
846.170 .0274854
846.855 .0274863
847.540 .0274866
848.224 .0274862
848.908 .0274851
849.592 .0274833
850.275 .0274808
850.958 .0274775
851.641 .0274734
852.323 .0274686
853.005 .0274629
853.687 .0274564
854.368 .0274491
855.049 .0274409
855.730 .0274320
856.410 .0274224
857.090 .0274123
857.769 .0274017
858.449 .0273906
859.128 .0273792
859.806 .0273673
860.485 .0273549
861.163 .0273422
861.840 .0273292
862.518 .0273158
863.195 .0273022
863.871 .0272884
864.548 .0272746
865.224 .0272607
865.899 .0272467
866.574 .0272328
867.249 .0272188
867.924 .0272049
868.598 .0271909
869.272 .0271771
869.946 .0271635
870.619 .0271500
871.292 .0271367
871.964 .0271236
872.636 .0271107
873.308 .0270981
873.979 .0270855
874.651 .0270730
875.321 .0270607
875.992 .0270484
876.662 .0270363
877.331 .0270243
878.001 .0270125
878.670 .0270009
879.338 .0269894
880.007 .0269780
880.675 .0269667
881.342 .0269556
882.009 .0269445
882.676 .0269336
883.343 .0269228
884.009 .0269123
884.675 .0269020
885.340 .0268919
886.005 .0268821
886.670 .0268724
887.334 .0268628
887.998 .0268532
888.662 .0268436
889.325 .0268338
889.988 .0268240
890.650 .0268139
891.312 .0268038
891.974 .0267933
892.636 .0267827
893.297 .0267717
893.957 .0267602
894.618 .0267483
895.278 .0267359
895.937 .0267228
896.596 .0267091
897.255 .0266947
897.914 .0266796
898.572 .0266637
899.230 .0266470
899.887 .0266295
900.544 .0266112
901.201 .0265920
901.857 .0265594
902.513 .0265381
903.168 .0265160
903.823 .0264931
904.478 .0264694
905.132 .0264450
905.786 .0264200
906.440 .0263943
907.093 .0263680
907.746 .0263413
908.399 .0263140
909.051 .0262864
909.703 .0262586
910.354 .0262443
911.005 .0262164
911.656 .0261884
912.306 .0261604
912.956 .0261324
913.605 .0261045
914.254 .0260767
914.903 .0260491
915.551 .0260216
916.199 .0259943
916.847 .0259672
917.494 .0259402
918.141 .0259135
918.788 .0258870
919.434 .0258606
920.079 .0258345
920.725 .0258086
921.370 .0257829
922.014 .0257574
922.658 .0257320
923.302 .0257069
923.946 .0256819
924.589 .0256572
925.231 .0256326
925.873 .0256083
926.515 .0255840
927.157 .0255599
927.798 .0255360
928.439 .0255121
929.079 .0254884
929.719 .0254650
930.359 .0254419
930.998 .0254192
931.637 .0253971
932.275 .0253756
932.913 .0253547
933.551 .0253346
934.188 .0253153
934.825 .0252968
935.462 .0252791
936.098 .0252624
936.733 .0252466
937.369 .0252318
938.004 .0252180
938.638 .0252053
939.273 .0251936
939.907 .0251830
940.540 .0251734
941.173 .0251649
941.806 .0251574
942.438 .0251508
943.070 .0251451
943.702 .0251404
944.333 .0251365
944.964 .0251335
945.594 .0251311
946.224 .0251294
946.854 .0251283
947.483 .0251278
948.112 .0251276
948.741 .0251279
949.369 .0251284
949.996 .0251292
950.624 .0251302
951.251 .0251313
951.878 .0251323
952.504 .0251334
953.130 .0251344
953.755 .0251353
954.380 .0251361
955.005 .0251368
955.629 .0251376
956.253 .0251383
956.877 .0251390
957.500 .0251397
958.123 .0251404
958.746 .0251412
959.368 .0251421
959.990 .0251432
960.611 .0251445
961.232 .0251463
961.853 .0251484
962.473 .0251510
963.093 .0251540
963.712 .0251575
964.331 .0251613
964.950 .0251655
965.569 .0251700
966.187 .0251748
966.804 .0251798
967.422 .0251850
968.039 .0251905
968.655 .0251963
969.272 .0252023
969.887 .0252084
970.503 .0252147
971.118 .0252211
971.733 .0252275
972.347 .0252339
972.961 .0252403
973.575 .0252466
974.188 .0252528
974.801 .0252588
975.414 .0252647
976.026 .0252703
976.638 .0252756
977.250 .0252805
977.861 .0252850
978.472 .0252890
979.083 .0252925
979.693 .0252954
980.303 .0252980
980.912 .0253000
981.521 .0253017
982.130 .0253030
982.738 .0253041
983.346 .0253050
983.954 .0253057
984.562 .0253064
985.169 .0253070
985.775 .0253077
986.382 .0253085
986.988 .0253095
987.594 .0253108
988.199 .0253123
988.804 .0253141
989.409 .0253161
990.013 .0253184
990.617 .0253210
991.221 .0253237
991.824 .0253267
992.427 .0253299
993.030 .0253334
993.632 .0253371
994.234 .0253410
994.836 .0253452
995.438 .0253497
996.039 .0253545
996.640 .0253594
997.240 .0253646
997.840 .0253699
998.440 .0253754
999.040 .0253811
999.639 .0253869
1000.238 .0253929
1000.836 .0253991
1001.435 .0254053
1002.033 .0254117
1002.630 .0254180
1003.228 .0254244
1003.825 .0254306
1004.422 .0254366
1005.018 .0254425
1005.614 .0254481
1006.210 .0254535
1006.806 .0254587
1007.401 .0254637
1007.996 .0254685
1008.591 .0254731
1009.186 .0254776
1009.780 .0254818
1010.374 .0254859
1010.967 .0254898
1011.561 .0254935
1012.154 .0254970
1012.746 .0255003
1013.339 .0255035
1013.931 .0255065
1014.523 .0255095
1015.115 .0255123
1015.706 .0255151
1016.298 .0255178
1016.888 .0255204
1017.479 .0255228
1018.069 .0255251
1018.660 .0255272
1019.250 .0255291
1019.839 .0255308
1020.429 .0255324
1021.018 .0255338
1021.607 .0255350
1022.195 .0255360
1022.784 .0255368
1023.372 .0255374
1023.960 .0255378
1024.547 .0255381
1025.135 .0255382
1025.722 .0255381
1026.309 .0255379
1026.896 .0255376
1027.483 .0255372
1028.069 .0255368
1028.655 .0255362
1029.241 .0255356
1029.827 .0255350
1030.412 .0255343
1030.997 .0255336
1031.582 .0255330
1032.167 .0255324
1032.752 .0255318
1033.336 .0255314
1033.921 .0255309
1034.505 .0255305
1035.089 .0255301
1035.672 .0255296
1036.256 .0255291
1036.839 .0255283
1037.422 .0255274
1038.005 .0255261
1038.588 .0255245
1039.171 .0255225
1039.753 .0255200
1040.335 .0255171
1040.918 .0255136
1041.500 .0255096
1042.081 .0255050
1042.663 .0254997
1043.244 .0254937
1043.826 .0254870
1044.407 .0254796
1044.988 .0254716
1045.569 .0254629
1046.150 .0254535
1046.730 .0254436
1047.311 .0254331
1047.891 .0254220
1048.471 .0254104
1049.052 .0253981
1049.632 .0253852
1050.211 .0253716
1050.791 .0253574
1051.371 .0253427
1051.950 .0253275
1052.530 .0253117
1053.109 .0252955
1053.688 .0252790
1054.268 .0252621
1054.847 .0252451
1055.426 .0252278
1056.005 .0252105
1056.583 .0251931
1057.162 .0251757
1057.741 .0251582
1058.319 .0251409
1058.898 .0251237
1059.476 .0251067
1060.055 .0250899
1060.633 .0250733
1061.211 .0250571
1061.790 .0250412
1062.368 .0250257
1062.946 .0250107
1063.524 .0249961
1064.102 .0249818
1064.680 .0249679
1065.258 .0249542
1065.836 .0249407
1066.414 .0249275
1066.992 .0249146
1067.570 .0249019
1068.148 .0248895
1068.726 .0248776
1069.304 .0248661
1069.882 .0248551
1070.460 .0248446
1071.038 .0248345
1071.616 .0248249
1072.194 .0248158
1072.772 .0248070
1073.350 .0247986
1073.928 .0247905
1074.506 .0247827
1075.084 .0247755
1075.662 .0247687
1076.240 .0247625
1076.819 .0247569
1077.397 .0247519
1077.976 .0247474
1078.554 .0247432
1079.133 .0247392
1079.711 .0247355
1080.290 .0247318
1080.869 .0247281
1081.448 .0247244
1082.027 .0247206
1082.606 .0247167
1083.185 .0247129
1083.764 .0247089
1084.343 .0247050
1084.923 .0247010
1085.502 .0246969
1086.082 .0246929
1086.662 .0246889
1087.242 .0246849
1087.822 .0246812
1088.402 .0246778
1088.983 .0246747
1089.563 .0246723
1090.144 .0246705
1090.725 .0246696
1091.306 .0246696
1091.887 .0246704
1092.469 .0246720
1093.050 .0246743
1093.632 .0246772
1094.214 .0246807
1094.796 .0246848
1095.379 .0246894
1095.961 .0246946
1096.544 .0247004
1097.127 .0247069
1097.710 .0247141
1098.294 .0247223
1098.877 .0247315
1099.461 .0247417
1100.046 .0247527
1100.630 .0247647
1101.215 .0247776
1101.800 .0247914
1102.385 .0248059
1102.970 .0248211
1103.556 .0248370
1104.142 .0248535
1104.728 .0248706
1105.315 .0248882
1105.902 .0249064
1106.489 .0249253
1107.077 .0249449
1107.664 .0249653
1108.253 .0249867
1108.841 .0250094
1109.430 .0250335
1110.019 .0250592
1110.609 .0250864
1111.198 .0251153
1111.789 .0251457
1112.379 .0251776
1112.970 .0252110
1113.561 .0252459
1114.153 .0252822
1114.745 .0253201
1115.338 .0253597
1115.931 .0254011
1116.524 .0254441
1117.117 .0254888
1117.712 .0255348
1118.306 .0255817
1118.901 .0256291
1119.496 .0256765
1120.092 .0257239
1120.689 .0257710
1121.285 .0258181
1121.882 .0258654
1122.480 .0259132
1123.078 .0259617
1123.677 .0260111
1124.276 .0260613
1124.875 .0261120
1125.476 .0261630
1126.076 .0262138
1126.677 .0262644
1127.279 .0263151
1127.881 .0263662
1128.484 .0264185
1129.087 .0264440
1129.691 .0264983
1130.295 .0265556
1130.900 .0266167
1131.505 .0266822
1132.111 .0267526
1132.718 .0268285
1133.325 .0269106
1133.933 .0270003
1134.541 .0270946
1135.150 .0271962
1135.760 .0273105
1136.370 .0274425
1136.981 .0271625
1137.592 .0272841
1138.204 .0274290
1138.817 .0275899
1139.431 .0277727
1140.045 .0279715
1140.660 .0281919
1141.275 .0284365
1141.891 .0287160
1142.508 .0289130
1143.126 .0291698
1143.744 .0295737
1144.363 .0301016
1144.983 .0307372
