Measurement Sequence started on: 15-12-46-377
Integration time: 28
Scans to Average: 2 
>>>>>Begin Spectral Data<<<<<
432.689 .0000100
433.621 .0000100
434.552 .0000100
435.482 .0000100
436.410 .0000100
437.337 .0000100
438.262 .0279677
439.187 .0592663
440.110 .0981537
441.031 .1420714
441.952 .1140740
442.871 .1191372
443.789 .1238464
444.705 .1282776
445.621 .1324824
446.535 .1365009
447.447 .1388905
448.359 .1394966
449.269 .1379381
450.178 .1339636
451.086 .1276502
451.993 .1194847
452.898 .1102714
453.803 .1009260
454.706 .0922292
455.608 .0846659
456.508 .0784023
457.408 .0741598
458.306 .0709004
459.204 .0682500
460.100 .0660223
460.995 .0641102
461.888 .0624405
462.781 .0609646
463.673 .0596455
464.563 .0584574
465.452 .0573825
466.340 .0564056
467.228 .0555165
468.114 .0547065
468.999 .0539682
469.882 .0532954
470.765 .0526820
471.647 .0521223
472.528 .0516127
473.407 .0511491
474.286 .0507293
475.163 .0503517
476.040 .0500147
476.915 .0497163
477.790 .0494551
478.663 .0492285
479.535 .0490339
480.407 .0488685
481.277 .0487298
482.147 .0486143
483.015 .0485197
483.883 .0484435
484.749 .0483842
485.615 .0483411
486.479 .0483136
487.343 .0483009
488.206 .0483035
489.067 .0483216
489.928 .0483554
490.788 .0484058
491.647 .0484738
492.505 .0485601
493.362 .0486662
494.218 .0487931
495.073 .0489421
495.928 .0492523
496.781 .0494615
497.634 .0496951
498.486 .0499540
499.337 .0502399
500.187 .0505548
501.036 .0509015
501.884 .0512827
502.731 .0517011
503.578 .0521606
504.424 .0524752
505.268 .0530086
506.113 .0535924
506.956 .0542297
507.798 .0549248
508.640 .0556842
509.480 .0565181
510.320 .0574371
511.160 .0584551
511.998 .0595877
512.836 .0608525
513.672 .0622662
514.508 .0638481
515.344 .0656194
516.178 .0676020
517.012 .0698199
517.845 .0722949
518.677 .0750497
519.508 .0781063
520.339 .0814774
521.169 .0851720
521.998 .0891724
522.826 .0934456
523.654 .0979364
524.481 .1025757
525.307 .1072800
526.133 .1119527
526.958 .1164924
527.782 .1207989
528.605 .1247824
529.428 .1283661
530.250 .1314833
531.072 .1340949
531.892 .1361704
532.712 .1376897
533.532 .1386398
534.350 .1390161
535.168 .1388190
535.986 .1380508
536.802 .1367112
537.618 .1348035
538.434 .1323350
539.249 .1293384
540.063 .1258606
540.876 .1219670
541.689 .1177361
542.501 .1132576
543.313 .1086281
544.124 .1039467
544.934 .0993069
545.744 .0947891
546.553 .0904594
547.361 .0863708
548.169 .0825492
548.976 .0790108
549.783 .0757582
550.589 .0727863
551.395 .0700785
552.200 .0676145
553.004 .0653691
553.808 .0633200
554.611 .0614495
555.414 .0597389
556.216 .0581704
557.018 .0567268
557.819 .0553940
558.619 .0541587
559.419 .0530098
560.218 .0519398
561.017 .0509406
561.815 .0500078
562.613 .0491358
563.410 .0483193
564.207 .0475533
565.003 .0468338
565.799 .0461550
566.594 .0455121
567.388 .0449006
568.182 .0443162
568.976 .0437549
569.769 .0432141
570.562 .0426921
571.354 .0421877
572.145 .0416998
572.936 .0412278
573.727 .0407706
574.517 .0403285
575.307 .0399011
576.096 .0394885
576.885 .0390911
577.673 .0387090
578.461 .0383423
579.248 .0379911
580.035 .0376559
580.821 .0373369
581.607 .0370345
582.392 .0367491
583.177 .0364809
583.962 .0362302
584.746 .0359970
585.529 .0357810
586.313 .0355819
587.095 .0353987
587.878 .0352308
588.660 .0350773
589.441 .0349373
590.222 .0348102
591.003 .0346951
591.783 .0345913
592.563 .0344977
593.342 .0344131
594.121 .0343363
594.899 .0342662
595.678 .0342017
596.455 .0341417
597.233 .0340853
598.009 .0340318
598.786 .0339807
599.562 .0339314
600.338 .0338837
601.113 .0338372
601.888 .0337679
602.663 .0337229
603.437 .0336784
604.211 .0336341
604.984 .0335899
605.757 .0335460
606.530 .0335022
607.302 .0334588
608.074 .0334159
608.845 .0333734
609.616 .0333317
610.387 .0333132
611.158 .0332727
611.928 .0332329
612.697 .0331938
613.467 .0331554
614.236 .0331180
615.004 .0330814
615.773 .0330457
616.541 .0330108
617.308 .0329768
618.076 .0329434
618.843 .0329106
619.609 .0328781
620.375 .0328458
621.141 .0328137
621.907 .0327816
622.672 .0327494
623.437 .0327171
624.202 .0326847
624.966 .0326520
625.730 .0326190
626.493 .0325856
627.257 .0325516
628.020 .0325171
628.782 .0324820
629.545 .0324463
630.307 .0324101
631.068 .0323735
631.830 .0323365
632.591 .0322993
633.352 .0322620
634.112 .0322247
634.872 .0321876
635.632 .0321507
636.392 .0321143
637.151 .0320783
637.910 .0320428
638.668 .0320081
639.427 .0319740
640.185 .0319407
640.943 .0319083
641.700 .0318768
642.457 .0318462
643.214 .0318166
643.971 .0317881
644.727 .0317606
645.483 .0317342
646.239 .0317088
646.994 .0316845
647.750 .0316611
648.505 .0316387
649.259 .0316171
650.014 .0315962
650.768 .0315759
651.521 .0315560
652.275 .0315366
653.028 .0315174
653.781 .0314984
654.534 .0314794
655.286 .0314604
656.039 .0314413
656.791 .0314219
657.542 .0314024
658.294 .0313825
659.045 .0313622
659.796 .0313415
660.546 .0313205
661.297 .0312992
662.047 .0312776
662.796 .0312558
663.546 .0312339
664.295 .0312120
665.044 .0311900
665.793 .0311682
666.542 .0311465
667.290 .0311250
668.038 .0311038
668.786 .0310827
669.533 .0310619
670.281 .0310414
671.028 .0310211
671.774 .0310011
672.521 .0309814
673.267 .0309620
674.013 .0309428
674.759 .0309238
675.505 .0309050
676.250 .0308862
676.995 .0308676
677.740 .0308490
678.484 .0308304
679.229 .0308118
679.973 .0307932
680.717 .0307746
681.460 .0307560
682.204 .0307373
682.947 .0307184
683.690 .0306994
684.433 .0306802
685.175 .0306607
685.917 .0306408
686.659 .0306207
687.401 .0306002
688.142 .0305794
688.884 .0305583
689.625 .0305368
690.365 .0305149
691.106 .0304927
691.846 .0304700
692.586 .0304469
693.326 .0304233
694.066 .0303992
694.805 .0303746
695.545 .0303495
696.284 .0303240
697.022 .0302980
697.761 .0302717
698.499 .0302451
699.237 .0302183
699.975 .0301913
700.713 .0301642
701.450 .0301370
702.187 .0301098
702.924 .0300825
703.661 .0300551
704.397 .0300277
705.133 .0300003
705.869 .0299730
706.605 .0299457
707.341 .0299186
708.076 .0298917
708.811 .0298653
709.546 .0298392
710.281 .0298136
711.015 .0297885
711.749 .0297638
712.483 .0297394
713.217 .0297154
713.950 .0296915
714.684 .0296678
715.417 .0296443
716.150 .0296208
716.882 .0295974
717.615 .0295740
718.347 .0295509
719.079 .0295279
719.811 .0295052
720.542 .0294826
721.273 .0294603
722.005 .0294383
722.735 .0294165
723.466 .0293950
724.196 .0293738
724.927 .0293530
725.656 .0293326
726.386 .0293129
727.116 .0292938
727.845 .0292755
728.574 .0292581
729.303 .0292416
730.031 .0292260
730.760 .0292113
731.488 .0291976
732.216 .0291848
732.944 .0291728
733.671 .0291618
734.398 .0291516
735.125 .0291422
735.852 .0291335
736.579 .0291256
737.305 .0291184
738.031 .0291119
738.757 .0291060
739.483 .0291007
740.208 .0290960
740.933 .0290918
741.658 .0290880
742.383 .0290846
743.108 .0290813
743.832 .0290781
744.556 .0290750
745.280 .0290718
746.004 .0290685
746.727 .0290650
747.450 .0290613
748.173 .0290573
748.896 .0290529
749.618 .0290481
750.340 .0290428
751.062 .0290370
751.784 .0290306
752.506 .0290237
753.227 .0290162
753.948 .0290082
754.669 .0289997
755.389 .0289907
756.110 .0289813
756.830 .0289714
757.550 .0289611
758.269 .0289503
758.989 .0289392
759.708 .0289277
760.427 .0289160
761.146 .0289040
761.864 .0288918
762.582 .0288794
763.300 .0288667
764.018 .0288537
764.736 .0288405
765.453 .0288270
766.170 .0288134
766.887 .0287997
767.603 .0287859
768.320 .0287721
769.036 .0287585
769.751 .0287450
770.467 .0287316
771.182 .0287184
771.897 .0287054
772.612 .0286925
773.327 .0286798
774.041 .0286673
774.755 .0286549
775.469 .0286427
776.183 .0286308
776.896 .0286192
777.609 .0286079
778.322 .0285968
779.035 .0285860
779.747 .0285755
780.459 .0285652
781.171 .0285551
781.882 .0285453
782.594 .0285355
783.305 .0285258
784.016 .0285160
784.726 .0285062
785.436 .0284962
786.147 .0284799
786.856 .0284689
787.566 .0284576
788.275 .0284459
788.984 .0284337
789.693 .0284210
790.401 .0284078
791.110 .0283940
791.818 .0283795
792.525 .0283643
793.233 .0283483
793.940 .0283315
794.647 .0283214
795.353 .0283036
796.060 .0282852
796.766 .0282662
797.472 .0282466
798.177 .0282265
798.883 .0282059
799.588 .0281849
800.292 .0281635
800.997 .0281416
801.701 .0281194
802.405 .0280968
803.109 .0280738
803.812 .0280505
804.515 .0280269
805.218 .0280031
805.921 .0279790
806.623 .0279546
807.325 .0279302
808.027 .0279056
808.728 .0278809
809.429 .0278561
810.130 .0278314
810.831 .0278066
811.531 .0277821
812.231 .0277577
812.931 .0277335
813.630 .0277097
814.330 .0276863
815.029 .0276633
815.727 .0276409
816.426 .0276191
817.124 .0275980
817.821 .0275775
818.519 .0275579
819.216 .0275391
819.913 .0275212
820.609 .0275043
821.306 .0274885
822.002 .0274736
822.697 .0274598
823.393 .0274470
824.088 .0274352
824.783 .0274245
825.477 .0274149
826.171 .0274062
826.865 .0273986
827.559 .0273920
828.252 .0273863
828.945 .0273815
829.638 .0273775
830.330 .0273744
831.023 .0273718
831.714 .0273699
832.406 .0273685
833.097 .0273675
833.788 .0273669
834.479 .0273668
835.169 .0273671
835.859 .0273677
836.548 .0273688
837.238 .0273702
837.927 .0273720
838.615 .0273740
839.304 .0273762
839.992 .0273785
840.680 .0273809
841.367 .0273833
842.054 .0273858
842.741 .0273882
843.428 .0273907
844.114 .0273931
844.800 .0273953
845.485 .0273974
846.170 .0273993
846.855 .0274008
847.540 .0274019
848.224 .0274027
848.908 .0274030
849.592 .0274029
850.275 .0274024
850.958 .0274013
851.641 .0273997
852.323 .0273975
853.005 .0273947
853.687 .0273913
854.368 .0273873
855.049 .0273827
855.730 .0273775
856.410 .0273719
857.090 .0273659
857.769 .0273595
858.449 .0273528
859.128 .0273456
859.806 .0273381
860.485 .0273303
861.163 .0273221
861.840 .0273137
862.518 .0273051
863.195 .0272965
863.871 .0272879
864.548 .0272793
865.224 .0272709
865.899 .0272628
866.574 .0272549
867.249 .0272472
867.924 .0272399
868.598 .0272329
869.272 .0272263
869.946 .0272201
870.619 .0272143
871.292 .0272090
871.964 .0272040
872.636 .0271994
873.308 .0271951
873.979 .0271911
874.651 .0271874
875.321 .0271839
875.992 .0271806
876.662 .0271775
877.331 .0271746
878.001 .0271719
878.670 .0271692
879.338 .0271666
880.007 .0271640
880.675 .0271615
881.342 .0271590
882.009 .0271566
882.676 .0271543
883.343 .0271521
884.009 .0271501
884.675 .0271482
885.340 .0271464
886.005 .0271448
886.670 .0271431
887.334 .0271415
887.998 .0271398
888.662 .0271381
889.325 .0271363
889.988 .0271344
890.650 .0271324
891.312 .0271301
891.974 .0271276
892.636 .0271246
893.297 .0271212
893.957 .0271173
894.618 .0271127
895.278 .0271073
895.937 .0271012
896.596 .0270943
897.255 .0270863
897.914 .0270774
898.572 .0270673
899.230 .0270561
899.887 .0270437
900.544 .0270299
901.201 .0270148
901.857 .0269858
902.513 .0269674
903.168 .0269476
903.823 .0269265
904.478 .0269041
905.132 .0268805
905.786 .0268557
906.440 .0268298
907.093 .0268029
907.746 .0267752
908.399 .0267468
909.051 .0267179
909.703 .0266885
910.354 .0266735
911.005 .0266442
911.656 .0266147
912.306 .0265852
912.956 .0265558
913.605 .0265264
914.254 .0264972
914.903 .0264681
915.551 .0264391
916.199 .0264103
916.847 .0263815
917.494 .0263528
918.141 .0263242
918.788 .0262957
919.434 .0262671
920.079 .0262385
920.725 .0262098
921.370 .0261811
922.014 .0261522
922.658 .0261232
923.302 .0260939
923.946 .0260645
924.589 .0260349
925.231 .0260051
925.873 .0259751
926.515 .0259451
927.157 .0259150
927.798 .0258849
928.439 .0258548
929.079 .0258248
929.719 .0257950
930.359 .0257653
930.998 .0257357
931.637 .0257065
932.275 .0256775
932.913 .0256489
933.551 .0256209
934.188 .0255935
934.825 .0255668
935.462 .0255411
936.098 .0255162
936.733 .0254924
937.369 .0254696
938.004 .0254477
938.638 .0254269
939.273 .0254069
939.907 .0253880
940.540 .0253699
941.173 .0253528
941.806 .0253366
942.438 .0253212
943.070 .0253067
943.702 .0252929
944.333 .0252796
944.964 .0252669
945.594 .0252545
946.224 .0252424
946.854 .0252305
947.483 .0252187
948.112 .0252071
948.741 .0251957
949.369 .0251844
949.996 .0251733
950.624 .0251623
951.251 .0251515
951.878 .0251407
952.504 .0251299
953.130 .0251191
953.755 .0251083
954.380 .0250976
955.005 .0250870
955.629 .0250765
956.253 .0250663
956.877 .0250563
957.500 .0250468
958.123 .0250376
958.746 .0250288
959.368 .0250204
959.990 .0250123
960.611 .0250048
961.232 .0249976
961.853 .0249909
962.473 .0249848
963.093 .0249792
963.712 .0249742
964.331 .0249698
964.950 .0249660
965.569 .0249627
966.187 .0249599
966.804 .0249576
967.422 .0249557
968.039 .0249542
968.655 .0249530
969.272 .0249521
969.887 .0249517
970.503 .0249516
971.118 .0249519
971.733 .0249526
972.347 .0249536
972.961 .0249549
973.575 .0249564
974.188 .0249581
974.801 .0249597
975.414 .0249615
976.026 .0249632
976.638 .0249649
977.250 .0249667
977.861 .0249685
978.472 .0249704
979.083 .0249724
979.693 .0249744
980.303 .0249765
980.912 .0249793
981.521 .0249810
982.130 .0249827
982.738 .0249844
983.346 .0249861
983.954 .0249881
984.562 .0249904
985.169 .0249930
985.775 .0249962
986.382 .0249997
986.988 .0250037
987.594 .0250080
988.199 .0250126
988.804 .0250173
989.409 .0250210
990.013 .0250263
990.617 .0250319
991.221 .0250380
991.824 .0250444
992.427 .0250514
993.030 .0250589
993.632 .0250667
994.234 .0250749
994.836 .0250834
995.438 .0250922
996.039 .0251012
996.640 .0251104
997.240 .0251199
997.840 .0251299
998.440 .0251404
999.040 .0251515
999.639 .0251631
1000.238 .0251753
1000.836 .0251879
1001.435 .0252008
1002.033 .0252139
1002.630 .0252271
1003.228 .0252404
1003.825 .0252537
1004.422 .0252670
1005.018 .0252803
1005.614 .0252936
1006.210 .0253069
1006.806 .0253201
1007.401 .0253332
1007.996 .0253460
1008.591 .0253586
1009.186 .0253708
1009.780 .0253828
1010.374 .0253946
1010.967 .0254061
1011.561 .0254176
1012.154 .0254289
1012.746 .0254402
1013.339 .0254515
1013.931 .0254627
1014.523 .0254738
1015.115 .0254848
1015.706 .0254956
1016.298 .0255062
1016.888 .0255168
1017.479 .0255274
1018.069 .0255380
1018.660 .0255486
1019.250 .0255594
1019.839 .0255702
1020.429 .0255810
1021.018 .0255917
1021.607 .0256024
1022.195 .0256131
1022.784 .0256238
1023.372 .0256346
1023.960 .0256456
1024.547 .0256568
1025.135 .0256684
1025.722 .0256802
1026.309 .0256923
1026.896 .0257045
1027.483 .0257167
1028.069 .0257289
1028.655 .0257408
1029.241 .0257525
1029.827 .0257639
1030.412 .0257750
1030.997 .0257859
1031.582 .0257967
1032.167 .0258072
1032.752 .0258174
1033.336 .0258274
1033.921 .0258369
1034.505 .0258457
1035.089 .0258540
1035.672 .0258616
1036.256 .0258686
1036.839 .0258749
1037.422 .0258808
1038.005 .0258863
1038.588 .0258915
1039.171 .0258965
1039.753 .0259011
1040.335 .0259054
1040.918 .0259091
1041.500 .0259122
1042.081 .0259147
1042.663 .0259165
1043.244 .0259176
1043.826 .0259183
1044.407 .0259186
1044.988 .0259185
1045.569 .0259181
1046.150 .0259174
1046.730 .0259163
1047.311 .0259147
1047.891 .0259124
1048.471 .0259093
1049.052 .0259054
1049.632 .0259008
1050.211 .0258956
1050.791 .0258898
1051.371 .0258837
1051.950 .0258773
1052.530 .0258704
1053.109 .0258632
1053.688 .0258554
1054.268 .0258471
1054.847 .0258380
1055.426 .0258283
1056.005 .0258179
1056.583 .0258071
1057.162 .0257958
1057.741 .0257843
1058.319 .0257726
1058.898 .0257607
1059.476 .0257484
1060.055 .0257359
1060.633 .0257229
1061.211 .0257093
1061.790 .0256953
1062.368 .0256809
1062.946 .0256662
1063.524 .0256514
1064.102 .0256365
1064.680 .0256216
1065.258 .0256069
1065.836 .0255923
1066.414 .0255776
1066.992 .0255630
1067.570 .0255484
1068.148 .0255336
1068.726 .0255189
1069.304 .0255043
1069.882 .0254900
1070.460 .0254761
1071.038 .0254626
1071.616 .0254497
1072.194 .0254373
1072.772 .0254252
1073.350 .0254133
1073.928 .0254013
1074.506 .0253892
1075.084 .0253770
1075.662 .0253646
1076.240 .0253524
1076.819 .0253402
1077.397 .0253285
1077.976 .0253172
1078.554 .0253064
1079.133 .0252962
1079.711 .0252865
1080.290 .0252773
1080.869 .0252684
1081.448 .0252599
1082.027 .0252516
1082.606 .0252437
1083.185 .0252361
1083.764 .0252289
1084.343 .0252222
1084.923 .0252159
1085.502 .0252099
1086.082 .0252043
1086.662 .0251987
1087.242 .0251932
1087.822 .0251875
1088.402 .0251815
1088.983 .0251753
1089.563 .0251690
1090.144 .0251627
1090.725 .0251565
1091.306 .0251507
1091.887 .0251452
1092.469 .0251402
1093.050 .0251357
1093.632 .0251318
1094.214 .0251284
1094.796 .0251256
1095.379 .0251235
1095.961 .0251219
1096.544 .0251211
1097.127 .0251212
1097.710 .0251222
1098.294 .0251241
1098.877 .0251269
1099.461 .0251302
1100.046 .0251342
1100.630 .0251386
1101.215 .0251434
1101.800 .0251488
1102.385 .0251548
1102.970 .0251615
1103.556 .0251690
1104.142 .0251774
1104.728 .0251867
1105.315 .0251969
1105.902 .0252081
1106.489 .0252201
1107.077 .0252331
1107.664 .0252471
1108.253 .0252624
1108.841 .0252790
1109.430 .0252972
1110.019 .0253171
1110.609 .0253385
1111.198 .0253615
1111.789 .0253858
1112.379 .0254115
1112.970 .0254383
1113.561 .0254660
1114.153 .0254946
1114.745 .0255242
1115.338 .0255548
1115.931 .0255864
1116.524 .0256193
1117.117 .0256535
1117.712 .0256890
1118.306 .0257258
1118.901 .0257639
1119.496 .0258033
1120.092 .0258439
1120.689 .0258857
1121.285 .0259288
1121.882 .0259731
1122.480 .0260190
1123.078 .0260667
1123.677 .0261167
1124.276 .0261692
1124.875 .0262245
1125.476 .0262827
1126.076 .0263440
1126.677 .0264083
1127.279 .0264756
1127.881 .0265457
1128.484 .0266183
1129.087 .0266471
1129.691 .0267227
1130.295 .0268008
1130.900 .0268816
1131.505 .0269654
1132.111 .0270522
1132.718 .0271420
1133.325 .0272346
1133.933 .0273304
1134.541 .0274356
1135.150 .0275364
1135.760 .0276362
1136.370 .0277364
1136.981 .0278666
1137.592 .0279859
1138.204 .0281040
1138.817 .0282274
1139.431 .0283592
1140.045 .0284898
1140.660 .0286203
1141.275 .0287481
1141.891 .0288827
1142.508 .0291917
1143.126 .0291151
1143.744 .0291356
1144.363 .0291969
1144.983 .0296759
