Measurement Sequence started on: 15-12-46-377
Integration time: 28
Scans to Average: 2 
>>>>>Begin Spectral Data<<<<<
432.689 .0000100
433.621 .0000100
434.552 .0000100
435.482 .0000100
436.410 .0000100
437.337 .0000100
438.262 .0289915
439.187 .0613014
440.110 .1015053
441.031 .1468441
441.952 .1179133
442.871 .1231965
443.789 .1281176
444.705 .1327486
445.621 .1371388
446.535 .1413288
447.447 .1438225
448.359 .1444678
449.269 .1428703
450.178 .1387764
451.086 .1322695
451.993 .1238533
452.898 .1143590
453.803 .1047304
454.706 .0957691
455.608 .0879709
456.508 .0815016
457.408 .0771081
458.306 .0737120
459.204 .0709348
460.100 .0685874
460.995 .0665651
461.888 .0647986
462.781 .0632407
463.673 .0618528
464.563 .0606075
465.452 .0594829
466.340 .0584601
467.228 .0575244
468.114 .0566657
468.999 .0558757
469.882 .0551479
470.765 .0544772
471.647 .0538592
472.528 .0532903
473.407 .0527668
474.286 .0522858
475.163 .0518444
476.040 .0514398
476.915 .0510701
477.790 .0507331
478.663 .0504278
479.535 .0501537
480.407 .0499100
481.277 .0496959
482.147 .0495104
483.015 .0493522
483.883 .0492199
484.749 .0491119
485.615 .0490270
486.479 .0489645
487.343 .0489236
488.206 .0489045
489.067 .0489061
489.928 .0489289
490.788 .0489723
491.647 .0490361
492.505 .0491198
493.362 .0492232
494.218 .0493460
495.073 .0494882
495.928 .0497700
496.781 .0499615
497.634 .0501725
498.486 .0504032
499.337 .0506543
500.187 .0509269
501.036 .0512225
501.884 .0515438
502.731 .0518952
503.578 .0522807
504.424 .0525447
505.268 .0530009
506.113 .0535072
506.956 .0540696
507.798 .0546951
508.640 .0553926
509.480 .0561740
510.320 .0570527
511.160 .0580433
511.998 .0591629
512.836 .0604324
513.672 .0618723
514.508 .0635058
515.344 .0653560
516.178 .0674464
517.012 .0698010
517.845 .0724401
518.677 .0753818
519.508 .0786402
520.339 .0822213
521.169 .0861254
521.998 .0903264
522.826 .0947867
523.654 .0994495
524.481 .1042472
525.307 .1091005
526.133 .1139204
526.958 .1186105
527.782 .1230739
528.605 .1272201
529.428 .1309666
530.250 .1342369
531.072 .1369764
531.892 .1391404
532.712 .1407008
533.532 .1416404
534.350 .1419554
535.168 .1416527
535.986 .1407468
536.802 .1392509
537.618 .1371782
538.434 .1345446
539.249 .1313899
540.063 .1277631
540.876 .1237284
541.689 .1193608
542.501 .1147450
543.313 .1099715
544.124 .1051356
544.934 .1003293
545.744 .0956360
546.553 .0911280
547.361 .0868673
548.169 .0828916
548.976 .0792271
549.783 .0758829
550.589 .0728557
551.395 .0701277
552.200 .0676728
553.004 .0654584
553.808 .0634549
554.611 .0616386
555.414 .0599887
556.216 .0584850
557.018 .0571100
557.819 .0558502
558.619 .0546913
559.419 .0536218
560.218 .0526320
561.017 .0517119
561.815 .0508530
562.613 .0500478
563.410 .0492881
564.207 .0485669
565.003 .0478790
565.799 .0472184
566.594 .0465808
567.388 .0459629
568.182 .0453618
568.976 .0447754
569.769 .0442034
570.562 .0436455
571.354 .0431016
572.145 .0425728
572.936 .0420599
573.727 .0415633
574.517 .0410833
575.307 .0406204
576.096 .0401739
576.885 .0397436
577.673 .0393295
578.461 .0389316
579.248 .0385503
580.035 .0381866
580.821 .0378409
581.607 .0375143
582.392 .0372074
583.177 .0369205
583.962 .0366536
584.746 .0364066
585.529 .0361787
586.313 .0359689
587.095 .0357762
587.878 .0355996
588.660 .0354381
589.441 .0352907
590.222 .0351565
591.003 .0350344
591.783 .0349236
592.563 .0348232
593.342 .0347319
594.121 .0346487
594.899 .0345724
595.678 .0345018
596.455 .0344358
597.233 .0343734
598.009 .0343137
598.786 .0342561
599.562 .0342000
600.338 .0341450
601.113 .0340909
601.888 .0340112
602.663 .0339587
603.437 .0339070
604.211 .0338563
604.984 .0338064
605.757 .0337574
606.530 .0337094
607.302 .0336623
608.074 .0336161
608.845 .0335709
609.616 .0335266
610.387 .0335074
611.158 .0334649
611.928 .0334236
612.697 .0333835
613.467 .0333447
614.236 .0333073
615.004 .0332712
615.773 .0332363
616.541 .0332024
617.308 .0331693
618.076 .0331368
618.843 .0331048
619.609 .0330729
620.375 .0330411
621.141 .0330091
621.907 .0329769
622.672 .0329444
623.437 .0329116
624.202 .0328783
624.966 .0328446
625.730 .0328103
626.493 .0327754
627.257 .0327398
628.020 .0327035
628.782 .0326664
629.545 .0326286
630.307 .0325901
631.068 .0325510
631.830 .0325114
632.591 .0324715
633.352 .0324314
634.112 .0323914
634.872 .0323516
635.632 .0323121
636.392 .0322730
637.151 .0322344
637.910 .0321963
638.668 .0321587
639.427 .0321217
640.185 .0320854
640.943 .0320498
641.700 .0320150
642.457 .0319812
643.214 .0319486
643.971 .0319171
644.727 .0318868
645.483 .0318577
646.239 .0318296
646.994 .0318024
647.750 .0317761
648.505 .0317506
649.259 .0317256
650.014 .0317012
650.768 .0316774
651.521 .0316542
652.275 .0316317
653.028 .0316097
653.781 .0315884
654.534 .0315676
655.286 .0315474
656.039 .0315277
656.791 .0315083
657.542 .0314894
658.294 .0314708
659.045 .0314524
659.796 .0314342
660.546 .0314161
661.297 .0313980
662.047 .0313800
662.796 .0313618
663.546 .0313436
664.295 .0313254
665.044 .0313072
665.793 .0312891
666.542 .0312711
667.290 .0312531
668.038 .0312352
668.786 .0312172
669.533 .0311992
670.281 .0311810
671.028 .0311626
671.774 .0311441
672.521 .0311255
673.267 .0311069
674.013 .0310883
674.759 .0310697
675.505 .0310511
676.250 .0310325
676.995 .0310139
677.740 .0309953
678.484 .0309765
679.229 .0309577
679.973 .0309388
680.717 .0309198
681.460 .0309007
682.204 .0308815
682.947 .0308620
683.690 .0308423
684.433 .0308223
685.175 .0308020
685.917 .0307812
686.659 .0307601
687.401 .0307386
688.142 .0307167
688.884 .0306944
689.625 .0306715
690.365 .0306481
691.106 .0306241
691.846 .0305994
692.586 .0305740
693.326 .0305479
694.066 .0305212
694.805 .0304941
695.545 .0304665
696.284 .0304386
697.022 .0304104
697.761 .0303820
698.499 .0303535
699.237 .0303248
699.975 .0302961
700.713 .0302675
701.450 .0302389
702.187 .0302106
702.924 .0301825
703.661 .0301547
704.397 .0301272
705.133 .0301001
705.869 .0300732
706.605 .0300466
707.341 .0300203
708.076 .0299944
708.811 .0299689
709.546 .0299437
710.281 .0299189
711.015 .0298943
711.749 .0298701
712.483 .0298461
713.217 .0298222
713.950 .0297985
714.684 .0297748
715.417 .0297513
716.150 .0297276
716.882 .0297040
717.615 .0296802
718.347 .0296563
719.079 .0296322
719.811 .0296079
720.542 .0295834
721.273 .0295589
722.005 .0295343
722.735 .0295098
723.466 .0294856
724.196 .0294617
724.927 .0294382
725.656 .0294153
726.386 .0293929
727.116 .0293713
727.845 .0293504
728.574 .0293304
729.303 .0293113
730.031 .0292933
730.760 .0292763
731.488 .0292604
732.216 .0292456
732.944 .0292320
733.671 .0292194
734.398 .0292079
735.125 .0291974
735.852 .0291880
736.579 .0291796
737.305 .0291722
738.031 .0291657
738.757 .0291599
739.483 .0291549
740.208 .0291504
740.933 .0291463
741.658 .0291426
742.383 .0291391
743.108 .0291357
743.832 .0291325
744.556 .0291294
745.280 .0291262
746.004 .0291230
746.727 .0291196
747.450 .0291160
748.173 .0291121
748.896 .0291078
749.618 .0291032
750.340 .0290982
751.062 .0290928
751.784 .0290870
752.506 .0290808
753.227 .0290743
753.948 .0290674
754.669 .0290603
755.389 .0290528
756.110 .0290450
756.830 .0290371
757.550 .0290291
758.269 .0290210
758.989 .0290129
759.708 .0290047
760.427 .0289964
761.146 .0289880
761.864 .0289795
762.582 .0289707
763.300 .0289617
764.018 .0289524
764.736 .0289430
765.453 .0289335
766.170 .0289238
766.887 .0289141
767.603 .0289044
768.320 .0288946
769.036 .0288847
769.751 .0288748
770.467 .0288646
771.182 .0288544
771.897 .0288439
772.612 .0288333
773.327 .0288226
774.041 .0288116
774.755 .0288005
775.469 .0287893
776.183 .0287780
776.896 .0287667
777.609 .0287553
778.322 .0287440
779.035 .0287327
779.747 .0287215
780.459 .0287103
781.171 .0286991
781.882 .0286879
782.594 .0286767
783.305 .0286655
784.016 .0286542
784.726 .0286429
785.436 .0286316
786.147 .0286150
786.856 .0286036
787.566 .0285923
788.275 .0285808
788.984 .0285693
789.693 .0285576
790.401 .0285457
791.110 .0285334
791.818 .0285208
792.525 .0285076
793.233 .0284939
793.940 .0284795
794.647 .0284706
795.353 .0284552
796.060 .0284391
796.766 .0284224
797.472 .0284049
798.177 .0283868
798.883 .0283678
799.588 .0283481
800.292 .0283276
800.997 .0283063
801.701 .0282841
802.405 .0282611
803.109 .0282374
803.812 .0282130
804.515 .0281879
805.218 .0281622
805.921 .0281360
806.623 .0281092
807.325 .0280819
808.027 .0280543
808.728 .0280264
809.429 .0279982
810.130 .0279700
810.831 .0279418
811.531 .0279137
812.231 .0278858
812.931 .0278581
813.630 .0278309
814.330 .0278040
815.029 .0277778
815.727 .0277521
816.426 .0277272
817.124 .0277032
817.821 .0276802
818.519 .0276581
819.216 .0276371
819.913 .0276171
820.609 .0275981
821.306 .0275802
822.002 .0275634
822.697 .0275477
823.393 .0275331
824.088 .0275196
824.783 .0275073
825.477 .0274960
826.171 .0274858
826.865 .0274767
827.559 .0274684
828.252 .0274610
828.945 .0274545
829.638 .0274488
830.330 .0274438
831.023 .0274395
831.714 .0274359
832.406 .0274328
833.097 .0274303
833.788 .0274281
834.479 .0274264
835.169 .0274251
835.859 .0274241
836.548 .0274234
837.238 .0274230
837.927 .0274230
838.615 .0274231
839.304 .0274235
839.992 .0274239
840.680 .0274245
841.367 .0274250
842.054 .0274256
842.741 .0274262
843.428 .0274268
844.114 .0274274
844.800 .0274280
845.485 .0274286
846.170 .0274290
846.855 .0274291
847.540 .0274291
848.224 .0274286
848.908 .0274278
849.592 .0274265
850.275 .0274248
850.958 .0274228
851.641 .0274203
852.323 .0274173
853.005 .0274140
853.687 .0274103
854.368 .0274062
855.049 .0274017
855.730 .0273968
856.410 .0273918
857.090 .0273865
857.769 .0273811
858.449 .0273757
859.128 .0273702
859.806 .0273647
860.485 .0273592
861.163 .0273538
861.840 .0273483
862.518 .0273430
863.195 .0273378
863.871 .0273327
864.548 .0273279
865.224 .0273234
865.899 .0273191
866.574 .0273151
867.249 .0273114
867.924 .0273079
868.598 .0273047
869.272 .0273016
869.946 .0272988
870.619 .0272961
871.292 .0272936
871.964 .0272913
872.636 .0272893
873.308 .0272874
873.979 .0272858
874.651 .0272844
875.321 .0272832
875.992 .0272821
876.662 .0272813
877.331 .0272806
878.001 .0272801
878.670 .0272797
879.338 .0272794
880.007 .0272792
880.675 .0272791
881.342 .0272791
882.009 .0272791
882.676 .0272793
883.343 .0272796
884.009 .0272801
884.675 .0272807
885.340 .0272815
886.005 .0272825
886.670 .0272836
887.334 .0272848
887.998 .0272860
888.662 .0272872
889.325 .0272885
889.988 .0272897
890.650 .0272908
891.312 .0272918
891.974 .0272927
892.636 .0272934
893.297 .0272938
893.957 .0272939
894.618 .0272936
895.278 .0272928
895.937 .0272913
896.596 .0272892
897.255 .0272862
897.914 .0272824
898.572 .0272777
899.230 .0272720
899.887 .0272653
900.544 .0272574
901.201 .0272484
901.857 .0272292
902.513 .0272166
903.168 .0272027
903.823 .0271875
904.478 .0271708
905.132 .0271528
905.786 .0271335
906.440 .0271128
907.093 .0270909
907.746 .0270677
908.399 .0270433
909.051 .0270177
909.703 .0269911
910.354 .0269755
911.005 .0269479
911.656 .0269195
912.306 .0268905
912.956 .0268608
913.605 .0268306
914.254 .0268000
914.903 .0267690
915.551 .0267377
916.199 .0267061
916.847 .0266744
917.494 .0266424
918.141 .0266102
918.788 .0265779
919.434 .0265455
920.079 .0265129
920.725 .0264802
921.370 .0264474
922.014 .0264145
922.658 .0263816
923.302 .0263486
923.946 .0263155
924.589 .0262824
925.231 .0262493
925.873 .0262161
926.515 .0261830
927.157 .0261498
927.798 .0261168
928.439 .0260840
929.079 .0260513
929.719 .0260190
930.359 .0259871
930.998 .0259558
931.637 .0259250
932.275 .0258947
932.913 .0258652
933.551 .0258363
934.188 .0258082
934.825 .0257809
935.462 .0257543
936.098 .0257286
936.733 .0257037
937.369 .0256797
938.004 .0256564
938.638 .0256340
939.273 .0256124
939.907 .0255916
940.540 .0255715
941.173 .0255521
941.806 .0255333
942.438 .0255152
943.070 .0254976
943.702 .0254805
944.333 .0254639
944.964 .0254476
945.594 .0254317
946.224 .0254162
946.854 .0254009
947.483 .0253858
948.112 .0253709
948.741 .0253561
949.369 .0253414
949.996 .0253269
950.624 .0253124
951.251 .0252980
951.878 .0252838
952.504 .0252697
953.130 .0252558
953.755 .0252422
954.380 .0252288
955.005 .0252158
955.629 .0252031
956.253 .0251908
956.877 .0251789
957.500 .0251674
958.123 .0251563
958.746 .0251457
959.368 .0251355
959.990 .0251259
960.611 .0251169
961.232 .0251084
961.853 .0251004
962.473 .0250928
963.093 .0250857
963.712 .0250789
964.331 .0250725
964.950 .0250662
965.569 .0250603
966.187 .0250546
966.804 .0250491
967.422 .0250439
968.039 .0250388
968.655 .0250339
969.272 .0250291
969.887 .0250244
970.503 .0250198
971.118 .0250154
971.733 .0250109
972.347 .0250065
972.961 .0250021
973.575 .0249978
974.188 .0249935
974.801 .0249893
975.414 .0249851
976.026 .0249811
976.638 .0249771
977.250 .0249733
977.861 .0249696
978.472 .0249661
979.083 .0249626
979.693 .0249594
980.303 .0249564
980.912 .0249532
981.521 .0249512
982.130 .0249497
982.738 .0249488
983.346 .0249485
983.954 .0249487
984.562 .0249496
985.169 .0249511
985.775 .0249532
986.382 .0249559
986.988 .0249593
987.594 .0249635
988.199 .0249685
988.804 .0249743
989.409 .0249798
990.013 .0249870
990.617 .0249951
991.221 .0250038
991.824 .0250133
992.427 .0250232
993.030 .0250335
993.632 .0250442
994.234 .0250551
994.836 .0250663
995.438 .0250778
996.039 .0250896
996.640 .0251016
997.240 .0251138
997.840 .0251262
998.440 .0251388
999.040 .0251514
999.639 .0251639
1000.238 .0251764
1000.836 .0251888
1001.435 .0252012
1002.033 .0252136
1002.630 .0252260
1003.228 .0252385
1003.825 .0252510
1004.422 .0252636
1005.018 .0252761
1005.614 .0252886
1006.210 .0253010
1006.806 .0253134
1007.401 .0253256
1007.996 .0253377
1008.591 .0253497
1009.186 .0253617
1009.780 .0253738
1010.374 .0253861
1010.967 .0253985
1011.561 .0254112
1012.154 .0254242
1012.746 .0254375
1013.339 .0254512
1013.931 .0254653
1014.523 .0254798
1015.115 .0254948
1015.706 .0255101
1016.298 .0255258
1016.888 .0255418
1017.479 .0255582
1018.069 .0255748
1018.660 .0255917
1019.250 .0256088
1019.839 .0256262
1020.429 .0256437
1021.018 .0256615
1021.607 .0256793
1022.195 .0256973
1022.784 .0257152
1023.372 .0257332
1023.960 .0257511
1024.547 .0257690
1025.135 .0257868
1025.722 .0258046
1026.309 .0258223
1026.896 .0258400
1027.483 .0258577
1028.069 .0258752
1028.655 .0258926
1029.241 .0259098
1029.827 .0259266
1030.412 .0259429
1030.997 .0259588
1031.582 .0259742
1032.167 .0259891
1032.752 .0260034
1033.336 .0260173
1033.921 .0260306
1034.505 .0260434
1035.089 .0260556
1035.672 .0260672
1036.256 .0260781
1036.839 .0260881
1037.422 .0260973
1038.005 .0261056
1038.588 .0261129
1039.171 .0261194
1039.753 .0261250
1040.335 .0261298
1040.918 .0261339
1041.500 .0261372
1042.081 .0261397
1042.663 .0261416
1043.244 .0261426
1043.826 .0261429
1044.407 .0261423
1044.988 .0261410
1045.569 .0261390
1046.150 .0261363
1046.730 .0261329
1047.311 .0261290
1047.891 .0261245
1048.471 .0261194
1049.052 .0261136
1049.632 .0261072
1050.211 .0261001
1050.791 .0260923
1051.371 .0260838
1051.950 .0260746
1052.530 .0260649
1053.109 .0260546
1053.688 .0260438
1054.268 .0260325
1054.847 .0260207
1055.426 .0260085
1056.005 .0259959
1056.583 .0259829
1057.162 .0259696
1057.741 .0259561
1058.319 .0259425
1058.898 .0259290
1059.476 .0259156
1060.055 .0259024
1060.633 .0258895
1061.211 .0258768
1061.790 .0258644
1062.368 .0258522
1062.946 .0258403
1063.524 .0258287
1064.102 .0258173
1064.680 .0258063
1065.258 .0257957
1065.836 .0257856
1066.414 .0257760
1066.992 .0257670
1067.570 .0257584
1068.148 .0257502
1068.726 .0257424
1069.304 .0257350
1069.882 .0257280
1070.460 .0257214
1071.038 .0257153
1071.616 .0257097
1072.194 .0257045
1072.772 .0256996
1073.350 .0256949
1073.928 .0256904
1074.506 .0256858
1075.084 .0256810
1075.662 .0256760
1076.240 .0256708
1076.819 .0256654
1077.397 .0256598
1077.976 .0256541
1078.554 .0256482
1079.133 .0256419
1079.711 .0256352
1080.290 .0256280
1080.869 .0256201
1081.448 .0256114
1082.027 .0256019
1082.606 .0255917
1083.185 .0255809
1083.764 .0255696
1084.343 .0255580
1084.923 .0255464
1085.502 .0255347
1086.082 .0255228
1086.662 .0255109
1087.242 .0254989
1087.822 .0254870
1088.402 .0254752
1088.983 .0254640
1089.563 .0254535
1090.144 .0254441
1090.725 .0254361
1091.306 .0254296
1091.887 .0254247
1092.469 .0254213
1093.050 .0254191
1093.632 .0254181
1094.214 .0254181
1094.796 .0254190
1095.379 .0254208
1095.961 .0254235
1096.544 .0254274
1097.127 .0254327
1097.710 .0254393
1098.294 .0254473
1098.877 .0254567
1099.461 .0254671
1100.046 .0254785
1100.630 .0254906
1101.215 .0255033
1101.800 .0255166
1102.385 .0255304
1102.970 .0255446
1103.556 .0255592
1104.142 .0255741
1104.728 .0255891
1105.315 .0256042
1105.902 .0256192
1106.489 .0256335
1107.077 .0256471
1107.664 .0256598
1108.253 .0256714
1108.841 .0256822
1109.430 .0256924
1110.019 .0257021
1110.609 .0257118
1111.198 .0257218
1111.789 .0257324
1112.379 .0257439
1112.970 .0257566
1113.561 .0257702
1114.153 .0257850
1114.745 .0258008
1115.338 .0258179
1115.931 .0258363
1116.524 .0258567
1117.117 .0258792
1117.712 .0259042
1118.306 .0259317
1118.901 .0259618
1119.496 .0259945
1120.092 .0260299
1120.689 .0260675
1121.285 .0261072
1121.882 .0261490
1122.480 .0261928
1123.078 .0262386
1123.677 .0262870
1124.276 .0263382
1124.875 .0263925
1125.476 .0264501
1126.076 .0265110
1126.677 .0265747
1127.279 .0266413
1127.881 .0267102
1128.484 .0267809
1129.087 .0268133
1129.691 .0268863
1130.295 .0269603
1130.900 .0270353
1131.505 .0271115
1132.111 .0271891
1132.718 .0272685
1133.325 .0273498
1133.933 .0274327
1134.541 .0275188
1135.150 .0276062
1135.760 .0276940
1136.370 .0277853
1136.981 .0278884
1137.592 .0279648
1138.204 .0280396
1138.817 .0281157
1139.431 .0282014
1140.045 .0282929
1140.660 .0283940
1141.275 .0285056
1141.891 .0286193
1142.508 .0287814
1143.126 .0288974
1143.744 .0289905
1144.363 .0291699
1144.983 .0290975
