Measurement Sequence started on: 15-12-46-377
Integration time: 28
Scans to Average: 2 
>>>>>Begin Spectral Data<<<<<
432.689 .0000100
433.621 .0000100
434.552 .0000100
435.482 .0000100
436.410 .0000100
437.337 .0000100
438.262 .0274529
439.187 .0581553
440.110 .0962820
441.031 .1392706
441.952 .1118191
442.871 .1168253
443.789 .1214932
444.705 .1258958
445.621 .1300817
446.535 .1340903
447.447 .1365045
448.359 .1371739
449.269 .1357249
450.178 .1319143
451.086 .1258162
451.993 .1179078
452.898 .1089770
453.803 .0999188
454.706 .0914933
455.608 .0841722
456.508 .0781129
457.408 .0740214
458.306 .0708772
459.204 .0683128
460.100 .0661460
460.995 .0642759
461.888 .0626317
462.781 .0611682
463.673 .0598494
464.563 .0586519
465.452 .0575584
466.340 .0565556
467.228 .0556337
468.114 .0547863
468.999 .0540068
469.882 .0532892
470.765 .0526288
471.647 .0520215
472.528 .0514644
473.407 .0509555
474.286 .0504937
475.163 .0500778
476.040 .0497067
476.915 .0493793
477.790 .0490935
478.663 .0488475
479.535 .0486386
480.407 .0484636
481.277 .0483194
482.147 .0482024
483.015 .0481099
483.883 .0480400
484.749 .0479912
485.615 .0479627
486.479 .0479537
487.343 .0479630
488.206 .0479906
489.067 .0480347
489.928 .0480950
490.788 .0481709
491.647 .0482624
492.505 .0483690
493.362 .0484914
494.218 .0486308
495.073 .0487880
495.928 .0490925
496.781 .0493005
497.634 .0495304
498.486 .0497833
499.337 .0500605
500.187 .0503638
501.036 .0506953
501.884 .0510574
502.731 .0514535
503.578 .0518868
504.424 .0521864
505.268 .0526884
506.113 .0532392
506.956 .0538423
507.798 .0545031
508.640 .0552296
509.480 .0560302
510.320 .0569172
511.160 .0579038
511.998 .0590046
512.836 .0602363
513.672 .0616182
514.508 .0631716
515.344 .0649175
516.178 .0668784
517.012 .0690784
517.845 .0715403
518.677 .0742846
519.508 .0773276
520.339 .0806758
521.169 .0843339
521.998 .0882773
522.826 .0924680
523.654 .0968507
524.481 .1013560
525.307 .1059032
526.133 .1104003
526.958 .1147517
527.782 .1188624
528.605 .1226435
529.428 .1260215
530.250 .1289286
531.072 .1313211
531.892 .1331631
532.712 .1344339
533.532 .1351235
534.350 .1352291
535.168 .1347537
535.986 .1337069
536.802 .1320994
537.618 .1299466
538.434 .1272613
539.249 .1240849
540.063 .1204694
540.876 .1164794
541.689 .1121919
542.501 .1076936
543.313 .1030772
544.124 .0984375
544.934 .0938630
545.744 .0894346
546.553 .0852165
547.361 .0812643
548.169 .0776050
548.976 .0742572
549.783 .0712221
550.589 .0684886
551.395 .0660361
552.200 .0638388
553.004 .0618656
553.808 .0600875
554.611 .0584796
555.414 .0570218
556.216 .0556936
557.018 .0544770
557.819 .0533582
558.619 .0523261
559.419 .0513699
560.218 .0504813
561.017 .0496520
561.815 .0488758
562.613 .0481466
563.410 .0474580
564.207 .0468035
565.003 .0461791
565.799 .0455797
566.594 .0450017
567.388 .0444424
568.182 .0438997
568.976 .0433718
569.769 .0428576
570.562 .0423572
571.354 .0418699
572.145 .0413963
572.936 .0409366
573.727 .0404908
574.517 .0400589
575.307 .0396407
576.096 .0392355
576.885 .0388436
577.673 .0384655
578.461 .0381011
579.248 .0377508
580.035 .0374154
580.821 .0370957
581.607 .0367921
582.392 .0365055
583.177 .0362362
583.962 .0359845
584.746 .0357502
585.529 .0355327
586.313 .0353314
587.095 .0351456
587.878 .0349745
588.660 .0348172
589.441 .0346727
590.222 .0345402
591.003 .0344186
591.783 .0343070
592.563 .0342043
593.342 .0341094
594.121 .0340212
594.899 .0339389
595.678 .0338616
596.455 .0337887
597.233 .0337197
598.009 .0336539
598.786 .0335910
599.562 .0335304
600.338 .0334717
601.113 .0334145
601.888 .0333332
602.663 .0332796
603.437 .0332272
604.211 .0331761
604.984 .0331265
605.757 .0330783
606.530 .0330318
607.302 .0329869
608.074 .0329436
608.845 .0329020
609.616 .0328620
610.387 .0328453
611.158 .0328076
611.928 .0327714
612.697 .0327367
613.467 .0327033
614.236 .0326713
615.004 .0326405
615.773 .0326111
616.541 .0325828
617.308 .0325556
618.076 .0325294
618.843 .0325040
619.609 .0324792
620.375 .0324549
621.141 .0324311
621.907 .0324075
622.672 .0323842
623.437 .0323612
624.202 .0323382
624.966 .0323154
625.730 .0322926
626.493 .0322698
627.257 .0322468
628.020 .0322236
628.782 .0322000
629.545 .0321761
630.307 .0321519
631.068 .0321273
631.830 .0321025
632.591 .0320774
633.352 .0320521
634.112 .0320266
634.872 .0320009
635.632 .0319749
636.392 .0319485
637.151 .0319217
637.910 .0318944
638.668 .0318665
639.427 .0318383
640.185 .0318097
640.943 .0317809
641.700 .0317519
642.457 .0317230
643.214 .0316941
643.971 .0316652
644.727 .0316364
645.483 .0316076
646.239 .0315786
646.994 .0315496
647.750 .0315204
648.505 .0314912
649.259 .0314619
650.014 .0314327
650.768 .0314035
651.521 .0313746
652.275 .0313458
653.028 .0313172
653.781 .0312889
654.534 .0312608
655.286 .0312329
656.039 .0312051
656.791 .0311773
657.542 .0311496
658.294 .0311218
659.045 .0310939
659.796 .0310661
660.546 .0310382
661.297 .0310103
662.047 .0309824
662.796 .0309548
663.546 .0309274
664.295 .0309003
665.044 .0308736
665.793 .0308471
666.542 .0308210
667.290 .0307951
668.038 .0307696
668.786 .0307444
669.533 .0307196
670.281 .0306952
671.028 .0306713
671.774 .0306481
672.521 .0306255
673.267 .0306037
674.013 .0305828
674.759 .0305626
675.505 .0305432
676.250 .0305245
676.995 .0305064
677.740 .0304889
678.484 .0304719
679.229 .0304554
679.973 .0304393
680.717 .0304235
681.460 .0304081
682.204 .0303930
682.947 .0303782
683.690 .0303636
684.433 .0303490
685.175 .0303345
685.917 .0303199
686.659 .0303051
687.401 .0302902
688.142 .0302751
688.884 .0302597
689.625 .0302442
690.365 .0302285
691.106 .0302126
691.846 .0301965
692.586 .0301802
693.326 .0301638
694.066 .0301474
694.805 .0301309
695.545 .0301145
696.284 .0300981
697.022 .0300820
697.761 .0300659
698.499 .0300500
699.237 .0300343
699.975 .0300186
700.713 .0300030
701.450 .0299875
702.187 .0299721
702.924 .0299567
703.661 .0299415
704.397 .0299264
705.133 .0299113
705.869 .0298963
706.605 .0298812
707.341 .0298660
708.076 .0298506
708.811 .0298350
709.546 .0298192
710.281 .0298031
711.015 .0297865
711.749 .0297696
712.483 .0297523
713.217 .0297345
713.950 .0297163
714.684 .0296977
715.417 .0296787
716.150 .0296593
716.882 .0296396
717.615 .0296197
718.347 .0295995
719.079 .0295791
719.811 .0295585
720.542 .0295379
721.273 .0295171
722.005 .0294963
722.735 .0294755
723.466 .0294549
724.196 .0294344
724.927 .0294140
725.656 .0293939
726.386 .0293742
727.116 .0293547
727.845 .0293356
728.574 .0293168
729.303 .0292985
730.031 .0292804
730.760 .0292626
731.488 .0292451
732.216 .0292278
732.944 .0292106
733.671 .0291935
734.398 .0291764
735.125 .0291593
735.852 .0291422
736.579 .0291250
737.305 .0291078
738.031 .0290906
738.757 .0290734
739.483 .0290561
740.208 .0290387
740.933 .0290212
741.658 .0290037
742.383 .0289860
743.108 .0289683
743.832 .0289505
744.556 .0289327
745.280 .0289148
746.004 .0288968
746.727 .0288789
747.450 .0288610
748.173 .0288431
748.896 .0288252
749.618 .0288072
750.340 .0287892
751.062 .0287712
751.784 .0287531
752.506 .0287349
753.227 .0287166
753.948 .0286983
754.669 .0286800
755.389 .0286616
756.110 .0286432
756.830 .0286248
757.550 .0286064
758.269 .0285880
758.989 .0285696
759.708 .0285513
760.427 .0285331
761.146 .0285151
761.864 .0284971
762.582 .0284794
763.300 .0284618
764.018 .0284444
764.736 .0284272
765.453 .0284103
766.170 .0283937
766.887 .0283775
767.603 .0283617
768.320 .0283464
769.036 .0283316
769.751 .0283174
770.467 .0283039
771.182 .0282909
771.897 .0282786
772.612 .0282670
773.327 .0282562
774.041 .0282461
774.755 .0282367
775.469 .0282281
776.183 .0282203
776.896 .0282132
777.609 .0282069
778.322 .0282011
779.035 .0281960
779.747 .0281914
780.459 .0281873
781.171 .0281837
781.882 .0281805
782.594 .0281778
783.305 .0281754
784.016 .0281734
784.726 .0281716
785.436 .0281701
786.147 .0281683
786.856 .0281669
787.566 .0281656
788.275 .0281642
788.984 .0281628
789.693 .0281611
790.401 .0281594
791.110 .0281573
791.818 .0281552
792.525 .0281528
793.233 .0281502
793.940 .0281475
794.647 .0281456
795.353 .0281427
796.060 .0281397
796.766 .0281365
797.472 .0281331
798.177 .0281296
798.883 .0281259
799.588 .0281220
800.292 .0281179
800.997 .0281137
801.701 .0281093
802.405 .0281047
803.109 .0280999
803.812 .0280949
804.515 .0280896
805.218 .0280841
805.921 .0280782
806.623 .0280720
807.325 .0280654
808.027 .0280585
808.728 .0280511
809.429 .0280434
810.130 .0280352
810.831 .0280267
811.531 .0280177
812.231 .0280083
812.931 .0279984
813.630 .0279883
814.330 .0279777
815.029 .0279669
815.727 .0279559
816.426 .0279449
817.124 .0279337
817.821 .0279227
818.519 .0279118
819.216 .0279011
819.913 .0278908
820.609 .0278808
821.306 .0278712
822.002 .0278621
822.697 .0278534
823.393 .0278453
824.088 .0278376
824.783 .0278305
825.477 .0278238
826.171 .0278174
826.865 .0278114
827.559 .0278057
828.252 .0278002
828.945 .0277950
829.638 .0277898
830.330 .0277848
831.023 .0277798
831.714 .0277748
832.406 .0277698
833.097 .0277647
833.788 .0277593
834.479 .0277537
835.169 .0277476
835.859 .0277411
836.548 .0277341
837.238 .0277266
837.927 .0277185
838.615 .0277099
839.304 .0277006
839.992 .0276908
840.680 .0276802
841.367 .0276690
842.054 .0276571
842.741 .0276444
843.428 .0276310
844.114 .0276169
844.800 .0276020
845.485 .0275865
846.170 .0275702
846.855 .0275533
847.540 .0275357
848.224 .0275174
848.908 .0274985
849.592 .0274788
850.275 .0274585
850.958 .0274377
851.641 .0274164
852.323 .0273945
853.005 .0273722
853.687 .0273495
854.368 .0273262
855.049 .0273025
855.730 .0272782
856.410 .0272535
857.090 .0272285
857.769 .0272031
858.449 .0271776
859.128 .0271519
859.806 .0271262
860.485 .0271006
861.163 .0270749
861.840 .0270494
862.518 .0270239
863.195 .0269984
863.871 .0269731
864.548 .0269479
865.224 .0269229
865.899 .0268983
866.574 .0268740
867.249 .0268501
867.924 .0268267
868.598 .0268037
869.272 .0267812
869.946 .0267592
870.619 .0267378
871.292 .0267170
871.964 .0266969
872.636 .0266774
873.308 .0266585
873.979 .0266404
874.651 .0266228
875.321 .0266059
875.992 .0265897
876.662 .0265740
877.331 .0265590
878.001 .0265447
878.670 .0265312
879.338 .0265185
880.007 .0265066
880.675 .0264956
881.342 .0264855
882.009 .0264763
882.676 .0264680
883.343 .0264605
884.009 .0264539
884.675 .0264480
885.340 .0264428
886.005 .0264383
886.670 .0264343
887.334 .0264308
887.998 .0264278
888.662 .0264252
889.325 .0264230
889.988 .0264211
890.650 .0264195
891.312 .0264182
891.974 .0264170
892.636 .0264161
893.297 .0264152
893.957 .0264143
894.618 .0264134
895.278 .0264125
895.937 .0264114
896.596 .0264101
897.255 .0264088
897.914 .0264072
898.572 .0264054
899.230 .0264034
899.887 .0264011
900.544 .0263985
901.201 .0263954
901.857 .0263890
902.513 .0263846
903.168 .0263798
903.823 .0263744
904.478 .0263685
905.132 .0263621
905.786 .0263554
906.440 .0263484
907.093 .0263410
907.746 .0263334
908.399 .0263255
909.051 .0263174
909.703 .0263092
910.354 .0263046
911.005 .0262963
911.656 .0262881
912.306 .0262799
912.956 .0262718
913.605 .0262639
914.254 .0262562
914.903 .0262486
915.551 .0262411
916.199 .0262337
916.847 .0262263
917.494 .0262189
918.141 .0262116
918.788 .0262044
919.434 .0261972
920.079 .0261902
920.725 .0261833
921.370 .0261765
922.014 .0261698
922.658 .0261631
923.302 .0261564
923.946 .0261497
924.589 .0261430
925.231 .0261363
925.873 .0261295
926.515 .0261229
927.157 .0261162
927.798 .0261097
928.439 .0261032
929.079 .0260968
929.719 .0260903
930.359 .0260839
930.998 .0260775
931.637 .0260711
932.275 .0260648
932.913 .0260587
933.551 .0260527
934.188 .0260471
934.825 .0260419
935.462 .0260370
936.098 .0260326
936.733 .0260286
937.369 .0260250
938.004 .0260218
938.638 .0260189
939.273 .0260165
939.907 .0260145
940.540 .0260129
941.173 .0260119
941.806 .0260112
942.438 .0260111
943.070 .0260113
943.702 .0260119
944.333 .0260127
944.964 .0260137
945.594 .0260148
946.224 .0260160
946.854 .0260173
947.483 .0260185
948.112 .0260198
948.741 .0260210
949.369 .0260222
949.996 .0260233
950.624 .0260243
951.251 .0260252
951.878 .0260260
952.504 .0260267
953.130 .0260272
953.755 .0260275
954.380 .0260277
955.005 .0260277
955.629 .0260275
956.253 .0260270
956.877 .0260262
957.500 .0260250
958.123 .0260235
958.746 .0260216
959.368 .0260193
959.990 .0260167
960.611 .0260138
961.232 .0260106
961.853 .0260071
962.473 .0260032
963.093 .0259990
963.712 .0259944
964.331 .0259894
964.950 .0259840
965.569 .0259781
966.187 .0259718
966.804 .0259650
967.422 .0259577
968.039 .0259499
968.655 .0259414
969.272 .0259323
969.887 .0259226
970.503 .0259122
971.118 .0259011
971.733 .0258895
972.347 .0258773
972.961 .0258645
973.575 .0258513
974.188 .0258376
974.801 .0258234
975.414 .0258087
976.026 .0257936
976.638 .0257779
977.250 .0257618
977.861 .0257452
978.472 .0257283
979.083 .0257110
979.693 .0256934
980.303 .0256756
980.912 .0256479
981.521 .0256296
982.130 .0256111
982.738 .0255925
983.346 .0255736
983.954 .0255546
984.562 .0255354
985.169 .0255161
985.775 .0254969
986.382 .0254778
986.988 .0254588
987.594 .0254399
988.199 .0254213
988.804 .0254029
989.409 .0253945
990.013 .0253764
990.617 .0253586
991.221 .0253410
991.824 .0253236
992.427 .0253063
993.030 .0252893
993.632 .0252724
994.234 .0252556
994.836 .0252389
995.438 .0252223
996.039 .0252058
996.640 .0251893
997.240 .0251729
997.840 .0251566
998.440 .0251405
999.040 .0251245
999.639 .0251088
1000.238 .0250933
1000.836 .0250779
1001.435 .0250628
1002.033 .0250479
1002.630 .0250332
1003.228 .0250186
1003.825 .0250043
1004.422 .0249902
1005.018 .0249762
1005.614 .0249625
1006.210 .0249489
1006.806 .0249356
1007.401 .0249224
1007.996 .0249094
1008.591 .0248966
1009.186 .0248840
1009.780 .0248716
1010.374 .0248596
1010.967 .0248479
1011.561 .0248367
1012.154 .0248261
1012.746 .0248161
1013.339 .0248066
1013.931 .0247978
1014.523 .0247895
1015.115 .0247818
1015.706 .0247745
1016.298 .0247677
1016.888 .0247614
1017.479 .0247557
1018.069 .0247504
1018.660 .0247457
1019.250 .0247415
1019.839 .0247379
1020.429 .0247347
1021.018 .0247319
1021.607 .0247293
1022.195 .0247269
1022.784 .0247247
1023.372 .0247227
1023.960 .0247208
1024.547 .0247192
1025.135 .0247178
1025.722 .0247167
1026.309 .0247158
1026.896 .0247152
1027.483 .0247146
1028.069 .0247141
1028.655 .0247136
1029.241 .0247128
1029.827 .0247119
1030.412 .0247107
1030.997 .0247094
1031.582 .0247080
1032.167 .0247066
1032.752 .0247051
1033.336 .0247036
1033.921 .0247021
1034.505 .0247005
1035.089 .0246987
1035.672 .0246967
1036.256 .0246945
1036.839 .0246920
1037.422 .0246894
1038.005 .0246866
1038.588 .0246838
1039.171 .0246809
1039.753 .0246780
1040.335 .0246751
1040.918 .0246721
1041.500 .0246689
1042.081 .0246656
1042.663 .0246621
1043.244 .0246584
1043.826 .0246547
1044.407 .0246510
1044.988 .0246476
1045.569 .0246444
1046.150 .0246416
1046.730 .0246392
1047.311 .0246373
1047.891 .0246357
1048.471 .0246345
1049.052 .0246336
1049.632 .0246330
1050.211 .0246326
1050.791 .0246326
1051.371 .0246327
1051.950 .0246331
1052.530 .0246337
1053.109 .0246345
1053.688 .0246355
1054.268 .0246366
1054.847 .0246377
1055.426 .0246388
1056.005 .0246399
1056.583 .0246411
1057.162 .0246423
1057.741 .0246438
1058.319 .0246456
1058.898 .0246478
1059.476 .0246505
1060.055 .0246537
1060.633 .0246573
1061.211 .0246612
1061.790 .0246653
1062.368 .0246695
1062.946 .0246736
1063.524 .0246777
1064.102 .0246816
1064.680 .0246856
1065.258 .0246896
1065.836 .0246937
1066.414 .0246979
1066.992 .0247023
1067.570 .0247068
1068.148 .0247112
1068.726 .0247155
1069.304 .0247197
1069.882 .0247240
1070.460 .0247284
1071.038 .0247332
1071.616 .0247386
1072.194 .0247449
1072.772 .0247521
1073.350 .0247602
1073.928 .0247691
1074.506 .0247787
1075.084 .0247887
1075.662 .0247989
1076.240 .0248092
1076.819 .0248196
1077.397 .0248302
1077.976 .0248411
1078.554 .0248525
1079.133 .0248646
1079.711 .0248774
1080.290 .0248910
1080.869 .0249054
1081.448 .0249206
1082.027 .0249365
1082.606 .0249529
1083.185 .0249698
1083.764 .0249874
1084.343 .0250057
1084.923 .0250250
1085.502 .0250451
1086.082 .0250664
1086.662 .0250886
1087.242 .0251118
1087.822 .0251356
1088.402 .0251600
1088.983 .0251847
1089.563 .0252094
1090.144 .0252341
1090.725 .0252589
1091.306 .0252836
1091.887 .0253084
1092.469 .0253333
1093.050 .0253585
1093.632 .0253837
1094.214 .0254089
1094.796 .0254340
1095.379 .0254591
1095.961 .0254839
1096.544 .0255086
1097.127 .0255332
1097.710 .0255580
1098.294 .0255831
1098.877 .0256087
1099.461 .0256349
1100.046 .0256616
1100.630 .0256889
1101.215 .0257165
1101.800 .0257443
1102.385 .0257724
1102.970 .0258007
1103.556 .0258294
1104.142 .0258586
1104.728 .0258883
1105.315 .0259187
1105.902 .0259501
1106.489 .0259823
1107.077 .0260153
1107.664 .0260489
1108.253 .0260829
1108.841 .0261173
1109.430 .0261521
1110.019 .0261874
1110.609 .0262235
1111.198 .0262606
1111.789 .0262988
1112.379 .0263383
1112.970 .0263792
1113.561 .0264213
1114.153 .0264644
1114.745 .0265083
1115.338 .0265524
1115.931 .0265966
1116.524 .0266405
1117.117 .0266842
1117.712 .0267281
1118.306 .0267724
1118.901 .0268176
1119.496 .0268641
1120.092 .0269120
1120.689 .0269617
1121.285 .0270131
1121.882 .0270663
1122.480 .0271212
1123.078 .0271776
1123.677 .0272358
1124.276 .0272959
1124.875 .0273583
1125.476 .0274235
1126.076 .0274920
1126.677 .0275641
1127.279 .0276397
1127.881 .0277189
1128.484 .0278013
1129.087 .0278347
1129.691 .0279212
1130.295 .0280105
1130.900 .0281022
1131.505 .0281965
1132.111 .0282937
1132.718 .0283941
1133.325 .0284987
1133.933 .0286085
1134.541 .0287207
1135.150 .0288404
1135.760 .0289640
1136.370 .0291001
1136.981 .0292092
1137.592 .0293444
1138.204 .0294778
1138.817 .0296052
1139.431 .0297330
1140.045 .0298635
1140.660 .0300021
1141.275 .0301585
1141.891 .0303422
1142.508 .0304483
1143.126 .0307054
1143.744 .0308672
1144.363 .0312797
1144.983 .0317027
