Measurement Sequence started on: 15-12-46-377
Integration time: 28
Scans to Average: 2 
>>>>>Begin Spectral Data<<<<<
432.689 .0000100
433.621 .0000100
434.552 .0000100
435.482 .0000100
436.410 .0000100
437.337 .0000100
438.262 .0272403
439.187 .0576577
440.110 .0954259
441.031 .1380115
441.952 .1107507
442.871 .1157259
443.789 .1203704
444.705 .1247538
445.621 .1289232
446.535 .1329164
447.447 .1353274
448.359 .1360095
449.269 .1345942
450.178 .1308414
451.086 .1248282
451.993 .1170277
452.898 .1082205
453.803 .0992927
454.706 .0909950
455.608 .0837913
456.508 .0778350
457.408 .0738230
458.306 .0707411
459.204 .0682263
460.100 .0660999
460.995 .0642635
461.888 .0626499
462.781 .0612148
463.673 .0599235
464.563 .0587517
465.452 .0576810
466.340 .0566961
467.228 .0557862
468.114 .0549436
468.999 .0541624
469.882 .0534380
470.765 .0527666
471.647 .0521465
472.528 .0515754
473.407 .0510514
474.286 .0505733
475.163 .0501393
476.040 .0497470
476.915 .0493945
477.790 .0490792
478.663 .0487993
479.535 .0485528
480.407 .0483372
481.277 .0481496
482.147 .0479872
483.015 .0478472
483.883 .0477264
484.749 .0476221
485.615 .0475324
486.479 .0474553
487.343 .0473895
488.206 .0473356
489.067 .0472935
489.928 .0472649
490.788 .0472513
491.647 .0472540
492.505 .0472741
493.362 .0473127
494.218 .0473704
495.073 .0474479
495.928 .0476471
496.781 .0477841
497.634 .0479465
498.486 .0481362
499.337 .0483551
500.187 .0486057
501.036 .0488910
501.884 .0492131
502.731 .0495745
503.578 .0499780
504.424 .0502672
505.268 .0507427
506.113 .0512689
506.956 .0518493
507.798 .0524884
508.640 .0531924
509.480 .0539689
510.320 .0548260
511.160 .0557751
511.998 .0568307
512.836 .0580104
513.672 .0593323
514.508 .0608191
515.344 .0624925
516.178 .0643742
517.012 .0664866
517.845 .0688494
518.677 .0714795
519.508 .0743937
520.339 .0775981
521.169 .0810960
521.998 .0848670
522.826 .0888813
523.654 .0930896
524.481 .0974303
525.307 .1018287
526.133 .1061964
526.958 .1104417
527.782 .1144768
528.605 .1182155
529.428 .1215850
530.250 .1245176
531.072 .1269686
531.892 .1288970
532.712 .1302779
533.532 .1310963
534.350 .1313475
535.168 .1310359
535.986 .1301684
536.802 .1287505
537.618 .1267979
538.434 .1243253
539.249 .1213702
540.063 .1179777
540.876 .1142082
541.689 .1101322
542.501 .1058306
543.313 .1013928
544.124 .0969106
544.934 .0924701
545.744 .0881508
546.553 .0840152
547.361 .0801179
548.169 .0764883
548.976 .0731480
549.783 .0701025
550.589 .0673472
551.395 .0648655
552.200 .0626353
553.004 .0606310
553.808 .0588300
554.611 .0572087
555.414 .0557465
556.216 .0544229
557.018 .0532181
557.819 .0521159
558.619 .0511021
559.419 .0501646
560.218 .0492957
561.017 .0484860
561.815 .0477289
562.613 .0470187
563.410 .0463501
564.207 .0457173
565.003 .0451156
565.799 .0445404
566.594 .0439874
567.388 .0434532
568.182 .0429354
568.976 .0424317
569.769 .0419417
570.562 .0414649
571.354 .0410012
572.145 .0405507
572.936 .0401141
573.727 .0396914
574.517 .0392829
575.307 .0388889
576.096 .0385089
576.885 .0381428
577.673 .0377908
578.461 .0374530
579.248 .0371296
580.035 .0368208
580.821 .0365275
581.607 .0362498
582.392 .0359881
583.177 .0357424
583.962 .0355127
584.746 .0352983
585.529 .0350982
586.313 .0349112
587.095 .0347363
587.878 .0345724
588.660 .0344187
589.441 .0342745
590.222 .0341394
591.003 .0340133
591.783 .0338959
592.563 .0337870
593.342 .0336861
594.121 .0335928
594.899 .0335064
595.678 .0334261
596.455 .0333511
597.233 .0332806
598.009 .0332142
598.786 .0331514
599.562 .0330920
600.338 .0330357
601.113 .0329824
601.888 .0329131
602.663 .0328671
603.437 .0328238
604.211 .0327833
604.984 .0327451
605.757 .0327090
606.530 .0326748
607.302 .0326420
608.074 .0326106
608.845 .0325803
609.616 .0325509
610.387 .0325381
611.158 .0325100
611.928 .0324827
612.697 .0324563
613.467 .0324307
614.236 .0324060
615.004 .0323820
615.773 .0323587
616.541 .0323359
617.308 .0323136
618.076 .0322915
618.843 .0322697
619.609 .0322478
620.375 .0322258
621.141 .0322036
621.907 .0321811
622.672 .0321585
623.437 .0321357
624.202 .0321128
624.966 .0320898
625.730 .0320667
626.493 .0320433
627.257 .0320197
628.020 .0319956
628.782 .0319711
629.545 .0319460
630.307 .0319203
631.068 .0318940
631.830 .0318673
632.591 .0318403
633.352 .0318131
634.112 .0317858
634.872 .0317584
635.632 .0317310
636.392 .0317034
637.151 .0316758
637.910 .0316481
638.668 .0316202
639.427 .0315922
640.185 .0315642
640.943 .0315361
641.700 .0315081
642.457 .0314801
643.214 .0314522
643.971 .0314244
644.727 .0313966
645.483 .0313689
646.239 .0313413
646.994 .0313139
647.750 .0312865
648.505 .0312593
649.259 .0312322
650.014 .0312051
650.768 .0311782
651.521 .0311514
652.275 .0311247
653.028 .0310983
653.781 .0310723
654.534 .0310466
655.286 .0310214
656.039 .0309967
656.791 .0309725
657.542 .0309488
658.294 .0309256
659.045 .0309030
659.796 .0308807
660.546 .0308589
661.297 .0308374
662.047 .0308164
662.796 .0307958
663.546 .0307755
664.295 .0307557
665.044 .0307362
665.793 .0307172
666.542 .0306985
667.290 .0306802
668.038 .0306623
668.786 .0306448
669.533 .0306276
670.281 .0306108
671.028 .0305943
671.774 .0305782
672.521 .0305625
673.267 .0305473
674.013 .0305325
674.759 .0305182
675.505 .0305045
676.250 .0304912
676.995 .0304785
677.740 .0304664
678.484 .0304547
679.229 .0304436
679.973 .0304331
680.717 .0304232
681.460 .0304138
682.204 .0304049
682.947 .0303965
683.690 .0303884
684.433 .0303805
685.175 .0303727
685.917 .0303649
686.659 .0303570
687.401 .0303489
688.142 .0303406
688.884 .0303321
689.625 .0303232
690.365 .0303139
691.106 .0303042
691.846 .0302939
692.586 .0302829
693.326 .0302713
694.066 .0302589
694.805 .0302458
695.545 .0302320
696.284 .0302176
697.022 .0302025
697.761 .0301868
698.499 .0301706
699.237 .0301538
699.975 .0301367
700.713 .0301191
701.450 .0301011
702.187 .0300828
702.924 .0300643
703.661 .0300454
704.397 .0300263
705.133 .0300069
705.869 .0299872
706.605 .0299672
707.341 .0299468
708.076 .0299260
708.811 .0299048
709.546 .0298833
710.281 .0298614
711.015 .0298392
711.749 .0298167
712.483 .0297937
713.217 .0297705
713.950 .0297468
714.684 .0297227
715.417 .0296981
716.150 .0296732
716.882 .0296478
717.615 .0296219
718.347 .0295957
719.079 .0295692
719.811 .0295425
720.542 .0295157
721.273 .0294887
722.005 .0294618
722.735 .0294349
723.466 .0294083
724.196 .0293818
724.927 .0293557
725.656 .0293300
726.386 .0293048
727.116 .0292800
727.845 .0292559
728.574 .0292324
729.303 .0292096
730.031 .0291876
730.760 .0291663
731.488 .0291459
732.216 .0291263
732.944 .0291075
733.671 .0290894
734.398 .0290721
735.125 .0290553
735.852 .0290390
736.579 .0290233
737.305 .0290080
738.031 .0289931
738.757 .0289785
739.483 .0289644
740.208 .0289506
740.933 .0289373
741.658 .0289243
742.383 .0289116
743.108 .0288993
743.832 .0288874
744.556 .0288759
745.280 .0288648
746.004 .0288542
746.727 .0288440
747.450 .0288344
748.173 .0288254
748.896 .0288172
749.618 .0288096
750.340 .0288030
751.062 .0287972
751.784 .0287922
752.506 .0287882
753.227 .0287851
753.948 .0287827
754.669 .0287812
755.389 .0287802
756.110 .0287799
756.830 .0287800
757.550 .0287805
758.269 .0287815
758.989 .0287828
759.708 .0287845
760.427 .0287864
761.146 .0287886
761.864 .0287908
762.582 .0287931
763.300 .0287953
764.018 .0287974
764.736 .0287991
765.453 .0288006
766.170 .0288017
766.887 .0288023
767.603 .0288025
768.320 .0288024
769.036 .0288018
769.751 .0288008
770.467 .0287994
771.182 .0287976
771.897 .0287954
772.612 .0287927
773.327 .0287896
774.041 .0287859
774.755 .0287816
775.469 .0287767
776.183 .0287711
776.896 .0287648
777.609 .0287577
778.322 .0287499
779.035 .0287413
779.747 .0287318
780.459 .0287214
781.171 .0287101
781.882 .0286978
782.594 .0286846
783.305 .0286705
784.016 .0286554
784.726 .0286394
785.436 .0286225
786.147 .0285940
786.856 .0285751
787.566 .0285553
788.275 .0285347
788.984 .0285134
789.693 .0284914
790.401 .0284690
791.110 .0284460
791.818 .0284227
792.525 .0283991
793.233 .0283752
793.940 .0283510
794.647 .0283384
795.353 .0283141
796.060 .0282897
796.766 .0282652
797.472 .0282406
798.177 .0282159
798.883 .0281912
799.588 .0281665
800.292 .0281417
800.997 .0281168
801.701 .0280918
802.405 .0280667
803.109 .0280416
803.812 .0280164
804.515 .0279913
805.218 .0279662
805.921 .0279412
806.623 .0279160
807.325 .0278908
808.027 .0278654
808.728 .0278399
809.429 .0278142
810.130 .0277884
810.831 .0277626
811.531 .0277368
812.231 .0277112
812.931 .0276856
813.630 .0276603
814.330 .0276351
815.029 .0276100
815.727 .0275852
816.426 .0275607
817.124 .0275364
817.821 .0275125
818.519 .0274891
819.216 .0274663
819.913 .0274441
820.609 .0274227
821.306 .0274020
822.002 .0273820
822.697 .0273627
823.393 .0273443
824.088 .0273267
824.783 .0273100
825.477 .0272943
826.171 .0272797
826.865 .0272660
827.559 .0272533
828.252 .0272416
828.945 .0272307
829.638 .0272206
830.330 .0272113
831.023 .0272027
831.714 .0271948
832.406 .0271877
833.097 .0271813
833.788 .0271757
834.479 .0271710
835.169 .0271670
835.859 .0271638
836.548 .0271614
837.238 .0271597
837.927 .0271587
838.615 .0271583
839.304 .0271586
839.992 .0271595
840.680 .0271612
841.367 .0271636
842.054 .0271668
842.741 .0271707
843.428 .0271753
844.114 .0271807
844.800 .0271867
845.485 .0271934
846.170 .0272007
846.855 .0272086
847.540 .0272171
848.224 .0272261
848.908 .0272357
849.592 .0272459
850.275 .0272565
850.958 .0272674
851.641 .0272786
852.323 .0272900
853.005 .0273015
853.687 .0273129
854.368 .0273243
855.049 .0273355
855.730 .0273466
856.410 .0273575
857.090 .0273681
857.769 .0273785
858.449 .0273885
859.128 .0273981
859.806 .0274072
860.485 .0274157
861.163 .0274236
861.840 .0274308
862.518 .0274373
863.195 .0274432
863.871 .0274485
864.548 .0274531
865.224 .0274570
865.899 .0274602
866.574 .0274628
867.249 .0274647
867.924 .0274659
868.598 .0274665
869.272 .0274664
869.946 .0274657
870.619 .0274644
871.292 .0274624
871.964 .0274599
872.636 .0274568
873.308 .0274531
873.979 .0274488
874.651 .0274438
875.321 .0274383
875.992 .0274322
876.662 .0274256
877.331 .0274183
878.001 .0274105
878.670 .0274020
879.338 .0273929
880.007 .0273831
880.675 .0273726
881.342 .0273614
882.009 .0273495
882.676 .0273369
883.343 .0273236
884.009 .0273095
884.675 .0272948
885.340 .0272795
886.005 .0272635
886.670 .0272469
887.334 .0272297
887.998 .0272119
888.662 .0271935
889.325 .0271744
889.988 .0271548
890.650 .0271345
891.312 .0271136
891.974 .0270922
892.636 .0270701
893.297 .0270474
893.957 .0270242
894.618 .0270005
895.278 .0269763
895.937 .0269516
896.596 .0269264
897.255 .0269007
897.914 .0268746
898.572 .0268481
899.230 .0268210
899.887 .0267935
900.544 .0267654
901.201 .0267368
901.857 .0266918
902.513 .0266620
903.168 .0266317
903.823 .0266009
904.478 .0265697
905.132 .0265381
905.786 .0265062
906.440 .0264740
907.093 .0264415
907.746 .0264088
908.399 .0263759
909.051 .0263429
909.703 .0263098
910.354 .0262932
911.005 .0262603
911.656 .0262276
912.306 .0261951
912.956 .0261629
913.605 .0261311
914.254 .0260997
914.903 .0260689
915.551 .0260386
916.199 .0260087
916.847 .0259793
917.494 .0259504
918.141 .0259218
918.788 .0258936
919.434 .0258657
920.079 .0258381
920.725 .0258108
921.370 .0257839
922.014 .0257571
922.658 .0257306
923.302 .0257043
923.946 .0256782
924.589 .0256522
925.231 .0256264
925.873 .0256006
926.515 .0255750
927.157 .0255495
927.798 .0255242
928.439 .0254990
929.079 .0254740
929.719 .0254492
930.359 .0254246
930.998 .0254004
931.637 .0253764
932.275 .0253528
932.913 .0253297
933.551 .0253070
934.188 .0252849
934.825 .0252634
935.462 .0252427
936.098 .0252226
936.733 .0252034
937.369 .0251851
938.004 .0251676
938.638 .0251511
939.273 .0251355
939.907 .0251209
940.540 .0251073
941.173 .0250946
941.806 .0250829
942.438 .0250721
943.070 .0250622
943.702 .0250533
944.333 .0250454
944.964 .0250383
945.594 .0250322
946.224 .0250269
946.854 .0250223
947.483 .0250184
948.112 .0250151
948.741 .0250123
949.369 .0250100
949.996 .0250081
950.624 .0250068
951.251 .0250060
951.878 .0250058
952.504 .0250062
953.130 .0250073
953.755 .0250089
954.380 .0250111
955.005 .0250139
955.629 .0250173
956.253 .0250213
956.877 .0250259
957.500 .0250312
958.123 .0250374
958.746 .0250443
959.368 .0250523
959.990 .0250612
960.611 .0250710
961.232 .0250819
961.853 .0250936
962.473 .0251061
963.093 .0251195
963.712 .0251335
964.331 .0251482
964.950 .0251635
965.569 .0251793
966.187 .0251956
966.804 .0252122
967.422 .0252293
968.039 .0252465
968.655 .0252640
969.272 .0252815
969.887 .0252990
970.503 .0253164
971.118 .0253337
971.733 .0253509
972.347 .0253678
972.961 .0253845
973.575 .0254011
974.188 .0254173
974.801 .0254333
975.414 .0254490
976.026 .0254644
976.638 .0254792
977.250 .0254936
977.861 .0255074
978.472 .0255206
979.083 .0255332
979.693 .0255452
980.303 .0255567
980.912 .0255720
981.521 .0255824
982.130 .0255924
982.738 .0256020
983.346 .0256114
983.954 .0256204
984.562 .0256293
985.169 .0256379
985.775 .0256464
986.382 .0256548
986.988 .0256632
987.594 .0256716
988.199 .0256800
988.804 .0256885
989.409 .0256927
990.013 .0257014
990.617 .0257102
991.221 .0257191
991.824 .0257279
992.427 .0257367
993.030 .0257454
993.632 .0257539
994.234 .0257622
994.836 .0257703
995.438 .0257781
996.039 .0257857
996.640 .0257931
997.240 .0258004
997.840 .0258074
998.440 .0258143
999.040 .0258208
999.639 .0258270
1000.238 .0258328
1000.836 .0258380
1001.435 .0258425
1002.033 .0258465
1002.630 .0258496
1003.228 .0258521
1003.825 .0258538
1004.422 .0258547
1005.018 .0258549
1005.614 .0258543
1006.210 .0258529
1006.806 .0258507
1007.401 .0258475
1007.996 .0258433
1008.591 .0258382
1009.186 .0258322
1009.780 .0258253
1010.374 .0258176
1010.967 .0258094
1011.561 .0258007
1012.154 .0257916
1012.746 .0257823
1013.339 .0257726
1013.931 .0257627
1014.523 .0257525
1015.115 .0257420
1015.706 .0257311
1016.298 .0257200
1016.888 .0257086
1017.479 .0256970
1018.069 .0256854
1018.660 .0256736
1019.250 .0256619
1019.839 .0256501
1020.429 .0256383
1021.018 .0256264
1021.607 .0256146
1022.195 .0256026
1022.784 .0255907
1023.372 .0255787
1023.960 .0255669
1024.547 .0255551
1025.135 .0255436
1025.722 .0255323
1026.309 .0255210
1026.896 .0255099
1027.483 .0254986
1028.069 .0254872
1028.655 .0254754
1029.241 .0254633
1029.827 .0254507
1030.412 .0254376
1030.997 .0254241
1031.582 .0254101
1032.167 .0253958
1032.752 .0253812
1033.336 .0253662
1033.921 .0253507
1034.505 .0253348
1035.089 .0253183
1035.672 .0253013
1036.256 .0252837
1036.839 .0252657
1037.422 .0252472
1038.005 .0252285
1038.588 .0252094
1039.171 .0251902
1039.753 .0251706
1040.335 .0251507
1040.918 .0251303
1041.500 .0251093
1042.081 .0250877
1042.663 .0250655
1043.244 .0250427
1043.826 .0250196
1044.407 .0249962
1044.988 .0249728
1045.569 .0249495
1046.150 .0249265
1046.730 .0249039
1047.311 .0248816
1047.891 .0248596
1048.471 .0248381
1049.052 .0248170
1049.632 .0247963
1050.211 .0247762
1050.791 .0247568
1051.371 .0247380
1051.950 .0247200
1052.530 .0247025
1053.109 .0246857
1053.688 .0246693
1054.268 .0246531
1054.847 .0246372
1055.426 .0246214
1056.005 .0246056
1056.583 .0245899
1057.162 .0245743
1057.741 .0245589
1058.319 .0245439
1058.898 .0245293
1059.476 .0245150
1060.055 .0245012
1060.633 .0244877
1061.211 .0244744
1061.790 .0244615
1062.368 .0244488
1062.946 .0244364
1063.524 .0244242
1064.102 .0244124
1064.680 .0244010
1065.258 .0243899
1065.836 .0243791
1066.414 .0243686
1066.992 .0243584
1067.570 .0243484
1068.148 .0243386
1068.726 .0243290
1069.304 .0243199
1069.882 .0243112
1070.460 .0243031
1071.038 .0242958
1071.616 .0242891
1072.194 .0242832
1072.772 .0242779
1073.350 .0242731
1073.928 .0242687
1074.506 .0242647
1075.084 .0242609
1075.662 .0242576
1076.240 .0242545
1076.819 .0242520
1077.397 .0242499
1077.976 .0242484
1078.554 .0242474
1079.133 .0242469
1079.711 .0242468
1080.290 .0242471
1080.869 .0242478
1081.448 .0242491
1082.027 .0242508
1082.606 .0242532
1083.185 .0242562
1083.764 .0242601
1084.343 .0242649
1084.923 .0242707
1085.502 .0242775
1086.082 .0242854
1086.662 .0242943
1087.242 .0243042
1087.822 .0243151
1088.402 .0243269
1088.983 .0243398
1089.563 .0243536
1090.144 .0243683
1090.725 .0243839
1091.306 .0244003
1091.887 .0244175
1092.469 .0244354
1093.050 .0244539
1093.632 .0244730
1094.214 .0244928
1094.796 .0245133
1095.379 .0245346
1095.961 .0245565
1096.544 .0245791
1097.127 .0246022
1097.710 .0246257
1098.294 .0246493
1098.877 .0246731
1099.461 .0246967
1100.046 .0247204
1100.630 .0247441
1101.215 .0247682
1101.800 .0247927
1102.385 .0248178
1102.970 .0248436
1103.556 .0248700
1104.142 .0248971
1104.728 .0249247
1105.315 .0249529
1105.902 .0249816
1106.489 .0250110
1107.077 .0250413
1107.664 .0250727
1108.253 .0251055
1108.841 .0251400
1109.430 .0251763
1110.019 .0252144
1110.609 .0252543
1111.198 .0252957
1111.789 .0253386
1112.379 .0253828
1112.970 .0254283
1113.561 .0254749
1114.153 .0255225
1114.745 .0255712
1115.338 .0256210
1115.931 .0256722
1116.524 .0257250
1117.117 .0257792
1117.712 .0258349
1118.306 .0258920
1118.901 .0259503
1119.496 .0260097
1120.092 .0260701
1120.689 .0261314
1121.285 .0261935
1121.882 .0262567
1122.480 .0263210
1123.078 .0263870
1123.677 .0264552
1124.276 .0265260
1124.875 .0265996
1125.476 .0266763
1126.076 .0267559
1126.677 .0268382
1127.279 .0269230
1127.881 .0270101
1128.484 .0270993
1129.087 .0271363
1129.691 .0272286
1130.295 .0273232
1130.900 .0274206
1131.505 .0275210
1132.111 .0276242
1132.718 .0277301
1133.325 .0278388
1133.933 .0279502
1134.541 .0280615
1135.150 .0281747
1135.760 .0282776
1136.370 .0284059
1136.981 .0285846
1137.592 .0287086
1138.204 .0288385
1138.817 .0289737
1139.431 .0291109
1140.045 .0292482
1140.660 .0293734
1141.275 .0295106
1141.891 .0296505
1142.508 .0297116
1143.126 .0298351
1143.744 .0296267
1144.363 .0304159
1144.983 .0306501
