Measurement Sequence started on: 15-12-46-377
Integration time: 28
Scans to Average: 2 
>>>>>Begin Spectral Data<<<<<
432.689 .0000100
433.621 .0000100
434.552 .0000100
435.482 .0000100
436.410 .0000100
437.337 .0000100
438.262 .0278276
439.187 .0589805
440.110 .0977146
441.031 .1415057
441.952 .1147058
442.871 .1199722
443.789 .1248856
444.705 .1295147
445.621 .1339084
446.535 .1381036
447.447 .1406646
448.359 .1414390
449.269 .1400468
450.178 .1362374
451.086 .1300848
451.993 .1220665
452.898 .1129798
453.803 .1037285
454.706 .0950838
455.608 .0875272
456.508 .0812234
457.408 .0768958
458.306 .0735197
459.204 .0707317
460.100 .0683572
460.995 .0662985
461.888 .0644907
462.781 .0628883
463.673 .0614567
464.563 .0601697
465.452 .0590059
466.340 .0579479
467.228 .0569816
468.114 .0560971
468.999 .0552873
469.882 .0545457
470.765 .0538676
471.647 .0532500
472.528 .0526898
473.407 .0521832
474.286 .0517265
475.163 .0513156
476.040 .0509463
476.915 .0506147
477.790 .0503172
478.663 .0500514
479.535 .0498153
480.407 .0496080
481.277 .0494282
482.147 .0492751
483.015 .0491478
483.883 .0490453
484.749 .0489663
485.615 .0489097
486.479 .0488740
487.343 .0488584
488.206 .0488624
489.067 .0488854
489.928 .0489278
490.788 .0489898
491.647 .0490715
492.505 .0491731
493.362 .0492941
494.218 .0494345
495.073 .0495938
495.928 .0498997
496.781 .0501077
497.634 .0503365
498.486 .0505874
499.337 .0508624
500.187 .0511640
501.036 .0514941
501.884 .0518562
502.731 .0522537
503.578 .0526903
504.424 .0529931
505.268 .0535056
506.113 .0540712
506.956 .0546950
507.798 .0553848
508.640 .0561499
509.480 .0570004
510.320 .0579482
511.160 .0590061
511.998 .0601884
512.836 .0615112
513.672 .0629900
514.508 .0646417
515.344 .0664856
516.178 .0685402
517.012 .0708229
517.845 .0733510
518.677 .0761415
519.508 .0792063
520.339 .0825519
521.169 .0861830
521.998 .0900776
522.826 .0942036
523.654 .0985112
524.481 .1029375
525.307 .1074076
526.133 .1118344
526.958 .1161251
527.782 .1201891
528.605 .1239424
529.428 .1273095
530.250 .1302231
531.072 .1326422
531.892 .1345323
532.712 .1358704
533.532 .1366452
534.350 .1368544
535.168 .1365043
535.986 .1356028
536.802 .1341584
537.618 .1321824
538.434 .1296857
539.249 .1267031
540.063 .1232779
540.876 .1194685
541.689 .1153466
542.501 .1109916
543.313 .1064928
544.124 .1019417
544.934 .0974253
545.744 .0930216
546.553 .0887981
547.361 .0848114
548.169 .0810903
548.976 .0776565
549.783 .0745156
550.589 .0716619
551.395 .0690801
552.200 .0667468
553.004 .0646363
553.808 .0627264
554.611 .0609964
555.414 .0594273
556.216 .0580015
557.018 .0567023
557.819 .0555150
558.619 .0544247
559.419 .0534180
560.218 .0524833
561.017 .0516101
561.815 .0507894
562.613 .0500135
563.410 .0492755
564.207 .0485692
565.003 .0478899
565.799 .0472330
566.594 .0465956
567.388 .0459759
568.182 .0453727
568.976 .0447850
569.769 .0442125
570.562 .0436549
571.354 .0431120
572.145 .0425844
572.936 .0420720
573.727 .0415748
574.517 .0410931
575.307 .0406276
576.096 .0401785
576.885 .0397470
577.673 .0393339
578.461 .0389404
579.248 .0385677
580.035 .0382164
580.821 .0378867
581.607 .0375789
582.392 .0372930
583.177 .0370282
583.962 .0367834
584.746 .0365576
585.529 .0363494
586.313 .0361575
587.095 .0359805
587.878 .0358174
588.660 .0356670
589.441 .0355286
590.222 .0354014
591.003 .0352849
591.783 .0351782
592.563 .0350805
593.342 .0349909
594.121 .0349087
594.899 .0348329
595.678 .0347625
596.455 .0346968
597.233 .0346351
598.009 .0345767
598.786 .0345212
599.562 .0344680
600.338 .0344167
601.113 .0343671
601.888 .0342961
602.663 .0342493
603.437 .0342035
604.211 .0341585
604.984 .0341144
605.757 .0340710
606.530 .0340283
607.302 .0339863
608.074 .0339449
608.845 .0339042
609.616 .0338642
610.387 .0338459
611.158 .0338070
611.928 .0337687
612.697 .0337310
613.467 .0336940
614.236 .0336576
615.004 .0336218
615.773 .0335867
616.541 .0335522
617.308 .0335182
618.076 .0334846
618.843 .0334514
619.609 .0334185
620.375 .0333858
621.141 .0333533
621.907 .0333209
622.672 .0332887
623.437 .0332567
624.202 .0332248
624.966 .0331930
625.730 .0331613
626.493 .0331295
627.257 .0330976
628.020 .0330654
628.782 .0330331
629.545 .0330005
630.307 .0329677
631.068 .0329349
631.830 .0329020
632.591 .0328691
633.352 .0328361
634.112 .0328031
634.872 .0327700
635.632 .0327368
636.392 .0327034
637.151 .0326699
637.910 .0326365
638.668 .0326032
639.427 .0325702
640.185 .0325375
640.943 .0325052
641.700 .0324734
642.457 .0324422
643.214 .0324116
643.971 .0323817
644.727 .0323526
645.483 .0323244
646.239 .0322972
646.994 .0322709
647.750 .0322456
648.505 .0322213
649.259 .0321977
650.014 .0321750
650.768 .0321530
651.521 .0321318
652.275 .0321113
653.028 .0320916
653.781 .0320726
654.534 .0320543
655.286 .0320364
656.039 .0320188
656.791 .0320012
657.542 .0319836
658.294 .0319656
659.045 .0319473
659.796 .0319286
660.546 .0319094
661.297 .0318897
662.047 .0318695
662.796 .0318487
663.546 .0318273
664.295 .0318053
665.044 .0317826
665.793 .0317592
666.542 .0317353
667.290 .0317110
668.038 .0316863
668.786 .0316615
669.533 .0316366
670.281 .0316116
671.028 .0315867
671.774 .0315618
672.521 .0315370
673.267 .0315122
674.013 .0314875
674.759 .0314629
675.505 .0314384
676.250 .0314141
676.995 .0313899
677.740 .0313660
678.484 .0313421
679.229 .0313182
679.973 .0312944
680.717 .0312705
681.460 .0312465
682.204 .0312223
682.947 .0311981
683.690 .0311736
684.433 .0311489
685.175 .0311239
685.917 .0310986
686.659 .0310728
687.401 .0310466
688.142 .0310200
688.884 .0309929
689.625 .0309654
690.365 .0309375
691.106 .0309094
691.846 .0308809
692.586 .0308523
693.326 .0308235
694.066 .0307945
694.805 .0307655
695.545 .0307364
696.284 .0307074
697.022 .0306786
697.761 .0306501
698.499 .0306220
699.237 .0305943
699.975 .0305672
700.713 .0305407
701.450 .0305148
702.187 .0304894
702.924 .0304647
703.661 .0304406
704.397 .0304171
705.133 .0303942
705.869 .0303721
706.605 .0303506
707.341 .0303297
708.076 .0303096
708.811 .0302900
709.546 .0302710
710.281 .0302526
711.015 .0302348
711.749 .0302175
712.483 .0302007
713.217 .0301845
713.950 .0301689
714.684 .0301538
715.417 .0301392
716.150 .0301250
716.882 .0301113
717.615 .0300980
718.347 .0300849
719.079 .0300721
719.811 .0300595
720.542 .0300471
721.273 .0300350
722.005 .0300231
722.735 .0300115
723.466 .0300001
724.196 .0299890
724.927 .0299782
725.656 .0299678
726.386 .0299577
727.116 .0299480
727.845 .0299386
728.574 .0299295
729.303 .0299208
730.031 .0299122
730.760 .0299039
731.488 .0298958
732.216 .0298878
732.944 .0298798
733.671 .0298720
734.398 .0298643
735.125 .0298566
735.852 .0298490
736.579 .0298415
737.305 .0298340
738.031 .0298263
738.757 .0298185
739.483 .0298105
740.208 .0298021
740.933 .0297933
741.658 .0297840
742.383 .0297743
743.108 .0297641
743.832 .0297534
744.556 .0297423
745.280 .0297306
746.004 .0297184
746.727 .0297056
747.450 .0296922
748.173 .0296781
748.896 .0296633
749.618 .0296477
750.340 .0296313
751.062 .0296143
751.784 .0295966
752.506 .0295784
753.227 .0295595
753.948 .0295402
754.669 .0295206
755.389 .0295005
756.110 .0294802
756.830 .0294596
757.550 .0294388
758.269 .0294178
758.989 .0293966
759.708 .0293753
760.427 .0293537
761.146 .0293321
761.864 .0293104
762.582 .0292886
763.300 .0292668
764.018 .0292452
764.736 .0292236
765.453 .0292021
766.170 .0291807
766.887 .0291594
767.603 .0291383
768.320 .0291172
769.036 .0290964
769.751 .0290756
770.467 .0290551
771.182 .0290347
771.897 .0290146
772.612 .0289946
773.327 .0289749
774.041 .0289553
774.755 .0289360
775.469 .0289169
776.183 .0288979
776.896 .0288793
777.609 .0288609
778.322 .0288428
779.035 .0288250
779.747 .0288075
780.459 .0287904
781.171 .0287736
781.882 .0287574
782.594 .0287415
783.305 .0287262
784.016 .0287114
784.726 .0286969
785.436 .0286829
786.147 .0286634
786.856 .0286502
787.566 .0286372
788.275 .0286245
788.984 .0286122
789.693 .0286003
790.401 .0285888
791.110 .0285777
791.818 .0285671
792.525 .0285568
793.233 .0285467
793.940 .0285369
794.647 .0285323
795.353 .0285229
796.060 .0285137
796.766 .0285048
797.472 .0284962
798.177 .0284878
798.883 .0284798
799.588 .0284721
800.292 .0284646
800.997 .0284574
801.701 .0284503
802.405 .0284435
803.109 .0284370
803.812 .0284306
804.515 .0284246
805.218 .0284188
805.921 .0284132
806.623 .0284080
807.325 .0284031
808.027 .0283984
808.728 .0283941
809.429 .0283900
810.130 .0283862
810.831 .0283828
811.531 .0283796
812.231 .0283767
812.931 .0283741
813.630 .0283719
814.330 .0283699
815.029 .0283681
815.727 .0283666
816.426 .0283653
817.124 .0283643
817.821 .0283634
818.519 .0283627
819.216 .0283622
819.913 .0283619
820.609 .0283618
821.306 .0283621
822.002 .0283626
822.697 .0283634
823.393 .0283646
824.088 .0283661
824.783 .0283679
825.477 .0283698
826.171 .0283719
826.865 .0283741
827.559 .0283762
828.252 .0283784
828.945 .0283805
829.638 .0283826
830.330 .0283845
831.023 .0283863
831.714 .0283879
832.406 .0283893
833.097 .0283902
833.788 .0283908
834.479 .0283910
835.169 .0283907
835.859 .0283900
836.548 .0283889
837.238 .0283872
837.927 .0283851
838.615 .0283824
839.304 .0283791
839.992 .0283751
840.680 .0283703
841.367 .0283648
842.054 .0283584
842.741 .0283513
843.428 .0283435
844.114 .0283350
844.800 .0283257
845.485 .0283158
846.170 .0283052
846.855 .0282937
847.540 .0282815
848.224 .0282684
848.908 .0282545
849.592 .0282396
850.275 .0282239
850.958 .0282074
851.641 .0281901
852.323 .0281722
853.005 .0281536
853.687 .0281344
854.368 .0281146
855.049 .0280942
855.730 .0280733
856.410 .0280518
857.090 .0280298
857.769 .0280072
858.449 .0279841
859.128 .0279606
859.806 .0279367
860.485 .0279125
861.163 .0278880
861.840 .0278634
862.518 .0278385
863.195 .0278135
863.871 .0277883
864.548 .0277630
865.224 .0277375
865.899 .0277119
866.574 .0276863
867.249 .0276606
867.924 .0276348
868.598 .0276091
869.272 .0275833
869.946 .0275576
870.619 .0275318
871.292 .0275060
871.964 .0274802
872.636 .0274544
873.308 .0274287
873.979 .0274031
874.651 .0273777
875.321 .0273525
875.992 .0273275
876.662 .0273028
877.331 .0272783
878.001 .0272539
878.670 .0272298
879.338 .0272059
880.007 .0271823
880.675 .0271591
881.342 .0271363
882.009 .0271141
882.676 .0270925
883.343 .0270716
884.009 .0270515
884.675 .0270321
885.340 .0270135
886.005 .0269957
886.670 .0269787
887.334 .0269626
887.998 .0269473
888.662 .0269329
889.325 .0269194
889.988 .0269067
890.650 .0268948
891.312 .0268837
891.974 .0268731
892.636 .0268631
893.297 .0268535
893.957 .0268444
894.618 .0268356
895.278 .0268273
895.937 .0268192
896.596 .0268115
897.255 .0268038
897.914 .0267963
898.572 .0267887
899.230 .0267809
899.887 .0267729
900.544 .0267647
901.201 .0267562
901.857 .0267419
902.513 .0267329
903.168 .0267238
903.823 .0267145
904.478 .0267050
905.132 .0266953
905.786 .0266853
906.440 .0266751
907.093 .0266648
907.746 .0266546
908.399 .0266444
909.051 .0266345
909.703 .0266249
910.354 .0266213
911.005 .0266126
911.656 .0266043
912.306 .0265965
912.956 .0265893
913.605 .0265826
914.254 .0265766
914.903 .0265713
915.551 .0265668
916.199 .0265630
916.847 .0265600
917.494 .0265576
918.141 .0265559
918.788 .0265546
919.434 .0265536
920.079 .0265529
920.725 .0265524
921.370 .0265520
922.014 .0265517
922.658 .0265515
923.302 .0265513
923.946 .0265512
924.589 .0265510
925.231 .0265508
925.873 .0265504
926.515 .0265498
927.157 .0265491
927.798 .0265481
928.439 .0265470
929.079 .0265457
929.719 .0265443
930.359 .0265429
930.998 .0265414
931.637 .0265400
932.275 .0265386
932.913 .0265373
933.551 .0265361
934.188 .0265352
934.825 .0265344
935.462 .0265340
936.098 .0265340
936.733 .0265343
937.369 .0265351
938.004 .0265363
938.638 .0265381
939.273 .0265403
939.907 .0265431
940.540 .0265463
941.173 .0265501
941.806 .0265543
942.438 .0265589
943.070 .0265639
943.702 .0265692
944.333 .0265747
944.964 .0265803
945.594 .0265860
946.224 .0265915
946.854 .0265969
947.483 .0266021
948.112 .0266068
948.741 .0266112
949.369 .0266150
949.996 .0266183
950.624 .0266210
951.251 .0266230
951.878 .0266244
952.504 .0266250
953.130 .0266250
953.755 .0266242
954.380 .0266227
955.005 .0266204
955.629 .0266175
956.253 .0266140
956.877 .0266098
957.500 .0266050
958.123 .0265997
958.746 .0265939
959.368 .0265875
959.990 .0265808
960.611 .0265736
961.232 .0265660
961.853 .0265581
962.473 .0265499
963.093 .0265416
963.712 .0265330
964.331 .0265244
964.950 .0265156
965.569 .0265067
966.187 .0264977
966.804 .0264884
967.422 .0264790
968.039 .0264693
968.655 .0264594
969.272 .0264492
969.887 .0264387
970.503 .0264279
971.118 .0264168
971.733 .0264053
972.347 .0263935
972.961 .0263811
973.575 .0263682
974.188 .0263546
974.801 .0263404
975.414 .0263255
976.026 .0263098
976.638 .0262935
977.250 .0262765
977.861 .0262589
978.472 .0262406
979.083 .0262218
979.693 .0262023
980.303 .0261822
980.912 .0261492
981.521 .0261276
982.130 .0261053
982.738 .0260825
983.346 .0260592
983.954 .0260355
984.562 .0260116
985.169 .0259875
985.775 .0259632
986.382 .0259390
986.988 .0259148
987.594 .0258906
988.199 .0258666
988.804 .0258427
989.409 .0258317
990.013 .0258083
990.617 .0257852
991.221 .0257625
991.824 .0257403
992.427 .0257186
993.030 .0256973
993.632 .0256765
994.234 .0256561
994.836 .0256361
995.438 .0256164
996.039 .0255970
996.640 .0255778
997.240 .0255588
997.840 .0255400
998.440 .0255215
999.040 .0255032
999.639 .0254851
1000.238 .0254672
1000.836 .0254494
1001.435 .0254317
1002.033 .0254142
1002.630 .0253967
1003.228 .0253793
1003.825 .0253620
1004.422 .0253446
1005.018 .0253273
1005.614 .0253100
1006.210 .0252926
1006.806 .0252752
1007.401 .0252576
1007.996 .0252400
1008.591 .0252224
1009.186 .0252047
1009.780 .0251871
1010.374 .0251696
1010.967 .0251523
1011.561 .0251351
1012.154 .0251180
1012.746 .0251011
1013.339 .0250844
1013.931 .0250679
1014.523 .0250517
1015.115 .0250358
1015.706 .0250204
1016.298 .0250055
1016.888 .0249912
1017.479 .0249776
1018.069 .0249647
1018.660 .0249526
1019.250 .0249411
1019.839 .0249302
1020.429 .0249199
1021.018 .0249102
1021.607 .0249011
1022.195 .0248926
1022.784 .0248848
1023.372 .0248778
1023.960 .0248714
1024.547 .0248659
1025.135 .0248610
1025.722 .0248567
1026.309 .0248530
1026.896 .0248497
1027.483 .0248469
1028.069 .0248443
1028.655 .0248422
1029.241 .0248405
1029.827 .0248393
1030.412 .0248386
1030.997 .0248385
1031.582 .0248390
1032.167 .0248400
1032.752 .0248414
1033.336 .0248432
1033.921 .0248452
1034.505 .0248474
1035.089 .0248497
1035.672 .0248522
1036.256 .0248548
1036.839 .0248576
1037.422 .0248606
1038.005 .0248636
1038.588 .0248668
1039.171 .0248699
1039.753 .0248730
1040.335 .0248760
1040.918 .0248790
1041.500 .0248819
1042.081 .0248847
1042.663 .0248876
1043.244 .0248907
1043.826 .0248940
1044.407 .0248977
1044.988 .0249018
1045.569 .0249065
1046.150 .0249118
1046.730 .0249176
1047.311 .0249241
1047.891 .0249312
1048.471 .0249389
1049.052 .0249472
1049.632 .0249560
1050.211 .0249653
1050.791 .0249753
1051.371 .0249859
1051.950 .0249971
1052.530 .0250089
1053.109 .0250214
1053.688 .0250343
1054.268 .0250478
1054.847 .0250617
1055.426 .0250760
1056.005 .0250905
1056.583 .0251052
1057.162 .0251201
1057.741 .0251351
1058.319 .0251502
1058.898 .0251654
1059.476 .0251806
1060.055 .0251959
1060.633 .0252111
1061.211 .0252263
1061.790 .0252414
1062.368 .0252564
1062.946 .0252711
1063.524 .0252855
1064.102 .0252995
1064.680 .0253131
1065.258 .0253262
1065.836 .0253388
1066.414 .0253510
1066.992 .0253626
1067.570 .0253738
1068.148 .0253845
1068.726 .0253948
1069.304 .0254047
1069.882 .0254144
1070.460 .0254239
1071.038 .0254333
1071.616 .0254427
1072.194 .0254523
1072.772 .0254621
1073.350 .0254724
1073.928 .0254831
1074.506 .0254945
1075.084 .0255065
1075.662 .0255192
1076.240 .0255327
1076.819 .0255470
1077.397 .0255622
1077.976 .0255783
1078.554 .0255952
1079.133 .0256129
1079.711 .0256314
1080.290 .0256505
1080.869 .0256702
1081.448 .0256906
1082.027 .0257115
1082.606 .0257330
1083.185 .0257551
1083.764 .0257777
1084.343 .0258009
1084.923 .0258248
1085.502 .0258492
1086.082 .0258741
1086.662 .0258996
1087.242 .0259254
1087.822 .0259516
1088.402 .0259782
1088.983 .0260052
1089.563 .0260325
1090.144 .0260604
1090.725 .0260888
1091.306 .0261176
1091.887 .0261468
1092.469 .0261764
1093.050 .0262062
1093.632 .0262362
1094.214 .0262661
1094.796 .0262960
1095.379 .0263259
1095.961 .0263558
1096.544 .0263859
1097.127 .0264162
1097.710 .0264468
1098.294 .0264777
1098.877 .0265086
1099.461 .0265396
1100.046 .0265704
1100.630 .0266013
1101.215 .0266322
1101.800 .0266632
1102.385 .0266947
1102.970 .0267267
1103.556 .0267595
1104.142 .0267933
1104.728 .0268281
1105.315 .0268636
1105.902 .0268999
1106.489 .0269368
1107.077 .0269743
1107.664 .0270125
1108.253 .0270514
1108.841 .0270912
1109.430 .0271319
1110.019 .0271738
1110.609 .0272167
1111.198 .0272607
1111.789 .0273056
1112.379 .0273512
1112.970 .0273973
1113.561 .0274436
1114.153 .0274901
1114.745 .0275371
1115.338 .0275846
1115.931 .0276330
1116.524 .0276825
1117.117 .0277332
1117.712 .0277852
1118.306 .0278385
1118.901 .0278928
1119.496 .0279478
1120.092 .0280034
1120.689 .0280592
1121.285 .0281151
1121.882 .0281713
1122.480 .0282281
1123.078 .0282857
1123.677 .0283444
1124.276 .0284043
1124.875 .0284654
1125.476 .0285278
1126.076 .0285916
1126.677 .0286566
1127.279 .0287229
1127.881 .0287904
1128.484 .0288595
1129.087 .0288892
1129.691 .0289604
1130.295 .0290338
1130.900 .0291094
1131.505 .0291874
1132.111 .0292677
1132.718 .0293504
1133.325 .0294351
1133.933 .0295218
1134.541 .0296123
1135.150 .0297072
1135.760 .0297969
1136.370 .0298895
1136.981 .0299696
1137.592 .0300774
1138.204 .0301882
1138.817 .0302952
1139.431 .0304086
1140.045 .0305240
1140.660 .0306360
1141.275 .0307472
1141.891 .0308603
1142.508 .0310229
1143.126 .0312087
1143.744 .0311244
1144.363 .0312683
1144.983 .0314065
