Measurement Sequence started on: 15-12-46-377
Integration time: 28
Scans to Average: 2 
>>>>>Begin Spectral Data<<<<<
432.689 .0000100
433.621 .0000100
434.552 .0000100
435.482 .0000100
436.410 .0000100
437.337 .0000100
438.262 .0271154
439.187 .0574846
440.110 .0952484
441.031 .1377804
441.952 .1101027
442.871 .1149930
443.789 .1195621
444.705 .1238786
445.621 .1279875
446.535 .1319222
447.447 .1342800
448.359 .1349094
449.269 .1334378
450.178 .1296271
451.086 .1235553
451.993 .1156978
452.898 .1068384
453.803 .0978646
454.706 .0895294
455.608 .0822978
456.508 .0763218
457.408 .0722920
458.306 .0691955
459.204 .0666657
460.100 .0645182
460.995 .0626536
461.888 .0610068
462.781 .0595362
463.673 .0582115
464.563 .0570111
465.452 .0559174
466.340 .0549160
467.228 .0539959
468.114 .0531495
468.999 .0523699
469.882 .0516525
470.765 .0509933
471.647 .0503896
472.528 .0498386
473.407 .0493370
474.286 .0488819
475.163 .0484707
476.040 .0480996
476.915 .0477655
477.790 .0474649
478.663 .0471952
479.535 .0469544
480.407 .0467412
481.277 .0465546
482.147 .0463940
483.015 .0462584
483.883 .0461477
484.749 .0460609
485.615 .0459976
486.479 .0459564
487.343 .0459367
488.206 .0459378
489.067 .0459588
489.928 .0459999
490.788 .0460608
491.647 .0461419
492.505 .0462434
493.362 .0463656
494.218 .0465084
495.073 .0466713
495.928 .0469793
496.781 .0471871
497.634 .0474116
498.486 .0476520
499.337 .0479087
500.187 .0481829
501.036 .0484755
501.884 .0487891
502.731 .0491277
503.578 .0494953
504.424 .0497402
505.268 .0501688
506.113 .0506413
506.956 .0511635
507.798 .0517422
508.640 .0523856
509.480 .0531051
510.320 .0539116
511.160 .0548180
511.998 .0558398
512.836 .0569942
513.672 .0582993
514.508 .0597758
515.344 .0614458
516.178 .0633327
517.012 .0654607
517.845 .0678527
518.677 .0705331
519.508 .0735215
520.339 .0768275
521.169 .0804550
521.998 .0843835
522.826 .0885800
523.654 .0929868
524.481 .0975349
525.307 .1021448
526.133 .1067253
526.958 .1111797
527.782 .1154145
528.605 .1193449
529.428 .1228977
530.250 .1260057
531.072 .1286236
531.892 .1307126
532.712 .1322501
533.532 .1332192
534.350 .1336104
535.168 .1334222
535.986 .1326549
536.802 .1313095
537.618 .1293965
538.434 .1269281
539.249 .1239417
540.063 .1204848
540.876 .1166264
541.689 .1124451
542.501 .1080264
543.313 .1034638
544.124 .0988525
544.934 .0942821
545.744 .0898311
546.553 .0855630
547.361 .0815328
548.169 .0777730
548.976 .0743067
549.783 .0711387
550.589 .0682651
551.395 .0656731
552.200 .0633413
553.004 .0612453
553.808 .0593618
554.611 .0576681
555.414 .0561436
556.216 .0547668
557.018 .0535169
557.819 .0523765
558.619 .0513291
559.419 .0503618
560.218 .0494644
561.017 .0486270
561.815 .0478419
562.613 .0471032
563.410 .0464050
564.207 .0457424
565.003 .0451102
565.799 .0445038
566.594 .0439194
567.388 .0433545
568.182 .0428066
568.976 .0422738
569.769 .0417550
570.562 .0412501
571.354 .0407585
572.145 .0402810
572.936 .0398182
573.727 .0393712
574.517 .0389407
575.307 .0385277
576.096 .0381321
576.885 .0377543
577.673 .0373943
578.461 .0370524
579.248 .0367284
580.035 .0364223
580.821 .0361336
581.607 .0358625
582.392 .0356085
583.177 .0353713
583.962 .0351501
584.746 .0349447
585.529 .0347541
586.313 .0345774
587.095 .0344136
587.878 .0342623
588.660 .0341223
589.441 .0339932
590.222 .0338739
591.003 .0337637
591.783 .0336617
592.563 .0335668
593.342 .0334783
594.121 .0333954
594.899 .0333172
595.678 .0332433
596.455 .0331729
597.233 .0331058
598.009 .0330415
598.786 .0329796
599.562 .0329198
600.338 .0328617
601.113 .0328050
601.888 .0327237
602.663 .0326695
603.437 .0326161
604.211 .0325635
604.984 .0325119
605.757 .0324612
606.530 .0324117
607.302 .0323636
608.074 .0323169
608.845 .0322717
609.616 .0322281
610.387 .0322098
611.158 .0321688
611.928 .0321294
612.697 .0320915
613.467 .0320551
614.236 .0320204
615.004 .0319873
615.773 .0319558
616.541 .0319260
617.308 .0318977
618.076 .0318710
618.843 .0318456
619.609 .0318215
620.375 .0317985
621.141 .0317764
621.907 .0317551
622.672 .0317344
623.437 .0317143
624.202 .0316946
624.966 .0316751
625.730 .0316557
626.493 .0316363
627.257 .0316168
628.020 .0315973
628.782 .0315777
629.545 .0315581
630.307 .0315386
631.068 .0315191
631.830 .0314998
632.591 .0314805
633.352 .0314612
634.112 .0314420
634.872 .0314227
635.632 .0314034
636.392 .0313841
637.151 .0313650
637.910 .0313462
638.668 .0313278
639.427 .0313100
640.185 .0312927
640.943 .0312760
641.700 .0312598
642.457 .0312441
643.214 .0312286
643.971 .0312133
644.727 .0311981
645.483 .0311828
646.239 .0311675
646.994 .0311519
647.750 .0311361
648.505 .0311197
649.259 .0311028
650.014 .0310852
650.768 .0310667
651.521 .0310473
652.275 .0310270
653.028 .0310056
653.781 .0309833
654.534 .0309599
655.286 .0309356
656.039 .0309103
656.791 .0308841
657.542 .0308569
658.294 .0308288
659.045 .0307999
659.796 .0307703
660.546 .0307400
661.297 .0307092
662.047 .0306780
662.796 .0306466
663.546 .0306149
664.295 .0305832
665.044 .0305515
665.793 .0305198
666.542 .0304883
667.290 .0304571
668.038 .0304263
668.786 .0303959
669.533 .0303660
670.281 .0303366
671.028 .0303078
671.774 .0302795
672.521 .0302518
673.267 .0302247
674.013 .0301981
674.759 .0301723
675.505 .0301470
676.250 .0301225
676.995 .0300986
677.740 .0300753
678.484 .0300527
679.229 .0300307
679.973 .0300093
680.717 .0299885
681.460 .0299681
682.204 .0299483
682.947 .0299291
683.690 .0299105
684.433 .0298924
685.175 .0298749
685.917 .0298580
686.659 .0298417
687.401 .0298259
688.142 .0298107
688.884 .0297959
689.625 .0297816
690.365 .0297678
691.106 .0297543
691.846 .0297412
692.586 .0297285
693.326 .0297162
694.066 .0297041
694.805 .0296924
695.545 .0296810
696.284 .0296698
697.022 .0296589
697.761 .0296482
698.499 .0296378
699.237 .0296276
699.975 .0296175
700.713 .0296075
701.450 .0295977
702.187 .0295878
702.924 .0295780
703.661 .0295682
704.397 .0295583
705.133 .0295483
705.869 .0295383
706.605 .0295281
707.341 .0295178
708.076 .0295074
708.811 .0294968
709.546 .0294861
710.281 .0294750
711.015 .0294638
711.749 .0294522
712.483 .0294403
713.217 .0294281
713.950 .0294154
714.684 .0294023
715.417 .0293887
716.150 .0293747
716.882 .0293603
717.615 .0293455
718.347 .0293302
719.079 .0293144
719.811 .0292983
720.542 .0292817
721.273 .0292647
722.005 .0292472
722.735 .0292294
723.466 .0292112
724.196 .0291927
724.927 .0291738
725.656 .0291547
726.386 .0291354
727.116 .0291158
727.845 .0290959
728.574 .0290759
729.303 .0290556
730.031 .0290351
730.760 .0290144
731.488 .0289935
732.216 .0289724
732.944 .0289511
733.671 .0289296
734.398 .0289079
735.125 .0288860
735.852 .0288639
736.579 .0288416
737.305 .0288192
738.031 .0287968
738.757 .0287744
739.483 .0287520
740.208 .0287298
740.933 .0287075
741.658 .0286853
742.383 .0286630
743.108 .0286407
743.832 .0286183
744.556 .0285960
745.280 .0285736
746.004 .0285513
746.727 .0285290
747.450 .0285069
748.173 .0284850
748.896 .0284633
749.618 .0284419
750.340 .0284206
751.062 .0283996
751.784 .0283788
752.506 .0283582
753.227 .0283377
753.948 .0283175
754.669 .0282974
755.389 .0282775
756.110 .0282579
756.830 .0282386
757.550 .0282197
758.269 .0282012
758.989 .0281833
759.708 .0281660
760.427 .0281492
761.146 .0281330
761.864 .0281174
762.582 .0281024
763.300 .0280880
764.018 .0280742
764.736 .0280611
765.453 .0280486
766.170 .0280368
766.887 .0280258
767.603 .0280156
768.320 .0280063
769.036 .0279978
769.751 .0279903
770.467 .0279838
771.182 .0279783
771.897 .0279737
772.612 .0279700
773.327 .0279672
774.041 .0279652
774.755 .0279640
775.469 .0279637
776.183 .0279643
776.896 .0279657
777.609 .0279681
778.322 .0279712
779.035 .0279753
779.747 .0279800
780.459 .0279853
781.171 .0279912
781.882 .0279973
782.594 .0280038
783.305 .0280103
784.016 .0280170
784.726 .0280236
785.436 .0280300
786.147 .0280388
786.856 .0280443
787.566 .0280494
788.275 .0280539
788.984 .0280579
789.693 .0280612
790.401 .0280638
791.110 .0280657
791.818 .0280669
792.525 .0280672
793.233 .0280667
793.940 .0280653
794.647 .0280620
795.353 .0280595
796.060 .0280560
796.766 .0280517
797.472 .0280466
798.177 .0280407
798.883 .0280339
799.588 .0280262
800.292 .0280177
800.997 .0280084
801.701 .0279983
802.405 .0279874
803.109 .0279757
803.812 .0279633
804.515 .0279501
805.218 .0279362
805.921 .0279216
806.623 .0279061
807.325 .0278900
808.027 .0278730
808.728 .0278554
809.429 .0278369
810.130 .0278178
810.831 .0277980
811.531 .0277774
812.231 .0277562
812.931 .0277344
813.630 .0277119
814.330 .0276888
815.029 .0276653
815.727 .0276415
816.426 .0276175
817.124 .0275933
817.821 .0275691
818.519 .0275449
819.216 .0275207
819.913 .0274966
820.609 .0274725
821.306 .0274485
822.002 .0274246
822.697 .0274009
823.393 .0273776
824.088 .0273545
824.783 .0273319
825.477 .0273095
826.171 .0272874
826.865 .0272655
827.559 .0272437
828.252 .0272219
828.945 .0272002
829.638 .0271787
830.330 .0271572
831.023 .0271359
831.714 .0271149
832.406 .0270940
833.097 .0270733
833.788 .0270526
834.479 .0270320
835.169 .0270114
835.859 .0269909
836.548 .0269703
837.238 .0269499
837.927 .0269296
838.615 .0269095
839.304 .0268895
839.992 .0268697
840.680 .0268499
841.367 .0268302
842.054 .0268106
842.741 .0267911
843.428 .0267716
844.114 .0267524
844.800 .0267334
845.485 .0267146
846.170 .0266961
846.855 .0266778
847.540 .0266598
848.224 .0266419
848.908 .0266241
849.592 .0266065
850.275 .0265891
850.958 .0265720
851.641 .0265552
852.323 .0265387
853.005 .0265226
853.687 .0265069
854.368 .0264916
855.049 .0264767
855.730 .0264621
856.410 .0264481
857.090 .0264345
857.769 .0264216
858.449 .0264093
859.128 .0263978
859.806 .0263871
860.485 .0263774
861.163 .0263685
861.840 .0263605
862.518 .0263534
863.195 .0263473
863.871 .0263420
864.548 .0263377
865.224 .0263343
865.899 .0263318
866.574 .0263302
867.249 .0263293
867.924 .0263293
868.598 .0263300
869.272 .0263313
869.946 .0263335
870.619 .0263363
871.292 .0263398
871.964 .0263441
872.636 .0263491
873.308 .0263547
873.979 .0263609
874.651 .0263677
875.321 .0263749
875.992 .0263826
876.662 .0263908
877.331 .0263995
878.001 .0264087
878.670 .0264183
879.338 .0264285
880.007 .0264391
880.675 .0264502
881.342 .0264617
882.009 .0264735
882.676 .0264856
883.343 .0264980
884.009 .0265107
884.675 .0265236
885.340 .0265367
886.005 .0265501
886.670 .0265637
887.334 .0265774
887.998 .0265913
888.662 .0266053
889.325 .0266191
889.988 .0266329
890.650 .0266464
891.312 .0266596
891.974 .0266724
892.636 .0266847
893.297 .0266965
893.957 .0267076
894.618 .0267181
895.278 .0267279
895.937 .0267368
896.596 .0267448
897.255 .0267518
897.914 .0267578
898.572 .0267627
899.230 .0267664
899.887 .0267688
900.544 .0267699
901.201 .0267696
901.857 .0267632
902.513 .0267594
903.168 .0267542
903.823 .0267476
904.478 .0267397
905.132 .0267304
905.786 .0267198
906.440 .0267081
907.093 .0266952
907.746 .0266812
908.399 .0266662
909.051 .0266503
909.703 .0266336
910.354 .0266231
911.005 .0266053
911.656 .0265869
912.306 .0265678
912.956 .0265481
913.605 .0265278
914.254 .0265069
914.903 .0264855
915.551 .0264635
916.199 .0264410
916.847 .0264179
917.494 .0263942
918.141 .0263699
918.788 .0263449
919.434 .0263193
920.079 .0262930
920.725 .0262661
921.370 .0262384
922.014 .0262102
922.658 .0261813
923.302 .0261518
923.946 .0261216
924.589 .0260910
925.231 .0260598
925.873 .0260281
926.515 .0259959
927.157 .0259633
927.798 .0259304
928.439 .0258971
929.079 .0258635
929.719 .0258296
930.359 .0257955
930.998 .0257613
931.637 .0257268
932.275 .0256924
932.913 .0256580
933.551 .0256238
934.188 .0255897
934.825 .0255560
935.462 .0255228
936.098 .0254899
936.733 .0254576
937.369 .0254257
938.004 .0253945
938.638 .0253638
939.273 .0253338
939.907 .0253045
940.540 .0252759
941.173 .0252480
941.806 .0252208
942.438 .0251943
943.070 .0251684
943.702 .0251431
944.333 .0251184
944.964 .0250941
945.594 .0250703
946.224 .0250468
946.854 .0250237
947.483 .0250010
948.112 .0249785
948.741 .0249564
949.369 .0249344
949.996 .0249127
950.624 .0248912
951.251 .0248699
951.878 .0248488
952.504 .0248279
953.130 .0248072
953.755 .0247867
954.380 .0247664
955.005 .0247463
955.629 .0247263
956.253 .0247066
956.877 .0246869
957.500 .0246674
958.123 .0246481
958.746 .0246290
959.368 .0246102
959.990 .0245918
960.611 .0245738
961.232 .0245563
961.853 .0245392
962.473 .0245225
963.093 .0245063
963.712 .0244905
964.331 .0244752
964.950 .0244605
965.569 .0244463
966.187 .0244328
966.804 .0244199
967.422 .0244077
968.039 .0243963
968.655 .0243856
969.272 .0243755
969.887 .0243661
970.503 .0243573
971.118 .0243492
971.733 .0243417
972.347 .0243348
972.961 .0243285
973.575 .0243229
974.188 .0243179
974.801 .0243135
975.414 .0243098
976.026 .0243067
976.638 .0243041
977.250 .0243021
977.861 .0243005
978.472 .0242993
979.083 .0242984
979.693 .0242977
980.303 .0242973
980.912 .0242975
981.521 .0242975
982.130 .0242978
982.738 .0242984
983.346 .0242994
983.954 .0243008
984.562 .0243026
985.169 .0243049
985.775 .0243076
986.382 .0243109
986.988 .0243147
987.594 .0243193
988.199 .0243245
988.804 .0243306
989.409 .0243356
990.013 .0243431
990.617 .0243514
991.221 .0243606
991.824 .0243706
992.427 .0243813
993.030 .0243926
993.632 .0244045
994.234 .0244171
994.836 .0244302
995.438 .0244439
996.039 .0244582
996.640 .0244733
997.240 .0244891
997.840 .0245056
998.440 .0245229
999.040 .0245410
999.639 .0245598
1000.238 .0245791
1000.836 .0245989
1001.435 .0246191
1002.033 .0246396
1002.630 .0246604
1003.228 .0246814
1003.825 .0247027
1004.422 .0247241
1005.018 .0247457
1005.614 .0247673
1006.210 .0247890
1006.806 .0248106
1007.401 .0248320
1007.996 .0248531
1008.591 .0248739
1009.186 .0248943
1009.780 .0249144
1010.374 .0249343
1010.967 .0249539
1011.561 .0249733
1012.154 .0249926
1012.746 .0250119
1013.339 .0250311
1013.931 .0250501
1014.523 .0250690
1015.115 .0250877
1015.706 .0251061
1016.298 .0251241
1016.888 .0251419
1017.479 .0251594
1018.069 .0251768
1018.660 .0251942
1019.250 .0252115
1019.839 .0252290
1020.429 .0252466
1021.018 .0252642
1021.607 .0252818
1022.195 .0252994
1022.784 .0253169
1023.372 .0253342
1023.960 .0253513
1024.547 .0253682
1025.135 .0253849
1025.722 .0254014
1026.309 .0254177
1026.896 .0254339
1027.483 .0254499
1028.069 .0254656
1028.655 .0254811
1029.241 .0254961
1029.827 .0255108
1030.412 .0255251
1030.997 .0255390
1031.582 .0255525
1032.167 .0255658
1032.752 .0255788
1033.336 .0255916
1033.921 .0256041
1034.505 .0256165
1035.089 .0256285
1035.672 .0256402
1036.256 .0256513
1036.839 .0256619
1037.422 .0256717
1038.005 .0256806
1038.588 .0256885
1039.171 .0256954
1039.753 .0257012
1040.335 .0257059
1040.918 .0257095
1041.500 .0257119
1042.081 .0257132
1042.663 .0257134
1043.244 .0257125
1043.826 .0257105
1044.407 .0257074
1044.988 .0257032
1045.569 .0256980
1046.150 .0256919
1046.730 .0256848
1047.311 .0256770
1047.891 .0256687
1048.471 .0256597
1049.052 .0256504
1049.632 .0256406
1050.211 .0256305
1050.791 .0256201
1051.371 .0256093
1051.950 .0255981
1052.530 .0255865
1053.109 .0255746
1053.688 .0255622
1054.268 .0255496
1054.847 .0255368
1055.426 .0255239
1056.005 .0255109
1056.583 .0254979
1057.162 .0254849
1057.741 .0254719
1058.319 .0254588
1058.898 .0254455
1059.476 .0254322
1060.055 .0254186
1060.633 .0254050
1061.211 .0253912
1061.790 .0253774
1062.368 .0253636
1062.946 .0253497
1063.524 .0253359
1064.102 .0253219
1064.680 .0253077
1065.258 .0252931
1065.836 .0252782
1066.414 .0252629
1066.992 .0252472
1067.570 .0252310
1068.148 .0252144
1068.726 .0251975
1069.304 .0251802
1069.882 .0251627
1070.460 .0251450
1071.038 .0251272
1071.616 .0251091
1072.194 .0250910
1072.772 .0250728
1073.350 .0250546
1073.928 .0250364
1074.506 .0250182
1075.084 .0250002
1075.662 .0249824
1076.240 .0249648
1076.819 .0249475
1077.397 .0249304
1077.976 .0249135
1078.554 .0248968
1079.133 .0248802
1079.711 .0248636
1080.290 .0248470
1080.869 .0248303
1081.448 .0248136
1082.027 .0247967
1082.606 .0247798
1083.185 .0247629
1083.764 .0247460
1084.343 .0247293
1084.923 .0247127
1085.502 .0246964
1086.082 .0246806
1086.662 .0246653
1087.242 .0246506
1087.822 .0246366
1088.402 .0246234
1088.983 .0246109
1089.563 .0245993
1090.144 .0245886
1090.725 .0245788
1091.306 .0245700
1091.887 .0245622
1092.469 .0245553
1093.050 .0245495
1093.632 .0245446
1094.214 .0245407
1094.796 .0245379
1095.379 .0245361
1095.961 .0245353
1096.544 .0245354
1097.127 .0245365
1097.710 .0245384
1098.294 .0245413
1098.877 .0245451
1099.461 .0245497
1100.046 .0245553
1100.630 .0245619
1101.215 .0245695
1101.800 .0245780
1102.385 .0245874
1102.970 .0245974
1103.556 .0246078
1104.142 .0246184
1104.728 .0246291
1105.315 .0246399
1105.902 .0246509
1106.489 .0246621
1107.077 .0246739
1107.664 .0246865
1108.253 .0247002
1108.841 .0247152
1109.430 .0247316
1110.019 .0247495
1110.609 .0247688
1111.198 .0247894
1111.789 .0248114
1112.379 .0248346
1112.970 .0248591
1113.561 .0248852
1114.153 .0249128
1114.745 .0249420
1115.338 .0249729
1115.931 .0250055
1116.524 .0250397
1117.117 .0250752
1117.712 .0251122
1118.306 .0251502
1118.901 .0251895
1119.496 .0252299
1120.092 .0252717
1120.689 .0253149
1121.285 .0253600
1121.882 .0254070
1122.480 .0254563
1123.078 .0255078
1123.677 .0255618
1124.276 .0256182
1124.875 .0256770
1125.476 .0257380
1126.076 .0258010
1126.677 .0258656
1127.279 .0259318
1127.881 .0259992
1128.484 .0260678
1129.087 .0260976
1129.691 .0261682
1130.295 .0262401
1130.900 .0263134
1131.505 .0263884
1132.111 .0264650
1132.718 .0265431
1133.325 .0266236
1133.933 .0267075
1134.541 .0267945
1135.150 .0268789
1135.760 .0269569
1136.370 .0270657
1136.981 .0271777
1137.592 .0272607
1138.204 .0273464
1138.817 .0274361
1139.431 .0275339
1140.045 .0276315
1140.660 .0277275
1141.275 .0278490
1141.891 .0279973
1142.508 .0281369
1143.126 .0281134
1143.744 .0279898
1144.363 .0289025
1144.983 .0294678
