Measurement Sequence started on: 15-12-46-377
Integration time: 28
Scans to Average: 2 
>>>>>Begin Spectral Data<<<<<
432.689 .0000100
433.621 .0000100
434.552 .0000100
435.482 .0000100
436.410 .0000100
437.337 .0000100
438.262 .0269062
439.187 .0571064
440.110 .0946511
441.031 .1370665
441.952 .1105708
442.871 .1155607
443.789 .1202153
444.705 .1246053
445.621 .1287783
446.535 .1327707
447.447 .1351916
448.359 .1358862
449.269 .1344845
450.178 .1307427
451.086 .1247309
451.993 .1169146
452.898 .1080685
453.803 .0990742
454.706 .0906840
455.608 .0833673
456.508 .0772845
457.408 .0731324
458.306 .0699166
459.204 .0672761
460.100 .0650331
460.995 .0630872
461.888 .0613700
462.781 .0598362
463.673 .0584525
464.563 .0571963
465.452 .0560511
466.340 .0550033
467.228 .0540435
468.114 .0531649
468.999 .0523624
469.882 .0516303
470.765 .0509640
471.647 .0503590
472.528 .0498101
473.407 .0493126
474.286 .0488624
475.163 .0484560
476.040 .0480902
476.915 .0477624
477.790 .0474713
478.663 .0472159
479.535 .0469957
480.407 .0468095
481.277 .0466564
482.147 .0465345
483.015 .0464412
483.883 .0463734
484.749 .0463282
485.615 .0463029
486.479 .0462949
487.343 .0463030
488.206 .0463270
489.067 .0463673
489.928 .0464254
490.788 .0465022
491.647 .0465998
492.505 .0467187
493.362 .0468592
494.218 .0470208
495.073 .0472028
495.928 .0475450
496.781 .0477750
497.634 .0480223
498.486 .0482874
499.337 .0485715
500.187 .0488776
501.036 .0492089
501.884 .0495691
502.731 .0499635
503.578 .0503962
504.424 .0506893
505.268 .0511929
506.113 .0517442
506.956 .0523454
507.798 .0530002
508.640 .0537142
509.480 .0544950
510.320 .0553525
511.160 .0563001
511.998 .0573535
512.836 .0585322
513.672 .0598540
514.508 .0613406
515.344 .0630148
516.178 .0648986
517.012 .0670158
517.845 .0693883
518.677 .0720371
519.508 .0749789
520.339 .0782222
521.169 .0817684
521.998 .0855913
522.826 .0896523
523.654 .0938917
524.481 .0982375
525.307 .1026072
526.133 .1069099
526.958 .1110532
527.782 .1149519
528.605 .1185276
529.428 .1217125
530.250 .1244468
531.072 .1266931
531.892 .1284165
532.712 .1295936
533.532 .1302105
534.350 .1302623
535.168 .1297504
535.986 .1286833
536.802 .1270684
537.618 .1249211
538.434 .1222599
539.249 .1191296
540.063 .1155843
540.876 .1116946
541.689 .1075409
542.501 .1032116
543.313 .0987973
544.124 .0943888
544.934 .0900650
545.744 .0858951
546.553 .0819345
547.361 .0782276
548.169 .0747969
548.976 .0716604
549.783 .0688219
550.589 .0662756
551.395 .0640040
552.200 .0619839
553.004 .0601843
553.808 .0585784
554.611 .0571378
555.414 .0558382
556.216 .0546561
557.018 .0535712
557.819 .0525681
558.619 .0516343
559.419 .0507590
560.218 .0499352
561.017 .0491564
561.815 .0484178
562.613 .0477147
563.410 .0470437
564.207 .0464005
565.003 .0457823
565.799 .0451847
566.594 .0446043
567.388 .0440387
568.182 .0434857
568.976 .0429435
569.769 .0424112
570.562 .0418893
571.354 .0413782
572.145 .0408790
572.936 .0403931
573.727 .0399214
574.517 .0394650
575.307 .0390248
576.096 .0386015
576.885 .0381953
577.673 .0378064
578.461 .0374351
579.248 .0370816
580.035 .0367461
580.821 .0364289
581.607 .0361300
582.392 .0358494
583.177 .0355869
583.962 .0353420
584.746 .0351143
585.529 .0349032
586.313 .0347078
587.095 .0345274
587.878 .0343610
588.660 .0342077
589.441 .0340666
590.222 .0339370
591.003 .0338181
591.783 .0337091
592.563 .0336093
593.342 .0335176
594.121 .0334332
594.899 .0333551
595.678 .0332827
596.455 .0332149
597.233 .0331509
598.009 .0330902
598.786 .0330321
599.562 .0329762
600.338 .0329223
601.113 .0328702
601.888 .0327956
602.663 .0327467
603.437 .0326988
604.211 .0326517
604.984 .0326054
605.757 .0325597
606.530 .0325146
607.302 .0324702
608.074 .0324266
608.845 .0323840
609.616 .0323425
610.387 .0323253
611.158 .0322861
611.928 .0322483
612.697 .0322121
613.467 .0321775
614.236 .0321444
615.004 .0321129
615.773 .0320830
616.541 .0320547
617.308 .0320279
618.076 .0320026
618.843 .0319787
619.609 .0319561
620.375 .0319347
621.141 .0319144
621.907 .0318950
622.672 .0318765
623.437 .0318584
624.202 .0318407
624.966 .0318231
625.730 .0318053
626.493 .0317873
627.257 .0317688
628.020 .0317497
628.782 .0317300
629.545 .0317096
630.307 .0316884
631.068 .0316665
631.830 .0316439
632.591 .0316206
633.352 .0315966
634.112 .0315720
634.872 .0315469
635.632 .0315214
636.392 .0314956
637.151 .0314696
637.910 .0314435
638.668 .0314175
639.427 .0313916
640.185 .0313660
640.943 .0313408
641.700 .0313162
642.457 .0312921
643.214 .0312688
643.971 .0312464
644.727 .0312247
645.483 .0312040
646.239 .0311840
646.994 .0311649
647.750 .0311464
648.505 .0311284
649.259 .0311108
650.014 .0310934
650.768 .0310761
651.521 .0310586
652.275 .0310408
653.028 .0310226
653.781 .0310037
654.534 .0309840
655.286 .0309635
656.039 .0309420
656.791 .0309196
657.542 .0308962
658.294 .0308719
659.045 .0308466
659.796 .0308205
660.546 .0307935
661.297 .0307656
662.047 .0307369
662.796 .0307074
663.546 .0306773
664.295 .0306467
665.044 .0306160
665.793 .0305852
666.542 .0305545
667.290 .0305243
668.038 .0304946
668.786 .0304655
669.533 .0304370
670.281 .0304091
671.028 .0303819
671.774 .0303552
672.521 .0303292
673.267 .0303039
674.013 .0302794
674.759 .0302558
675.505 .0302332
676.250 .0302114
676.995 .0301905
677.740 .0301704
678.484 .0301511
679.229 .0301323
679.973 .0301141
680.717 .0300965
681.460 .0300792
682.204 .0300624
682.947 .0300458
683.690 .0300296
684.433 .0300137
685.175 .0299979
685.917 .0299823
686.659 .0299670
687.401 .0299519
688.142 .0299372
688.884 .0299228
689.625 .0299088
690.365 .0298952
691.106 .0298819
691.846 .0298688
692.586 .0298558
693.326 .0298430
694.066 .0298302
694.805 .0298176
695.545 .0298051
696.284 .0297930
697.022 .0297812
697.761 .0297697
698.499 .0297585
699.237 .0297475
699.975 .0297366
700.713 .0297258
701.450 .0297148
702.187 .0297036
702.924 .0296922
703.661 .0296806
704.397 .0296686
705.133 .0296562
705.869 .0296435
706.605 .0296303
707.341 .0296167
708.076 .0296025
708.811 .0295879
709.546 .0295728
710.281 .0295572
711.015 .0295412
711.749 .0295246
712.483 .0295075
713.217 .0294899
713.950 .0294718
714.684 .0294531
715.417 .0294339
716.150 .0294142
716.882 .0293941
717.615 .0293736
718.347 .0293527
719.079 .0293315
719.811 .0293100
720.542 .0292881
721.273 .0292659
722.005 .0292434
722.735 .0292206
723.466 .0291974
724.196 .0291739
724.927 .0291502
725.656 .0291263
726.386 .0291021
727.116 .0290777
727.845 .0290531
728.574 .0290284
729.303 .0290035
730.031 .0289785
730.760 .0289534
731.488 .0289283
732.216 .0289032
732.944 .0288782
733.671 .0288533
734.398 .0288286
735.125 .0288043
735.852 .0287803
736.579 .0287567
737.305 .0287335
738.031 .0287108
738.757 .0286886
739.483 .0286669
740.208 .0286458
740.933 .0286252
741.658 .0286051
742.383 .0285856
743.108 .0285667
743.832 .0285483
744.556 .0285305
745.280 .0285130
746.004 .0284959
746.727 .0284791
747.450 .0284624
748.173 .0284460
748.896 .0284296
749.618 .0284134
750.340 .0283972
751.062 .0283812
751.784 .0283652
752.506 .0283493
753.227 .0283334
753.948 .0283176
754.669 .0283018
755.389 .0282861
756.110 .0282705
756.830 .0282550
757.550 .0282396
758.269 .0282245
758.989 .0282094
759.708 .0281945
760.427 .0281798
761.146 .0281652
761.864 .0281509
762.582 .0281369
763.300 .0281233
764.018 .0281103
764.736 .0280978
765.453 .0280860
766.170 .0280748
766.887 .0280641
767.603 .0280539
768.320 .0280442
769.036 .0280349
769.751 .0280262
770.467 .0280180
771.182 .0280103
771.897 .0280033
772.612 .0279969
773.327 .0279912
774.041 .0279860
774.755 .0279814
775.469 .0279774
776.183 .0279738
776.896 .0279708
777.609 .0279683
778.322 .0279664
779.035 .0279649
779.747 .0279639
780.459 .0279633
781.171 .0279630
781.882 .0279631
782.594 .0279633
783.305 .0279637
784.016 .0279642
784.726 .0279647
785.436 .0279652
786.147 .0279654
786.856 .0279654
787.566 .0279652
788.275 .0279646
788.984 .0279635
789.693 .0279619
790.401 .0279597
791.110 .0279568
791.818 .0279533
792.525 .0279490
793.233 .0279440
793.940 .0279382
794.647 .0279330
795.353 .0279258
796.060 .0279178
796.766 .0279088
797.472 .0278987
798.177 .0278876
798.883 .0278753
799.588 .0278620
800.292 .0278477
800.997 .0278323
801.701 .0278160
802.405 .0277988
803.109 .0277806
803.812 .0277616
804.515 .0277418
805.218 .0277211
805.921 .0276997
806.623 .0276776
807.325 .0276549
808.027 .0276316
808.728 .0276078
809.429 .0275837
810.130 .0275591
810.831 .0275343
811.531 .0275091
812.231 .0274837
812.931 .0274580
813.630 .0274322
814.330 .0274063
815.029 .0273803
815.727 .0273544
816.426 .0273286
817.124 .0273029
817.821 .0272774
818.519 .0272521
819.216 .0272272
819.913 .0272026
820.609 .0271783
821.306 .0271546
822.002 .0271314
822.697 .0271087
823.393 .0270866
824.088 .0270651
824.783 .0270442
825.477 .0270240
826.171 .0270045
826.865 .0269856
827.559 .0269673
828.252 .0269497
828.945 .0269327
829.638 .0269162
830.330 .0269003
831.023 .0268849
831.714 .0268700
832.406 .0268555
833.097 .0268414
833.788 .0268278
834.479 .0268146
835.169 .0268017
835.859 .0267892
836.548 .0267769
837.238 .0267649
837.927 .0267529
838.615 .0267411
839.304 .0267293
839.992 .0267174
840.680 .0267056
841.367 .0266937
842.054 .0266818
842.741 .0266699
843.428 .0266581
844.114 .0266463
844.800 .0266345
845.485 .0266228
846.170 .0266111
846.855 .0265994
847.540 .0265878
848.224 .0265763
848.908 .0265649
849.592 .0265535
850.275 .0265422
850.958 .0265311
851.641 .0265200
852.323 .0265090
853.005 .0264982
853.687 .0264874
854.368 .0264768
855.049 .0264663
855.730 .0264560
856.410 .0264458
857.090 .0264358
857.769 .0264258
858.449 .0264160
859.128 .0264063
859.806 .0263967
860.485 .0263873
861.163 .0263781
861.840 .0263690
862.518 .0263603
863.195 .0263518
863.871 .0263438
864.548 .0263361
865.224 .0263288
865.899 .0263221
866.574 .0263159
867.249 .0263102
867.924 .0263052
868.598 .0263009
869.272 .0262973
869.946 .0262944
870.619 .0262923
871.292 .0262908
871.964 .0262900
872.636 .0262899
873.308 .0262905
873.979 .0262919
874.651 .0262941
875.321 .0262971
875.992 .0263007
876.662 .0263050
877.331 .0263098
878.001 .0263149
878.670 .0263204
879.338 .0263261
880.007 .0263318
880.675 .0263377
881.342 .0263437
882.009 .0263499
882.676 .0263561
883.343 .0263625
884.009 .0263689
884.675 .0263753
885.340 .0263815
886.005 .0263877
886.670 .0263936
887.334 .0263994
887.998 .0264049
888.662 .0264103
889.325 .0264155
889.988 .0264205
890.650 .0264253
891.312 .0264299
891.974 .0264341
892.636 .0264380
893.297 .0264413
893.957 .0264442
894.618 .0264465
895.278 .0264483
895.937 .0264495
896.596 .0264500
897.255 .0264499
897.914 .0264490
898.572 .0264473
899.230 .0264446
899.887 .0264408
900.544 .0264359
901.201 .0264299
901.857 .0264158
902.513 .0264070
903.168 .0263971
903.823 .0263862
904.478 .0263743
905.132 .0263613
905.786 .0263471
906.440 .0263317
907.093 .0263150
907.746 .0262970
908.399 .0262778
909.051 .0262575
909.703 .0262361
910.354 .0262232
911.005 .0262006
911.656 .0261770
912.306 .0261527
912.956 .0261276
913.605 .0261016
914.254 .0260750
914.903 .0260476
915.551 .0260195
916.199 .0259908
916.847 .0259615
917.494 .0259318
918.141 .0259017
918.788 .0258711
919.434 .0258402
920.079 .0258090
920.725 .0257774
921.370 .0257455
922.014 .0257133
922.658 .0256808
923.302 .0256482
923.946 .0256156
924.589 .0255830
925.231 .0255504
925.873 .0255179
926.515 .0254856
927.157 .0254536
927.798 .0254217
928.439 .0253902
929.079 .0253589
929.719 .0253281
930.359 .0252978
930.998 .0252679
931.637 .0252385
932.275 .0252096
932.913 .0251812
933.551 .0251533
934.188 .0251259
934.825 .0250990
935.462 .0250725
936.098 .0250465
936.733 .0250209
937.369 .0249957
938.004 .0249709
938.638 .0249466
939.273 .0249227
939.907 .0248994
940.540 .0248765
941.173 .0248541
941.806 .0248323
942.438 .0248110
943.070 .0247903
943.702 .0247702
944.333 .0247505
944.964 .0247313
945.594 .0247125
946.224 .0246942
946.854 .0246762
947.483 .0246586
948.112 .0246414
948.741 .0246247
949.369 .0246085
949.996 .0245929
950.624 .0245778
951.251 .0245633
951.878 .0245492
952.504 .0245356
953.130 .0245225
953.755 .0245097
954.380 .0244974
955.005 .0244856
955.629 .0244742
956.253 .0244633
956.877 .0244528
957.500 .0244427
958.123 .0244331
958.746 .0244238
959.368 .0244148
959.990 .0244061
960.611 .0243976
961.232 .0243893
961.853 .0243813
962.473 .0243736
963.093 .0243663
963.712 .0243592
964.331 .0243525
964.950 .0243461
965.569 .0243400
966.187 .0243342
966.804 .0243287
967.422 .0243234
968.039 .0243185
968.655 .0243139
969.272 .0243097
969.887 .0243059
970.503 .0243025
971.118 .0242995
971.733 .0242968
972.347 .0242946
972.961 .0242926
973.575 .0242910
974.188 .0242896
974.801 .0242886
975.414 .0242879
976.026 .0242874
976.638 .0242873
977.250 .0242875
977.861 .0242880
978.472 .0242887
979.083 .0242897
979.693 .0242908
980.303 .0242922
980.912 .0242950
981.521 .0242968
982.130 .0242987
982.738 .0243007
983.346 .0243028
983.954 .0243051
984.562 .0243076
985.169 .0243103
985.775 .0243132
986.382 .0243165
986.988 .0243201
987.594 .0243240
988.199 .0243283
988.804 .0243330
989.409 .0243362
990.013 .0243415
990.617 .0243470
991.221 .0243529
991.824 .0243590
992.427 .0243655
993.030 .0243724
993.632 .0243796
994.234 .0243873
994.836 .0243953
995.438 .0244037
996.039 .0244124
996.640 .0244215
997.240 .0244310
997.840 .0244409
998.440 .0244512
999.040 .0244620
999.639 .0244733
1000.238 .0244850
1000.836 .0244973
1001.435 .0245101
1002.033 .0245233
1002.630 .0245369
1003.228 .0245509
1003.825 .0245651
1004.422 .0245796
1005.018 .0245941
1005.614 .0246087
1006.210 .0246234
1006.806 .0246380
1007.401 .0246526
1007.996 .0246670
1008.591 .0246814
1009.186 .0246955
1009.780 .0247095
1010.374 .0247233
1010.967 .0247368
1011.561 .0247501
1012.154 .0247630
1012.746 .0247758
1013.339 .0247883
1013.931 .0248006
1014.523 .0248128
1015.115 .0248248
1015.706 .0248366
1016.298 .0248483
1016.888 .0248599
1017.479 .0248712
1018.069 .0248824
1018.660 .0248934
1019.250 .0249041
1019.839 .0249145
1020.429 .0249246
1021.018 .0249345
1021.607 .0249442
1022.195 .0249537
1022.784 .0249630
1023.372 .0249722
1023.960 .0249813
1024.547 .0249902
1025.135 .0249990
1025.722 .0250077
1026.309 .0250163
1026.896 .0250246
1027.483 .0250327
1028.069 .0250406
1028.655 .0250482
1029.241 .0250556
1029.827 .0250627
1030.412 .0250694
1030.997 .0250759
1031.582 .0250820
1032.167 .0250877
1032.752 .0250931
1033.336 .0250979
1033.921 .0251023
1034.505 .0251060
1035.089 .0251092
1035.672 .0251119
1036.256 .0251140
1036.839 .0251155
1037.422 .0251164
1038.005 .0251167
1038.588 .0251163
1039.171 .0251152
1039.753 .0251135
1040.335 .0251109
1040.918 .0251075
1041.500 .0251032
1042.081 .0250980
1042.663 .0250920
1043.244 .0250851
1043.826 .0250774
1044.407 .0250689
1044.988 .0250598
1045.569 .0250500
1046.150 .0250396
1046.730 .0250286
1047.311 .0250171
1047.891 .0250051
1048.471 .0249925
1049.052 .0249793
1049.632 .0249656
1050.211 .0249515
1050.791 .0249370
1051.371 .0249223
1051.950 .0249074
1052.530 .0248924
1053.109 .0248773
1053.688 .0248620
1054.268 .0248465
1054.847 .0248309
1055.426 .0248149
1056.005 .0247988
1056.583 .0247825
1057.162 .0247662
1057.741 .0247500
1058.319 .0247340
1058.898 .0247185
1059.476 .0247035
1060.055 .0246890
1060.633 .0246751
1061.211 .0246618
1061.790 .0246489
1062.368 .0246366
1062.946 .0246246
1063.524 .0246131
1064.102 .0246018
1064.680 .0245908
1065.258 .0245802
1065.836 .0245698
1066.414 .0245597
1066.992 .0245497
1067.570 .0245398
1068.148 .0245298
1068.726 .0245197
1069.304 .0245094
1069.882 .0244989
1070.460 .0244883
1071.038 .0244775
1071.616 .0244668
1072.194 .0244561
1072.772 .0244455
1073.350 .0244350
1073.928 .0244245
1074.506 .0244141
1075.084 .0244035
1075.662 .0243926
1076.240 .0243814
1076.819 .0243698
1077.397 .0243579
1077.976 .0243458
1078.554 .0243334
1079.133 .0243209
1079.711 .0243082
1080.290 .0242953
1080.869 .0242822
1081.448 .0242689
1082.027 .0242553
1082.606 .0242416
1083.185 .0242278
1083.764 .0242141
1084.343 .0242008
1084.923 .0241880
1085.502 .0241758
1086.082 .0241644
1086.662 .0241539
1087.242 .0241442
1087.822 .0241353
1088.402 .0241273
1088.983 .0241202
1089.563 .0241141
1090.144 .0241089
1090.725 .0241049
1091.306 .0241019
1091.887 .0241001
1092.469 .0240995
1093.050 .0240999
1093.632 .0241014
1094.214 .0241039
1094.796 .0241074
1095.379 .0241119
1095.961 .0241173
1096.544 .0241236
1097.127 .0241310
1097.710 .0241393
1098.294 .0241484
1098.877 .0241583
1099.461 .0241691
1100.046 .0241805
1100.630 .0241927
1101.215 .0242055
1101.800 .0242191
1102.385 .0242333
1102.970 .0242482
1103.556 .0242638
1104.142 .0242802
1104.728 .0242974
1105.315 .0243155
1105.902 .0243345
1106.489 .0243547
1107.077 .0243762
1107.664 .0243992
1108.253 .0244237
1108.841 .0244498
1109.430 .0244776
1110.019 .0245069
1110.609 .0245379
1111.198 .0245704
1111.789 .0246044
1112.379 .0246400
1112.970 .0246770
1113.561 .0247153
1114.153 .0247551
1114.745 .0247962
1115.338 .0248386
1115.931 .0248822
1116.524 .0249271
1117.117 .0249729
1117.712 .0250196
1118.306 .0250672
1118.901 .0251159
1119.496 .0251656
1120.092 .0252163
1120.689 .0252680
1121.285 .0253206
1121.882 .0253742
1122.480 .0254288
1123.078 .0254844
1123.677 .0255411
1124.276 .0255988
1124.875 .0256575
1125.476 .0257175
1126.076 .0257788
1126.677 .0258413
1127.279 .0259050
1127.881 .0259700
1128.484 .0260364
1129.087 .0260650
1129.691 .0261332
1130.295 .0262033
1130.900 .0262761
1131.505 .0263519
1132.111 .0264307
1132.718 .0265128
1133.325 .0265989
1133.933 .0266907
1134.541 .0267824
1135.150 .0268756
1135.760 .0269704
1136.370 .0270878
1136.981 .0271027
1137.592 .0272088
1138.204 .0273232
1138.817 .0274533
1139.431 .0275907
1140.045 .0277301
1140.660 .0278682
1141.275 .0280228
1141.891 .0282284
1142.508 .0282632
1143.126 .0283464
1143.744 .0284390
1144.363 .0291238
1144.983 .0304999
