Measurement Sequence started on: 15-12-46-377
Integration time: 28
Scans to Average: 2 
>>>>>Begin Spectral Data<<<<<
432.689 .0000100
433.621 .0000100
434.552 .0000100
435.482 .0000100
436.410 .0000100
437.337 .0000100
438.262 .0252499
439.187 .0535160
440.110 .0886234
441.031 .1281945
441.952 .1024191
442.871 .1069276
443.789 .1111248
444.705 .1150779
445.621 .1188328
446.535 .1224256
447.447 .1245555
448.359 .1250848
449.269 .1236706
450.178 .1200917
451.086 .1144209
451.993 .1070996
452.898 .0988565
453.803 .0905163
454.706 .0827812
455.608 .0760856
456.508 .0705724
457.408 .0668877
458.306 .0640907
459.204 .0618403
460.100 .0599653
460.995 .0583703
461.888 .0569893
462.781 .0557784
463.673 .0547037
464.563 .0537393
465.452 .0528659
466.340 .0520682
467.228 .0513348
468.114 .0506578
468.999 .0500315
469.882 .0494513
470.765 .0489132
471.647 .0484145
472.528 .0479518
473.407 .0475224
474.286 .0471244
475.163 .0467567
476.040 .0464175
476.915 .0461066
477.790 .0458223
478.663 .0455645
479.535 .0453328
480.407 .0451263
481.277 .0449441
482.147 .0447846
483.015 .0446471
483.883 .0445300
484.749 .0444323
485.615 .0443541
486.479 .0442951
487.343 .0442558
488.206 .0442370
489.067 .0442392
489.928 .0442630
490.788 .0443086
491.647 .0443759
492.505 .0444641
493.362 .0445719
494.218 .0446987
495.073 .0448434
495.928 .0451255
496.781 .0453172
497.634 .0455299
498.486 .0457657
499.337 .0460258
500.187 .0463122
501.036 .0466271
501.884 .0469720
502.731 .0473501
503.578 .0477648
504.424 .0480511
505.268 .0485364
506.113 .0490703
506.956 .0496589
507.798 .0503088
508.640 .0510283
509.480 .0518268
510.320 .0527153
511.160 .0537062
511.998 .0548126
512.836 .0560495
513.672 .0574317
514.508 .0589777
515.344 .0607062
516.178 .0626365
517.012 .0647891
517.845 .0671844
518.677 .0698431
519.508 .0727821
520.339 .0760107
521.169 .0795331
521.998 .0833273
522.826 .0873615
523.654 .0915841
524.481 .0959312
525.307 .1003277
526.133 .1046897
526.958 .1089270
527.782 .1129521
528.605 .1166832
529.428 .1200496
530.250 .1229855
531.072 .1254481
531.892 .1273976
532.712 .1288083
533.532 .1296660
534.350 .1299656
535.168 .1297083
535.986 .1288998
536.802 .1275449
537.618 .1256540
538.434 .1232393
539.249 .1203397
540.063 .1170008
540.876 .1132843
541.689 .1092617
542.501 .1050128
543.313 .1006224
544.124 .0961808
544.934 .0917715
545.744 .0874695
546.553 .0833384
547.361 .0794327
548.169 .0757825
548.976 .0724123
549.783 .0693307
550.589 .0665339
551.395 .0640069
552.200 .0617282
553.004 .0596707
553.808 .0578116
554.611 .0561292
555.414 .0546038
556.216 .0532151
557.018 .0519451
557.819 .0507782
558.619 .0497007
559.419 .0487016
560.218 .0477721
561.017 .0469035
561.815 .0460902
562.613 .0453266
563.410 .0446077
564.207 .0439287
565.003 .0432857
565.799 .0426747
566.594 .0420917
567.388 .0415333
568.182 .0409970
568.976 .0404807
569.769 .0399830
570.562 .0395028
571.354 .0390396
572.145 .0385933
572.936 .0381640
573.727 .0377512
574.517 .0373552
575.307 .0369759
576.096 .0366132
576.885 .0362672
577.673 .0359375
578.461 .0356241
579.248 .0353266
580.035 .0350451
580.821 .0347790
581.607 .0345287
582.392 .0342940
583.177 .0340754
583.962 .0338730
584.746 .0336869
585.529 .0335165
586.313 .0333612
587.095 .0332196
587.878 .0330904
588.660 .0329723
589.441 .0328638
590.222 .0327639
591.003 .0326715
591.783 .0325856
592.563 .0325054
593.342 .0324300
594.121 .0323588
594.899 .0322911
595.678 .0322264
596.455 .0321642
597.233 .0321040
598.009 .0320454
598.786 .0319880
599.562 .0319315
600.338 .0318756
601.113 .0318202
601.888 .0317391
602.663 .0316852
603.437 .0316319
604.211 .0315795
604.984 .0315280
605.757 .0314777
606.530 .0314286
607.302 .0313809
608.074 .0313346
608.845 .0312895
609.616 .0312457
610.387 .0312269
611.158 .0311850
611.928 .0311444
612.697 .0311051
613.467 .0310672
614.236 .0310307
615.004 .0309957
615.773 .0309623
616.541 .0309305
617.308 .0309002
618.076 .0308715
618.843 .0308441
619.609 .0308179
620.375 .0307929
621.141 .0307690
621.907 .0307460
622.672 .0307241
623.437 .0307032
624.202 .0306834
624.966 .0306646
625.730 .0306468
626.493 .0306300
627.257 .0306142
628.020 .0305992
628.782 .0305849
629.545 .0305712
630.307 .0305580
631.068 .0305453
631.830 .0305329
632.591 .0305208
633.352 .0305088
634.112 .0304968
634.872 .0304847
635.632 .0304724
636.392 .0304600
637.151 .0304473
637.910 .0304344
638.668 .0304212
639.427 .0304078
640.185 .0303941
640.943 .0303800
641.700 .0303656
642.457 .0303507
643.214 .0303354
643.971 .0303195
644.727 .0303032
645.483 .0302863
646.239 .0302689
646.994 .0302511
647.750 .0302326
648.505 .0302136
649.259 .0301938
650.014 .0301732
650.768 .0301517
651.521 .0301294
652.275 .0301061
653.028 .0300819
653.781 .0300569
654.534 .0300309
655.286 .0300042
656.039 .0299768
656.791 .0299486
657.542 .0299197
658.294 .0298903
659.045 .0298602
659.796 .0298297
660.546 .0297988
661.297 .0297676
662.047 .0297361
662.796 .0297045
663.546 .0296728
664.295 .0296410
665.044 .0296092
665.793 .0295776
666.542 .0295463
667.290 .0295153
668.038 .0294847
668.786 .0294545
669.533 .0294249
670.281 .0293959
671.028 .0293674
671.774 .0293396
672.521 .0293125
673.267 .0292859
674.013 .0292601
674.759 .0292349
675.505 .0292103
676.250 .0291863
676.995 .0291629
677.740 .0291400
678.484 .0291176
679.229 .0290957
679.973 .0290744
680.717 .0290536
681.460 .0290334
682.204 .0290139
682.947 .0289949
683.690 .0289765
684.433 .0289585
685.175 .0289411
685.917 .0289242
686.659 .0289078
687.401 .0288918
688.142 .0288763
688.884 .0288612
689.625 .0288467
690.365 .0288326
691.106 .0288190
691.846 .0288058
692.586 .0287930
693.326 .0287805
694.066 .0287684
694.805 .0287567
695.545 .0287454
696.284 .0287347
697.022 .0287244
697.761 .0287146
698.499 .0287053
699.237 .0286965
699.975 .0286881
700.713 .0286801
701.450 .0286725
702.187 .0286652
702.924 .0286583
703.661 .0286516
704.397 .0286452
705.133 .0286390
705.869 .0286329
706.605 .0286268
707.341 .0286207
708.076 .0286144
708.811 .0286078
709.546 .0286010
710.281 .0285937
711.015 .0285859
711.749 .0285776
712.483 .0285686
713.217 .0285590
713.950 .0285486
714.684 .0285375
715.417 .0285256
716.150 .0285129
716.882 .0284994
717.615 .0284851
718.347 .0284701
719.079 .0284544
719.811 .0284380
720.542 .0284208
721.273 .0284030
722.005 .0283846
722.735 .0283656
723.466 .0283460
724.196 .0283259
724.927 .0283054
725.656 .0282845
726.386 .0282631
727.116 .0282415
727.845 .0282195
728.574 .0281973
729.303 .0281748
730.031 .0281520
730.760 .0281290
731.488 .0281057
732.216 .0280821
732.944 .0280582
733.671 .0280342
734.398 .0280099
735.125 .0279854
735.852 .0279608
736.579 .0279362
737.305 .0279116
738.031 .0278871
738.757 .0278627
739.483 .0278384
740.208 .0278144
740.933 .0277905
741.658 .0277668
742.383 .0277432
743.108 .0277198
743.832 .0276966
744.556 .0276735
745.280 .0276507
746.004 .0276280
746.727 .0276056
747.450 .0275834
748.173 .0275614
748.896 .0275397
749.618 .0275182
750.340 .0274969
751.062 .0274759
751.784 .0274553
752.506 .0274349
753.227 .0274149
753.948 .0273953
754.669 .0273760
755.389 .0273570
756.110 .0273385
756.830 .0273203
757.550 .0273027
758.269 .0272856
758.989 .0272691
759.708 .0272534
760.427 .0272384
761.146 .0272242
761.864 .0272107
762.582 .0271979
763.300 .0271858
764.018 .0271744
764.736 .0271637
765.453 .0271536
766.170 .0271441
766.887 .0271354
767.603 .0271274
768.320 .0271202
769.036 .0271139
769.751 .0271083
770.467 .0271037
771.182 .0270999
771.897 .0270971
772.612 .0270951
773.327 .0270941
774.041 .0270939
774.755 .0270948
775.469 .0270965
776.183 .0270992
776.896 .0271029
777.609 .0271075
778.322 .0271130
779.035 .0271195
779.747 .0271267
780.459 .0271347
781.171 .0271435
781.882 .0271528
782.594 .0271625
783.305 .0271726
784.016 .0271831
784.726 .0271936
785.436 .0272043
786.147 .0272195
786.856 .0272294
787.566 .0272390
788.275 .0272480
788.984 .0272565
789.693 .0272641
790.401 .0272710
791.110 .0272769
791.818 .0272817
792.525 .0272855
793.233 .0272881
793.940 .0272895
794.647 .0272869
795.353 .0272865
796.060 .0272849
796.766 .0272820
797.472 .0272780
798.177 .0272727
798.883 .0272662
799.588 .0272585
800.292 .0272497
800.997 .0272399
801.701 .0272289
802.405 .0272169
803.109 .0272039
803.812 .0271901
804.515 .0271753
805.218 .0271598
805.921 .0271435
806.623 .0271264
807.325 .0271085
808.027 .0270899
808.728 .0270705
809.429 .0270503
810.130 .0270293
810.831 .0270075
811.531 .0269850
812.231 .0269618
812.931 .0269380
813.630 .0269136
814.330 .0268888
815.029 .0268635
815.727 .0268378
816.426 .0268117
817.124 .0267853
817.821 .0267587
818.519 .0267318
819.216 .0267047
819.913 .0266775
820.609 .0266501
821.306 .0266227
822.002 .0265954
822.697 .0265681
823.393 .0265409
824.088 .0265139
824.783 .0264871
825.477 .0264607
826.171 .0264346
826.865 .0264089
827.559 .0263837
828.252 .0263589
828.945 .0263346
829.638 .0263108
830.330 .0262875
831.023 .0262646
831.714 .0262423
832.406 .0262204
833.097 .0261990
833.788 .0261781
834.479 .0261577
835.169 .0261377
835.859 .0261182
836.548 .0260993
837.238 .0260808
837.927 .0260629
838.615 .0260453
839.304 .0260281
839.992 .0260112
840.680 .0259945
841.367 .0259780
842.054 .0259617
842.741 .0259456
843.428 .0259297
844.114 .0259142
844.800 .0258991
845.485 .0258843
846.170 .0258699
846.855 .0258557
847.540 .0258419
848.224 .0258282
848.908 .0258147
849.592 .0258015
850.275 .0257885
850.958 .0257758
851.641 .0257635
852.323 .0257516
853.005 .0257403
853.687 .0257294
854.368 .0257191
855.049 .0257092
855.730 .0256999
856.410 .0256911
857.090 .0256829
857.769 .0256754
858.449 .0256686
859.128 .0256625
859.806 .0256571
860.485 .0256526
861.163 .0256488
861.840 .0256457
862.518 .0256433
863.195 .0256417
863.871 .0256407
864.548 .0256405
865.224 .0256411
865.899 .0256424
866.574 .0256445
867.249 .0256475
867.924 .0256512
868.598 .0256556
869.272 .0256608
869.946 .0256667
870.619 .0256733
871.292 .0256805
871.964 .0256883
872.636 .0256967
873.308 .0257056
873.979 .0257151
874.651 .0257250
875.321 .0257353
875.992 .0257461
876.662 .0257571
877.331 .0257684
878.001 .0257799
878.670 .0257915
879.338 .0258032
880.007 .0258149
880.675 .0258266
881.342 .0258384
882.009 .0258502
882.676 .0258621
883.343 .0258740
884.009 .0258859
884.675 .0258978
885.340 .0259097
886.005 .0259214
886.670 .0259330
887.334 .0259445
887.998 .0259558
888.662 .0259669
889.325 .0259779
889.988 .0259888
890.650 .0259996
891.312 .0260102
891.974 .0260206
892.636 .0260307
893.297 .0260403
893.957 .0260495
894.618 .0260580
895.278 .0260659
895.937 .0260730
896.596 .0260794
897.255 .0260849
897.914 .0260895
898.572 .0260931
899.230 .0260957
899.887 .0260972
900.544 .0260975
901.201 .0260966
901.857 .0260891
902.513 .0260847
903.168 .0260790
903.823 .0260720
904.478 .0260638
905.132 .0260543
905.786 .0260435
906.440 .0260315
907.093 .0260182
907.746 .0260037
908.399 .0259880
909.051 .0259712
909.703 .0259535
910.354 .0259427
911.005 .0259238
911.656 .0259042
912.306 .0258837
912.956 .0258626
913.605 .0258408
914.254 .0258183
914.903 .0257952
915.551 .0257713
916.199 .0257469
916.847 .0257218
917.494 .0256961
918.141 .0256699
918.788 .0256432
919.434 .0256158
920.079 .0255879
920.725 .0255593
921.370 .0255300
922.014 .0255001
922.658 .0254693
923.302 .0254378
923.946 .0254056
924.589 .0253727
925.231 .0253390
925.873 .0253048
926.515 .0252699
927.157 .0252345
927.798 .0251985
928.439 .0251622
929.079 .0251255
929.719 .0250885
930.359 .0250514
930.998 .0250141
931.637 .0249768
932.275 .0249395
932.913 .0249023
933.551 .0248652
934.188 .0248284
934.825 .0247919
935.462 .0247558
936.098 .0247201
936.733 .0246851
937.369 .0246506
938.004 .0246168
938.638 .0245837
939.273 .0245514
939.907 .0245198
940.540 .0244890
941.173 .0244590
941.806 .0244299
942.438 .0244017
943.070 .0243744
943.702 .0243479
944.333 .0243224
944.964 .0242976
945.594 .0242737
946.224 .0242503
946.854 .0242276
947.483 .0242054
948.112 .0241837
948.741 .0241624
949.369 .0241416
949.996 .0241213
950.624 .0241013
951.251 .0240817
951.878 .0240625
952.504 .0240437
953.130 .0240252
953.755 .0240071
954.380 .0239892
955.005 .0239718
955.629 .0239546
956.253 .0239378
956.877 .0239214
957.500 .0239053
958.123 .0238896
958.746 .0238742
959.368 .0238593
959.990 .0238449
960.611 .0238310
961.232 .0238176
961.853 .0238047
962.473 .0237925
963.093 .0237808
963.712 .0237698
964.331 .0237595
964.950 .0237499
965.569 .0237409
966.187 .0237327
966.804 .0237253
967.422 .0237185
968.039 .0237124
968.655 .0237071
969.272 .0237024
969.887 .0236983
970.503 .0236950
971.118 .0236922
971.733 .0236901
972.347 .0236885
972.961 .0236876
973.575 .0236873
974.188 .0236874
974.801 .0236881
975.414 .0236893
976.026 .0236909
976.638 .0236929
977.250 .0236952
977.861 .0236979
978.472 .0237010
979.083 .0237045
979.693 .0237083
980.303 .0237125
980.912 .0237202
981.521 .0237252
982.130 .0237306
982.738 .0237364
983.346 .0237427
983.954 .0237495
984.562 .0237568
985.169 .0237648
985.775 .0237733
986.382 .0237824
986.988 .0237920
987.594 .0238023
988.199 .0238131
988.804 .0238246
989.409 .0238324
990.013 .0238451
990.617 .0238585
991.221 .0238727
991.824 .0238876
992.427 .0239032
993.030 .0239194
993.632 .0239361
994.234 .0239533
994.836 .0239709
995.438 .0239890
996.039 .0240074
996.640 .0240264
997.240 .0240459
997.840 .0240660
998.440 .0240867
999.040 .0241079
999.639 .0241296
1000.238 .0241516
1000.836 .0241738
1001.435 .0241962
1002.033 .0242187
1002.630 .0242412
1003.228 .0242637
1003.825 .0242861
1004.422 .0243085
1005.018 .0243307
1005.614 .0243527
1006.210 .0243744
1006.806 .0243957
1007.401 .0244165
1007.996 .0244367
1008.591 .0244564
1009.186 .0244755
1009.780 .0244941
1010.374 .0245124
1010.967 .0245303
1011.561 .0245479
1012.154 .0245652
1012.746 .0245822
1013.339 .0245990
1013.931 .0246153
1014.523 .0246313
1015.115 .0246469
1015.706 .0246621
1016.298 .0246770
1016.888 .0246917
1017.479 .0247062
1018.069 .0247206
1018.660 .0247348
1019.250 .0247488
1019.839 .0247627
1020.429 .0247763
1021.018 .0247897
1021.607 .0248028
1022.195 .0248158
1022.784 .0248288
1023.372 .0248416
1023.960 .0248545
1024.547 .0248673
1025.135 .0248802
1025.722 .0248931
1026.309 .0249059
1026.896 .0249186
1027.483 .0249312
1028.069 .0249435
1028.655 .0249557
1029.241 .0249676
1029.827 .0249792
1030.412 .0249905
1030.997 .0250015
1031.582 .0250119
1032.167 .0250219
1032.752 .0250312
1033.336 .0250398
1033.921 .0250477
1034.505 .0250548
1035.089 .0250612
1035.672 .0250667
1036.256 .0250714
1036.839 .0250753
1037.422 .0250784
1038.005 .0250806
1038.588 .0250818
1039.171 .0250822
1039.753 .0250815
1040.335 .0250798
1040.918 .0250772
1041.500 .0250736
1042.081 .0250691
1042.663 .0250638
1043.244 .0250576
1043.826 .0250506
1044.407 .0250428
1044.988 .0250343
1045.569 .0250250
1046.150 .0250151
1046.730 .0250045
1047.311 .0249933
1047.891 .0249817
1048.471 .0249695
1049.052 .0249570
1049.632 .0249442
1050.211 .0249311
1050.791 .0249177
1051.371 .0249041
1051.950 .0248901
1052.530 .0248758
1053.109 .0248612
1053.688 .0248464
1054.268 .0248313
1054.847 .0248161
1055.426 .0248008
1056.005 .0247853
1056.583 .0247699
1057.162 .0247544
1057.741 .0247388
1058.319 .0247233
1058.898 .0247077
1059.476 .0246922
1060.055 .0246768
1060.633 .0246616
1061.211 .0246465
1061.790 .0246317
1062.368 .0246172
1062.946 .0246028
1063.524 .0245887
1064.102 .0245747
1064.680 .0245607
1065.258 .0245467
1065.836 .0245326
1066.414 .0245183
1066.992 .0245039
1067.570 .0244892
1068.148 .0244744
1068.726 .0244594
1069.304 .0244441
1069.882 .0244288
1070.460 .0244133
1071.038 .0243978
1071.616 .0243823
1072.194 .0243669
1072.772 .0243516
1073.350 .0243365
1073.928 .0243216
1074.506 .0243069
1075.084 .0242923
1075.662 .0242780
1076.240 .0242637
1076.819 .0242495
1077.397 .0242354
1077.976 .0242212
1078.554 .0242070
1079.133 .0241927
1079.711 .0241784
1080.290 .0241640
1080.869 .0241495
1081.448 .0241351
1082.027 .0241206
1082.606 .0241061
1083.185 .0240916
1083.764 .0240773
1084.343 .0240631
1084.923 .0240493
1085.502 .0240358
1086.082 .0240230
1086.662 .0240107
1087.242 .0239991
1087.822 .0239882
1088.402 .0239778
1088.983 .0239680
1089.563 .0239587
1090.144 .0239498
1090.725 .0239414
1091.306 .0239336
1091.887 .0239266
1092.469 .0239203
1093.050 .0239151
1093.632 .0239109
1094.214 .0239077
1094.796 .0239055
1095.379 .0239042
1095.961 .0239037
1096.544 .0239039
1097.127 .0239050
1097.710 .0239070
1098.294 .0239100
1098.877 .0239142
1099.461 .0239197
1100.046 .0239266
1100.630 .0239348
1101.215 .0239441
1101.800 .0239543
1102.385 .0239651
1102.970 .0239762
1103.556 .0239876
1104.142 .0239992
1104.728 .0240109
1105.315 .0240230
1105.902 .0240355
1106.489 .0240487
1107.077 .0240625
1107.664 .0240770
1108.253 .0240921
1108.841 .0241079
1109.430 .0241241
1110.019 .0241409
1110.609 .0241582
1111.198 .0241761
1111.789 .0241947
1112.379 .0242141
1112.970 .0242345
1113.561 .0242562
1114.153 .0242793
1114.745 .0243038
1115.338 .0243299
1115.931 .0243574
1116.524 .0243862
1117.117 .0244165
1117.712 .0244480
1118.306 .0244811
1118.901 .0245156
1119.496 .0245517
1120.092 .0245898
1120.689 .0246298
1121.285 .0246720
1121.882 .0247167
1122.480 .0247639
1123.078 .0248136
1123.677 .0248660
1124.276 .0249211
1124.875 .0249789
1125.476 .0250395
1126.076 .0251031
1126.677 .0251697
1127.279 .0252398
1127.881 .0253132
1128.484 .0253903
1129.087 .0254222
1129.691 .0255045
1130.295 .0255908
1130.900 .0256812
1131.505 .0257758
1132.111 .0258745
1132.718 .0259772
1133.325 .0260842
1133.933 .0261947
1134.541 .0263132
1135.150 .0264350
1135.760 .0265542
1136.370 .0266819
1136.981 .0266936
1137.592 .0268433
1138.204 .0269979
1138.817 .0271608
1139.431 .0273285
1140.045 .0275021
1140.660 .0276772
1141.275 .0278565
1141.891 .0280159
1142.508 .0283068
1143.126 .0284603
1143.744 .0284509
1144.363 .0287477
1144.983 .0283593
