Measurement Sequence started on: 15-12-46-377
Integration time: 28
Scans to Average: 2 
>>>>>Begin Spectral Data<<<<<
432.689 .0000100
433.621 .0000100
434.552 .0000100
435.482 .0000100
436.410 .0000100
437.337 .0000100
438.262 .0269072
439.187 .0570798
440.110 .0945558
441.031 .1368197
441.952 .1094872
442.871 .1143169
443.789 .1188141
444.705 .1230494
445.621 .1270713
446.535 .1309157
447.447 .1331921
448.359 .1337478
449.269 .1322144
450.178 .1283534
451.086 .1222412
451.993 .1143473
452.898 .1054503
453.803 .0964340
454.706 .0880499
455.608 .0807652
456.508 .0747360
457.408 .0706535
458.306 .0675179
459.204 .0649641
460.100 .0628097
460.995 .0609527
461.888 .0593245
462.781 .0578789
463.673 .0565818
464.563 .0554105
465.452 .0543477
466.340 .0533801
467.228 .0524978
468.114 .0516929
468.999 .0509590
469.882 .0502898
470.765 .0496795
471.647 .0491234
472.528 .0486168
473.407 .0481550
474.286 .0477348
475.163 .0473536
476.040 .0470091
476.915 .0466999
477.790 .0464246
478.663 .0461826
479.535 .0459727
480.407 .0457939
481.277 .0456443
482.147 .0455208
483.015 .0454208
483.883 .0453410
484.749 .0452787
485.615 .0452324
486.479 .0452007
487.343 .0451836
488.206 .0451819
489.067 .0451960
489.928 .0452269
490.788 .0452755
491.647 .0453419
492.505 .0454260
493.362 .0455279
494.218 .0456475
495.073 .0457850
495.928 .0460605
496.781 .0462479
497.634 .0464553
498.486 .0466839
499.337 .0469352
500.187 .0472108
501.036 .0475125
501.884 .0478423
502.731 .0482033
503.578 .0485981
504.424 .0488665
505.268 .0493238
506.113 .0498248
506.956 .0503734
507.798 .0509735
508.640 .0516298
509.480 .0523487
510.320 .0531386
511.160 .0540090
511.998 .0549735
512.836 .0560505
513.672 .0572577
514.508 .0586178
515.344 .0601560
516.178 .0618968
517.012 .0638643
517.845 .0660818
518.677 .0685686
519.508 .0713397
520.339 .0744004
521.169 .0777504
521.998 .0813686
522.826 .0852245
523.654 .0892710
524.481 .0934475
525.307 .0976858
526.133 .1019075
526.958 .1060264
527.782 .1099593
528.605 .1136263
529.428 .1169539
530.250 .1198722
531.072 .1223310
531.892 .1242869
532.712 .1257079
533.532 .1265759
534.350 .1268823
535.168 .1266269
535.986 .1258187
536.802 .1244684
537.618 .1225940
538.434 .1202188
539.249 .1173826
540.063 .1141315
540.876 .1105232
541.689 .1066257
542.501 .1025121
543.313 .0982616
544.124 .0939596
544.934 .0896858
545.744 .0855146
546.553 .0815100
547.361 .0777275
548.169 .0742039
548.976 .0709652
549.783 .0680214
550.589 .0653689
551.395 .0629935
552.200 .0608725
553.004 .0589767
553.808 .0572784
554.611 .0557509
555.414 .0543677
556.216 .0531059
557.018 .0519458
557.819 .0508730
558.619 .0498759
559.419 .0489468
560.218 .0480803
561.017 .0472717
561.815 .0465159
562.613 .0458081
563.410 .0451430
564.207 .0445155
565.003 .0439196
565.799 .0433489
566.594 .0427989
567.388 .0422670
568.182 .0417506
568.976 .0412488
569.769 .0407615
570.562 .0402896
571.354 .0398337
572.145 .0393948
572.936 .0389732
573.727 .0385694
574.517 .0381828
575.307 .0378127
576.096 .0374575
576.885 .0371160
577.673 .0367870
578.461 .0364700
579.248 .0361649
580.035 .0358720
580.821 .0355919
581.607 .0353253
582.392 .0350729
583.177 .0348355
583.962 .0346128
584.746 .0344045
585.529 .0342098
586.313 .0340278
587.095 .0338575
587.878 .0336979
588.660 .0335480
589.441 .0334074
590.222 .0332754
591.003 .0331517
591.783 .0330360
592.563 .0329281
593.342 .0328275
594.121 .0327337
594.899 .0326461
595.678 .0325638
596.455 .0324861
597.233 .0324124
598.009 .0323420
598.786 .0322746
599.562 .0322098
600.338 .0321475
601.113 .0320874
601.888 .0320050
602.663 .0319506
603.437 .0318983
604.211 .0318482
604.984 .0318001
605.757 .0317538
606.530 .0317094
607.302 .0316668
608.074 .0316259
608.845 .0315868
609.616 .0315495
610.387 .0315359
611.158 .0315014
611.928 .0314688
612.697 .0314380
613.467 .0314091
614.236 .0313821
615.004 .0313569
615.773 .0313333
616.541 .0313111
617.308 .0312901
618.076 .0312701
618.843 .0312509
619.609 .0312323
620.375 .0312143
621.141 .0311966
621.907 .0311793
622.672 .0311623
623.437 .0311454
624.202 .0311286
624.966 .0311116
625.730 .0310943
626.493 .0310767
627.257 .0310587
628.020 .0310402
628.782 .0310212
629.545 .0310019
630.307 .0309821
631.068 .0309619
631.830 .0309414
632.591 .0309204
633.352 .0308990
634.112 .0308772
634.872 .0308550
635.632 .0308325
636.392 .0308096
637.151 .0307865
637.910 .0307632
638.668 .0307396
639.427 .0307158
640.185 .0306918
640.943 .0306677
641.700 .0306433
642.457 .0306189
643.214 .0305943
643.971 .0305696
644.727 .0305449
645.483 .0305200
646.239 .0304950
646.994 .0304698
647.750 .0304445
648.505 .0304191
649.259 .0303935
650.014 .0303677
650.768 .0303418
651.521 .0303158
652.275 .0302897
653.028 .0302634
653.781 .0302369
654.534 .0302103
655.286 .0301836
656.039 .0301567
656.791 .0301297
657.542 .0301027
658.294 .0300755
659.045 .0300483
659.796 .0300211
660.546 .0299938
661.297 .0299665
662.047 .0299393
662.796 .0299121
663.546 .0298851
664.295 .0298583
665.044 .0298317
665.793 .0298054
666.542 .0297795
667.290 .0297540
668.038 .0297290
668.786 .0297045
669.533 .0296806
670.281 .0296573
671.028 .0296347
671.774 .0296129
672.521 .0295918
673.267 .0295714
674.013 .0295518
674.759 .0295330
675.505 .0295150
676.250 .0294978
676.995 .0294814
677.740 .0294657
678.484 .0294508
679.229 .0294366
679.973 .0294231
680.717 .0294102
681.460 .0293979
682.204 .0293860
682.947 .0293747
683.690 .0293637
684.433 .0293532
685.175 .0293430
685.917 .0293332
686.659 .0293236
687.401 .0293142
688.142 .0293050
688.884 .0292958
689.625 .0292868
690.365 .0292777
691.106 .0292686
691.846 .0292595
692.586 .0292502
693.326 .0292409
694.066 .0292315
694.805 .0292219
695.545 .0292122
696.284 .0292022
697.022 .0291920
697.761 .0291815
698.499 .0291708
699.237 .0291597
699.975 .0291485
700.713 .0291369
701.450 .0291252
702.187 .0291132
702.924 .0291010
703.661 .0290886
704.397 .0290759
705.133 .0290630
705.869 .0290498
706.605 .0290362
707.341 .0290224
708.076 .0290082
708.811 .0289937
709.546 .0289790
710.281 .0289638
711.015 .0289484
711.749 .0289325
712.483 .0289161
713.217 .0288993
713.950 .0288819
714.684 .0288640
715.417 .0288455
716.150 .0288263
716.882 .0288063
717.615 .0287856
718.347 .0287642
719.079 .0287420
719.811 .0287192
720.542 .0286955
721.273 .0286712
722.005 .0286463
722.735 .0286207
723.466 .0285947
724.196 .0285681
724.927 .0285411
725.656 .0285138
726.386 .0284863
727.116 .0284586
727.845 .0284309
728.574 .0284032
729.303 .0283758
730.031 .0283487
730.760 .0283220
731.488 .0282958
732.216 .0282702
732.944 .0282452
733.671 .0282209
734.398 .0281973
735.125 .0281744
735.852 .0281522
736.579 .0281307
737.305 .0281099
738.031 .0280898
738.757 .0280704
739.483 .0280518
740.208 .0280339
740.933 .0280168
741.658 .0280004
742.383 .0279847
743.108 .0279696
743.832 .0279550
744.556 .0279410
745.280 .0279275
746.004 .0279145
746.727 .0279020
747.450 .0278900
748.173 .0278785
748.896 .0278676
749.618 .0278572
750.340 .0278472
751.062 .0278377
751.784 .0278285
752.506 .0278195
753.227 .0278108
753.948 .0278024
754.669 .0277942
755.389 .0277864
756.110 .0277789
756.830 .0277718
757.550 .0277650
758.269 .0277586
758.989 .0277526
759.708 .0277470
760.427 .0277417
761.146 .0277367
761.864 .0277320
762.582 .0277276
763.300 .0277236
764.018 .0277198
764.736 .0277162
765.453 .0277130
766.170 .0277101
766.887 .0277074
767.603 .0277051
768.320 .0277032
769.036 .0277016
769.751 .0277004
770.467 .0276995
771.182 .0276990
771.897 .0276988
772.612 .0276988
773.327 .0276990
774.041 .0276993
774.755 .0276998
775.469 .0277005
776.183 .0277012
776.896 .0277021
777.609 .0277031
778.322 .0277042
779.035 .0277053
779.747 .0277065
780.459 .0277077
781.171 .0277087
781.882 .0277096
782.594 .0277103
783.305 .0277108
784.016 .0277111
784.726 .0277111
785.436 .0277108
786.147 .0277092
786.856 .0277080
787.566 .0277062
788.275 .0277040
788.984 .0277011
789.693 .0276976
790.401 .0276934
791.110 .0276885
791.818 .0276827
792.525 .0276761
793.233 .0276686
793.940 .0276602
794.647 .0276534
795.353 .0276437
796.060 .0276331
796.766 .0276216
797.472 .0276092
798.177 .0275958
798.883 .0275815
799.588 .0275662
800.292 .0275500
800.997 .0275329
801.701 .0275148
802.405 .0274959
803.109 .0274762
803.812 .0274557
804.515 .0274343
805.218 .0274121
805.921 .0273892
806.623 .0273654
807.325 .0273409
808.027 .0273156
808.728 .0272897
809.429 .0272633
810.130 .0272363
810.831 .0272088
811.531 .0271810
812.231 .0271529
812.931 .0271244
813.630 .0270957
814.330 .0270668
815.029 .0270378
815.727 .0270088
816.426 .0269800
817.124 .0269514
817.821 .0269231
818.519 .0268952
819.216 .0268678
819.913 .0268408
820.609 .0268144
821.306 .0267886
822.002 .0267633
822.697 .0267388
823.393 .0267150
824.088 .0266921
824.783 .0266700
825.477 .0266489
826.171 .0266286
826.865 .0266091
827.559 .0265904
828.252 .0265725
828.945 .0265551
829.638 .0265384
830.330 .0265223
831.023 .0265069
831.714 .0264922
832.406 .0264781
833.097 .0264648
833.788 .0264522
834.479 .0264402
835.169 .0264289
835.859 .0264181
836.548 .0264080
837.238 .0263985
837.927 .0263895
838.615 .0263811
839.304 .0263734
839.992 .0263663
840.680 .0263598
841.367 .0263539
842.054 .0263486
842.741 .0263438
843.428 .0263396
844.114 .0263360
844.800 .0263328
845.485 .0263302
846.170 .0263280
846.855 .0263263
847.540 .0263250
848.224 .0263240
848.908 .0263234
849.592 .0263231
850.275 .0263230
850.958 .0263231
851.641 .0263234
852.323 .0263240
853.005 .0263249
853.687 .0263260
854.368 .0263275
855.049 .0263294
855.730 .0263315
856.410 .0263340
857.090 .0263367
857.769 .0263396
858.449 .0263429
859.128 .0263464
859.806 .0263501
860.485 .0263542
861.163 .0263587
861.840 .0263636
862.518 .0263689
863.195 .0263747
863.871 .0263810
864.548 .0263876
865.224 .0263946
865.899 .0264020
866.574 .0264096
867.249 .0264176
867.924 .0264258
868.598 .0264343
869.272 .0264429
869.946 .0264515
870.619 .0264601
871.292 .0264687
871.964 .0264770
872.636 .0264851
873.308 .0264929
873.979 .0265004
874.651 .0265076
875.321 .0265146
875.992 .0265211
876.662 .0265274
877.331 .0265331
878.001 .0265385
878.670 .0265433
879.338 .0265476
880.007 .0265514
880.675 .0265548
881.342 .0265578
882.009 .0265604
882.676 .0265626
883.343 .0265644
884.009 .0265658
884.675 .0265668
885.340 .0265673
886.005 .0265674
886.670 .0265671
887.334 .0265665
887.998 .0265654
888.662 .0265640
889.325 .0265623
889.988 .0265602
890.650 .0265578
891.312 .0265549
891.974 .0265516
892.636 .0265477
893.297 .0265433
893.957 .0265383
894.618 .0265327
895.278 .0265264
895.937 .0265194
896.596 .0265115
897.255 .0265027
897.914 .0264928
898.572 .0264818
899.230 .0264697
899.887 .0264563
900.544 .0264417
901.201 .0264258
901.857 .0263966
902.513 .0263777
903.168 .0263577
903.823 .0263366
904.478 .0263145
905.132 .0262913
905.786 .0262672
906.440 .0262422
907.093 .0262163
907.746 .0261896
908.399 .0261622
909.051 .0261341
909.703 .0261053
910.354 .0260899
911.005 .0260605
911.656 .0260306
912.306 .0260002
912.956 .0259693
913.605 .0259382
914.254 .0259067
914.903 .0258749
915.551 .0258429
916.199 .0258106
916.847 .0257781
917.494 .0257455
918.141 .0257126
918.788 .0256795
919.434 .0256462
920.079 .0256127
920.725 .0255790
921.370 .0255451
922.014 .0255109
922.658 .0254765
923.302 .0254419
923.946 .0254071
924.589 .0253720
925.231 .0253368
925.873 .0253014
926.515 .0252659
927.157 .0252304
927.798 .0251950
928.439 .0251597
929.079 .0251247
929.719 .0250898
930.359 .0250554
930.998 .0250213
931.637 .0249877
932.275 .0249547
932.913 .0249224
933.551 .0248908
934.188 .0248601
934.825 .0248302
935.462 .0248013
936.098 .0247733
936.733 .0247463
937.369 .0247202
938.004 .0246951
938.638 .0246708
939.273 .0246475
939.907 .0246252
940.540 .0246039
941.173 .0245836
941.806 .0245643
942.438 .0245462
943.070 .0245290
943.702 .0245129
944.333 .0244977
944.964 .0244833
945.594 .0244697
946.224 .0244569
946.854 .0244447
947.483 .0244332
948.112 .0244222
948.741 .0244118
949.369 .0244020
949.996 .0243927
950.624 .0243839
951.251 .0243756
951.878 .0243677
952.504 .0243602
953.130 .0243531
953.755 .0243464
954.380 .0243402
955.005 .0243346
955.629 .0243294
956.253 .0243249
956.877 .0243209
957.500 .0243176
958.123 .0243149
958.746 .0243128
959.368 .0243115
959.990 .0243109
960.611 .0243110
961.232 .0243120
961.853 .0243138
962.473 .0243165
963.093 .0243199
963.712 .0243242
964.331 .0243291
964.950 .0243347
965.569 .0243410
966.187 .0243479
966.804 .0243554
967.422 .0243634
968.039 .0243720
968.655 .0243811
969.272 .0243906
969.887 .0244006
970.503 .0244110
971.118 .0244218
971.733 .0244329
972.347 .0244442
972.961 .0244558
973.575 .0244675
974.188 .0244793
974.801 .0244911
975.414 .0245028
976.026 .0245142
976.638 .0245254
977.250 .0245364
977.861 .0245470
978.472 .0245574
979.083 .0245675
979.693 .0245775
980.303 .0245874
980.912 .0246018
981.521 .0246115
982.130 .0246212
982.738 .0246309
983.346 .0246406
983.954 .0246504
984.562 .0246604
985.169 .0246708
985.775 .0246817
986.382 .0246931
986.988 .0247051
987.594 .0247176
988.199 .0247307
988.804 .0247442
989.409 .0247529
990.013 .0247671
990.617 .0247816
991.221 .0247966
991.824 .0248119
992.427 .0248277
993.030 .0248438
993.632 .0248603
994.234 .0248771
994.836 .0248942
995.438 .0249114
996.039 .0249286
996.640 .0249459
997.240 .0249632
997.840 .0249806
998.440 .0249980
999.040 .0250154
999.639 .0250330
1000.238 .0250505
1000.836 .0250680
1001.435 .0250854
1002.033 .0251024
1002.630 .0251191
1003.228 .0251351
1003.825 .0251505
1004.422 .0251652
1005.018 .0251791
1005.614 .0251923
1006.210 .0252047
1006.806 .0252163
1007.401 .0252271
1007.996 .0252371
1008.591 .0252464
1009.186 .0252549
1009.780 .0252626
1010.374 .0252696
1010.967 .0252760
1011.561 .0252819
1012.154 .0252872
1012.746 .0252922
1013.339 .0252968
1013.931 .0253013
1014.523 .0253055
1015.115 .0253095
1015.706 .0253133
1016.298 .0253169
1016.888 .0253204
1017.479 .0253236
1018.069 .0253267
1018.660 .0253297
1019.250 .0253325
1019.839 .0253352
1020.429 .0253377
1021.018 .0253402
1021.607 .0253425
1022.195 .0253448
1022.784 .0253469
1023.372 .0253489
1023.960 .0253508
1024.547 .0253526
1025.135 .0253542
1025.722 .0253557
1026.309 .0253569
1026.896 .0253579
1027.483 .0253587
1028.069 .0253591
1028.655 .0253591
1029.241 .0253588
1029.827 .0253580
1030.412 .0253566
1030.997 .0253547
1031.582 .0253522
1032.167 .0253489
1032.752 .0253450
1033.336 .0253402
1033.921 .0253345
1034.505 .0253279
1035.089 .0253205
1035.672 .0253123
1036.256 .0253033
1036.839 .0252935
1037.422 .0252830
1038.005 .0252718
1038.588 .0252599
1039.171 .0252474
1039.753 .0252343
1040.335 .0252206
1040.918 .0252063
1041.500 .0251914
1042.081 .0251760
1042.663 .0251600
1043.244 .0251436
1043.826 .0251269
1044.407 .0251098
1044.988 .0250925
1045.569 .0250750
1046.150 .0250572
1046.730 .0250392
1047.311 .0250209
1047.891 .0250022
1048.471 .0249832
1049.052 .0249637
1049.632 .0249439
1050.211 .0249237
1050.791 .0249034
1051.371 .0248829
1051.950 .0248624
1052.530 .0248419
1053.109 .0248213
1053.688 .0248007
1054.268 .0247802
1054.847 .0247596
1055.426 .0247392
1056.005 .0247188
1056.583 .0246988
1057.162 .0246790
1057.741 .0246598
1058.319 .0246412
1058.898 .0246232
1059.476 .0246059
1060.055 .0245891
1060.633 .0245727
1061.211 .0245566
1061.790 .0245409
1062.368 .0245253
1062.946 .0245099
1063.524 .0244947
1064.102 .0244796
1064.680 .0244646
1065.258 .0244497
1065.836 .0244349
1066.414 .0244200
1066.992 .0244051
1067.570 .0243900
1068.148 .0243747
1068.726 .0243592
1069.304 .0243437
1069.882 .0243281
1070.460 .0243125
1071.038 .0242970
1071.616 .0242816
1072.194 .0242663
1072.772 .0242511
1073.350 .0242360
1073.928 .0242208
1074.506 .0242056
1075.084 .0241903
1075.662 .0241750
1076.240 .0241597
1076.819 .0241446
1077.397 .0241297
1077.976 .0241152
1078.554 .0241012
1079.133 .0240879
1079.711 .0240752
1080.290 .0240633
1080.869 .0240523
1081.448 .0240421
1082.027 .0240330
1082.606 .0240249
1083.185 .0240181
1083.764 .0240125
1084.343 .0240083
1084.923 .0240055
1085.502 .0240040
1086.082 .0240038
1086.662 .0240048
1087.242 .0240070
1087.822 .0240101
1088.402 .0240142
1088.983 .0240190
1089.563 .0240245
1090.144 .0240305
1090.725 .0240372
1091.306 .0240445
1091.887 .0240523
1092.469 .0240607
1093.050 .0240695
1093.632 .0240788
1094.214 .0240885
1094.796 .0240987
1095.379 .0241092
1095.961 .0241200
1096.544 .0241313
1097.127 .0241428
1097.710 .0241546
1098.294 .0241668
1098.877 .0241793
1099.461 .0241924
1100.046 .0242060
1100.630 .0242202
1101.215 .0242353
1101.800 .0242514
1102.385 .0242685
1102.970 .0242867
1103.556 .0243061
1104.142 .0243268
1104.728 .0243486
1105.315 .0243716
1105.902 .0243958
1106.489 .0244215
1107.077 .0244487
1107.664 .0244776
1108.253 .0245081
1108.841 .0245405
1109.430 .0245748
1110.019 .0246109
1110.609 .0246485
1111.198 .0246876
1111.789 .0247277
1112.379 .0247687
1112.970 .0248105
1113.561 .0248528
1114.153 .0248957
1114.745 .0249395
1115.338 .0249841
1115.931 .0250295
1116.524 .0250759
1117.117 .0251230
1117.712 .0251709
1118.306 .0252196
1118.901 .0252689
1119.496 .0253191
1120.092 .0253702
1120.689 .0254226
1121.285 .0254764
1121.882 .0255319
1122.480 .0255894
1123.078 .0256490
1123.677 .0257107
1124.276 .0257745
1124.875 .0258404
1125.476 .0259086
1126.076 .0259791
1126.677 .0260519
1127.279 .0261272
1127.881 .0262051
1128.484 .0262855
1129.087 .0263166
1129.691 .0264008
1130.295 .0264875
1130.900 .0265768
1131.505 .0266687
1132.111 .0267632
1132.718 .0268604
1133.325 .0269605
1133.933 .0270637
1134.541 .0271741
1135.150 .0272876
1135.760 .0273959
1136.370 .0275094
1136.981 .0276996
1137.592 .0278144
1138.204 .0279214
1138.817 .0280294
1139.431 .0281370
1140.045 .0282501
1140.660 .0283669
1141.275 .0284907
1141.891 .0286244
1142.508 .0288756
1143.126 .0290089
1143.744 .0289239
1144.363 .0291296
1144.983 .0293929
