Measurement Sequence started on: 15-12-46-377
Integration time: 28
Scans to Average: 2 
>>>>>Begin Spectral Data<<<<<
432.689 .0000100
433.621 .0000100
434.552 .0000100
435.482 .0000100
436.410 .0000100
437.337 .0000100
438.262 .0277583
439.187 .0588788
440.110 .0976796
441.031 .1414375
441.952 .1140134
442.871 .1191322
443.789 .1238988
444.705 .1283832
445.621 .1326368
446.535 .1366959
447.447 .1391260
448.359 .1397705
449.269 .1382425
450.178 .1342929
451.086 .1279975
451.993 .1198348
452.898 .1106064
453.803 .1012242
454.706 .0924667
455.608 .0848204
456.508 .0784543
457.408 .0740873
458.306 .0706944
459.204 .0679091
460.100 .0655435
460.995 .0634951
461.888 .0616974
462.781 .0601026
463.673 .0586774
464.563 .0573991
465.452 .0562505
466.340 .0552167
467.228 .0542883
468.114 .0534547
468.999 .0527076
469.882 .0520385
470.765 .0514384
471.647 .0508993
472.528 .0504149
473.407 .0499783
474.286 .0495846
475.163 .0492303
476.040 .0489115
476.915 .0486245
477.790 .0483666
478.663 .0481352
479.535 .0479277
480.407 .0477418
481.277 .0475755
482.147 .0474264
483.015 .0472936
483.883 .0471759
484.749 .0470731
485.615 .0469856
486.479 .0469139
487.343 .0468582
488.206 .0468196
489.067 .0467982
489.928 .0467955
490.788 .0468122
491.647 .0468496
492.505 .0469088
493.362 .0469909
494.218 .0470969
495.073 .0472279
495.928 .0475153
496.781 .0477131
497.634 .0479387
498.486 .0481926
499.337 .0484762
500.187 .0487905
501.036 .0491374
501.884 .0495193
502.731 .0499395
503.578 .0504019
504.424 .0507254
505.268 .0512665
506.113 .0518626
506.956 .0525180
507.798 .0532382
508.640 .0540289
509.480 .0548971
510.320 .0558515
511.160 .0569008
511.998 .0580575
512.836 .0593369
513.672 .0607543
514.508 .0623312
515.344 .0640892
516.178 .0660512
517.012 .0682415
517.845 .0706817
518.677 .0733898
519.508 .0763821
520.339 .0796651
521.169 .0832393
521.998 .0870824
522.826 .0911633
523.654 .0954312
524.481 .0998242
525.307 .1042717
526.133 .1086895
526.958 .1129889
527.782 .1170831
528.605 .1208856
529.428 .1243227
530.250 .1273233
531.072 .1298407
531.892 .1318319
532.712 .1332701
533.532 .1341394
534.350 .1344324
535.168 .1341534
535.986 .1333121
536.802 .1319151
537.618 .1299774
538.434 .1275146
539.249 .1245640
540.063 .1211684
540.876 .1173878
541.689 .1132921
542.501 .1089587
543.313 .1044744
544.124 .0999303
544.934 .0954116
545.744 .0910011
546.553 .0867655
547.361 .0827646
548.169 .0790319
548.976 .0755924
549.783 .0724533
550.589 .0696092
551.395 .0670433
552.200 .0647310
553.004 .0626433
553.808 .0607555
554.611 .0590437
555.414 .0574877
556.216 .0560675
557.018 .0547673
557.819 .0535723
558.619 .0524695
559.419 .0514472
560.218 .0504969
561.017 .0496087
561.815 .0487758
562.613 .0479922
563.410 .0472515
564.207 .0465487
565.003 .0458801
565.799 .0452416
566.594 .0446295
567.388 .0440416
568.182 .0434757
568.976 .0429300
569.769 .0424037
570.562 .0418959
571.354 .0414059
572.145 .0409343
572.936 .0404810
573.727 .0400449
574.517 .0396256
575.307 .0392224
576.096 .0388338
576.885 .0384589
577.673 .0380974
578.461 .0377488
579.248 .0374135
580.035 .0370921
580.821 .0367850
581.607 .0364924
582.392 .0362145
583.177 .0359512
583.962 .0357020
584.746 .0354665
585.529 .0352439
586.313 .0350334
587.095 .0348347
587.878 .0346477
588.660 .0344720
589.441 .0343076
590.222 .0341548
591.003 .0340135
591.783 .0338837
592.563 .0337650
593.342 .0336567
594.121 .0335580
594.899 .0334678
595.678 .0333852
596.455 .0333091
597.233 .0332388
598.009 .0331735
598.786 .0331127
599.562 .0330560
600.338 .0330030
601.113 .0329533
601.888 .0328874
602.663 .0328437
603.437 .0328022
604.211 .0327621
604.984 .0327232
605.757 .0326852
606.530 .0326478
607.302 .0326108
608.074 .0325743
608.845 .0325383
609.616 .0325030
610.387 .0324867
611.158 .0324527
611.928 .0324197
612.697 .0323877
613.467 .0323568
614.236 .0323268
615.004 .0322979
615.773 .0322700
616.541 .0322431
617.308 .0322172
618.076 .0321922
618.843 .0321681
619.609 .0321449
620.375 .0321226
621.141 .0321010
621.907 .0320801
622.672 .0320598
623.437 .0320398
624.202 .0320202
624.966 .0320006
625.730 .0319809
626.493 .0319610
627.257 .0319408
628.020 .0319202
628.782 .0318990
629.545 .0318771
630.307 .0318545
631.068 .0318312
631.830 .0318071
632.591 .0317823
633.352 .0317568
634.112 .0317307
634.872 .0317042
635.632 .0316772
636.392 .0316498
637.151 .0316221
637.910 .0315942
638.668 .0315661
639.427 .0315379
640.185 .0315098
640.943 .0314819
641.700 .0314544
642.457 .0314275
643.214 .0314012
643.971 .0313755
644.727 .0313506
645.483 .0313263
646.239 .0313026
646.994 .0312794
647.750 .0312566
648.505 .0312343
649.259 .0312123
650.014 .0311905
650.768 .0311689
651.521 .0311473
652.275 .0311257
653.028 .0311040
653.781 .0310820
654.534 .0310596
655.286 .0310369
656.039 .0310139
656.791 .0309905
657.542 .0309667
658.294 .0309427
659.045 .0309183
659.796 .0308934
660.546 .0308681
661.297 .0308422
662.047 .0308159
662.796 .0307891
663.546 .0307619
664.295 .0307344
665.044 .0307068
665.793 .0306792
666.542 .0306517
667.290 .0306244
668.038 .0305973
668.786 .0305703
669.533 .0305435
670.281 .0305168
671.028 .0304902
671.774 .0304638
672.521 .0304376
673.267 .0304117
674.013 .0303862
674.759 .0303611
675.505 .0303363
676.250 .0303120
676.995 .0302882
677.740 .0302647
678.484 .0302416
679.229 .0302189
679.973 .0301964
680.717 .0301742
681.460 .0301522
682.204 .0301303
682.947 .0301083
683.690 .0300863
684.433 .0300642
685.175 .0300418
685.917 .0300194
686.659 .0299968
687.401 .0299742
688.142 .0299517
688.884 .0299292
689.625 .0299068
690.365 .0298844
691.106 .0298621
691.846 .0298397
692.586 .0298173
693.326 .0297949
694.066 .0297725
694.805 .0297503
695.545 .0297283
696.284 .0297067
697.022 .0296856
697.761 .0296650
698.499 .0296450
699.237 .0296256
699.975 .0296070
700.713 .0295890
701.450 .0295717
702.187 .0295551
702.924 .0295392
703.661 .0295238
704.397 .0295090
705.133 .0294946
705.869 .0294807
706.605 .0294672
707.341 .0294540
708.076 .0294412
708.811 .0294287
709.546 .0294165
710.281 .0294046
711.015 .0293929
711.749 .0293814
712.483 .0293700
713.217 .0293585
713.950 .0293469
714.684 .0293352
715.417 .0293234
716.150 .0293113
716.882 .0292991
717.615 .0292867
718.347 .0292743
719.079 .0292617
719.811 .0292491
720.542 .0292364
721.273 .0292238
722.005 .0292112
722.735 .0291985
723.466 .0291859
724.196 .0291732
724.927 .0291606
725.656 .0291479
726.386 .0291352
727.116 .0291225
727.845 .0291097
728.574 .0290969
729.303 .0290841
730.031 .0290712
730.760 .0290584
731.488 .0290454
732.216 .0290323
732.944 .0290192
733.671 .0290059
734.398 .0289925
735.125 .0289789
735.852 .0289653
736.579 .0289515
737.305 .0289376
738.031 .0289237
738.757 .0289098
739.483 .0288958
740.208 .0288818
740.933 .0288678
741.658 .0288536
742.383 .0288394
743.108 .0288249
743.832 .0288103
744.556 .0287956
745.280 .0287807
746.004 .0287657
746.727 .0287505
747.450 .0287351
748.173 .0287196
748.896 .0287039
749.618 .0286878
750.340 .0286714
751.062 .0286545
751.784 .0286371
752.506 .0286191
753.227 .0286006
753.948 .0285815
754.669 .0285619
755.389 .0285418
756.110 .0285213
756.830 .0285003
757.550 .0284790
758.269 .0284574
758.989 .0284354
759.708 .0284131
760.427 .0283905
761.146 .0283675
761.864 .0283442
762.582 .0283207
763.300 .0282970
764.018 .0282731
764.736 .0282492
765.453 .0282254
766.170 .0282016
766.887 .0281780
767.603 .0281547
768.320 .0281316
769.036 .0281089
769.751 .0280865
770.467 .0280644
771.182 .0280427
771.897 .0280214
772.612 .0280004
773.327 .0279799
774.041 .0279600
774.755 .0279406
775.469 .0279220
776.183 .0279041
776.896 .0278870
777.609 .0278708
778.322 .0278555
779.035 .0278410
779.747 .0278273
780.459 .0278143
781.171 .0278020
781.882 .0277903
782.594 .0277793
783.305 .0277688
784.016 .0277590
784.726 .0277496
785.436 .0277408
786.147 .0277291
786.856 .0277212
787.566 .0277135
788.275 .0277062
788.984 .0276991
789.693 .0276921
790.401 .0276853
791.110 .0276786
791.818 .0276718
792.525 .0276651
793.233 .0276583
793.940 .0276514
794.647 .0276476
795.353 .0276407
796.060 .0276337
796.766 .0276266
797.472 .0276194
798.177 .0276121
798.883 .0276047
799.588 .0275972
800.292 .0275896
800.997 .0275819
801.701 .0275742
802.405 .0275663
803.109 .0275583
803.812 .0275503
804.515 .0275423
805.218 .0275341
805.921 .0275259
806.623 .0275177
807.325 .0275092
808.027 .0275007
808.728 .0274921
809.429 .0274834
810.130 .0274746
810.831 .0274658
811.531 .0274570
812.231 .0274482
812.931 .0274396
813.630 .0274310
814.330 .0274227
815.029 .0274147
815.727 .0274070
816.426 .0273997
817.124 .0273929
817.821 .0273867
818.519 .0273810
819.216 .0273761
819.913 .0273718
820.609 .0273682
821.306 .0273653
822.002 .0273631
822.697 .0273617
823.393 .0273609
824.088 .0273608
824.783 .0273614
825.477 .0273624
826.171 .0273639
826.865 .0273658
827.559 .0273681
828.252 .0273706
828.945 .0273733
829.638 .0273761
830.330 .0273789
831.023 .0273816
831.714 .0273842
832.406 .0273865
833.097 .0273884
833.788 .0273898
834.479 .0273908
835.169 .0273912
835.859 .0273910
836.548 .0273902
837.238 .0273889
837.927 .0273870
838.615 .0273845
839.304 .0273813
839.992 .0273775
840.680 .0273729
841.367 .0273677
842.054 .0273617
842.741 .0273551
843.428 .0273478
844.114 .0273398
844.800 .0273313
845.485 .0273221
846.170 .0273123
846.855 .0273019
847.540 .0272908
848.224 .0272791
848.908 .0272667
849.592 .0272537
850.275 .0272399
850.958 .0272256
851.641 .0272105
852.323 .0271947
853.005 .0271782
853.687 .0271610
854.368 .0271429
855.049 .0271242
855.730 .0271048
856.410 .0270847
857.090 .0270641
857.769 .0270431
858.449 .0270216
859.128 .0269998
859.806 .0269777
860.485 .0269553
861.163 .0269328
861.840 .0269102
862.518 .0268875
863.195 .0268649
863.871 .0268423
864.548 .0268199
865.224 .0267977
865.899 .0267756
866.574 .0267537
867.249 .0267321
867.924 .0267107
868.598 .0266897
869.272 .0266689
869.946 .0266486
870.619 .0266286
871.292 .0266091
871.964 .0265900
872.636 .0265712
873.308 .0265527
873.979 .0265345
874.651 .0265166
875.321 .0264990
875.992 .0264816
876.662 .0264645
877.331 .0264477
878.001 .0264312
878.670 .0264149
879.338 .0263989
880.007 .0263830
880.675 .0263674
881.342 .0263520
882.009 .0263367
882.676 .0263216
883.343 .0263066
884.009 .0262920
884.675 .0262775
885.340 .0262634
886.005 .0262496
886.670 .0262361
887.334 .0262231
887.998 .0262104
888.662 .0261982
889.325 .0261864
889.988 .0261749
890.650 .0261638
891.312 .0261529
891.974 .0261422
892.636 .0261315
893.297 .0261209
893.957 .0261103
894.618 .0260997
895.278 .0260890
895.937 .0260781
896.596 .0260671
897.255 .0260558
897.914 .0260443
898.572 .0260324
899.230 .0260202
899.887 .0260076
900.544 .0259946
901.201 .0259812
901.857 .0259585
902.513 .0259438
903.168 .0259287
903.823 .0259131
904.478 .0258969
905.132 .0258801
905.786 .0258628
906.440 .0258449
907.093 .0258266
907.746 .0258080
908.399 .0257891
909.051 .0257700
909.703 .0257509
910.354 .0257411
911.005 .0257221
911.656 .0257031
912.306 .0256842
912.956 .0256655
913.605 .0256470
914.254 .0256288
914.903 .0256110
915.551 .0255935
916.199 .0255765
916.847 .0255600
917.494 .0255440
918.141 .0255284
918.788 .0255132
919.434 .0254984
920.079 .0254838
920.725 .0254696
921.370 .0254555
922.014 .0254416
922.658 .0254279
923.302 .0254144
923.946 .0254010
924.589 .0253877
925.231 .0253746
925.873 .0253617
926.515 .0253489
927.157 .0253363
927.798 .0253240
928.439 .0253119
929.079 .0253000
929.719 .0252885
930.359 .0252772
930.998 .0252663
931.637 .0252557
932.275 .0252456
932.913 .0252360
933.551 .0252270
934.188 .0252187
934.825 .0252111
935.462 .0252044
936.098 .0251985
936.733 .0251933
937.369 .0251891
938.004 .0251856
938.638 .0251829
939.273 .0251811
939.907 .0251802
940.540 .0251802
941.173 .0251812
941.806 .0251831
942.438 .0251859
943.070 .0251895
943.702 .0251938
944.333 .0251988
944.964 .0252043
945.594 .0252102
946.224 .0252164
946.854 .0252229
947.483 .0252296
948.112 .0252365
948.741 .0252435
949.369 .0252505
949.996 .0252574
950.624 .0252642
951.251 .0252708
951.878 .0252772
952.504 .0252834
953.130 .0252893
953.755 .0252950
954.380 .0253006
955.005 .0253058
955.629 .0253109
956.253 .0253157
956.877 .0253201
957.500 .0253243
958.123 .0253281
958.746 .0253315
959.368 .0253346
959.990 .0253375
960.611 .0253401
961.232 .0253426
961.853 .0253449
962.473 .0253471
963.093 .0253493
963.712 .0253514
964.331 .0253534
964.950 .0253553
965.569 .0253572
966.187 .0253590
966.804 .0253607
967.422 .0253623
968.039 .0253637
968.655 .0253648
969.272 .0253656
969.887 .0253662
970.503 .0253664
971.118 .0253664
971.733 .0253660
972.347 .0253652
972.961 .0253642
973.575 .0253627
974.188 .0253608
974.801 .0253585
975.414 .0253556
976.026 .0253522
976.638 .0253484
977.250 .0253441
977.861 .0253394
978.472 .0253344
979.083 .0253291
979.693 .0253235
980.303 .0253177
980.912 .0253074
981.521 .0253009
982.130 .0252940
982.738 .0252867
983.346 .0252791
983.954 .0252713
984.562 .0252634
985.169 .0252554
985.775 .0252474
986.382 .0252395
986.988 .0252318
987.594 .0252242
988.199 .0252167
988.804 .0252093
989.409 .0252065
990.013 .0251991
990.617 .0251918
991.221 .0251847
991.824 .0251777
992.427 .0251709
993.030 .0251643
993.632 .0251578
994.234 .0251516
994.836 .0251453
995.438 .0251390
996.039 .0251326
996.640 .0251259
997.240 .0251190
997.840 .0251118
998.440 .0251045
999.040 .0250971
999.639 .0250897
1000.238 .0250823
1000.836 .0250750
1001.435 .0250676
1002.033 .0250603
1002.630 .0250528
1003.228 .0250452
1003.825 .0250375
1004.422 .0250296
1005.018 .0250215
1005.614 .0250133
1006.210 .0250051
1006.806 .0249969
1007.401 .0249887
1007.996 .0249807
1008.591 .0249728
1009.186 .0249651
1009.780 .0249575
1010.374 .0249501
1010.967 .0249428
1011.561 .0249356
1012.154 .0249287
1012.746 .0249219
1013.339 .0249153
1013.931 .0249090
1014.523 .0249030
1015.115 .0248973
1015.706 .0248918
1016.298 .0248866
1016.888 .0248816
1017.479 .0248768
1018.069 .0248721
1018.660 .0248676
1019.250 .0248631
1019.839 .0248587
1020.429 .0248544
1021.018 .0248503
1021.607 .0248463
1022.195 .0248425
1022.784 .0248390
1023.372 .0248357
1023.960 .0248326
1024.547 .0248297
1025.135 .0248269
1025.722 .0248241
1026.309 .0248212
1026.896 .0248180
1027.483 .0248144
1028.069 .0248106
1028.655 .0248063
1029.241 .0248018
1029.827 .0247969
1030.412 .0247917
1030.997 .0247862
1031.582 .0247804
1032.167 .0247742
1032.752 .0247675
1033.336 .0247604
1033.921 .0247528
1034.505 .0247447
1035.089 .0247362
1035.672 .0247274
1036.256 .0247182
1036.839 .0247089
1037.422 .0246993
1038.005 .0246894
1038.588 .0246793
1039.171 .0246686
1039.753 .0246575
1040.335 .0246458
1040.918 .0246335
1041.500 .0246207
1042.081 .0246074
1042.663 .0245937
1043.244 .0245798
1043.826 .0245656
1044.407 .0245512
1044.988 .0245367
1045.569 .0245222
1046.150 .0245077
1046.730 .0244932
1047.311 .0244788
1047.891 .0244646
1048.471 .0244505
1049.052 .0244365
1049.632 .0244228
1050.211 .0244093
1050.791 .0243959
1051.371 .0243827
1051.950 .0243697
1052.530 .0243568
1053.109 .0243441
1053.688 .0243315
1054.268 .0243191
1054.847 .0243069
1055.426 .0242950
1056.005 .0242834
1056.583 .0242724
1057.162 .0242618
1057.741 .0242519
1058.319 .0242427
1058.898 .0242344
1059.476 .0242270
1060.055 .0242205
1060.633 .0242149
1061.211 .0242102
1061.790 .0242062
1062.368 .0242030
1062.946 .0242003
1063.524 .0241981
1064.102 .0241963
1064.680 .0241949
1065.258 .0241939
1065.836 .0241933
1066.414 .0241931
1066.992 .0241933
1067.570 .0241937
1068.148 .0241942
1068.726 .0241949
1069.304 .0241956
1069.882 .0241964
1070.460 .0241972
1071.038 .0241981
1071.616 .0241990
1072.194 .0242000
1072.772 .0242011
1073.350 .0242023
1073.928 .0242034
1074.506 .0242045
1075.084 .0242054
1075.662 .0242060
1076.240 .0242064
1076.819 .0242065
1077.397 .0242064
1077.976 .0242062
1078.554 .0242062
1079.133 .0242063
1079.711 .0242067
1080.290 .0242074
1080.869 .0242086
1081.448 .0242102
1082.027 .0242124
1082.606 .0242151
1083.185 .0242184
1083.764 .0242223
1084.343 .0242270
1084.923 .0242324
1085.502 .0242385
1086.082 .0242452
1086.662 .0242525
1087.242 .0242603
1087.822 .0242686
1088.402 .0242771
1088.983 .0242861
1089.563 .0242953
1090.144 .0243047
1090.725 .0243143
1091.306 .0243241
1091.887 .0243342
1092.469 .0243444
1093.050 .0243550
1093.632 .0243659
1094.214 .0243771
1094.796 .0243888
1095.379 .0244009
1095.961 .0244137
1096.544 .0244274
1097.127 .0244422
1097.710 .0244581
1098.294 .0244752
1098.877 .0244936
1099.461 .0245133
1100.046 .0245342
1100.630 .0245563
1101.215 .0245794
1101.800 .0246036
1102.385 .0246289
1102.970 .0246553
1103.556 .0246829
1104.142 .0247120
1104.728 .0247425
1105.315 .0247746
1105.902 .0248082
1106.489 .0248431
1107.077 .0248794
1107.664 .0249167
1108.253 .0249550
1108.841 .0249941
1109.430 .0250338
1110.019 .0250742
1110.609 .0251153
1111.198 .0251571
1111.789 .0251996
1112.379 .0252429
1112.970 .0252866
1113.561 .0253306
1114.153 .0253745
1114.745 .0254181
1115.338 .0254612
1115.931 .0255036
1116.524 .0255456
1117.117 .0255871
1117.712 .0256286
1118.306 .0256704
1118.901 .0257128
1119.496 .0257561
1120.092 .0258006
1120.689 .0258462
1121.285 .0258930
1121.882 .0259409
1122.480 .0259898
1123.078 .0260398
1123.677 .0260911
1124.276 .0261440
1124.875 .0261991
1125.476 .0262567
1126.076 .0263172
1126.677 .0263809
1127.279 .0264478
1127.881 .0265175
1128.484 .0265898
1129.087 .0266189
1129.691 .0266945
1130.295 .0267722
1130.900 .0268518
1131.505 .0269335
1132.111 .0270175
1132.718 .0271036
1133.325 .0271917
1133.933 .0272816
1134.541 .0273779
1135.150 .0274762
1135.760 .0275617
1136.370 .0276528
1136.981 .0278339
1137.592 .0279377
1138.204 .0280393
1138.817 .0281359
1139.431 .0282342
1140.045 .0283366
1140.660 .0284316
1141.275 .0285251
1141.891 .0286124
1142.508 .0288330
1143.126 .0289375
1143.744 .0286332
1144.363 .0288566
1144.983 .0289717
