Measurement Sequence started on: 15-12-46-377
Integration time: 28
Scans to Average: 2 
>>>>>Begin Spectral Data<<<<<
432.689 .0000100
433.621 .0000100
434.552 .0000100
435.482 .0000100
436.410 .0000100
437.337 .0000100
438.262 .0282557
439.187 .0598022
440.110 .0990071
441.031 .1431549
441.952 .1140239
442.871 .1189895
443.789 .1236047
444.705 .1279443
445.621 .1320584
446.535 .1359862
447.447 .1382679
448.359 .1387505
449.269 .1370476
450.178 .1329121
451.086 .1264267
451.993 .1180872
452.898 .1087105
453.803 .0992228
454.706 .0904103
455.608 .0827603
456.508 .0764342
457.408 .0721558
458.306 .0688699
459.204 .0661974
460.100 .0639453
460.995 .0620074
461.888 .0603114
462.781 .0588101
463.673 .0574676
464.563 .0562601
465.452 .0551695
466.340 .0541819
467.228 .0532865
468.114 .0524744
468.999 .0517372
469.882 .0510670
470.765 .0504563
471.647 .0498993
472.528 .0493910
473.407 .0489274
474.286 .0485054
475.163 .0481236
476.040 .0477794
476.915 .0474718
477.790 .0471986
478.663 .0469577
479.535 .0467468
480.407 .0465629
481.277 .0464036
482.147 .0462668
483.015 .0461507
483.883 .0460548
484.749 .0459783
485.615 .0459221
486.479 .0458863
487.343 .0458718
488.206 .0458792
489.067 .0459088
489.928 .0459608
490.788 .0460359
491.647 .0461336
492.505 .0462548
493.362 .0464001
494.218 .0465706
495.073 .0467667
495.928 .0471583
496.781 .0474200
497.634 .0477081
498.486 .0480222
499.337 .0483635
500.187 .0487332
501.036 .0491329
501.884 .0495645
502.731 .0500309
503.578 .0505338
504.424 .0508602
505.268 .0514288
506.113 .0520427
506.956 .0527052
507.798 .0534216
508.640 .0541995
509.480 .0550476
510.320 .0559776
511.160 .0570023
511.998 .0581375
512.836 .0594024
513.672 .0608164
514.508 .0623992
515.344 .0641706
516.178 .0661522
517.012 .0683642
517.845 .0708233
518.677 .0735471
519.508 .0765516
520.339 .0798442
521.169 .0834301
521.998 .0872917
522.826 .0913987
523.654 .0957040
524.481 .1001438
525.307 .1046421
526.133 .1091068
526.958 .1134406
527.782 .1175481
528.605 .1213397
529.428 .1247384
530.250 .1276730
531.072 .1300987
531.892 .1319837
532.712 .1333081
533.532 .1340622
534.350 .1342449
535.168 .1338667
535.986 .1329372
536.802 .1314606
537.618 .1294483
538.434 .1269121
539.249 .1238844
540.063 .1204076
540.876 .1165384
541.689 .1123493
542.501 .1079226
543.313 .1033520
544.124 .0987356
544.934 .0941644
545.744 .0897215
546.553 .0854749
547.361 .0814821
548.169 .0777733
548.976 .0743646
549.783 .0712590
550.589 .0684481
551.395 .0659140
552.200 .0636298
553.004 .0615677
553.808 .0597058
554.611 .0580223
555.414 .0564973
556.216 .0551121
557.018 .0538506
557.819 .0526990
558.619 .0516432
559.419 .0506710
560.218 .0497714
561.017 .0489334
561.815 .0481485
562.613 .0474099
563.410 .0467105
564.207 .0460448
565.003 .0454085
565.799 .0447983
566.594 .0442108
567.388 .0436428
568.182 .0430915
568.976 .0425544
569.769 .0420299
570.562 .0415171
571.354 .0410154
572.145 .0405257
572.936 .0400490
573.727 .0395866
574.517 .0391392
575.307 .0387082
576.096 .0382938
576.885 .0378970
577.673 .0375183
578.461 .0371579
579.248 .0368155
580.035 .0364912
580.821 .0361844
581.607 .0358947
582.392 .0356219
583.177 .0353659
583.962 .0351263
584.746 .0349034
585.529 .0346968
586.313 .0345057
587.095 .0343294
587.878 .0341673
588.660 .0340183
589.441 .0338813
590.222 .0337554
591.003 .0336395
591.783 .0335330
592.563 .0334351
593.342 .0333448
594.121 .0332617
594.899 .0331848
595.678 .0331135
596.455 .0330470
597.233 .0329847
598.009 .0329260
598.786 .0328705
599.562 .0328176
600.338 .0327671
601.113 .0327186
601.888 .0326519
602.663 .0326071
603.437 .0325637
604.211 .0325216
604.984 .0324807
605.757 .0324407
606.530 .0324016
607.302 .0323634
608.074 .0323259
608.845 .0322888
609.616 .0322523
610.387 .0322352
611.158 .0321993
611.928 .0321637
612.697 .0321286
613.467 .0320941
614.236 .0320602
615.004 .0320269
615.773 .0319941
616.541 .0319618
617.308 .0319298
618.076 .0318981
618.843 .0318666
619.609 .0318353
620.375 .0318043
621.141 .0317738
621.907 .0317437
622.672 .0317142
623.437 .0316852
624.202 .0316567
624.966 .0316287
625.730 .0316010
626.493 .0315735
627.257 .0315462
628.020 .0315191
628.782 .0314922
629.545 .0314655
630.307 .0314390
631.068 .0314125
631.830 .0313861
632.591 .0313596
633.352 .0313330
634.112 .0313063
634.872 .0312794
635.632 .0312524
636.392 .0312253
637.151 .0311983
637.910 .0311714
638.668 .0311448
639.427 .0311184
640.185 .0310923
640.943 .0310666
641.700 .0310414
642.457 .0310166
643.214 .0309925
643.971 .0309690
644.727 .0309464
645.483 .0309245
646.239 .0309035
646.994 .0308831
647.750 .0308634
648.505 .0308443
649.259 .0308257
650.014 .0308076
650.768 .0307898
651.521 .0307723
652.275 .0307552
653.028 .0307384
653.781 .0307217
654.534 .0307052
655.286 .0306888
656.039 .0306722
656.791 .0306555
657.542 .0306384
658.294 .0306210
659.045 .0306032
659.796 .0305849
660.546 .0305660
661.297 .0305466
662.047 .0305266
662.796 .0305062
663.546 .0304855
664.295 .0304645
665.044 .0304434
665.793 .0304224
666.542 .0304016
667.290 .0303810
668.038 .0303607
668.786 .0303408
669.533 .0303211
670.281 .0303017
671.028 .0302826
671.774 .0302639
672.521 .0302456
673.267 .0302277
674.013 .0302103
674.759 .0301932
675.505 .0301765
676.250 .0301600
676.995 .0301435
677.740 .0301270
678.484 .0301101
679.229 .0300929
679.973 .0300752
680.717 .0300571
681.460 .0300384
682.204 .0300193
682.947 .0299997
683.690 .0299795
684.433 .0299588
685.175 .0299375
685.917 .0299158
686.659 .0298935
687.401 .0298707
688.142 .0298475
688.884 .0298238
689.625 .0297998
690.365 .0297754
691.106 .0297506
691.846 .0297256
692.586 .0297002
693.326 .0296746
694.066 .0296490
694.805 .0296233
695.545 .0295978
696.284 .0295726
697.022 .0295477
697.761 .0295232
698.499 .0294991
699.237 .0294754
699.975 .0294519
700.713 .0294287
701.450 .0294059
702.187 .0293833
702.924 .0293610
703.661 .0293390
704.397 .0293173
705.133 .0292961
705.869 .0292751
706.605 .0292543
707.341 .0292336
708.076 .0292131
708.811 .0291926
709.546 .0291722
710.281 .0291518
711.015 .0291316
711.749 .0291116
712.483 .0290918
713.217 .0290723
713.950 .0290530
714.684 .0290338
715.417 .0290148
716.150 .0289959
716.882 .0289771
717.615 .0289582
718.347 .0289392
719.079 .0289203
719.811 .0289013
720.542 .0288822
721.273 .0288632
722.005 .0288441
722.735 .0288250
723.466 .0288060
724.196 .0287869
724.927 .0287680
725.656 .0287491
726.386 .0287303
727.116 .0287116
727.845 .0286931
728.574 .0286747
729.303 .0286565
730.031 .0286386
730.760 .0286211
731.488 .0286041
732.216 .0285876
732.944 .0285716
733.671 .0285563
734.398 .0285416
735.125 .0285274
735.852 .0285138
736.579 .0285008
737.305 .0284884
738.031 .0284765
738.757 .0284651
739.483 .0284544
740.208 .0284443
740.933 .0284348
741.658 .0284259
742.383 .0284177
743.108 .0284100
743.832 .0284029
744.556 .0283962
745.280 .0283900
746.004 .0283840
746.727 .0283782
747.450 .0283725
748.173 .0283668
748.896 .0283612
749.618 .0283555
750.340 .0283497
751.062 .0283439
751.784 .0283381
752.506 .0283321
753.227 .0283259
753.948 .0283194
754.669 .0283126
755.389 .0283054
756.110 .0282977
756.830 .0282896
757.550 .0282810
758.269 .0282720
758.989 .0282625
759.708 .0282527
760.427 .0282425
761.146 .0282319
761.864 .0282210
762.582 .0282098
763.300 .0281984
764.018 .0281869
764.736 .0281752
765.453 .0281634
766.170 .0281517
766.887 .0281400
767.603 .0281284
768.320 .0281170
769.036 .0281058
769.751 .0280950
770.467 .0280846
771.182 .0280746
771.897 .0280651
772.612 .0280560
773.327 .0280475
774.041 .0280394
774.755 .0280318
775.469 .0280246
776.183 .0280179
776.896 .0280115
777.609 .0280056
778.322 .0280002
779.035 .0279951
779.747 .0279904
780.459 .0279860
781.171 .0279818
781.882 .0279778
782.594 .0279738
783.305 .0279698
784.016 .0279657
784.726 .0279614
785.436 .0279569
786.147 .0279491
786.856 .0279435
787.566 .0279372
788.275 .0279305
788.984 .0279231
789.693 .0279151
790.401 .0279064
791.110 .0278971
791.818 .0278870
792.525 .0278762
793.233 .0278647
793.940 .0278524
794.647 .0278437
795.353 .0278304
796.060 .0278165
796.766 .0278019
797.472 .0277867
798.177 .0277710
798.883 .0277546
799.588 .0277377
800.292 .0277201
800.997 .0277021
801.701 .0276834
802.405 .0276642
803.109 .0276446
803.812 .0276245
804.515 .0276041
805.218 .0275834
805.921 .0275623
806.623 .0275410
807.325 .0275195
808.027 .0274977
808.728 .0274758
809.429 .0274537
810.130 .0274315
810.831 .0274092
811.531 .0273868
812.231 .0273643
812.931 .0273418
813.630 .0273192
814.330 .0272965
815.029 .0272738
815.727 .0272511
816.426 .0272285
817.124 .0272059
817.821 .0271834
818.519 .0271611
819.216 .0271391
819.913 .0271175
820.609 .0270962
821.306 .0270754
822.002 .0270551
822.697 .0270354
823.393 .0270162
824.088 .0269977
824.783 .0269799
825.477 .0269627
826.171 .0269461
826.865 .0269302
827.559 .0269147
828.252 .0268998
828.945 .0268854
829.638 .0268714
830.330 .0268577
831.023 .0268445
831.714 .0268316
832.406 .0268190
833.097 .0268068
833.788 .0267948
834.479 .0267831
835.169 .0267717
835.859 .0267604
836.548 .0267493
837.238 .0267383
837.927 .0267274
838.615 .0267167
839.304 .0267062
839.992 .0266957
840.680 .0266855
841.367 .0266753
842.054 .0266653
842.741 .0266554
843.428 .0266455
844.114 .0266357
844.800 .0266259
845.485 .0266161
846.170 .0266063
846.855 .0265964
847.540 .0265865
848.224 .0265764
848.908 .0265663
849.592 .0265559
850.275 .0265453
850.958 .0265344
851.641 .0265232
852.323 .0265117
853.005 .0264998
853.687 .0264877
854.368 .0264753
855.049 .0264628
855.730 .0264501
856.410 .0264375
857.090 .0264249
857.769 .0264123
858.449 .0263998
859.128 .0263875
859.806 .0263753
860.485 .0263634
861.163 .0263518
861.840 .0263407
862.518 .0263302
863.195 .0263203
863.871 .0263111
864.548 .0263026
865.224 .0262949
865.899 .0262878
866.574 .0262815
867.249 .0262758
867.924 .0262707
868.598 .0262664
869.272 .0262627
869.946 .0262598
870.619 .0262577
871.292 .0262562
871.964 .0262555
872.636 .0262554
873.308 .0262559
873.979 .0262568
874.651 .0262581
875.321 .0262599
875.992 .0262620
876.662 .0262644
877.331 .0262673
878.001 .0262704
878.670 .0262739
879.338 .0262776
880.007 .0262814
880.675 .0262854
881.342 .0262894
882.009 .0262936
882.676 .0262980
883.343 .0263027
884.009 .0263077
884.675 .0263130
885.340 .0263186
886.005 .0263244
886.670 .0263306
887.334 .0263370
887.998 .0263435
888.662 .0263503
889.325 .0263572
889.988 .0263642
890.650 .0263714
891.312 .0263786
891.974 .0263858
892.636 .0263930
893.297 .0264000
893.957 .0264067
894.618 .0264131
895.278 .0264191
895.937 .0264246
896.596 .0264296
897.255 .0264341
897.914 .0264380
898.572 .0264412
899.230 .0264436
899.887 .0264452
900.544 .0264459
901.201 .0264456
901.857 .0264409
902.513 .0264381
903.168 .0264343
903.823 .0264298
904.478 .0264243
905.132 .0264181
905.786 .0264110
906.440 .0264032
907.093 .0263946
907.746 .0263853
908.399 .0263754
909.051 .0263650
909.703 .0263542
910.354 .0263482
911.005 .0263374
911.656 .0263263
912.306 .0263151
912.956 .0263036
913.605 .0262920
914.254 .0262801
914.903 .0262681
915.551 .0262559
916.199 .0262435
916.847 .0262309
917.494 .0262183
918.141 .0262055
918.788 .0261925
919.434 .0261792
920.079 .0261657
920.725 .0261517
921.370 .0261372
922.014 .0261223
922.658 .0261068
923.302 .0260907
923.946 .0260741
924.589 .0260569
925.231 .0260392
925.873 .0260208
926.515 .0260017
927.157 .0259820
927.798 .0259616
928.439 .0259406
929.079 .0259190
929.719 .0258969
930.359 .0258743
930.998 .0258514
931.637 .0258280
932.275 .0258044
932.913 .0257806
933.551 .0257567
934.188 .0257327
934.825 .0257089
935.462 .0256854
936.098 .0256621
936.733 .0256394
937.369 .0256171
938.004 .0255954
938.638 .0255742
939.273 .0255535
939.907 .0255334
940.540 .0255139
941.173 .0254949
941.806 .0254767
942.438 .0254591
943.070 .0254423
943.702 .0254261
944.333 .0254105
944.964 .0253954
945.594 .0253806
946.224 .0253661
946.854 .0253517
947.483 .0253375
948.112 .0253233
948.741 .0253092
949.369 .0252951
949.996 .0252810
950.624 .0252667
951.251 .0252524
951.878 .0252377
952.504 .0252226
953.130 .0252071
953.755 .0251912
954.380 .0251748
955.005 .0251581
955.629 .0251411
956.253 .0251238
956.877 .0251064
957.500 .0250887
958.123 .0250708
958.746 .0250525
959.368 .0250341
959.990 .0250153
960.611 .0249964
961.232 .0249773
961.853 .0249582
962.473 .0249391
963.093 .0249202
963.712 .0249016
964.331 .0248831
964.950 .0248648
965.569 .0248467
966.187 .0248287
966.804 .0248108
967.422 .0247929
968.039 .0247751
968.655 .0247573
969.272 .0247396
969.887 .0247218
970.503 .0247040
971.118 .0246862
971.733 .0246682
972.347 .0246500
972.961 .0246315
973.575 .0246128
974.188 .0245936
974.801 .0245741
975.414 .0245542
976.026 .0245339
976.638 .0245131
977.250 .0244919
977.861 .0244704
978.472 .0244484
979.083 .0244261
979.693 .0244035
980.303 .0243806
980.912 .0243455
981.521 .0243222
982.130 .0242989
982.738 .0242754
983.346 .0242521
983.954 .0242288
984.562 .0242059
985.169 .0241834
985.775 .0241615
986.382 .0241404
986.988 .0241201
987.594 .0241008
988.199 .0240825
988.804 .0240652
989.409 .0240599
990.013 .0240444
990.617 .0240299
991.221 .0240165
991.824 .0240042
992.427 .0239930
993.030 .0239828
993.632 .0239736
994.234 .0239653
994.836 .0239579
995.438 .0239512
996.039 .0239452
996.640 .0239398
997.240 .0239350
997.840 .0239307
998.440 .0239271
999.040 .0239241
999.639 .0239218
1000.238 .0239202
1000.836 .0239193
1001.435 .0239190
1002.033 .0239194
1002.630 .0239204
1003.228 .0239217
1003.825 .0239233
1004.422 .0239251
1005.018 .0239271
1005.614 .0239292
1006.210 .0239313
1006.806 .0239336
1007.401 .0239359
1007.996 .0239384
1008.591 .0239409
1009.186 .0239436
1009.780 .0239463
1010.374 .0239492
1010.967 .0239522
1011.561 .0239554
1012.154 .0239588
1012.746 .0239625
1013.339 .0239666
1013.931 .0239713
1014.523 .0239765
1015.115 .0239824
1015.706 .0239888
1016.298 .0239959
1016.888 .0240035
1017.479 .0240115
1018.069 .0240198
1018.660 .0240284
1019.250 .0240372
1019.839 .0240462
1020.429 .0240554
1021.018 .0240650
1021.607 .0240748
1022.195 .0240850
1022.784 .0240955
1023.372 .0241064
1023.960 .0241176
1024.547 .0241292
1025.135 .0241410
1025.722 .0241532
1026.309 .0241656
1026.896 .0241784
1027.483 .0241915
1028.069 .0242049
1028.655 .0242186
1029.241 .0242328
1029.827 .0242474
1030.412 .0242623
1030.997 .0242777
1031.582 .0242934
1032.167 .0243093
1032.752 .0243253
1033.336 .0243414
1033.921 .0243574
1034.505 .0243734
1035.089 .0243891
1035.672 .0244046
1036.256 .0244199
1036.839 .0244349
1037.422 .0244498
1038.005 .0244644
1038.588 .0244788
1039.171 .0244930
1039.753 .0245068
1040.335 .0245203
1040.918 .0245334
1041.500 .0245463
1042.081 .0245590
1042.663 .0245715
1043.244 .0245841
1043.826 .0245967
1044.407 .0246096
1044.988 .0246227
1045.569 .0246360
1046.150 .0246494
1046.730 .0246629
1047.311 .0246762
1047.891 .0246893
1048.471 .0247021
1049.052 .0247146
1049.632 .0247270
1050.211 .0247392
1050.791 .0247513
1051.371 .0247634
1051.950 .0247756
1052.530 .0247877
1053.109 .0248000
1053.688 .0248121
1054.268 .0248243
1054.847 .0248364
1055.426 .0248486
1056.005 .0248609
1056.583 .0248736
1057.162 .0248866
1057.741 .0249000
1058.319 .0249137
1058.898 .0249277
1059.476 .0249417
1060.055 .0249557
1060.633 .0249693
1061.211 .0249825
1061.790 .0249951
1062.368 .0250072
1062.946 .0250188
1063.524 .0250299
1064.102 .0250406
1064.680 .0250511
1065.258 .0250613
1065.836 .0250713
1066.414 .0250811
1066.992 .0250909
1067.570 .0251005
1068.148 .0251103
1068.726 .0251202
1069.304 .0251304
1069.882 .0251409
1070.460 .0251518
1071.038 .0251632
1071.616 .0251749
1072.194 .0251870
1072.772 .0251994
1073.350 .0252120
1073.928 .0252248
1074.506 .0252378
1075.084 .0252509
1075.662 .0252643
1076.240 .0252779
1076.819 .0252917
1077.397 .0253058
1077.976 .0253199
1078.554 .0253341
1079.133 .0253483
1079.711 .0253625
1080.290 .0253766
1080.869 .0253906
1081.448 .0254046
1082.027 .0254185
1082.606 .0254324
1083.185 .0254462
1083.764 .0254599
1084.343 .0254737
1084.923 .0254874
1085.502 .0255010
1086.082 .0255146
1086.662 .0255284
1087.242 .0255422
1087.822 .0255563
1088.402 .0255706
1088.983 .0255851
1089.563 .0255999
1090.144 .0256149
1090.725 .0256302
1091.306 .0256459
1091.887 .0256621
1092.469 .0256790
1093.050 .0256965
1093.632 .0257148
1094.214 .0257339
1094.796 .0257538
1095.379 .0257742
1095.961 .0257952
1096.544 .0258167
1097.127 .0258384
1097.710 .0258605
1098.294 .0258830
1098.877 .0259058
1099.461 .0259290
1100.046 .0259527
1100.630 .0259768
1101.215 .0260011
1101.800 .0260255
1102.385 .0260499
1102.970 .0260741
1103.556 .0260980
1104.142 .0261216
1104.728 .0261448
1105.315 .0261678
1105.902 .0261906
1106.489 .0262133
1107.077 .0262359
1107.664 .0262585
1108.253 .0262810
1108.841 .0263035
1109.430 .0263260
1110.019 .0263482
1110.609 .0263703
1111.198 .0263925
1111.789 .0264149
1112.379 .0264373
1112.970 .0264601
1113.561 .0264831
1114.153 .0265064
1114.745 .0265299
1115.338 .0265535
1115.931 .0265772
1116.524 .0266012
1117.117 .0266253
1117.712 .0266498
1118.306 .0266748
1118.901 .0267009
1119.496 .0267281
1120.092 .0267568
1120.689 .0267871
1121.285 .0268191
1121.882 .0268531
1122.480 .0268891
1123.078 .0269272
1123.677 .0269677
1124.276 .0270109
1124.875 .0270571
1125.476 .0271064
1126.076 .0271590
1126.677 .0272150
1127.279 .0272742
1127.881 .0273368
1128.484 .0274023
1129.087 .0274246
1129.691 .0274940
1130.295 .0275663
1130.900 .0276416
1131.505 .0277199
1132.111 .0278011
1132.718 .0278847
1133.325 .0279708
1133.933 .0280592
1134.541 .0281575
1135.150 .0282473
1135.760 .0283290
1136.370 .0284221
1136.981 .0286435
1137.592 .0287567
1138.204 .0288665
1138.817 .0289732
1139.431 .0290811
1140.045 .0291827
1140.660 .0292716
1141.275 .0293586
1141.891 .0294500
1142.508 .0297508
1143.126 .0295451
1143.744 .0293498
1144.363 .0297119
1144.983 .0301040
