Measurement Sequence started on: 15-12-46-377
Integration time: 28
Scans to Average: 2 
>>>>>Begin Spectral Data<<<<<
432.689 .0000100
433.621 .0000100
434.552 .0000100
435.482 .0000100
436.410 .0000100
437.337 .0000100
438.262 .0261486
439.187 .0554211
440.110 .0918233
441.031 .1328926
441.952 .1065450
442.871 .1112763
443.789 .1156912
444.705 .1198616
445.621 .1238363
446.535 .1276504
447.447 .1299521
448.359 .1305952
449.269 .1292186
450.178 .1255881
451.086 .1197742
451.993 .1122311
452.898 .1037133
453.803 .0950777
454.706 .0870528
455.608 .0800924
456.508 .0743485
457.408 .0704919
458.306 .0675474
459.204 .0651614
460.100 .0631537
460.995 .0614227
461.888 .0598998
462.781 .0585391
463.673 .0573088
464.563 .0561882
465.452 .0551623
466.340 .0542204
467.228 .0533543
468.114 .0525587
468.999 .0518283
469.882 .0511594
470.765 .0505480
471.647 .0499911
472.528 .0494867
473.407 .0490323
474.286 .0486266
475.163 .0482687
476.040 .0479565
476.915 .0476892
477.790 .0474644
478.663 .0472791
479.535 .0471305
480.407 .0470156
481.277 .0469307
482.147 .0468719
483.015 .0468354
483.883 .0468185
484.749 .0468183
485.615 .0468328
486.479 .0468599
487.343 .0468982
488.206 .0469471
489.067 .0470048
489.928 .0470709
490.788 .0471451
491.647 .0472273
492.505 .0473178
493.362 .0474176
494.218 .0475273
495.073 .0476484
495.928 .0478818
496.781 .0480436
497.634 .0482236
498.486 .0484240
499.337 .0486469
500.187 .0488949
501.036 .0491706
501.884 .0494773
502.731 .0498196
503.578 .0502021
504.424 .0504840
505.268 .0509461
506.113 .0514634
506.956 .0520413
507.798 .0526867
508.640 .0534065
509.480 .0542098
510.320 .0551069
511.160 .0561092
511.998 .0572309
512.836 .0584889
513.672 .0599010
514.508 .0614868
515.344 .0632698
516.178 .0652718
517.012 .0675147
517.845 .0700191
518.677 .0728007
519.508 .0758743
520.339 .0792453
521.169 .0829152
521.998 .0868606
522.826 .0910482
523.654 .0954224
524.481 .0999136
525.307 .1044429
526.133 .1089184
526.958 .1132416
527.782 .1173226
528.605 .1210770
529.428 .1244338
530.250 .1273319
531.072 .1297332
531.892 .1316061
532.712 .1329310
533.532 .1336928
534.350 .1338842
535.168 .1335061
535.986 .1325667
536.802 .1310690
537.618 .1290244
538.434 .1264480
539.249 .1233761
540.063 .1198566
540.876 .1159550
541.689 .1117495
542.501 .1073253
543.313 .1027751
544.124 .0981960
544.934 .0936735
545.744 .0892861
546.553 .0850962
547.361 .0811522
548.169 .0774791
548.976 .0740924
549.783 .0709927
550.589 .0681757
551.395 .0656275
552.200 .0633277
553.004 .0612518
553.808 .0593796
554.611 .0576905
555.414 .0561640
556.216 .0547820
557.018 .0535249
557.819 .0523769
558.619 .0513232
559.419 .0503506
560.218 .0494506
561.017 .0486149
561.815 .0478369
562.613 .0471108
563.410 .0464302
564.207 .0457895
565.003 .0451828
565.799 .0446042
566.594 .0440487
567.388 .0435118
568.182 .0429907
568.976 .0424823
569.769 .0419849
570.562 .0414982
571.354 .0410219
572.145 .0405567
572.936 .0401030
573.727 .0396610
574.517 .0392314
575.307 .0388147
576.096 .0384112
576.885 .0380217
577.673 .0376464
578.461 .0372860
579.248 .0369407
580.035 .0366111
580.821 .0362974
581.607 .0360000
582.392 .0357197
583.177 .0354566
583.962 .0352109
584.746 .0349829
585.529 .0347722
586.313 .0345784
587.095 .0344007
587.878 .0342382
588.660 .0340897
589.441 .0339541
590.222 .0338303
591.003 .0337174
591.783 .0336145
592.563 .0335209
593.342 .0334354
594.121 .0333574
594.899 .0332857
595.678 .0332193
596.455 .0331573
597.233 .0330987
598.009 .0330428
598.786 .0329894
599.562 .0329378
600.338 .0328879
601.113 .0328394
601.888 .0327712
602.663 .0327259
603.437 .0326817
604.211 .0326386
604.984 .0325965
605.757 .0325552
606.530 .0325149
607.302 .0324756
608.074 .0324372
608.845 .0324001
609.616 .0323642
610.387 .0323490
611.158 .0323148
611.928 .0322817
612.697 .0322498
613.467 .0322189
614.236 .0321890
615.004 .0321601
615.773 .0321320
616.541 .0321046
617.308 .0320781
618.076 .0320523
618.843 .0320272
619.609 .0320027
620.375 .0319788
621.141 .0319553
621.907 .0319320
622.672 .0319089
623.437 .0318859
624.202 .0318628
624.966 .0318396
625.730 .0318163
626.493 .0317927
627.257 .0317689
628.020 .0317448
628.782 .0317206
629.545 .0316963
630.307 .0316717
631.068 .0316470
631.830 .0316221
632.591 .0315970
633.352 .0315718
634.112 .0315465
634.872 .0315211
635.632 .0314956
636.392 .0314699
637.151 .0314442
637.910 .0314184
638.668 .0313926
639.427 .0313669
640.185 .0313414
640.943 .0313160
641.700 .0312908
642.457 .0312660
643.214 .0312416
643.971 .0312176
644.727 .0311939
645.483 .0311706
646.239 .0311476
646.994 .0311247
647.750 .0311020
648.505 .0310792
649.259 .0310566
650.014 .0310339
650.768 .0310112
651.521 .0309884
652.275 .0309655
653.028 .0309426
653.781 .0309195
654.534 .0308962
655.286 .0308727
656.039 .0308488
656.791 .0308248
657.542 .0308004
658.294 .0307758
659.045 .0307509
659.796 .0307258
660.546 .0307004
661.297 .0306749
662.047 .0306492
662.796 .0306234
663.546 .0305977
664.295 .0305721
665.044 .0305468
665.793 .0305218
666.542 .0304972
667.290 .0304730
668.038 .0304493
668.786 .0304260
669.533 .0304031
670.281 .0303805
671.028 .0303583
671.774 .0303365
672.521 .0303151
673.267 .0302942
674.013 .0302738
674.759 .0302538
675.505 .0302341
676.250 .0302146
676.995 .0301952
677.740 .0301757
678.484 .0301560
679.229 .0301361
679.973 .0301158
680.717 .0300953
681.460 .0300744
682.204 .0300533
682.947 .0300317
683.690 .0300098
684.433 .0299875
685.175 .0299649
685.917 .0299419
686.659 .0299186
687.401 .0298952
688.142 .0298717
688.884 .0298483
689.625 .0298250
690.365 .0298019
691.106 .0297791
691.846 .0297564
692.586 .0297339
693.326 .0297116
694.066 .0296896
694.805 .0296678
695.545 .0296462
696.284 .0296250
697.022 .0296041
697.761 .0295836
698.499 .0295634
699.237 .0295435
699.975 .0295239
700.713 .0295046
701.450 .0294854
702.187 .0294664
702.924 .0294476
703.661 .0294289
704.397 .0294103
705.133 .0293918
705.869 .0293734
706.605 .0293550
707.341 .0293367
708.076 .0293186
708.811 .0293006
709.546 .0292828
710.281 .0292653
711.015 .0292480
711.749 .0292309
712.483 .0292139
713.217 .0291972
713.950 .0291804
714.684 .0291638
715.417 .0291472
716.150 .0291306
716.882 .0291140
717.615 .0290975
718.347 .0290811
719.079 .0290647
719.811 .0290484
720.542 .0290322
721.273 .0290160
722.005 .0289999
722.735 .0289840
723.466 .0289682
724.196 .0289525
724.927 .0289370
725.656 .0289217
726.386 .0289067
727.116 .0288920
727.845 .0288776
728.574 .0288638
729.303 .0288505
730.031 .0288377
730.760 .0288256
731.488 .0288141
732.216 .0288031
732.944 .0287926
733.671 .0287827
734.398 .0287731
735.125 .0287638
735.852 .0287549
736.579 .0287463
737.305 .0287380
738.031 .0287300
738.757 .0287222
739.483 .0287146
740.208 .0287071
740.933 .0286996
741.658 .0286921
742.383 .0286842
743.108 .0286761
743.832 .0286677
744.556 .0286588
745.280 .0286494
746.004 .0286396
746.727 .0286293
747.450 .0286186
748.173 .0286074
748.896 .0285957
749.618 .0285836
750.340 .0285710
751.062 .0285580
751.784 .0285445
752.506 .0285306
753.227 .0285162
753.948 .0285015
754.669 .0284863
755.389 .0284709
756.110 .0284551
756.830 .0284390
757.550 .0284228
758.269 .0284065
758.989 .0283902
759.708 .0283738
760.427 .0283574
761.146 .0283410
761.864 .0283247
762.582 .0283084
763.300 .0282922
764.018 .0282759
764.736 .0282596
765.453 .0282434
766.170 .0282271
766.887 .0282109
767.603 .0281948
768.320 .0281789
769.036 .0281630
769.751 .0281473
770.467 .0281317
771.182 .0281162
771.897 .0281008
772.612 .0280854
773.327 .0280701
774.041 .0280548
774.755 .0280395
775.469 .0280243
776.183 .0280092
776.896 .0279942
777.609 .0279793
778.322 .0279645
779.035 .0279499
779.747 .0279357
780.459 .0279217
781.171 .0279082
781.882 .0278951
782.594 .0278825
783.305 .0278703
784.016 .0278585
784.726 .0278471
785.436 .0278359
786.147 .0278202
786.856 .0278093
787.566 .0277986
788.275 .0277879
788.984 .0277773
789.693 .0277667
790.401 .0277562
791.110 .0277456
791.818 .0277349
792.525 .0277241
793.233 .0277131
793.940 .0277019
794.647 .0276951
795.353 .0276834
796.060 .0276714
796.766 .0276592
797.472 .0276466
798.177 .0276338
798.883 .0276207
799.588 .0276073
800.292 .0275937
800.997 .0275798
801.701 .0275658
802.405 .0275516
803.109 .0275372
803.812 .0275228
804.515 .0275082
805.218 .0274935
805.921 .0274787
806.623 .0274639
807.325 .0274491
808.027 .0274344
808.728 .0274198
809.429 .0274054
810.130 .0273913
810.831 .0273775
811.531 .0273640
812.231 .0273509
812.931 .0273382
813.630 .0273258
814.330 .0273137
815.029 .0273020
815.727 .0272906
816.426 .0272796
817.124 .0272690
817.821 .0272588
818.519 .0272490
819.216 .0272396
819.913 .0272308
820.609 .0272224
821.306 .0272145
822.002 .0272072
822.697 .0272004
823.393 .0271941
824.088 .0271884
824.783 .0271832
825.477 .0271786
826.171 .0271745
826.865 .0271709
827.559 .0271678
828.252 .0271651
828.945 .0271630
829.638 .0271612
830.330 .0271599
831.023 .0271589
831.714 .0271582
832.406 .0271577
833.097 .0271574
833.788 .0271572
834.479 .0271572
835.169 .0271573
835.859 .0271575
836.548 .0271579
837.238 .0271583
837.927 .0271589
838.615 .0271596
839.304 .0271603
839.992 .0271611
840.680 .0271618
841.367 .0271624
842.054 .0271629
842.741 .0271632
843.428 .0271634
844.114 .0271633
844.800 .0271629
845.485 .0271622
846.170 .0271612
846.855 .0271597
847.540 .0271578
848.224 .0271555
848.908 .0271526
849.592 .0271493
850.275 .0271454
850.958 .0271410
851.641 .0271361
852.323 .0271305
853.005 .0271243
853.687 .0271175
854.368 .0271100
855.049 .0271018
855.730 .0270930
856.410 .0270836
857.090 .0270737
857.769 .0270632
858.449 .0270524
859.128 .0270411
859.806 .0270293
860.485 .0270173
861.163 .0270048
861.840 .0269920
862.518 .0269790
863.195 .0269657
863.871 .0269523
864.548 .0269388
865.224 .0269252
865.899 .0269116
866.574 .0268980
867.249 .0268845
867.924 .0268709
868.598 .0268574
869.272 .0268440
869.946 .0268307
870.619 .0268175
871.292 .0268045
871.964 .0267917
872.636 .0267791
873.308 .0267667
873.979 .0267545
874.651 .0267425
875.321 .0267306
875.992 .0267188
876.662 .0267071
877.331 .0266953
878.001 .0266836
878.670 .0266718
879.338 .0266601
880.007 .0266485
880.675 .0266369
881.342 .0266255
882.009 .0266141
882.676 .0266027
883.343 .0265915
884.009 .0265802
884.675 .0265690
885.340 .0265579
886.005 .0265468
886.670 .0265359
887.334 .0265252
887.998 .0265147
888.662 .0265045
889.325 .0264946
889.988 .0264850
890.650 .0264757
891.312 .0264665
891.974 .0264574
892.636 .0264485
893.297 .0264396
893.957 .0264308
894.618 .0264219
895.278 .0264128
895.937 .0264036
896.596 .0263941
897.255 .0263843
897.914 .0263740
898.572 .0263633
899.230 .0263519
899.887 .0263400
900.544 .0263274
901.201 .0263142
901.857 .0262907
902.513 .0262757
903.168 .0262599
903.823 .0262435
904.478 .0262263
905.132 .0262084
905.786 .0261896
906.440 .0261701
907.093 .0261498
907.746 .0261288
908.399 .0261073
909.051 .0260854
909.703 .0260631
910.354 .0260516
911.005 .0260293
911.656 .0260069
912.306 .0259845
912.956 .0259621
913.605 .0259398
914.254 .0259174
914.903 .0258952
915.551 .0258732
916.199 .0258513
916.847 .0258296
917.494 .0258081
918.141 .0257868
918.788 .0257657
919.434 .0257447
920.079 .0257238
920.725 .0257030
921.370 .0256822
922.014 .0256614
922.658 .0256404
923.302 .0256195
923.946 .0255984
924.589 .0255773
925.231 .0255561
925.873 .0255348
926.515 .0255135
927.157 .0254922
927.798 .0254710
928.439 .0254498
929.079 .0254288
929.719 .0254079
930.359 .0253872
930.998 .0253668
931.637 .0253466
932.275 .0253267
932.913 .0253071
933.551 .0252880
934.188 .0252694
934.825 .0252513
935.462 .0252339
936.098 .0252172
936.733 .0252012
937.369 .0251860
938.004 .0251717
938.638 .0251582
939.273 .0251457
939.907 .0251342
940.540 .0251237
941.173 .0251143
941.806 .0251059
942.438 .0250986
943.070 .0250922
943.702 .0250867
944.333 .0250820
944.964 .0250779
945.594 .0250743
946.224 .0250712
946.854 .0250685
947.483 .0250660
948.112 .0250639
948.741 .0250619
949.369 .0250601
949.996 .0250585
950.624 .0250568
951.251 .0250552
951.878 .0250535
952.504 .0250518
953.130 .0250500
953.755 .0250481
954.380 .0250462
955.005 .0250442
955.629 .0250423
956.253 .0250402
956.877 .0250382
957.500 .0250360
958.123 .0250339
958.746 .0250317
959.368 .0250296
959.990 .0250275
960.611 .0250257
961.232 .0250240
961.853 .0250225
962.473 .0250212
963.093 .0250201
963.712 .0250192
964.331 .0250184
964.950 .0250177
965.569 .0250171
966.187 .0250167
966.804 .0250165
967.422 .0250164
968.039 .0250165
968.655 .0250168
969.272 .0250173
969.887 .0250179
970.503 .0250187
971.118 .0250196
971.733 .0250206
972.347 .0250217
972.961 .0250228
973.575 .0250239
974.188 .0250250
974.801 .0250261
975.414 .0250271
976.026 .0250281
976.638 .0250291
977.250 .0250300
977.861 .0250309
978.472 .0250319
979.083 .0250330
979.693 .0250341
980.303 .0250353
980.912 .0250379
981.521 .0250391
982.130 .0250405
982.738 .0250419
983.346 .0250435
983.954 .0250454
984.562 .0250476
985.169 .0250501
985.775 .0250529
986.382 .0250560
986.988 .0250593
987.594 .0250629
988.199 .0250667
988.804 .0250706
989.409 .0250728
990.013 .0250769
990.617 .0250811
991.221 .0250855
991.824 .0250899
992.427 .0250945
993.030 .0250990
993.632 .0251035
994.234 .0251078
994.836 .0251120
995.438 .0251160
996.039 .0251199
996.640 .0251237
997.240 .0251275
997.840 .0251313
998.440 .0251352
999.040 .0251392
999.639 .0251432
1000.238 .0251473
1000.836 .0251514
1001.435 .0251555
1002.033 .0251595
1002.630 .0251634
1003.228 .0251672
1003.825 .0251708
1004.422 .0251743
1005.018 .0251777
1005.614 .0251808
1006.210 .0251838
1006.806 .0251866
1007.401 .0251891
1007.996 .0251915
1008.591 .0251937
1009.186 .0251958
1009.780 .0251979
1010.374 .0251999
1010.967 .0252019
1011.561 .0252039
1012.154 .0252058
1012.746 .0252078
1013.339 .0252098
1013.931 .0252119
1014.523 .0252139
1015.115 .0252161
1015.706 .0252184
1016.298 .0252208
1016.888 .0252234
1017.479 .0252262
1018.069 .0252289
1018.660 .0252317
1019.250 .0252344
1019.839 .0252370
1020.429 .0252394
1021.018 .0252417
1021.607 .0252439
1022.195 .0252459
1022.784 .0252479
1023.372 .0252498
1023.960 .0252518
1024.547 .0252538
1025.135 .0252558
1025.722 .0252577
1026.309 .0252596
1026.896 .0252613
1027.483 .0252629
1028.069 .0252645
1028.655 .0252660
1029.241 .0252674
1029.827 .0252688
1030.412 .0252702
1030.997 .0252714
1031.582 .0252725
1032.167 .0252735
1032.752 .0252741
1033.336 .0252744
1033.921 .0252744
1034.505 .0252739
1035.089 .0252730
1035.672 .0252718
1036.256 .0252702
1036.839 .0252683
1037.422 .0252661
1038.005 .0252636
1038.588 .0252608
1039.171 .0252577
1039.753 .0252542
1040.335 .0252505
1040.918 .0252464
1041.500 .0252421
1042.081 .0252377
1042.663 .0252332
1043.244 .0252286
1043.826 .0252239
1044.407 .0252192
1044.988 .0252143
1045.569 .0252093
1046.150 .0252041
1046.730 .0251987
1047.311 .0251930
1047.891 .0251872
1048.471 .0251811
1049.052 .0251747
1049.632 .0251682
1050.211 .0251614
1050.791 .0251545
1051.371 .0251473
1051.950 .0251399
1052.530 .0251324
1053.109 .0251247
1053.688 .0251169
1054.268 .0251090
1054.847 .0251013
1055.426 .0250936
1056.005 .0250861
1056.583 .0250788
1057.162 .0250717
1057.741 .0250648
1058.319 .0250581
1058.898 .0250516
1059.476 .0250451
1060.055 .0250387
1060.633 .0250323
1061.211 .0250259
1061.790 .0250194
1062.368 .0250127
1062.946 .0250060
1063.524 .0249991
1064.102 .0249920
1064.680 .0249847
1065.258 .0249773
1065.836 .0249696
1066.414 .0249618
1066.992 .0249536
1067.570 .0249451
1068.148 .0249364
1068.726 .0249274
1069.304 .0249181
1069.882 .0249086
1070.460 .0248990
1071.038 .0248895
1071.616 .0248801
1072.194 .0248709
1072.772 .0248620
1073.350 .0248532
1073.928 .0248446
1074.506 .0248360
1075.084 .0248275
1075.662 .0248188
1076.240 .0248102
1076.819 .0248016
1077.397 .0247933
1077.976 .0247852
1078.554 .0247775
1079.133 .0247704
1079.711 .0247640
1080.290 .0247582
1080.869 .0247530
1081.448 .0247485
1082.027 .0247447
1082.606 .0247416
1083.185 .0247391
1083.764 .0247376
1084.343 .0247370
1084.923 .0247373
1085.502 .0247387
1086.082 .0247412
1086.662 .0247446
1087.242 .0247487
1087.822 .0247536
1088.402 .0247588
1088.983 .0247644
1089.563 .0247701
1090.144 .0247760
1090.725 .0247820
1091.306 .0247882
1091.887 .0247945
1092.469 .0248011
1093.050 .0248079
1093.632 .0248151
1094.214 .0248225
1094.796 .0248302
1095.379 .0248380
1095.961 .0248459
1096.544 .0248541
1097.127 .0248624
1097.710 .0248712
1098.294 .0248803
1098.877 .0248900
1099.461 .0249003
1100.046 .0249113
1100.630 .0249230
1101.215 .0249353
1101.800 .0249480
1102.385 .0249612
1102.970 .0249748
1103.556 .0249889
1104.142 .0250037
1104.728 .0250194
1105.315 .0250361
1105.902 .0250539
1106.489 .0250731
1107.077 .0250935
1107.664 .0251153
1108.253 .0251384
1108.841 .0251626
1109.430 .0251879
1110.019 .0252142
1110.609 .0252415
1111.198 .0252699
1111.789 .0252993
1112.379 .0253298
1112.970 .0253611
1113.561 .0253931
1114.153 .0254256
1114.745 .0254583
1115.338 .0254910
1115.931 .0255237
1116.524 .0255566
1117.117 .0255898
1117.712 .0256238
1118.306 .0256592
1118.901 .0256963
1119.496 .0257357
1120.092 .0257774
1120.689 .0258214
1121.285 .0258675
1121.882 .0259156
1122.480 .0259656
1123.078 .0260174
1123.677 .0260710
1124.276 .0261266
1124.875 .0261848
1125.476 .0262455
1126.076 .0263092
1126.677 .0263758
1127.279 .0264453
1127.881 .0265172
1128.484 .0265913
1129.087 .0266203
1129.691 .0266975
1130.295 .0267764
1130.900 .0268575
1131.505 .0269410
1132.111 .0270277
1132.718 .0271178
1133.325 .0272116
1133.933 .0273099
1134.541 .0274123
1135.150 .0275255
1135.760 .0276307
1136.370 .0277379
1136.981 .0278902
1137.592 .0279858
1138.204 .0280747
1138.817 .0281682
1139.431 .0282665
1140.045 .0283795
1140.660 .0285008
1141.275 .0286286
1141.891 .0287784
1142.508 .0289347
1143.126 .0292879
1143.744 .0291283
1144.363 .0292569
1144.983 .0297707
