Measurement Sequence started on: 15-12-46-377
Integration time: 28
Scans to Average: 2 
>>>>>Begin Spectral Data<<<<<
432.689 .0000100
433.621 .0000100
434.552 .0000100
435.482 .0000100
436.410 .0000100
437.337 .0000100
438.262 .0286914
439.187 .0607284
440.110 .1005559
441.031 .1453959
441.952 .1162512
442.871 .1213909
443.789 .1261758
444.705 .1306783
445.621 .1349505
446.535 .1390314
447.447 .1414398
448.359 .1420219
449.269 .1403868
450.178 .1362847
451.086 .1297985
451.993 .1214285
452.898 .1120022
453.803 .1024561
454.706 .0935865
455.608 .0858856
456.508 .0795173
457.408 .0752174
458.306 .0719164
459.204 .0692323
460.100 .0669719
460.995 .0650298
461.888 .0633357
462.781 .0618402
463.673 .0605071
464.563 .0593115
465.452 .0582339
466.340 .0572583
467.228 .0563735
468.114 .0555699
468.999 .0548400
469.882 .0541766
470.765 .0535735
471.647 .0530252
472.528 .0525278
473.407 .0520768
474.286 .0516689
475.163 .0513020
476.040 .0509736
476.915 .0506812
477.790 .0504229
478.663 .0501961
479.535 .0499989
480.407 .0498283
481.277 .0496816
482.147 .0495560
483.015 .0494495
483.883 .0493604
484.749 .0492875
485.615 .0492299
486.479 .0491876
487.343 .0491601
488.206 .0491474
489.067 .0491488
489.928 .0491640
490.788 .0491935
491.647 .0492378
492.505 .0492977
493.362 .0493755
494.218 .0494727
495.073 .0495914
495.928 .0498542
496.781 .0500353
497.634 .0502425
498.486 .0504764
499.337 .0507374
500.187 .0510264
501.036 .0513445
501.884 .0516933
502.731 .0520758
503.578 .0524959
504.424 .0527882
505.268 .0532778
506.113 .0538169
506.956 .0544096
507.798 .0550604
508.640 .0557756
509.480 .0565631
510.320 .0574316
511.160 .0583918
511.998 .0594582
512.836 .0606476
513.672 .0619792
514.508 .0634740
515.344 .0651540
516.178 .0670414
517.012 .0691621
517.845 .0715358
518.677 .0741821
519.508 .0771173
520.339 .0803505
521.169 .0838841
521.998 .0876995
522.826 .0917658
523.654 .0960325
524.481 .1004350
525.307 .1048968
526.133 .1093250
526.958 .1136255
527.782 .1177036
528.605 .1214723
529.428 .1248567
530.250 .1277925
531.072 .1302374
531.892 .1321612
532.712 .1335459
533.532 .1343815
534.350 .1346614
535.168 .1343899
535.986 .1335704
536.802 .1322050
537.618 .1303001
538.434 .1278661
539.249 .1249366
540.063 .1215557
540.876 .1177836
541.689 .1136958
542.501 .1093772
543.313 .1049233
544.124 .1004282
544.934 .0959823
545.744 .0916650
546.553 .0875399
547.361 .0836571
548.169 .0800429
548.976 .0767123
549.783 .0736649
550.589 .0708928
551.395 .0683796
552.200 .0661035
553.004 .0640411
553.808 .0621716
554.611 .0604757
555.414 .0589345
556.216 .0575288
557.018 .0562404
557.819 .0550541
558.619 .0539550
559.419 .0529309
560.218 .0519729
561.017 .0510731
561.815 .0502261
562.613 .0494276
563.410 .0486730
564.207 .0479581
565.003 .0472783
565.799 .0466277
566.594 .0460015
567.388 .0453949
568.182 .0448047
568.976 .0442283
569.769 .0436652
570.562 .0431157
571.354 .0425812
572.145 .0420639
572.936 .0415651
573.727 .0410849
574.517 .0406241
575.307 .0401823
576.096 .0397583
576.885 .0393514
577.673 .0389609
578.461 .0385866
579.248 .0382285
580.035 .0378870
580.821 .0375624
581.607 .0372550
582.392 .0369653
583.177 .0366933
583.962 .0364387
584.746 .0362013
585.529 .0359801
586.313 .0357745
587.095 .0355835
587.878 .0354062
588.660 .0352418
589.441 .0350895
590.222 .0349487
591.003 .0348189
591.783 .0346994
592.563 .0345898
593.342 .0344895
594.121 .0343979
594.899 .0343142
595.678 .0342379
596.455 .0341681
597.233 .0341040
598.009 .0340448
598.786 .0339896
599.562 .0339376
600.338 .0338883
601.113 .0338410
601.888 .0337749
602.663 .0337318
603.437 .0336903
604.211 .0336504
604.984 .0336120
605.757 .0335751
606.530 .0335396
607.302 .0335054
608.074 .0334721
608.845 .0334399
609.616 .0334087
610.387 .0333963
611.158 .0333668
611.928 .0333385
612.697 .0333114
613.467 .0332856
614.236 .0332609
615.004 .0332373
615.773 .0332148
616.541 .0331931
617.308 .0331721
618.076 .0331515
618.843 .0331312
619.609 .0331109
620.375 .0330903
621.141 .0330693
621.907 .0330478
622.672 .0330255
623.437 .0330024
624.202 .0329783
624.966 .0329530
625.730 .0329266
626.493 .0328989
627.257 .0328699
628.020 .0328395
628.782 .0328078
629.545 .0327747
630.307 .0327403
631.068 .0327046
631.830 .0326679
632.591 .0326302
633.352 .0325919
634.112 .0325529
634.872 .0325135
635.632 .0324738
636.392 .0324337
637.151 .0323934
637.910 .0323529
638.668 .0323122
639.427 .0322715
640.185 .0322309
640.943 .0321903
641.700 .0321500
642.457 .0321099
643.214 .0320702
643.971 .0320309
644.727 .0319919
645.483 .0319534
646.239 .0319151
646.994 .0318772
647.750 .0318397
648.505 .0318026
649.259 .0317659
650.014 .0317298
650.768 .0316942
651.521 .0316592
652.275 .0316249
653.028 .0315913
653.781 .0315584
654.534 .0315262
655.286 .0314948
656.039 .0314640
656.791 .0314340
657.542 .0314047
658.294 .0313764
659.045 .0313490
659.796 .0313226
660.546 .0312974
661.297 .0312732
662.047 .0312500
662.796 .0312279
663.546 .0312067
664.295 .0311864
665.044 .0311669
665.793 .0311482
666.542 .0311303
667.290 .0311133
668.038 .0310971
668.786 .0310819
669.533 .0310674
670.281 .0310538
671.028 .0310408
671.774 .0310284
672.521 .0310165
673.267 .0310050
674.013 .0309938
674.759 .0309829
675.505 .0309722
676.250 .0309616
676.995 .0309511
677.740 .0309408
678.484 .0309304
679.229 .0309201
679.973 .0309096
680.717 .0308990
681.460 .0308882
682.204 .0308771
682.947 .0308656
683.690 .0308536
684.433 .0308411
685.175 .0308281
685.917 .0308144
686.659 .0308002
687.401 .0307856
688.142 .0307705
688.884 .0307551
689.625 .0307393
690.365 .0307233
691.106 .0307069
691.846 .0306900
692.586 .0306727
693.326 .0306550
694.066 .0306367
694.805 .0306179
695.545 .0305988
696.284 .0305793
697.022 .0305596
697.761 .0305396
698.499 .0305195
699.237 .0304993
699.975 .0304789
700.713 .0304583
701.450 .0304375
702.187 .0304164
702.924 .0303950
703.661 .0303733
704.397 .0303512
705.133 .0303288
705.869 .0303061
706.605 .0302831
707.341 .0302598
708.076 .0302361
708.811 .0302122
709.546 .0301880
710.281 .0301635
711.015 .0301388
711.749 .0301137
712.483 .0300883
713.217 .0300625
713.950 .0300363
714.684 .0300098
715.417 .0299828
716.150 .0299555
716.882 .0299278
717.615 .0298997
718.347 .0298711
719.079 .0298422
719.811 .0298129
720.542 .0297832
721.273 .0297533
722.005 .0297232
722.735 .0296931
723.466 .0296630
724.196 .0296331
724.927 .0296034
725.656 .0295742
726.386 .0295454
727.116 .0295171
727.845 .0294896
728.574 .0294627
729.303 .0294367
730.031 .0294116
730.760 .0293876
731.488 .0293645
732.216 .0293425
732.944 .0293216
733.671 .0293018
734.398 .0292829
735.125 .0292650
735.852 .0292480
736.579 .0292318
737.305 .0292164
738.031 .0292018
738.757 .0291878
739.483 .0291745
740.208 .0291618
740.933 .0291497
741.658 .0291382
742.383 .0291272
743.108 .0291167
743.832 .0291066
744.556 .0290970
745.280 .0290878
746.004 .0290790
746.727 .0290705
747.450 .0290622
748.173 .0290542
748.896 .0290465
749.618 .0290389
750.340 .0290316
751.062 .0290245
751.784 .0290177
752.506 .0290110
753.227 .0290046
753.948 .0289983
754.669 .0289921
755.389 .0289860
756.110 .0289799
756.830 .0289738
757.550 .0289677
758.269 .0289615
758.989 .0289552
759.708 .0289488
760.427 .0289423
761.146 .0289356
761.864 .0289288
762.582 .0289219
763.300 .0289148
764.018 .0289076
764.736 .0289002
765.453 .0288927
766.170 .0288852
766.887 .0288777
767.603 .0288704
768.320 .0288633
769.036 .0288566
769.751 .0288502
770.467 .0288443
771.182 .0288389
771.897 .0288338
772.612 .0288293
773.327 .0288251
774.041 .0288212
774.755 .0288177
775.469 .0288145
776.183 .0288118
776.896 .0288094
777.609 .0288075
778.322 .0288061
779.035 .0288050
779.747 .0288043
780.459 .0288039
781.171 .0288037
781.882 .0288035
782.594 .0288032
783.305 .0288029
784.016 .0288023
784.726 .0288015
785.436 .0288003
786.147 .0287969
786.856 .0287945
787.566 .0287915
788.275 .0287879
788.984 .0287835
789.693 .0287785
790.401 .0287727
791.110 .0287661
791.818 .0287587
792.525 .0287504
793.233 .0287411
793.940 .0287308
794.647 .0287231
795.353 .0287115
796.060 .0286991
796.766 .0286858
797.472 .0286716
798.177 .0286567
798.883 .0286409
799.588 .0286243
800.292 .0286068
800.997 .0285885
801.701 .0285694
802.405 .0285493
803.109 .0285283
803.812 .0285065
804.515 .0284838
805.218 .0284604
805.921 .0284363
806.623 .0284116
807.325 .0283862
808.027 .0283602
808.728 .0283337
809.429 .0283067
810.130 .0282792
810.831 .0282514
811.531 .0282233
812.231 .0281949
812.931 .0281663
813.630 .0281376
814.330 .0281088
815.029 .0280802
815.727 .0280517
816.426 .0280236
817.124 .0279960
817.821 .0279689
818.519 .0279426
819.216 .0279171
819.913 .0278924
820.609 .0278686
821.306 .0278458
822.002 .0278239
822.697 .0278029
823.393 .0277829
824.088 .0277639
824.783 .0277459
825.477 .0277290
826.171 .0277129
826.865 .0276977
827.559 .0276833
828.252 .0276695
828.945 .0276564
829.638 .0276438
830.330 .0276316
831.023 .0276198
831.714 .0276084
832.406 .0275971
833.097 .0275861
833.788 .0275752
834.479 .0275642
835.169 .0275534
835.859 .0275425
836.548 .0275315
837.238 .0275206
837.927 .0275098
838.615 .0274989
839.304 .0274880
839.992 .0274771
840.680 .0274662
841.367 .0274551
842.054 .0274440
842.741 .0274328
843.428 .0274216
844.114 .0274104
844.800 .0273994
845.485 .0273885
846.170 .0273778
846.855 .0273672
847.540 .0273568
848.224 .0273465
848.908 .0273362
849.592 .0273261
850.275 .0273159
850.958 .0273059
851.641 .0272959
852.323 .0272860
853.005 .0272762
853.687 .0272664
854.368 .0272567
855.049 .0272471
855.730 .0272375
856.410 .0272279
857.090 .0272185
857.769 .0272094
858.449 .0272005
859.128 .0271918
859.806 .0271836
860.485 .0271757
861.163 .0271681
861.840 .0271609
862.518 .0271542
863.195 .0271479
863.871 .0271421
864.548 .0271369
865.224 .0271322
865.899 .0271282
866.574 .0271249
867.249 .0271221
867.924 .0271200
868.598 .0271185
869.272 .0271175
869.946 .0271169
870.619 .0271169
871.292 .0271174
871.964 .0271183
872.636 .0271197
873.308 .0271216
873.979 .0271238
874.651 .0271265
875.321 .0271295
875.992 .0271329
876.662 .0271367
877.331 .0271408
878.001 .0271454
878.670 .0271502
879.338 .0271554
880.007 .0271610
880.675 .0271668
881.342 .0271729
882.009 .0271792
882.676 .0271859
883.343 .0271928
884.009 .0272001
884.675 .0272078
885.340 .0272160
886.005 .0272246
886.670 .0272337
887.334 .0272431
887.998 .0272529
888.662 .0272629
889.325 .0272732
889.988 .0272836
890.650 .0272942
891.312 .0273048
891.974 .0273155
892.636 .0273262
893.297 .0273367
893.957 .0273471
894.618 .0273571
895.278 .0273666
895.937 .0273754
896.596 .0273835
897.255 .0273906
897.914 .0273967
898.572 .0274016
899.230 .0274053
899.887 .0274077
900.544 .0274087
901.201 .0274082
901.857 .0274008
902.513 .0273963
903.168 .0273903
903.823 .0273826
904.478 .0273735
905.132 .0273629
905.786 .0273509
906.440 .0273377
907.093 .0273232
907.746 .0273076
908.399 .0272908
909.051 .0272730
909.703 .0272541
910.354 .0272428
911.005 .0272230
911.656 .0272024
912.306 .0271813
912.956 .0271597
913.605 .0271379
914.254 .0271159
914.903 .0270937
915.551 .0270715
916.199 .0270492
916.847 .0270268
917.494 .0270042
918.141 .0269815
918.788 .0269585
919.434 .0269354
920.079 .0269121
920.725 .0268886
921.370 .0268649
922.014 .0268410
922.658 .0268167
923.302 .0267921
923.946 .0267670
924.589 .0267414
925.231 .0267152
925.873 .0266884
926.515 .0266609
927.157 .0266329
927.798 .0266043
928.439 .0265752
929.079 .0265458
929.719 .0265160
930.359 .0264860
930.998 .0264557
931.637 .0264253
932.275 .0263947
932.913 .0263640
933.551 .0263334
934.188 .0263028
934.825 .0262724
935.462 .0262423
936.098 .0262126
936.733 .0261834
937.369 .0261547
938.004 .0261266
938.638 .0260990
939.273 .0260720
939.907 .0260456
940.540 .0260199
941.173 .0259949
941.806 .0259707
942.438 .0259473
943.070 .0259249
943.702 .0259033
944.333 .0258826
944.964 .0258628
945.594 .0258436
946.224 .0258251
946.854 .0258070
947.483 .0257892
948.112 .0257717
948.741 .0257543
949.369 .0257368
949.996 .0257194
950.624 .0257018
951.251 .0256840
951.878 .0256659
952.504 .0256475
953.130 .0256288
953.755 .0256096
954.380 .0255901
955.005 .0255701
955.629 .0255498
956.253 .0255291
956.877 .0255081
957.500 .0254869
958.123 .0254654
958.746 .0254438
959.368 .0254221
959.990 .0254005
960.611 .0253789
961.232 .0253575
961.853 .0253361
962.473 .0253149
963.093 .0252939
963.712 .0252730
964.331 .0252522
964.950 .0252317
965.569 .0252114
966.187 .0251915
966.804 .0251720
967.422 .0251529
968.039 .0251343
968.655 .0251162
969.272 .0250987
969.887 .0250817
970.503 .0250652
971.118 .0250493
971.733 .0250340
972.347 .0250193
972.961 .0250051
973.575 .0249914
974.188 .0249783
974.801 .0249656
975.414 .0249533
976.026 .0249413
976.638 .0249295
977.250 .0249178
977.861 .0249063
978.472 .0248948
979.083 .0248834
979.693 .0248722
980.303 .0248612
980.912 .0248461
981.521 .0248360
982.130 .0248264
982.738 .0248172
983.346 .0248084
983.954 .0248000
984.562 .0247922
985.169 .0247849
985.775 .0247782
986.382 .0247722
986.988 .0247670
987.594 .0247624
988.199 .0247585
988.804 .0247552
989.409 .0247556
990.013 .0247531
990.617 .0247512
991.221 .0247499
991.824 .0247490
992.427 .0247487
993.030 .0247489
993.632 .0247498
994.234 .0247512
994.836 .0247532
995.438 .0247558
996.039 .0247589
996.640 .0247627
997.240 .0247670
997.840 .0247721
998.440 .0247778
999.040 .0247842
999.639 .0247913
1000.238 .0247991
1000.836 .0248076
1001.435 .0248167
1002.033 .0248265
1002.630 .0248367
1003.228 .0248475
1003.825 .0248587
1004.422 .0248704
1005.018 .0248825
1005.614 .0248951
1006.210 .0249081
1006.806 .0249216
1007.401 .0249354
1007.996 .0249497
1008.591 .0249643
1009.186 .0249792
1009.780 .0249945
1010.374 .0250102
1010.967 .0250262
1011.561 .0250427
1012.154 .0250596
1012.746 .0250769
1013.339 .0250946
1013.931 .0251126
1014.523 .0251308
1015.115 .0251492
1015.706 .0251676
1016.298 .0251861
1016.888 .0252047
1017.479 .0252234
1018.069 .0252422
1018.660 .0252613
1019.250 .0252808
1019.839 .0253005
1020.429 .0253206
1021.018 .0253409
1021.607 .0253614
1022.195 .0253821
1022.784 .0254031
1023.372 .0254242
1023.960 .0254456
1024.547 .0254673
1025.135 .0254894
1025.722 .0255119
1026.309 .0255346
1026.896 .0255577
1027.483 .0255810
1028.069 .0256043
1028.655 .0256277
1029.241 .0256509
1029.827 .0256740
1030.412 .0256968
1030.997 .0257196
1031.582 .0257423
1032.167 .0257648
1032.752 .0257874
1033.336 .0258099
1033.921 .0258323
1034.505 .0258547
1035.089 .0258770
1035.672 .0258991
1036.256 .0259209
1036.839 .0259423
1037.422 .0259633
1038.005 .0259837
1038.588 .0260036
1039.171 .0260229
1039.753 .0260414
1040.335 .0260592
1040.918 .0260763
1041.500 .0260926
1042.081 .0261081
1042.663 .0261228
1043.244 .0261366
1043.826 .0261496
1044.407 .0261618
1044.988 .0261732
1045.569 .0261839
1046.150 .0261938
1046.730 .0262031
1047.311 .0262119
1047.891 .0262202
1048.471 .0262281
1049.052 .0262355
1049.632 .0262426
1050.211 .0262492
1050.791 .0262552
1051.371 .0262607
1051.950 .0262654
1052.530 .0262695
1053.109 .0262729
1053.688 .0262757
1054.268 .0262779
1054.847 .0262796
1055.426 .0262809
1056.005 .0262820
1056.583 .0262828
1057.162 .0262834
1057.741 .0262837
1058.319 .0262838
1058.898 .0262837
1059.476 .0262834
1060.055 .0262828
1060.633 .0262820
1061.211 .0262812
1061.790 .0262803
1062.368 .0262794
1062.946 .0262785
1063.524 .0262776
1064.102 .0262767
1064.680 .0262756
1065.258 .0262745
1065.836 .0262731
1066.414 .0262716
1066.992 .0262700
1067.570 .0262682
1068.148 .0262664
1068.726 .0262646
1069.304 .0262629
1069.882 .0262614
1070.460 .0262600
1071.038 .0262588
1071.616 .0262577
1072.194 .0262566
1072.772 .0262555
1073.350 .0262543
1073.928 .0262532
1074.506 .0262521
1075.084 .0262510
1075.662 .0262501
1076.240 .0262492
1076.819 .0262485
1077.397 .0262479
1077.976 .0262474
1078.554 .0262467
1079.133 .0262459
1079.711 .0262448
1080.290 .0262434
1080.869 .0262419
1081.448 .0262401
1082.027 .0262382
1082.606 .0262360
1083.185 .0262336
1083.764 .0262309
1084.343 .0262277
1084.923 .0262242
1085.502 .0262203
1086.082 .0262159
1086.662 .0262113
1087.242 .0262065
1087.822 .0262016
1088.402 .0261970
1088.983 .0261928
1089.563 .0261888
1090.144 .0261853
1090.725 .0261820
1091.306 .0261789
1091.887 .0261761
1092.469 .0261734
1093.050 .0261710
1093.632 .0261689
1094.214 .0261671
1094.796 .0261657
1095.379 .0261647
1095.961 .0261643
1096.544 .0261642
1097.127 .0261646
1097.710 .0261655
1098.294 .0261667
1098.877 .0261683
1099.461 .0261705
1100.046 .0261733
1100.630 .0261768
1101.215 .0261810
1101.800 .0261859
1102.385 .0261914
1102.970 .0261975
1103.556 .0262041
1104.142 .0262110
1104.728 .0262182
1105.315 .0262259
1105.902 .0262340
1106.489 .0262426
1107.077 .0262518
1107.664 .0262616
1108.253 .0262722
1108.841 .0262831
1109.430 .0262944
1110.019 .0263058
1110.609 .0263173
1111.198 .0263288
1111.789 .0263404
1112.379 .0263522
1112.970 .0263646
1113.561 .0263777
1114.153 .0263918
1114.745 .0264069
1115.338 .0264231
1115.931 .0264403
1116.524 .0264586
1117.117 .0264781
1117.712 .0264988
1118.306 .0265212
1118.901 .0265454
1119.496 .0265718
1120.092 .0266007
1120.689 .0266322
1121.285 .0266663
1121.882 .0267028
1122.480 .0267417
1123.078 .0267825
1123.677 .0268254
1124.276 .0268703
1124.875 .0269173
1125.476 .0269664
1126.076 .0270182
1126.677 .0270727
1127.279 .0271302
1127.881 .0271911
1128.484 .0272554
1129.087 .0272812
1129.691 .0273510
1130.295 .0274243
1130.900 .0275015
1131.505 .0275825
1132.111 .0276679
1132.718 .0277575
1133.325 .0278517
1133.933 .0279509
1134.541 .0280541
1135.150 .0281645
1135.760 .0282725
1136.370 .0283883
1136.981 .0283862
1137.592 .0284991
1138.204 .0286222
1138.817 .0287542
1139.431 .0288945
1140.045 .0290470
1140.660 .0292042
1141.275 .0293671
1141.891 .0295478
1142.508 .0297039
1143.126 .0299565
1143.744 .0299455
1144.363 .0302266
1144.983 .0307227
