Measurement Sequence started on: 15-12-46-377
Integration time: 28
Scans to Average: 2 
>>>>>Begin Spectral Data<<<<<
432.689 .0000100
433.621 .0000100
434.552 .0000100
435.482 .0000100
436.410 .0000100
437.337 .0000100
438.262 .0266637
439.187 .0564501
440.110 .0934208
441.031 .1350771
441.952 .1083852
442.871 .1132740
443.789 .1178420
444.705 .1221552
445.621 .1262589
446.535 .1301864
447.447 .1325608
448.359 .1332372
449.269 .1318532
450.178 .1281747
451.086 .1222756
451.993 .1146183
452.898 .1059685
453.803 .0971909
454.706 .0890205
455.608 .0819103
456.508 .0760094
457.408 .0720006
458.306 .0688922
459.204 .0663306
460.100 .0641427
460.995 .0622367
461.888 .0605504
462.781 .0590418
463.673 .0576817
464.563 .0564472
465.452 .0553214
466.340 .0542913
467.228 .0533471
468.114 .0524819
468.999 .0516915
469.882 .0509717
470.765 .0503189
471.647 .0497307
472.528 .0492048
473.407 .0487377
474.286 .0483262
475.163 .0479672
476.040 .0476562
476.915 .0473891
477.790 .0471616
478.663 .0469693
479.535 .0468089
480.407 .0466765
481.277 .0465688
482.147 .0464830
483.015 .0464169
483.883 .0463686
484.749 .0463364
485.615 .0463189
486.479 .0463145
487.343 .0463220
488.206 .0463401
489.067 .0463677
489.928 .0464045
490.788 .0464510
491.647 .0465076
492.505 .0465757
493.362 .0466572
494.218 .0467544
495.073 .0468704
495.928 .0471249
496.781 .0473036
497.634 .0475086
498.486 .0477408
499.337 .0480018
500.187 .0482930
501.036 .0486161
501.884 .0489739
502.731 .0493706
503.578 .0498093
504.424 .0501242
505.268 .0506419
506.113 .0512156
506.956 .0518505
507.798 .0525524
508.640 .0533278
509.480 .0541846
510.320 .0551327
511.160 .0561818
511.998 .0573448
512.836 .0586374
513.672 .0600752
514.508 .0616775
515.344 .0634654
516.178 .0654602
517.012 .0676839
517.845 .0701580
518.677 .0729001
519.508 .0759215
520.339 .0792279
521.169 .0828212
521.998 .0866776
522.826 .0907625
523.654 .0950248
524.481 .0993984
525.307 .1038096
526.133 .1081720
526.958 .1123942
527.782 .1163871
528.605 .1200698
529.428 .1233662
530.250 .1262089
531.072 .1285563
531.892 .1303714
532.712 .1316304
533.532 .1323234
534.350 .1324463
535.168 .1320024
535.986 .1310019
536.802 .1294571
537.618 .1273819
538.434 .1247933
539.249 .1217295
540.063 .1182382
540.876 .1143810
541.689 .1102319
542.501 .1058705
543.313 .1013856
544.124 .0968690
544.934 .0924045
545.744 .0880675
546.553 .0839249
547.361 .0800318
548.169 .0764173
548.976 .0731020
549.783 .0700917
550.589 .0673773
551.395 .0649412
552.200 .0627581
553.004 .0607992
553.808 .0590377
554.611 .0574498
555.414 .0560127
556.216 .0547083
557.018 .0535187
557.819 .0524282
558.619 .0514234
559.419 .0504928
560.218 .0496266
561.017 .0488155
561.815 .0480530
562.613 .0473333
563.410 .0466504
564.207 .0459990
565.003 .0453747
565.799 .0447733
566.594 .0441911
567.388 .0436259
568.182 .0430760
568.976 .0425409
569.769 .0420197
570.562 .0415128
571.354 .0410208
572.145 .0405442
572.936 .0400830
573.727 .0396366
574.517 .0392052
575.307 .0387886
576.096 .0383866
576.885 .0379994
577.673 .0376275
578.461 .0372715
579.248 .0369317
580.035 .0366083
580.821 .0363014
581.607 .0360108
582.392 .0357364
583.177 .0354779
583.962 .0352349
584.746 .0350070
585.529 .0347937
586.313 .0345948
587.095 .0344097
587.878 .0342378
588.660 .0340784
589.441 .0339308
590.222 .0337942
591.003 .0336680
591.783 .0335513
592.563 .0334434
593.342 .0333437
594.121 .0332513
594.899 .0331653
595.678 .0330852
596.455 .0330103
597.233 .0329401
598.009 .0328741
598.786 .0328119
599.562 .0327530
600.338 .0326971
601.113 .0326438
601.888 .0325719
602.663 .0325244
603.437 .0324790
604.211 .0324355
604.984 .0323939
605.757 .0323540
606.530 .0323157
607.302 .0322788
608.074 .0322431
608.845 .0322086
609.616 .0321753
610.387 .0321612
611.158 .0321291
611.928 .0320981
612.697 .0320681
613.467 .0320391
614.236 .0320110
615.004 .0319838
615.773 .0319572
616.541 .0319313
617.308 .0319057
618.076 .0318803
618.843 .0318552
619.609 .0318302
620.375 .0318053
621.141 .0317804
621.907 .0317555
622.672 .0317305
623.437 .0317055
624.202 .0316804
624.966 .0316551
625.730 .0316297
626.493 .0316041
627.257 .0315783
628.020 .0315523
628.782 .0315260
629.545 .0314995
630.307 .0314728
631.068 .0314457
631.830 .0314185
632.591 .0313910
633.352 .0313635
634.112 .0313361
634.872 .0313088
635.632 .0312817
636.392 .0312547
637.151 .0312280
637.910 .0312013
638.668 .0311747
639.427 .0311482
640.185 .0311218
640.943 .0310954
641.700 .0310692
642.457 .0310430
643.214 .0310171
643.971 .0309914
644.727 .0309659
645.483 .0309406
646.239 .0309155
646.994 .0308904
647.750 .0308654
648.505 .0308405
649.259 .0308155
650.014 .0307906
650.768 .0307657
651.521 .0307406
652.275 .0307156
653.028 .0306904
653.781 .0306652
654.534 .0306399
655.286 .0306146
656.039 .0305893
656.791 .0305642
657.542 .0305393
658.294 .0305147
659.045 .0304904
659.796 .0304666
660.546 .0304431
661.297 .0304201
662.047 .0303975
662.796 .0303753
663.546 .0303536
664.295 .0303322
665.044 .0303114
665.793 .0302910
666.542 .0302711
667.290 .0302518
668.038 .0302330
668.786 .0302147
669.533 .0301967
670.281 .0301791
671.028 .0301618
671.774 .0301448
672.521 .0301280
673.267 .0301113
674.013 .0300949
674.759 .0300787
675.505 .0300626
676.250 .0300467
676.995 .0300309
677.740 .0300154
678.484 .0299999
679.229 .0299846
679.973 .0299694
680.717 .0299544
681.460 .0299396
682.204 .0299249
682.947 .0299103
683.690 .0298958
684.433 .0298813
685.175 .0298668
685.917 .0298523
686.659 .0298378
687.401 .0298233
688.142 .0298089
688.884 .0297944
689.625 .0297800
690.365 .0297656
691.106 .0297511
691.846 .0297366
692.586 .0297218
693.326 .0297068
694.066 .0296917
694.805 .0296763
695.545 .0296607
696.284 .0296451
697.022 .0296294
697.761 .0296137
698.499 .0295980
699.237 .0295823
699.975 .0295666
700.713 .0295509
701.450 .0295353
702.187 .0295196
702.924 .0295038
703.661 .0294879
704.397 .0294720
705.133 .0294560
705.869 .0294397
706.605 .0294233
707.341 .0294066
708.076 .0293897
708.811 .0293725
709.546 .0293550
710.281 .0293372
711.015 .0293191
711.749 .0293007
712.483 .0292819
713.217 .0292627
713.950 .0292429
714.684 .0292227
715.417 .0292018
716.150 .0291804
716.882 .0291584
717.615 .0291358
718.347 .0291128
719.079 .0290893
719.811 .0290655
720.542 .0290414
721.273 .0290171
722.005 .0289926
722.735 .0289679
723.466 .0289432
724.196 .0289184
724.927 .0288936
725.656 .0288689
726.386 .0288444
727.116 .0288202
727.845 .0287963
728.574 .0287728
729.303 .0287499
730.031 .0287276
730.760 .0287059
731.488 .0286850
732.216 .0286649
732.944 .0286454
733.671 .0286266
734.398 .0286084
735.125 .0285908
735.852 .0285738
736.579 .0285573
737.305 .0285413
738.031 .0285259
738.757 .0285109
739.483 .0284965
740.208 .0284827
740.933 .0284693
741.658 .0284565
742.383 .0284440
743.108 .0284319
743.832 .0284200
744.556 .0284083
745.280 .0283968
746.004 .0283853
746.727 .0283739
747.450 .0283624
748.173 .0283510
748.896 .0283396
749.618 .0283281
750.340 .0283166
751.062 .0283050
751.784 .0282934
752.506 .0282816
753.227 .0282696
753.948 .0282574
754.669 .0282450
755.389 .0282322
756.110 .0282192
756.830 .0282059
757.550 .0281923
758.269 .0281785
758.989 .0281647
759.708 .0281508
760.427 .0281369
761.146 .0281230
761.864 .0281091
762.582 .0280953
763.300 .0280816
764.018 .0280679
764.736 .0280544
765.453 .0280410
766.170 .0280279
766.887 .0280151
767.603 .0280028
768.320 .0279910
769.036 .0279798
769.751 .0279693
770.467 .0279596
771.182 .0279506
771.897 .0279423
772.612 .0279348
773.327 .0279280
774.041 .0279219
774.755 .0279164
775.469 .0279117
776.183 .0279076
776.896 .0279043
777.609 .0279017
778.322 .0278998
779.035 .0278986
779.747 .0278981
780.459 .0278981
781.171 .0278986
781.882 .0278995
782.594 .0279006
783.305 .0279020
784.016 .0279033
784.726 .0279046
785.436 .0279057
786.147 .0279063
786.856 .0279065
787.566 .0279063
788.275 .0279057
788.984 .0279047
789.693 .0279033
790.401 .0279014
791.110 .0278991
791.818 .0278963
792.525 .0278929
793.233 .0278888
793.940 .0278840
794.647 .0278798
795.353 .0278741
796.060 .0278678
796.766 .0278610
797.472 .0278535
798.177 .0278456
798.883 .0278373
799.588 .0278285
800.292 .0278194
800.997 .0278100
801.701 .0278002
802.405 .0277900
803.109 .0277795
803.812 .0277687
804.515 .0277575
805.218 .0277460
805.921 .0277342
806.623 .0277220
807.325 .0277097
808.027 .0276970
808.728 .0276841
809.429 .0276710
810.130 .0276575
810.831 .0276439
811.531 .0276300
812.231 .0276159
812.931 .0276016
813.630 .0275871
814.330 .0275725
815.029 .0275578
815.727 .0275429
816.426 .0275281
817.124 .0275132
817.821 .0274984
818.519 .0274836
819.216 .0274690
819.913 .0274545
820.609 .0274403
821.306 .0274263
822.002 .0274126
822.697 .0273992
823.393 .0273861
824.088 .0273732
824.783 .0273606
825.477 .0273481
826.171 .0273358
826.865 .0273235
827.559 .0273112
828.252 .0272989
828.945 .0272866
829.638 .0272743
830.330 .0272619
831.023 .0272495
831.714 .0272370
832.406 .0272244
833.097 .0272116
833.788 .0271986
834.479 .0271853
835.169 .0271717
835.859 .0271578
836.548 .0271437
837.238 .0271294
837.927 .0271148
838.615 .0271001
839.304 .0270852
839.992 .0270700
840.680 .0270547
841.367 .0270391
842.054 .0270232
842.741 .0270070
843.428 .0269907
844.114 .0269742
844.800 .0269576
845.485 .0269409
846.170 .0269241
846.855 .0269072
847.540 .0268901
848.224 .0268728
848.908 .0268551
849.592 .0268371
850.275 .0268188
850.958 .0268003
851.641 .0267816
852.323 .0267628
853.005 .0267439
853.687 .0267250
854.368 .0267060
855.049 .0266868
855.730 .0266676
856.410 .0266482
857.090 .0266287
857.769 .0266091
858.449 .0265897
859.128 .0265703
859.806 .0265512
860.485 .0265324
861.163 .0265140
861.840 .0264958
862.518 .0264781
863.195 .0264607
863.871 .0264438
864.548 .0264273
865.224 .0264113
865.899 .0263959
866.574 .0263810
867.249 .0263667
867.924 .0263530
868.598 .0263398
869.272 .0263272
869.946 .0263149
870.619 .0263032
871.292 .0262917
871.964 .0262807
872.636 .0262700
873.308 .0262597
873.979 .0262498
874.651 .0262403
875.321 .0262311
875.992 .0262222
876.662 .0262136
877.331 .0262053
878.001 .0261973
878.670 .0261896
879.338 .0261822
880.007 .0261752
880.675 .0261687
881.342 .0261626
882.009 .0261572
882.676 .0261524
883.343 .0261484
884.009 .0261450
884.675 .0261425
885.340 .0261406
886.005 .0261396
886.670 .0261392
887.334 .0261397
887.998 .0261409
888.662 .0261429
889.325 .0261457
889.988 .0261493
890.650 .0261537
891.312 .0261589
891.974 .0261647
892.636 .0261711
893.297 .0261779
893.957 .0261851
894.618 .0261924
895.278 .0261998
895.937 .0262071
896.596 .0262143
897.255 .0262212
897.914 .0262278
898.572 .0262339
899.230 .0262395
899.887 .0262445
900.544 .0262488
901.201 .0262522
901.857 .0262533
902.513 .0262544
903.168 .0262546
903.823 .0262540
904.478 .0262524
905.132 .0262500
905.786 .0262468
906.440 .0262427
907.093 .0262377
907.746 .0262319
908.399 .0262254
909.051 .0262183
909.703 .0262107
910.354 .0262062
911.005 .0261982
911.656 .0261901
912.306 .0261818
912.956 .0261735
913.605 .0261652
914.254 .0261568
914.903 .0261485
915.551 .0261403
916.199 .0261320
916.847 .0261239
917.494 .0261158
918.141 .0261079
918.788 .0261002
919.434 .0260926
920.079 .0260853
920.725 .0260780
921.370 .0260707
922.014 .0260634
922.658 .0260559
923.302 .0260483
923.946 .0260404
924.589 .0260323
925.231 .0260240
925.873 .0260155
926.515 .0260068
927.157 .0259980
927.798 .0259890
928.439 .0259798
929.079 .0259704
929.719 .0259608
930.359 .0259509
930.998 .0259409
931.637 .0259307
932.275 .0259204
932.913 .0259101
933.551 .0258999
934.188 .0258898
934.825 .0258799
935.462 .0258701
936.098 .0258605
936.733 .0258511
937.369 .0258418
938.004 .0258327
938.638 .0258238
939.273 .0258153
939.907 .0258072
940.540 .0257995
941.173 .0257923
941.806 .0257856
942.438 .0257792
943.070 .0257731
943.702 .0257671
944.333 .0257613
944.964 .0257555
945.594 .0257498
946.224 .0257441
946.854 .0257384
947.483 .0257328
948.112 .0257272
948.741 .0257215
949.369 .0257157
949.996 .0257096
950.624 .0257031
951.251 .0256962
951.878 .0256889
952.504 .0256811
953.130 .0256730
953.755 .0256644
954.380 .0256556
955.005 .0256464
955.629 .0256369
956.253 .0256270
956.877 .0256167
957.500 .0256058
958.123 .0255945
958.746 .0255828
959.368 .0255708
959.990 .0255584
960.611 .0255459
961.232 .0255333
961.853 .0255205
962.473 .0255077
963.093 .0254947
963.712 .0254816
964.331 .0254684
964.950 .0254550
965.569 .0254416
966.187 .0254280
966.804 .0254145
967.422 .0254008
968.039 .0253871
968.655 .0253732
969.272 .0253591
969.887 .0253448
970.503 .0253302
971.118 .0253154
971.733 .0253002
972.347 .0252848
972.961 .0252691
973.575 .0252530
974.188 .0252364
974.801 .0252194
975.414 .0252019
976.026 .0251838
976.638 .0251652
977.250 .0251460
977.861 .0251263
978.472 .0251062
979.083 .0250857
979.693 .0250648
980.303 .0250436
980.912 .0250101
981.521 .0249883
982.130 .0249664
982.738 .0249443
983.346 .0249223
983.954 .0249003
984.562 .0248786
985.169 .0248572
985.775 .0248362
986.382 .0248157
986.988 .0247958
987.594 .0247763
988.199 .0247575
988.804 .0247392
989.409 .0247328
990.013 .0247155
990.617 .0246988
991.221 .0246829
991.824 .0246676
992.427 .0246530
993.030 .0246391
993.632 .0246259
994.234 .0246132
994.836 .0246010
995.438 .0245892
996.039 .0245776
996.640 .0245665
997.240 .0245556
997.840 .0245451
998.440 .0245349
999.040 .0245250
999.639 .0245154
1000.238 .0245061
1000.836 .0244969
1001.435 .0244878
1002.033 .0244786
1002.630 .0244695
1003.228 .0244602
1003.825 .0244509
1004.422 .0244415
1005.018 .0244320
1005.614 .0244226
1006.210 .0244131
1006.806 .0244037
1007.401 .0243942
1007.996 .0243847
1008.591 .0243753
1009.186 .0243658
1009.780 .0243564
1010.374 .0243471
1010.967 .0243380
1011.561 .0243292
1012.154 .0243207
1012.746 .0243127
1013.339 .0243052
1013.931 .0242983
1014.523 .0242920
1015.115 .0242862
1015.706 .0242809
1016.298 .0242762
1016.888 .0242721
1017.479 .0242684
1018.069 .0242653
1018.660 .0242627
1019.250 .0242607
1019.839 .0242594
1020.429 .0242587
1021.018 .0242586
1021.607 .0242592
1022.195 .0242604
1022.784 .0242622
1023.372 .0242646
1023.960 .0242676
1024.547 .0242711
1025.135 .0242752
1025.722 .0242798
1026.309 .0242850
1026.896 .0242907
1027.483 .0242969
1028.069 .0243034
1028.655 .0243104
1029.241 .0243176
1029.827 .0243250
1030.412 .0243326
1030.997 .0243401
1031.582 .0243477
1032.167 .0243552
1032.752 .0243626
1033.336 .0243698
1033.921 .0243769
1034.505 .0243839
1035.089 .0243907
1035.672 .0243975
1036.256 .0244042
1036.839 .0244107
1037.422 .0244170
1038.005 .0244232
1038.588 .0244292
1039.171 .0244350
1039.753 .0244406
1040.335 .0244460
1040.918 .0244513
1041.500 .0244565
1042.081 .0244615
1042.663 .0244665
1043.244 .0244715
1043.826 .0244764
1044.407 .0244813
1044.988 .0244863
1045.569 .0244913
1046.150 .0244964
1046.730 .0245016
1047.311 .0245069
1047.891 .0245124
1048.471 .0245179
1049.052 .0245236
1049.632 .0245295
1050.211 .0245354
1050.791 .0245416
1051.371 .0245478
1051.950 .0245541
1052.530 .0245603
1053.109 .0245666
1053.688 .0245727
1054.268 .0245787
1054.847 .0245844
1055.426 .0245901
1056.005 .0245958
1056.583 .0246014
1057.162 .0246073
1057.741 .0246134
1058.319 .0246199
1058.898 .0246267
1059.476 .0246339
1060.055 .0246414
1060.633 .0246491
1061.211 .0246571
1061.790 .0246654
1062.368 .0246738
1062.946 .0246825
1063.524 .0246915
1064.102 .0247009
1064.680 .0247106
1065.258 .0247206
1065.836 .0247308
1066.414 .0247411
1066.992 .0247515
1067.570 .0247620
1068.148 .0247725
1068.726 .0247831
1069.304 .0247939
1069.882 .0248048
1070.460 .0248160
1071.038 .0248274
1071.616 .0248392
1072.194 .0248511
1072.772 .0248632
1073.350 .0248753
1073.928 .0248873
1074.506 .0248991
1075.084 .0249108
1075.662 .0249225
1076.240 .0249341
1076.819 .0249458
1077.397 .0249577
1077.976 .0249698
1078.554 .0249821
1079.133 .0249945
1079.711 .0250069
1080.290 .0250193
1080.869 .0250317
1081.448 .0250439
1082.027 .0250560
1082.606 .0250683
1083.185 .0250806
1083.764 .0250932
1084.343 .0251061
1084.923 .0251194
1085.502 .0251331
1086.082 .0251474
1086.662 .0251620
1087.242 .0251770
1087.822 .0251923
1088.402 .0252077
1088.983 .0252234
1089.563 .0252393
1090.144 .0252555
1090.725 .0252720
1091.306 .0252891
1091.887 .0253068
1092.469 .0253249
1093.050 .0253437
1093.632 .0253630
1094.214 .0253827
1094.796 .0254027
1095.379 .0254229
1095.961 .0254433
1096.544 .0254640
1097.127 .0254850
1097.710 .0255064
1098.294 .0255286
1098.877 .0255517
1099.461 .0255760
1100.046 .0256015
1100.630 .0256284
1101.215 .0256568
1101.800 .0256866
1102.385 .0257178
1102.970 .0257504
1103.556 .0257845
1104.142 .0258201
1104.728 .0258571
1105.315 .0258959
1105.902 .0259363
1106.489 .0259784
1107.077 .0260222
1107.664 .0260677
1108.253 .0261146
1108.841 .0261627
1109.430 .0262117
1110.019 .0262615
1110.609 .0263117
1111.198 .0263624
1111.789 .0264134
1112.379 .0264650
1112.970 .0265173
1113.561 .0265704
1114.153 .0266246
1114.745 .0266799
1115.338 .0267361
1115.931 .0267933
1116.524 .0268512
1117.117 .0269097
1117.712 .0269684
1118.306 .0270272
1118.901 .0270860
1119.496 .0271448
1120.092 .0272036
1120.689 .0272624
1121.285 .0273213
1121.882 .0273805
1122.480 .0274398
1123.078 .0274991
1123.677 .0275586
1124.276 .0276181
1124.875 .0276775
1125.476 .0277368
1126.076 .0277960
1126.677 .0278550
1127.279 .0279141
1127.881 .0279734
1128.484 .0280331
1129.087 .0280628
1129.691 .0281239
1130.295 .0281857
1130.900 .0282485
1131.505 .0283123
1132.111 .0283771
1132.718 .0284433
1133.325 .0285113
1133.933 .0285821
1134.541 .0286528
1135.150 .0287209
1135.760 .0287976
1136.370 .0288883
1136.981 .0288931
1137.592 .0289528
1138.204 .0290194
1138.817 .0290936
1139.431 .0291788
1140.045 .0292693
1140.660 .0293686
1141.275 .0294887
1141.891 .0296334
1142.508 .0296931
1143.126 .0296858
1143.744 .0299894
1144.363 .0304376
1144.983 .0309048
