Measurement Sequence started on: 15-12-46-377
Integration time: 28
Scans to Average: 2 
>>>>>Begin Spectral Data<<<<<
432.689 .0000100
433.621 .0000100
434.552 .0000100
435.482 .0000100
436.410 .0000100
437.337 .0000100
438.262 .0271425
439.187 .0573296
440.110 .0948730
441.031 .1371439
441.952 .1091623
442.871 .1139025
443.789 .1183025
444.705 .1224335
445.621 .1263466
446.535 .1300811
447.447 .1322374
448.359 .1326784
449.269 .1310360
450.178 .1270749
451.086 .1208756
451.993 .1129124
452.898 .1039669
453.803 .0949229
454.706 .0865306
455.608 .0792544
456.508 .0732481
457.408 .0692074
458.306 .0661166
459.204 .0636179
460.100 .0615286
460.995 .0597462
461.888 .0582016
462.781 .0568457
463.673 .0556413
464.563 .0545622
465.452 .0535866
466.340 .0526977
467.228 .0518838
468.114 .0511356
468.999 .0504458
469.882 .0498086
470.765 .0492199
471.647 .0486756
472.528 .0481735
473.407 .0477109
474.286 .0472848
475.163 .0468938
476.040 .0465356
476.915 .0462083
477.790 .0459103
478.663 .0456402
479.535 .0453965
480.407 .0451780
481.277 .0449833
482.147 .0448106
483.015 .0446590
483.883 .0445276
484.749 .0444158
485.615 .0443233
486.479 .0442500
487.343 .0441958
488.206 .0441610
489.067 .0441450
489.928 .0441473
490.788 .0441680
491.647 .0442067
492.505 .0442637
493.362 .0443393
494.218 .0444347
495.073 .0445514
495.928 .0448086
496.781 .0449877
497.634 .0451933
498.486 .0454269
499.337 .0456891
500.187 .0459812
501.036 .0463036
501.884 .0466578
502.731 .0470464
503.578 .0474723
504.424 .0477690
505.268 .0482640
506.113 .0488075
506.956 .0494041
507.798 .0500582
508.640 .0507760
509.480 .0515652
510.320 .0524352
511.160 .0533970
511.998 .0544634
512.836 .0556498
513.672 .0569720
514.508 .0584471
515.344 .0600941
516.178 .0619319
517.012 .0639793
517.845 .0662530
518.677 .0687712
519.508 .0715498
520.339 .0745995
521.169 .0779258
521.998 .0815110
522.826 .0853277
523.654 .0893276
524.481 .0934490
525.307 .0976174
526.133 .1017504
526.958 .1057578
527.782 .1095520
528.605 .1130525
529.428 .1161893
530.250 .1189018
531.072 .1211510
531.892 .1229051
532.712 .1241454
533.532 .1248601
534.350 .1250483
535.168 .1247147
535.986 .1238682
536.802 .1225145
537.618 .1206618
538.434 .1183202
539.249 .1155213
540.063 .1123042
540.876 .1087261
541.689 .1048565
542.501 .1007766
543.313 .0965717
544.124 .0923319
544.934 .0881423
545.744 .0840776
546.553 .0801992
547.361 .0765563
548.169 .0731741
548.976 .0700696
549.783 .0672441
550.589 .0646917
551.395 .0623946
552.200 .0603311
553.004 .0584743
553.808 .0568007
554.611 .0552889
555.414 .0539195
556.216 .0526739
557.018 .0515361
557.819 .0504922
558.619 .0495292
559.419 .0486356
560.218 .0478022
561.017 .0470207
561.815 .0462839
562.613 .0455856
563.410 .0449204
564.207 .0442831
565.003 .0436699
565.799 .0430772
566.594 .0425021
567.388 .0419428
568.182 .0413982
568.976 .0408674
569.769 .0403500
570.562 .0398464
571.354 .0393568
572.145 .0388820
572.936 .0384229
573.727 .0379797
574.517 .0375527
575.307 .0371426
576.096 .0367492
576.885 .0363729
577.673 .0360140
578.461 .0356725
579.248 .0353480
580.035 .0350408
580.821 .0347507
581.607 .0344775
582.392 .0342209
583.177 .0339810
583.962 .0337572
584.746 .0335492
585.529 .0333565
586.313 .0331781
587.095 .0330136
587.878 .0328623
588.660 .0327233
589.441 .0325959
590.222 .0324793
591.003 .0323728
591.783 .0322756
592.563 .0321868
593.342 .0321056
594.121 .0320312
594.899 .0319629
595.678 .0319002
596.455 .0318425
597.233 .0317892
598.009 .0317400
598.786 .0316945
599.562 .0316521
600.338 .0316125
601.113 .0315752
601.888 .0315247
602.663 .0314915
603.437 .0314596
604.211 .0314289
604.984 .0313991
605.757 .0313700
606.530 .0313417
607.302 .0313140
608.074 .0312869
608.845 .0312602
609.616 .0312342
610.387 .0312219
611.158 .0311964
611.928 .0311715
612.697 .0311470
613.467 .0311228
614.236 .0310990
615.004 .0310753
615.773 .0310518
616.541 .0310286
617.308 .0310056
618.076 .0309830
618.843 .0309607
619.609 .0309388
620.375 .0309172
621.141 .0308958
621.907 .0308747
622.672 .0308536
623.437 .0308327
624.202 .0308119
624.966 .0307912
625.730 .0307708
626.493 .0307506
627.257 .0307306
628.020 .0307107
628.782 .0306909
629.545 .0306711
630.307 .0306512
631.068 .0306312
631.830 .0306111
632.591 .0305909
633.352 .0305707
634.112 .0305505
634.872 .0305303
635.632 .0305101
636.392 .0304897
637.151 .0304692
637.910 .0304486
638.668 .0304279
639.427 .0304070
640.185 .0303861
640.943 .0303653
641.700 .0303447
642.457 .0303242
643.214 .0303040
643.971 .0302842
644.727 .0302646
645.483 .0302454
646.239 .0302266
646.994 .0302081
647.750 .0301901
648.505 .0301724
649.259 .0301551
650.014 .0301382
650.768 .0301215
651.521 .0301049
652.275 .0300884
653.028 .0300719
653.781 .0300554
654.534 .0300389
655.286 .0300222
656.039 .0300055
656.791 .0299886
657.542 .0299715
658.294 .0299543
659.045 .0299369
659.796 .0299194
660.546 .0299018
661.297 .0298840
662.047 .0298662
662.796 .0298482
663.546 .0298300
664.295 .0298118
665.044 .0297934
665.793 .0297749
666.542 .0297565
667.290 .0297382
668.038 .0297201
668.786 .0297022
669.533 .0296847
670.281 .0296675
671.028 .0296505
671.774 .0296338
672.521 .0296172
673.267 .0296006
674.013 .0295842
674.759 .0295679
675.505 .0295516
676.250 .0295354
676.995 .0295192
677.740 .0295030
678.484 .0294868
679.229 .0294705
679.973 .0294541
680.717 .0294375
681.460 .0294209
682.204 .0294041
682.947 .0293871
683.690 .0293700
684.433 .0293528
685.175 .0293356
685.917 .0293183
686.659 .0293009
687.401 .0292836
688.142 .0292663
688.884 .0292491
689.625 .0292320
690.365 .0292152
691.106 .0291986
691.846 .0291822
692.586 .0291663
693.326 .0291507
694.066 .0291354
694.805 .0291206
695.545 .0291062
696.284 .0290921
697.022 .0290784
697.761 .0290649
698.499 .0290518
699.237 .0290389
699.975 .0290263
700.713 .0290139
701.450 .0290016
702.187 .0289895
702.924 .0289774
703.661 .0289652
704.397 .0289529
705.133 .0289404
705.869 .0289276
706.605 .0289145
707.341 .0289010
708.076 .0288872
708.811 .0288729
709.546 .0288581
710.281 .0288428
711.015 .0288270
711.749 .0288107
712.483 .0287938
713.217 .0287765
713.950 .0287587
714.684 .0287404
715.417 .0287218
716.150 .0287028
716.882 .0286834
717.615 .0286636
718.347 .0286434
719.079 .0286230
719.811 .0286024
720.542 .0285816
721.273 .0285608
722.005 .0285400
722.735 .0285193
723.466 .0284988
724.196 .0284784
724.927 .0284582
725.656 .0284381
726.386 .0284180
727.116 .0283980
727.845 .0283780
728.574 .0283580
729.303 .0283380
730.031 .0283182
730.760 .0282984
731.488 .0282788
732.216 .0282593
732.944 .0282399
733.671 .0282206
734.398 .0282012
735.125 .0281819
735.852 .0281625
736.579 .0281432
737.305 .0281238
738.031 .0281046
738.757 .0280855
739.483 .0280667
740.208 .0280481
740.933 .0280299
741.658 .0280119
742.383 .0279944
743.108 .0279774
743.832 .0279608
744.556 .0279448
745.280 .0279293
746.004 .0279144
746.727 .0279001
747.450 .0278864
748.173 .0278733
748.896 .0278607
749.618 .0278487
750.340 .0278372
751.062 .0278263
751.784 .0278160
752.506 .0278063
753.227 .0277972
753.948 .0277885
754.669 .0277803
755.389 .0277723
756.110 .0277645
756.830 .0277569
757.550 .0277494
758.269 .0277420
758.989 .0277347
759.708 .0277274
760.427 .0277203
761.146 .0277132
761.864 .0277062
762.582 .0276992
763.300 .0276922
764.018 .0276850
764.736 .0276778
765.453 .0276705
766.170 .0276632
766.887 .0276559
767.603 .0276487
768.320 .0276414
769.036 .0276342
769.751 .0276270
770.467 .0276198
771.182 .0276124
771.897 .0276050
772.612 .0275975
773.327 .0275899
774.041 .0275822
774.755 .0275745
775.469 .0275667
776.183 .0275587
776.896 .0275506
777.609 .0275424
778.322 .0275339
779.035 .0275252
779.747 .0275164
780.459 .0275074
781.171 .0274982
781.882 .0274888
782.594 .0274794
783.305 .0274699
784.016 .0274602
784.726 .0274504
785.436 .0274404
786.147 .0274251
786.856 .0274147
787.566 .0274040
788.275 .0273932
788.984 .0273820
789.693 .0273706
790.401 .0273589
791.110 .0273468
791.818 .0273342
792.525 .0273212
793.233 .0273077
793.940 .0272937
794.647 .0272852
795.353 .0272704
796.060 .0272553
796.766 .0272398
797.472 .0272240
798.177 .0272080
798.883 .0271916
799.588 .0271750
800.292 .0271581
800.997 .0271408
801.701 .0271232
802.405 .0271053
803.109 .0270870
803.812 .0270685
804.515 .0270497
805.218 .0270306
805.921 .0270113
806.623 .0269916
807.325 .0269717
808.027 .0269515
808.728 .0269311
809.429 .0269104
810.130 .0268896
810.831 .0268685
811.531 .0268472
812.231 .0268258
812.931 .0268042
813.630 .0267825
814.330 .0267607
815.029 .0267389
815.727 .0267171
816.426 .0266954
817.124 .0266738
817.821 .0266523
818.519 .0266309
819.216 .0266098
819.913 .0265889
820.609 .0265682
821.306 .0265479
822.002 .0265280
822.697 .0265086
823.393 .0264896
824.088 .0264711
824.783 .0264530
825.477 .0264354
826.171 .0264182
826.865 .0264015
827.559 .0263851
828.252 .0263692
828.945 .0263537
829.638 .0263387
830.330 .0263242
831.023 .0263099
831.714 .0262960
832.406 .0262823
833.097 .0262687
833.788 .0262551
834.479 .0262417
835.169 .0262284
835.859 .0262153
836.548 .0262026
837.238 .0261903
837.927 .0261785
838.615 .0261670
839.304 .0261560
839.992 .0261453
840.680 .0261351
841.367 .0261252
842.054 .0261159
842.741 .0261072
843.428 .0260993
844.114 .0260922
844.800 .0260859
845.485 .0260805
846.170 .0260759
846.855 .0260720
847.540 .0260687
848.224 .0260659
848.908 .0260636
849.592 .0260617
850.275 .0260602
850.958 .0260592
851.641 .0260585
852.323 .0260581
853.005 .0260580
853.687 .0260580
854.368 .0260581
855.049 .0260582
855.730 .0260583
856.410 .0260583
857.090 .0260584
857.769 .0260586
858.449 .0260589
859.128 .0260594
859.806 .0260600
860.485 .0260608
861.163 .0260616
861.840 .0260626
862.518 .0260637
863.195 .0260648
863.871 .0260659
864.548 .0260671
865.224 .0260684
865.899 .0260697
866.574 .0260710
867.249 .0260723
867.924 .0260734
868.598 .0260745
869.272 .0260753
869.946 .0260760
870.619 .0260765
871.292 .0260766
871.964 .0260765
872.636 .0260761
873.308 .0260754
873.979 .0260742
874.651 .0260727
875.321 .0260708
875.992 .0260685
876.662 .0260657
877.331 .0260625
878.001 .0260588
878.670 .0260547
879.338 .0260500
880.007 .0260448
880.675 .0260391
881.342 .0260329
882.009 .0260263
882.676 .0260193
883.343 .0260120
884.009 .0260045
884.675 .0259968
885.340 .0259889
886.005 .0259807
886.670 .0259724
887.334 .0259637
887.998 .0259548
888.662 .0259456
889.325 .0259360
889.988 .0259261
890.650 .0259159
891.312 .0259053
891.974 .0258942
892.636 .0258827
893.297 .0258706
893.957 .0258579
894.618 .0258446
895.278 .0258307
895.937 .0258164
896.596 .0258015
897.255 .0257861
897.914 .0257703
898.572 .0257540
899.230 .0257372
899.887 .0257197
900.544 .0257017
901.201 .0256829
901.857 .0256524
902.513 .0256323
903.168 .0256117
903.823 .0255906
904.478 .0255691
905.132 .0255471
905.786 .0255246
906.440 .0255015
907.093 .0254778
907.746 .0254536
908.399 .0254288
909.051 .0254037
909.703 .0253781
910.354 .0253643
911.005 .0253386
911.656 .0253127
912.306 .0252868
912.956 .0252608
913.605 .0252347
914.254 .0252086
914.903 .0251824
915.551 .0251564
916.199 .0251304
916.847 .0251045
917.494 .0250788
918.141 .0250532
918.788 .0250277
919.434 .0250023
920.079 .0249769
920.725 .0249514
921.370 .0249260
922.014 .0249004
922.658 .0248749
923.302 .0248494
923.946 .0248239
924.589 .0247985
925.231 .0247733
925.873 .0247481
926.515 .0247230
927.157 .0246981
927.798 .0246732
928.439 .0246485
929.079 .0246239
929.719 .0245995
930.359 .0245753
930.998 .0245513
931.637 .0245274
932.275 .0245038
932.913 .0244804
933.551 .0244571
934.188 .0244341
934.825 .0244113
935.462 .0243888
936.098 .0243665
936.733 .0243446
937.369 .0243230
938.004 .0243016
938.638 .0242806
939.273 .0242599
939.907 .0242397
940.540 .0242199
941.173 .0242007
941.806 .0241820
942.438 .0241641
943.070 .0241469
943.702 .0241304
944.333 .0241147
944.964 .0240997
945.594 .0240854
946.224 .0240716
946.854 .0240585
947.483 .0240460
948.112 .0240340
948.741 .0240226
949.369 .0240119
949.996 .0240018
950.624 .0239924
951.251 .0239836
951.878 .0239754
952.504 .0239678
953.130 .0239609
953.755 .0239546
954.380 .0239489
955.005 .0239440
955.629 .0239399
956.253 .0239364
956.877 .0239338
957.500 .0239318
958.123 .0239305
958.746 .0239298
959.368 .0239298
959.990 .0239303
960.611 .0239313
961.232 .0239327
961.853 .0239347
962.473 .0239372
963.093 .0239403
963.712 .0239438
964.331 .0239478
964.950 .0239523
965.569 .0239573
966.187 .0239626
966.804 .0239683
967.422 .0239743
968.039 .0239806
968.655 .0239872
969.272 .0239939
969.887 .0240010
970.503 .0240082
971.118 .0240157
971.733 .0240234
972.347 .0240312
972.961 .0240391
973.575 .0240470
974.188 .0240551
974.801 .0240632
975.414 .0240713
976.026 .0240794
976.638 .0240876
977.250 .0240958
977.861 .0241041
978.472 .0241123
979.083 .0241206
979.693 .0241288
980.303 .0241369
980.912 .0241488
981.521 .0241569
982.130 .0241648
982.738 .0241728
983.346 .0241807
983.954 .0241887
984.562 .0241968
985.169 .0242049
985.775 .0242132
986.382 .0242216
986.988 .0242300
987.594 .0242386
988.199 .0242472
988.804 .0242560
989.409 .0242609
990.013 .0242699
990.617 .0242790
991.221 .0242882
991.824 .0242974
992.427 .0243067
993.030 .0243160
993.632 .0243252
994.234 .0243342
994.836 .0243430
995.438 .0243516
996.039 .0243598
996.640 .0243678
997.240 .0243755
997.840 .0243829
998.440 .0243901
999.040 .0243970
999.639 .0244036
1000.238 .0244100
1000.836 .0244160
1001.435 .0244216
1002.033 .0244270
1002.630 .0244320
1003.228 .0244367
1003.825 .0244411
1004.422 .0244450
1005.018 .0244485
1005.614 .0244515
1006.210 .0244539
1006.806 .0244557
1007.401 .0244568
1007.996 .0244572
1008.591 .0244569
1009.186 .0244562
1009.780 .0244550
1010.374 .0244534
1010.967 .0244516
1011.561 .0244495
1012.154 .0244472
1012.746 .0244446
1013.339 .0244417
1013.931 .0244385
1014.523 .0244350
1015.115 .0244312
1015.706 .0244272
1016.298 .0244231
1016.888 .0244189
1017.479 .0244146
1018.069 .0244103
1018.660 .0244059
1019.250 .0244014
1019.839 .0243966
1020.429 .0243917
1021.018 .0243864
1021.607 .0243810
1022.195 .0243755
1022.784 .0243699
1023.372 .0243644
1023.960 .0243590
1024.547 .0243538
1025.135 .0243488
1025.722 .0243440
1026.309 .0243392
1026.896 .0243344
1027.483 .0243295
1028.069 .0243244
1028.655 .0243193
1029.241 .0243139
1029.827 .0243084
1030.412 .0243028
1030.997 .0242970
1031.582 .0242911
1032.167 .0242849
1032.752 .0242783
1033.336 .0242714
1033.921 .0242640
1034.505 .0242563
1035.089 .0242482
1035.672 .0242398
1036.256 .0242313
1036.839 .0242225
1037.422 .0242137
1038.005 .0242047
1038.588 .0241955
1039.171 .0241860
1039.753 .0241763
1040.335 .0241661
1040.918 .0241555
1041.500 .0241444
1042.081 .0241329
1042.663 .0241208
1043.244 .0241082
1043.826 .0240951
1044.407 .0240814
1044.988 .0240672
1045.569 .0240526
1046.150 .0240377
1046.730 .0240224
1047.311 .0240069
1047.891 .0239913
1048.471 .0239757
1049.052 .0239602
1049.632 .0239449
1050.211 .0239298
1050.791 .0239149
1051.371 .0239003
1051.950 .0238860
1052.530 .0238721
1053.109 .0238585
1053.688 .0238454
1054.268 .0238327
1054.847 .0238205
1055.426 .0238088
1056.005 .0237976
1056.583 .0237869
1057.162 .0237768
1057.741 .0237671
1058.319 .0237578
1058.898 .0237490
1059.476 .0237406
1060.055 .0237327
1060.633 .0237252
1061.211 .0237183
1061.790 .0237119
1062.368 .0237060
1062.946 .0237004
1063.524 .0236952
1064.102 .0236901
1064.680 .0236850
1065.258 .0236797
1065.836 .0236740
1066.414 .0236678
1066.992 .0236611
1067.570 .0236539
1068.148 .0236461
1068.726 .0236378
1069.304 .0236290
1069.882 .0236197
1070.460 .0236098
1071.038 .0235996
1071.616 .0235890
1072.194 .0235782
1072.772 .0235672
1073.350 .0235561
1073.928 .0235451
1074.506 .0235342
1075.084 .0235236
1075.662 .0235134
1076.240 .0235037
1076.819 .0234944
1077.397 .0234857
1077.976 .0234776
1078.554 .0234700
1079.133 .0234630
1079.711 .0234567
1080.290 .0234512
1080.869 .0234466
1081.448 .0234429
1082.027 .0234401
1082.606 .0234385
1083.185 .0234378
1083.764 .0234380
1084.343 .0234391
1084.923 .0234410
1085.502 .0234438
1086.082 .0234475
1086.662 .0234522
1087.242 .0234578
1087.822 .0234644
1088.402 .0234720
1088.983 .0234803
1089.563 .0234893
1090.144 .0234988
1090.725 .0235087
1091.306 .0235188
1091.887 .0235291
1092.469 .0235396
1093.050 .0235503
1093.632 .0235614
1094.214 .0235728
1094.796 .0235846
1095.379 .0235969
1095.961 .0236096
1096.544 .0236227
1097.127 .0236362
1097.710 .0236502
1098.294 .0236646
1098.877 .0236795
1099.461 .0236951
1100.046 .0237113
1100.630 .0237283
1101.215 .0237459
1101.800 .0237642
1102.385 .0237830
1102.970 .0238022
1103.556 .0238218
1104.142 .0238417
1104.728 .0238618
1105.315 .0238822
1105.902 .0239030
1106.489 .0239245
1107.077 .0239467
1107.664 .0239697
1108.253 .0239937
1108.841 .0240188
1109.430 .0240450
1110.019 .0240722
1110.609 .0241006
1111.198 .0241303
1111.789 .0241614
1112.379 .0241941
1112.970 .0242284
1113.561 .0242645
1114.153 .0243024
1114.745 .0243419
1115.338 .0243828
1115.931 .0244247
1116.524 .0244676
1117.117 .0245112
1117.712 .0245553
1118.306 .0245997
1118.901 .0246446
1119.496 .0246901
1120.092 .0247361
1120.689 .0247827
1121.285 .0248298
1121.882 .0248773
1122.480 .0249254
1123.078 .0249737
1123.677 .0250225
1124.276 .0250719
1124.875 .0251222
1125.476 .0251736
1126.076 .0252265
1126.677 .0252813
1127.279 .0253384
1127.881 .0253983
1128.484 .0254612
1129.087 .0254895
1129.691 .0255557
1130.295 .0256255
1130.900 .0256993
1131.505 .0257776
1132.111 .0258610
1132.718 .0259500
1133.325 .0260461
1133.933 .0261499
1134.541 .0262617
1135.150 .0263793
1135.760 .0265020
1136.370 .0266556
1136.981 .0264307
1137.592 .0265882
1138.204 .0267620
1138.817 .0269467
1139.431 .0271501
1140.045 .0273640
1140.660 .0275872
1141.275 .0278415
1141.891 .0281083
1142.508 .0283766
1143.126 .0285820
1143.744 .0287601
1144.363 .0296611
1144.983 .0296690
