Measurement Sequence started on: 15-12-46-377
Integration time: 28
Scans to Average: 2 
>>>>>Begin Spectral Data<<<<<
432.689 .0000100
433.621 .0000100
434.552 .0000100
435.482 .0000100
436.410 .0000100
437.337 .0000100
438.262 .0263816
439.187 .0559586
440.110 .0927892
441.031 .1343581
441.952 .1081809
442.871 .1130249
443.789 .1175407
444.705 .1217979
445.621 .1258465
446.535 .1297236
447.447 .1320667
448.359 .1327261
449.269 .1313357
450.178 .1276582
451.086 .1217627
451.993 .1141050
452.898 .1054445
453.803 .0966466
454.706 .0884497
455.608 .0813141
456.508 .0753980
457.408 .0713836
458.306 .0682932
459.204 .0657745
460.100 .0636471
460.995 .0618103
461.888 .0601969
462.781 .0587598
463.673 .0574652
464.563 .0562909
465.452 .0552204
466.340 .0542413
467.228 .0533445
468.114 .0525243
468.999 .0517748
469.882 .0510910
470.765 .0504680
471.647 .0499013
472.528 .0493871
473.407 .0489214
474.286 .0485010
475.163 .0481236
476.040 .0477869
476.915 .0474889
477.790 .0472272
478.663 .0469999
479.535 .0468050
480.407 .0466399
481.277 .0465020
482.147 .0463886
483.015 .0462967
483.883 .0462238
484.749 .0461679
485.615 .0461273
486.479 .0461010
487.343 .0460886
488.206 .0460899
489.067 .0461049
489.928 .0461344
490.788 .0461795
491.647 .0462411
492.505 .0463204
493.362 .0464187
494.218 .0465368
495.073 .0466755
495.928 .0469638
496.781 .0471594
497.634 .0473779
498.486 .0476197
499.337 .0478860
500.187 .0481783
501.036 .0484977
501.884 .0488470
502.731 .0492298
503.578 .0496490
504.424 .0499330
505.268 .0504166
506.113 .0509450
506.956 .0515203
507.798 .0521458
508.640 .0528264
509.480 .0535679
510.320 .0543777
511.160 .0552649
511.998 .0562419
512.836 .0573243
513.672 .0585277
514.508 .0598700
515.344 .0613706
516.178 .0630472
517.012 .0649160
517.845 .0669932
518.677 .0692953
519.508 .0718327
520.339 .0746113
521.169 .0776327
521.998 .0808808
522.826 .0843301
523.654 .0879411
524.481 .0916643
525.307 .0954418
526.133 .0992042
526.958 .1028749
527.782 .1063791
528.605 .1096482
529.428 .1126153
530.250 .1152209
531.072 .1174222
531.892 .1191833
532.712 .1204775
533.532 .1212911
534.350 .1216210
535.168 .1214702
535.986 .1208439
536.802 .1197482
537.618 .1181902
538.434 .1161809
539.249 .1137474
540.063 .1109247
540.876 .1077611
541.689 .1043155
542.501 .1006526
543.313 .0968458
544.124 .0929751
544.934 .0891158
545.744 .0853328
546.553 .0816864
547.361 .0782240
548.169 .0749748
548.976 .0719600
549.783 .0691889
550.589 .0666603
551.395 .0643633
552.200 .0622806
553.004 .0603912
553.808 .0586773
554.611 .0571230
555.414 .0557118
556.216 .0544287
557.018 .0532592
557.819 .0521889
558.619 .0512038
559.419 .0502923
560.218 .0494442
561.017 .0486498
561.815 .0479010
562.613 .0471918
563.410 .0465165
564.207 .0458712
565.003 .0452525
565.799 .0446563
566.594 .0440795
567.388 .0435187
568.182 .0429704
568.976 .0424320
569.769 .0419020
570.562 .0413803
571.354 .0408672
572.145 .0403646
572.936 .0398741
573.727 .0393972
574.517 .0389361
575.307 .0384924
576.096 .0380662
576.885 .0376582
577.673 .0372679
578.461 .0368948
579.248 .0365389
580.035 .0361997
580.821 .0358776
581.607 .0355730
582.392 .0352869
583.177 .0350195
583.962 .0347712
584.746 .0345423
585.529 .0343324
586.313 .0341405
587.095 .0339656
587.878 .0338060
588.660 .0336603
589.441 .0335273
590.222 .0334060
591.003 .0332955
591.783 .0331952
592.563 .0331045
593.342 .0330226
594.121 .0329487
594.899 .0328819
595.678 .0328210
596.455 .0327651
597.233 .0327130
598.009 .0326639
598.786 .0326170
599.562 .0325717
600.338 .0325275
601.113 .0324843
601.888 .0324201
602.663 .0323779
603.437 .0323359
604.211 .0322941
604.984 .0322522
605.757 .0322103
606.530 .0321682
607.302 .0321261
608.074 .0320838
608.845 .0320416
609.616 .0319995
610.387 .0319791
611.158 .0319377
611.928 .0318968
612.697 .0318564
613.467 .0318166
614.236 .0317775
615.004 .0317392
615.773 .0317019
616.541 .0316654
617.308 .0316298
618.076 .0315951
618.843 .0315614
619.609 .0315285
620.375 .0314964
621.141 .0314651
621.907 .0314346
622.672 .0314048
623.437 .0313758
624.202 .0313473
624.966 .0313195
625.730 .0312922
626.493 .0312652
627.257 .0312386
628.020 .0312122
628.782 .0311860
629.545 .0311600
630.307 .0311341
631.068 .0311084
631.830 .0310830
632.591 .0310580
633.352 .0310335
634.112 .0310095
634.872 .0309862
635.632 .0309636
636.392 .0309417
637.151 .0309207
637.910 .0309004
638.668 .0308809
639.427 .0308623
640.185 .0308445
640.943 .0308277
641.700 .0308119
642.457 .0307972
643.214 .0307835
643.971 .0307708
644.727 .0307591
645.483 .0307483
646.239 .0307381
646.994 .0307285
647.750 .0307192
648.505 .0307102
649.259 .0307013
650.014 .0306922
650.768 .0306828
651.521 .0306731
652.275 .0306628
653.028 .0306519
653.781 .0306402
654.534 .0306276
655.286 .0306141
656.039 .0305997
656.791 .0305842
657.542 .0305676
658.294 .0305499
659.045 .0305311
659.796 .0305112
660.546 .0304900
661.297 .0304678
662.047 .0304444
662.796 .0304201
663.546 .0303949
664.295 .0303689
665.044 .0303425
665.793 .0303155
666.542 .0302882
667.290 .0302607
668.038 .0302330
668.786 .0302052
669.533 .0301771
670.281 .0301489
671.028 .0301205
671.774 .0300919
672.521 .0300632
673.267 .0300343
674.013 .0300054
674.759 .0299765
675.505 .0299477
676.250 .0299190
676.995 .0298906
677.740 .0298624
678.484 .0298345
679.229 .0298071
679.973 .0297801
680.717 .0297535
681.460 .0297274
682.204 .0297017
682.947 .0296763
683.690 .0296513
684.433 .0296268
685.175 .0296026
685.917 .0295791
686.659 .0295561
687.401 .0295338
688.142 .0295123
688.884 .0294915
689.625 .0294714
690.365 .0294519
691.106 .0294328
691.846 .0294142
692.586 .0293958
693.326 .0293777
694.066 .0293599
694.805 .0293424
695.545 .0293253
696.284 .0293085
697.022 .0292923
697.761 .0292765
698.499 .0292613
699.237 .0292466
699.975 .0292324
700.713 .0292188
701.450 .0292057
702.187 .0291932
702.924 .0291812
703.661 .0291697
704.397 .0291587
705.133 .0291481
705.869 .0291381
706.605 .0291285
707.341 .0291193
708.076 .0291107
708.811 .0291026
709.546 .0290949
710.281 .0290876
711.015 .0290807
711.749 .0290741
712.483 .0290676
713.217 .0290611
713.950 .0290546
714.684 .0290478
715.417 .0290407
716.150 .0290333
716.882 .0290255
717.615 .0290172
718.347 .0290085
719.079 .0289992
719.811 .0289894
720.542 .0289791
721.273 .0289682
722.005 .0289567
722.735 .0289448
723.466 .0289323
724.196 .0289194
724.927 .0289060
725.656 .0288924
726.386 .0288783
727.116 .0288640
727.845 .0288494
728.574 .0288345
729.303 .0288194
730.031 .0288040
730.760 .0287884
731.488 .0287728
732.216 .0287571
732.944 .0287414
733.671 .0287257
734.398 .0287101
735.125 .0286945
735.852 .0286788
736.579 .0286630
737.305 .0286469
738.031 .0286305
738.757 .0286138
739.483 .0285968
740.208 .0285793
740.933 .0285615
741.658 .0285432
742.383 .0285246
743.108 .0285055
743.832 .0284860
744.556 .0284659
745.280 .0284452
746.004 .0284238
746.727 .0284017
747.450 .0283788
748.173 .0283551
748.896 .0283306
749.618 .0283054
750.340 .0282796
751.062 .0282531
751.784 .0282262
752.506 .0281989
753.227 .0281713
753.948 .0281436
754.669 .0281159
755.389 .0280881
756.110 .0280605
756.830 .0280329
757.550 .0280056
758.269 .0279784
758.989 .0279516
759.708 .0279251
760.427 .0278990
761.146 .0278735
761.864 .0278486
762.582 .0278245
763.300 .0278012
764.018 .0277787
764.736 .0277572
765.453 .0277366
766.170 .0277168
766.887 .0276981
767.603 .0276802
768.320 .0276634
769.036 .0276475
769.751 .0276327
770.467 .0276189
771.182 .0276061
771.897 .0275943
772.612 .0275835
773.327 .0275737
774.041 .0275647
774.755 .0275566
775.469 .0275495
776.183 .0275432
776.896 .0275379
777.609 .0275336
778.322 .0275303
779.035 .0275280
779.747 .0275266
780.459 .0275260
781.171 .0275263
781.882 .0275274
782.594 .0275291
783.305 .0275315
784.016 .0275344
784.726 .0275378
785.436 .0275416
786.147 .0275491
786.856 .0275540
787.566 .0275591
788.275 .0275646
788.984 .0275701
789.693 .0275759
790.401 .0275816
791.110 .0275874
791.818 .0275932
792.525 .0275987
793.233 .0276041
793.940 .0276092
794.647 .0276107
795.353 .0276152
796.060 .0276193
796.766 .0276232
797.472 .0276266
798.177 .0276295
798.883 .0276320
799.588 .0276338
800.292 .0276351
800.997 .0276356
801.701 .0276354
802.405 .0276343
803.109 .0276324
803.812 .0276296
804.515 .0276258
805.218 .0276211
805.921 .0276156
806.623 .0276091
807.325 .0276019
808.027 .0275938
808.728 .0275850
809.429 .0275755
810.130 .0275653
810.831 .0275545
811.531 .0275430
812.231 .0275309
812.931 .0275181
813.630 .0275048
814.330 .0274910
815.029 .0274767
815.727 .0274620
816.426 .0274472
817.124 .0274321
817.821 .0274169
818.519 .0274016
819.216 .0273862
819.913 .0273707
820.609 .0273551
821.306 .0273394
822.002 .0273237
822.697 .0273078
823.393 .0272920
824.088 .0272760
824.783 .0272600
825.477 .0272438
826.171 .0272275
826.865 .0272108
827.559 .0271938
828.252 .0271765
828.945 .0271587
829.638 .0271405
830.330 .0271219
831.023 .0271029
831.714 .0270835
832.406 .0270635
833.097 .0270430
833.788 .0270219
834.479 .0270001
835.169 .0269778
835.859 .0269549
836.548 .0269315
837.238 .0269077
837.927 .0268835
838.615 .0268591
839.304 .0268344
839.992 .0268094
840.680 .0267842
841.367 .0267588
842.054 .0267331
842.741 .0267073
843.428 .0266814
844.114 .0266556
844.800 .0266297
845.485 .0266040
846.170 .0265782
846.855 .0265525
847.540 .0265267
848.224 .0265008
848.908 .0264749
849.592 .0264489
850.275 .0264230
850.958 .0263971
851.641 .0263713
852.323 .0263457
853.005 .0263204
853.687 .0262952
854.368 .0262703
855.049 .0262455
855.730 .0262210
856.410 .0261969
857.090 .0261731
857.769 .0261499
858.449 .0261273
859.128 .0261055
859.806 .0260846
860.485 .0260647
861.163 .0260457
861.840 .0260276
862.518 .0260106
863.195 .0259946
863.871 .0259796
864.548 .0259657
865.224 .0259529
865.899 .0259413
866.574 .0259309
867.249 .0259216
867.924 .0259135
868.598 .0259064
869.272 .0259005
869.946 .0258956
870.619 .0258918
871.292 .0258889
871.964 .0258870
872.636 .0258861
873.308 .0258860
873.979 .0258868
874.651 .0258883
875.321 .0258905
875.992 .0258934
876.662 .0258970
877.331 .0259012
878.001 .0259061
878.670 .0259117
879.338 .0259180
880.007 .0259250
880.675 .0259328
881.342 .0259412
882.009 .0259504
882.676 .0259602
883.343 .0259706
884.009 .0259818
884.675 .0259938
885.340 .0260065
886.005 .0260200
886.670 .0260343
887.334 .0260493
887.998 .0260651
888.662 .0260814
889.325 .0260984
889.988 .0261158
890.650 .0261336
891.312 .0261519
891.974 .0261704
892.636 .0261890
893.297 .0262077
893.957 .0262263
894.618 .0262446
895.278 .0262625
895.937 .0262798
896.596 .0262964
897.255 .0263122
897.914 .0263272
898.572 .0263413
899.230 .0263545
899.887 .0263665
900.544 .0263774
901.201 .0263870
901.857 .0263952
902.513 .0264011
903.168 .0264057
903.823 .0264087
904.478 .0264103
905.132 .0264104
905.786 .0264092
906.440 .0264066
907.093 .0264028
907.746 .0263978
908.399 .0263918
909.051 .0263847
909.703 .0263766
910.354 .0263708
911.005 .0263618
911.656 .0263521
912.306 .0263417
912.956 .0263306
913.605 .0263190
914.254 .0263069
914.903 .0262942
915.551 .0262811
916.199 .0262674
916.847 .0262532
917.494 .0262384
918.141 .0262230
918.788 .0262069
919.434 .0261901
920.079 .0261726
920.725 .0261544
921.370 .0261355
922.014 .0261157
922.658 .0260952
923.302 .0260739
923.946 .0260518
924.589 .0260289
925.231 .0260053
925.873 .0259809
926.515 .0259557
927.157 .0259299
927.798 .0259034
928.439 .0258763
929.079 .0258486
929.719 .0258204
930.359 .0257918
930.998 .0257627
931.637 .0257333
932.275 .0257036
932.913 .0256736
933.551 .0256436
934.188 .0256134
934.825 .0255833
935.462 .0255533
936.098 .0255235
936.733 .0254939
937.369 .0254645
938.004 .0254354
938.638 .0254067
939.273 .0253783
939.907 .0253502
940.540 .0253225
941.173 .0252953
941.806 .0252683
942.438 .0252417
943.070 .0252154
943.702 .0251892
944.333 .0251632
944.964 .0251374
945.594 .0251116
946.224 .0250858
946.854 .0250601
947.483 .0250345
948.112 .0250090
948.741 .0249836
949.369 .0249583
949.996 .0249331
950.624 .0249079
951.251 .0248827
951.878 .0248575
952.504 .0248321
953.130 .0248067
953.755 .0247812
954.380 .0247557
955.005 .0247302
955.629 .0247048
956.253 .0246795
956.877 .0246544
957.500 .0246294
958.123 .0246046
958.746 .0245801
959.368 .0245557
959.990 .0245317
960.611 .0245080
961.232 .0244847
961.853 .0244619
962.473 .0244396
963.093 .0244179
963.712 .0243969
964.331 .0243764
964.950 .0243565
965.569 .0243371
966.187 .0243183
966.804 .0242998
967.422 .0242818
968.039 .0242642
968.655 .0242470
969.272 .0242302
969.887 .0242139
970.503 .0241981
971.118 .0241828
971.733 .0241680
972.347 .0241536
972.961 .0241396
973.575 .0241258
974.188 .0241123
974.801 .0240989
975.414 .0240857
976.026 .0240726
976.638 .0240596
977.250 .0240468
977.861 .0240342
978.472 .0240217
979.083 .0240094
979.693 .0239971
980.303 .0239849
980.912 .0239672
981.521 .0239555
982.130 .0239439
982.738 .0239328
983.346 .0239220
983.954 .0239119
984.562 .0239026
985.169 .0238940
985.775 .0238864
986.382 .0238797
986.988 .0238740
987.594 .0238692
988.199 .0238654
988.804 .0238626
989.409 .0238646
990.013 .0238634
990.617 .0238631
991.221 .0238640
991.824 .0238659
992.427 .0238689
993.030 .0238730
993.632 .0238783
994.234 .0238845
994.836 .0238918
995.438 .0238999
996.039 .0239088
996.640 .0239184
997.240 .0239289
997.840 .0239402
998.440 .0239522
999.040 .0239652
999.639 .0239789
1000.238 .0239935
1000.836 .0240088
1001.435 .0240247
1002.033 .0240412
1002.630 .0240580
1003.228 .0240751
1003.825 .0240925
1004.422 .0241101
1005.018 .0241280
1005.614 .0241461
1006.210 .0241646
1006.806 .0241834
1007.401 .0242025
1007.996 .0242220
1008.591 .0242417
1009.186 .0242617
1009.780 .0242819
1010.374 .0243023
1010.967 .0243228
1011.561 .0243434
1012.154 .0243642
1012.746 .0243852
1013.339 .0244064
1013.931 .0244280
1014.523 .0244498
1015.115 .0244720
1015.706 .0244944
1016.298 .0245171
1016.888 .0245400
1017.479 .0245631
1018.069 .0245864
1018.660 .0246100
1019.250 .0246339
1019.839 .0246583
1020.429 .0246831
1021.018 .0247083
1021.607 .0247340
1022.195 .0247602
1022.784 .0247867
1023.372 .0248134
1023.960 .0248403
1024.547 .0248673
1025.135 .0248943
1025.722 .0249212
1026.309 .0249482
1026.896 .0249751
1027.483 .0250020
1028.069 .0250288
1028.655 .0250554
1029.241 .0250819
1029.827 .0251080
1030.412 .0251337
1030.997 .0251590
1031.582 .0251836
1032.167 .0252076
1032.752 .0252310
1033.336 .0252536
1033.921 .0252754
1034.505 .0252965
1035.089 .0253169
1035.672 .0253365
1036.256 .0253551
1036.839 .0253729
1037.422 .0253896
1038.005 .0254051
1038.588 .0254195
1039.171 .0254325
1039.753 .0254444
1040.335 .0254550
1040.918 .0254645
1041.500 .0254731
1042.081 .0254807
1042.663 .0254875
1043.244 .0254936
1043.826 .0254989
1044.407 .0255035
1044.988 .0255075
1045.569 .0255107
1046.150 .0255134
1046.730 .0255156
1047.311 .0255173
1047.891 .0255187
1048.471 .0255199
1049.052 .0255209
1049.632 .0255218
1050.211 .0255226
1050.791 .0255233
1051.371 .0255238
1051.950 .0255239
1052.530 .0255238
1053.109 .0255233
1053.688 .0255223
1054.268 .0255210
1054.847 .0255193
1055.426 .0255174
1056.005 .0255152
1056.583 .0255128
1057.162 .0255103
1057.741 .0255074
1058.319 .0255042
1058.898 .0255004
1059.476 .0254959
1060.055 .0254907
1060.633 .0254846
1061.211 .0254775
1061.790 .0254696
1062.368 .0254607
1062.946 .0254509
1063.524 .0254403
1064.102 .0254288
1064.680 .0254165
1065.258 .0254032
1065.836 .0253890
1066.414 .0253738
1066.992 .0253577
1067.570 .0253408
1068.148 .0253231
1068.726 .0253049
1069.304 .0252863
1069.882 .0252674
1070.460 .0252486
1071.038 .0252299
1071.616 .0252115
1072.194 .0251935
1072.772 .0251759
1073.350 .0251588
1073.928 .0251422
1074.506 .0251260
1075.084 .0251104
1075.662 .0250953
1076.240 .0250808
1076.819 .0250669
1077.397 .0250535
1077.976 .0250409
1078.554 .0250291
1079.133 .0250180
1079.711 .0250078
1080.290 .0249984
1080.869 .0249898
1081.448 .0249819
1082.027 .0249747
1082.606 .0249681
1083.185 .0249621
1083.764 .0249566
1084.343 .0249517
1084.923 .0249472
1085.502 .0249433
1086.082 .0249399
1086.662 .0249369
1087.242 .0249341
1087.822 .0249315
1088.402 .0249290
1088.983 .0249262
1089.563 .0249233
1090.144 .0249199
1090.725 .0249163
1091.306 .0249124
1091.887 .0249083
1092.469 .0249040
1093.050 .0248997
1093.632 .0248953
1094.214 .0248909
1094.796 .0248864
1095.379 .0248818
1095.961 .0248771
1096.544 .0248722
1097.127 .0248674
1097.710 .0248626
1098.294 .0248580
1098.877 .0248539
1099.461 .0248503
1100.046 .0248473
1100.630 .0248449
1101.215 .0248430
1101.800 .0248415
1102.385 .0248404
1102.970 .0248396
1103.556 .0248392
1104.142 .0248395
1104.728 .0248405
1105.315 .0248425
1105.902 .0248457
1106.489 .0248503
1107.077 .0248561
1107.664 .0248633
1108.253 .0248717
1108.841 .0248812
1109.430 .0248919
1110.019 .0249039
1110.609 .0249175
1111.198 .0249329
1111.789 .0249505
1112.379 .0249705
1112.970 .0249931
1113.561 .0250182
1114.153 .0250454
1114.745 .0250747
1115.338 .0251057
1115.931 .0251380
1116.524 .0251718
1117.117 .0252070
1117.712 .0252437
1118.306 .0252823
1118.901 .0253229
1119.496 .0253657
1120.092 .0254104
1120.689 .0254567
1121.285 .0255040
1121.882 .0255518
1122.480 .0255997
1123.078 .0256472
1123.677 .0256941
1124.276 .0257405
1124.875 .0257864
1125.476 .0258319
1126.076 .0258774
1126.677 .0259229
1127.279 .0259686
1127.881 .0260144
1128.484 .0260602
1129.087 .0260862
1129.691 .0261313
1130.295 .0261762
1130.900 .0262212
1131.505 .0262669
1132.111 .0263138
1132.718 .0263630
1133.325 .0264158
1133.933 .0264727
1134.541 .0265301
1135.150 .0265931
1135.760 .0266708
1136.370 .0267588
1136.981 .0266032
1137.592 .0266581
1138.204 .0267171
1138.817 .0267839
1139.431 .0268631
1140.045 .0269547
1140.660 .0270717
1141.275 .0272164
1141.891 .0273806
1142.508 .0274441
1143.126 .0276563
1143.744 .0281293
1144.363 .0284869
1144.983 .0283333
