Measurement Sequence started on: 15-12-46-377
Integration time: 28
Scans to Average: 2 
>>>>>Begin Spectral Data<<<<<
432.689 .0000100
433.621 .0000100
434.552 .0000100
435.482 .0000100
436.410 .0000100
437.337 .0000100
438.262 .0286450
439.187 .0605570
440.110 .1001366
441.031 .1446904
441.952 .1147805
442.871 .1197408
443.789 .1243458
444.705 .1286693
445.621 .1327621
446.535 .1366667
447.447 .1389066
448.359 .1393344
449.269 .1375660
450.178 .1333539
451.086 .1267864
451.993 .1183663
452.898 .1089163
453.803 .0993697
454.706 .0905160
455.608 .0828417
456.508 .0765050
457.408 .0722365
458.306 .0689647
459.204 .0663077
460.100 .0640758
460.995 .0621619
461.888 .0604948
462.781 .0590262
463.673 .0577160
464.563 .0565364
465.452 .0554660
466.340 .0544887
467.228 .0535931
468.114 .0527714
468.999 .0520180
469.882 .0513289
470.765 .0507006
471.647 .0501296
472.528 .0496128
473.407 .0491468
474.286 .0487282
475.163 .0483547
476.040 .0480235
476.915 .0477323
477.790 .0474789
478.663 .0472609
479.535 .0470765
480.407 .0469233
481.277 .0467983
482.147 .0466986
483.015 .0466217
483.883 .0465653
484.749 .0465275
485.615 .0465071
486.479 .0465036
487.343 .0465163
488.206 .0465447
489.067 .0465878
489.928 .0466448
490.788 .0467151
491.647 .0467980
492.505 .0468925
493.362 .0469991
494.218 .0471177
495.073 .0472494
495.928 .0474992
496.781 .0476704
497.634 .0478593
498.486 .0480659
499.337 .0482914
500.187 .0485371
501.036 .0488045
501.884 .0490963
502.731 .0494168
503.578 .0497705
504.424 .0500223
505.268 .0504484
506.113 .0509269
506.956 .0514644
507.798 .0520703
508.640 .0527542
509.480 .0535264
510.320 .0543993
511.160 .0553869
511.998 .0565054
512.836 .0577737
513.672 .0592110
514.508 .0608395
515.344 .0626842
516.178 .0647694
517.012 .0671219
517.845 .0697655
518.677 .0727241
519.508 .0760135
520.339 .0796408
521.169 .0836077
521.998 .0878860
522.826 .0924350
523.654 .0971931
524.481 .1020828
525.307 .1070166
526.133 .1118939
526.958 .1166136
527.782 .1210757
528.605 .1251898
529.428 .1288761
530.250 .1320641
531.072 .1347103
531.892 .1367760
532.712 .1382345
533.532 .1390743
534.350 .1392888
535.168 .1388818
535.986 .1378604
536.802 .1362347
537.618 .1340205
538.434 .1312360
539.249 .1279258
540.063 .1241447
540.876 .1199632
541.689 .1154669
542.501 .1107447
543.313 .1058967
544.124 .1010224
544.934 .0962146
545.744 .0915556
546.553 .0871137
547.361 .0829441
548.169 .0790749
548.976 .0755259
549.783 .0723022
550.589 .0693940
551.395 .0667826
552.200 .0644414
553.004 .0623395
553.808 .0604492
554.611 .0587441
555.414 .0571998
556.216 .0557948
557.018 .0545082
557.819 .0533235
558.619 .0522256
559.419 .0512040
560.218 .0502502
561.017 .0493558
561.815 .0485154
562.613 .0477236
563.410 .0469746
564.207 .0462640
565.003 .0455874
565.799 .0449404
566.594 .0443187
567.388 .0437192
568.182 .0431395
568.976 .0425778
569.769 .0420330
570.562 .0415044
571.354 .0409920
572.145 .0404966
572.936 .0400182
573.727 .0395569
574.517 .0391135
575.307 .0386889
576.096 .0382831
576.885 .0378961
577.673 .0375281
578.461 .0371787
579.248 .0368477
580.035 .0365350
580.821 .0362405
581.607 .0359642
582.392 .0357061
583.177 .0354660
583.962 .0352439
584.746 .0350392
585.529 .0348510
586.313 .0346781
587.095 .0345194
587.878 .0343738
588.660 .0342399
589.441 .0341166
590.222 .0340032
591.003 .0338987
591.783 .0338021
592.563 .0337127
593.342 .0336297
594.121 .0335524
594.899 .0334801
595.678 .0334122
596.455 .0333480
597.233 .0332871
598.009 .0332292
598.786 .0331737
599.562 .0331204
600.338 .0330690
601.113 .0330193
601.888 .0329491
602.663 .0329026
603.437 .0328572
604.211 .0328130
604.984 .0327698
605.757 .0327277
606.530 .0326865
607.302 .0326462
608.074 .0326067
608.845 .0325683
609.616 .0325307
610.387 .0325142
611.158 .0324783
611.928 .0324435
612.697 .0324097
613.467 .0323769
614.236 .0323449
615.004 .0323137
615.773 .0322832
616.541 .0322533
617.308 .0322239
618.076 .0321949
618.843 .0321665
619.609 .0321385
620.375 .0321111
621.141 .0320842
621.907 .0320577
622.672 .0320315
623.437 .0320055
624.202 .0319795
624.966 .0319534
625.730 .0319271
626.493 .0319004
627.257 .0318734
628.020 .0318459
628.782 .0318181
629.545 .0317899
630.307 .0317614
631.068 .0317326
631.830 .0317037
632.591 .0316747
633.352 .0316455
634.112 .0316163
634.872 .0315871
635.632 .0315578
636.392 .0315283
637.151 .0314987
637.910 .0314689
638.668 .0314392
639.427 .0314096
640.185 .0313804
640.943 .0313517
641.700 .0313238
642.457 .0312968
643.214 .0312708
643.971 .0312457
644.727 .0312215
645.483 .0311980
646.239 .0311753
646.994 .0311532
647.750 .0311316
648.505 .0311106
649.259 .0310903
650.014 .0310706
650.768 .0310516
651.521 .0310332
652.275 .0310155
653.028 .0309984
653.781 .0309819
654.534 .0309657
655.286 .0309498
656.039 .0309342
656.791 .0309186
657.542 .0309030
658.294 .0308874
659.045 .0308716
659.796 .0308555
660.546 .0308392
661.297 .0308226
662.047 .0308056
662.796 .0307884
663.546 .0307708
664.295 .0307528
665.044 .0307345
665.793 .0307159
666.542 .0306969
667.290 .0306776
668.038 .0306578
668.786 .0306377
669.533 .0306171
670.281 .0305963
671.028 .0305751
671.774 .0305538
672.521 .0305322
673.267 .0305106
674.013 .0304890
674.759 .0304674
675.505 .0304459
676.250 .0304244
676.995 .0304030
677.740 .0303816
678.484 .0303603
679.229 .0303391
679.973 .0303181
680.717 .0302972
681.460 .0302764
682.204 .0302559
682.947 .0302356
683.690 .0302153
684.433 .0301952
685.175 .0301752
685.917 .0301552
686.659 .0301353
687.401 .0301156
688.142 .0300960
688.884 .0300765
689.625 .0300571
690.365 .0300379
691.106 .0300186
691.846 .0299993
692.586 .0299798
693.326 .0299602
694.066 .0299405
694.805 .0299206
695.545 .0299007
696.284 .0298808
697.022 .0298609
697.761 .0298411
698.499 .0298213
699.237 .0298017
699.975 .0297821
700.713 .0297626
701.450 .0297433
702.187 .0297241
702.924 .0297052
703.661 .0296865
704.397 .0296682
705.133 .0296501
705.869 .0296324
706.605 .0296150
707.341 .0295979
708.076 .0295811
708.811 .0295647
709.546 .0295485
710.281 .0295327
711.015 .0295174
711.749 .0295025
712.483 .0294879
713.217 .0294737
713.950 .0294597
714.684 .0294458
715.417 .0294321
716.150 .0294186
716.882 .0294051
717.615 .0293917
718.347 .0293785
719.079 .0293653
719.811 .0293522
720.542 .0293391
721.273 .0293260
722.005 .0293128
722.735 .0292995
723.466 .0292859
724.196 .0292722
724.927 .0292584
725.656 .0292444
726.386 .0292304
727.116 .0292165
727.845 .0292027
728.574 .0291891
729.303 .0291758
730.031 .0291629
730.760 .0291504
731.488 .0291384
732.216 .0291268
732.944 .0291157
733.671 .0291052
734.398 .0290952
735.125 .0290858
735.852 .0290770
736.579 .0290689
737.305 .0290614
738.031 .0290545
738.757 .0290483
739.483 .0290427
740.208 .0290377
740.933 .0290330
741.658 .0290287
742.383 .0290245
743.108 .0290205
743.832 .0290163
744.556 .0290119
745.280 .0290072
746.004 .0290021
746.727 .0289965
747.450 .0289904
748.173 .0289836
748.896 .0289761
749.618 .0289680
750.340 .0289592
751.062 .0289497
751.784 .0289396
752.506 .0289286
753.227 .0289168
753.948 .0289042
754.669 .0288908
755.389 .0288766
756.110 .0288616
756.830 .0288460
757.550 .0288297
758.269 .0288128
758.989 .0287955
759.708 .0287777
760.427 .0287596
761.146 .0287411
761.864 .0287222
762.582 .0287031
763.300 .0286836
764.018 .0286638
764.736 .0286437
765.453 .0286234
766.170 .0286029
766.887 .0285822
767.603 .0285614
768.320 .0285407
769.036 .0285202
769.751 .0284999
770.467 .0284800
771.182 .0284606
771.897 .0284418
772.612 .0284234
773.327 .0284056
774.041 .0283884
774.755 .0283717
775.469 .0283557
776.183 .0283404
776.896 .0283258
777.609 .0283120
778.322 .0282989
779.035 .0282866
779.747 .0282750
780.459 .0282641
781.171 .0282538
781.882 .0282440
782.594 .0282346
783.305 .0282256
784.016 .0282170
784.726 .0282087
785.436 .0282005
786.147 .0281884
786.856 .0281804
787.566 .0281725
788.275 .0281645
788.984 .0281566
789.693 .0281486
790.401 .0281406
791.110 .0281326
791.818 .0281247
792.525 .0281168
793.233 .0281088
793.940 .0281008
794.647 .0280971
795.353 .0280892
796.060 .0280813
796.766 .0280732
797.472 .0280652
798.177 .0280572
798.883 .0280491
799.588 .0280411
800.292 .0280332
800.997 .0280252
801.701 .0280171
802.405 .0280090
803.109 .0280008
803.812 .0279925
804.515 .0279840
805.218 .0279755
805.921 .0279669
806.623 .0279582
807.325 .0279494
808.027 .0279406
808.728 .0279316
809.429 .0279225
810.130 .0279133
810.831 .0279040
811.531 .0278946
812.231 .0278851
812.931 .0278755
813.630 .0278660
814.330 .0278566
815.029 .0278474
815.727 .0278385
816.426 .0278298
817.124 .0278216
817.821 .0278138
818.519 .0278063
819.216 .0277994
819.913 .0277929
820.609 .0277869
821.306 .0277813
822.002 .0277763
822.697 .0277717
823.393 .0277676
824.088 .0277640
824.783 .0277608
825.477 .0277579
826.171 .0277554
826.865 .0277533
827.559 .0277514
828.252 .0277497
828.945 .0277483
829.638 .0277472
830.330 .0277463
831.023 .0277455
831.714 .0277448
832.406 .0277443
833.097 .0277437
833.788 .0277431
834.479 .0277425
835.169 .0277418
835.859 .0277411
836.548 .0277402
837.238 .0277392
837.927 .0277379
838.615 .0277364
839.304 .0277345
839.992 .0277320
840.680 .0277290
841.367 .0277254
842.054 .0277210
842.741 .0277160
843.428 .0277103
844.114 .0277038
844.800 .0276965
845.485 .0276885
846.170 .0276795
846.855 .0276697
847.540 .0276589
848.224 .0276473
848.908 .0276348
849.592 .0276215
850.275 .0276075
850.958 .0275929
851.641 .0275775
852.323 .0275615
853.005 .0275448
853.687 .0275274
854.368 .0275095
855.049 .0274910
855.730 .0274721
856.410 .0274529
857.090 .0274335
857.769 .0274139
858.449 .0273943
859.128 .0273746
859.806 .0273548
860.485 .0273349
861.163 .0273150
861.840 .0272951
862.518 .0272752
863.195 .0272554
863.871 .0272359
864.548 .0272166
865.224 .0271977
865.899 .0271791
866.574 .0271607
867.249 .0271426
867.924 .0271248
868.598 .0271074
869.272 .0270902
869.946 .0270734
870.619 .0270570
871.292 .0270410
871.964 .0270254
872.636 .0270103
873.308 .0269955
873.979 .0269812
874.651 .0269673
875.321 .0269538
875.992 .0269407
876.662 .0269282
877.331 .0269162
878.001 .0269047
878.670 .0268938
879.338 .0268834
880.007 .0268735
880.675 .0268640
881.342 .0268551
882.009 .0268465
882.676 .0268384
883.343 .0268308
884.009 .0268237
884.675 .0268170
885.340 .0268107
886.005 .0268049
886.670 .0267995
887.334 .0267945
887.998 .0267897
888.662 .0267852
889.325 .0267809
889.988 .0267767
890.650 .0267726
891.312 .0267687
891.974 .0267650
892.636 .0267614
893.297 .0267579
893.957 .0267546
894.618 .0267515
895.278 .0267484
895.937 .0267455
896.596 .0267424
897.255 .0267393
897.914 .0267360
898.572 .0267323
899.230 .0267282
899.887 .0267236
900.544 .0267185
901.201 .0267128
901.857 .0267016
902.513 .0266942
903.168 .0266863
903.823 .0266778
904.478 .0266686
905.132 .0266589
905.786 .0266486
906.440 .0266378
907.093 .0266264
907.746 .0266147
908.399 .0266027
909.051 .0265903
909.703 .0265778
910.354 .0265709
911.005 .0265585
911.656 .0265459
912.306 .0265332
912.956 .0265205
913.605 .0265077
914.254 .0264949
914.903 .0264820
915.551 .0264693
916.199 .0264566
916.847 .0264440
917.494 .0264315
918.141 .0264191
918.788 .0264067
919.434 .0263943
920.079 .0263820
920.725 .0263696
921.370 .0263571
922.014 .0263447
922.658 .0263323
923.302 .0263200
923.946 .0263077
924.589 .0262955
925.231 .0262833
925.873 .0262712
926.515 .0262589
927.157 .0262466
927.798 .0262342
928.439 .0262217
929.079 .0262090
929.719 .0261964
930.359 .0261838
930.998 .0261713
931.637 .0261591
932.275 .0261471
932.913 .0261355
933.551 .0261243
934.188 .0261136
934.825 .0261033
935.462 .0260937
936.098 .0260847
936.733 .0260764
937.369 .0260688
938.004 .0260621
938.638 .0260562
939.273 .0260511
939.907 .0260467
940.540 .0260431
941.173 .0260401
941.806 .0260376
942.438 .0260357
943.070 .0260341
943.702 .0260329
944.333 .0260320
944.964 .0260313
945.594 .0260308
946.224 .0260303
946.854 .0260298
947.483 .0260292
948.112 .0260283
948.741 .0260270
949.369 .0260254
949.996 .0260233
950.624 .0260207
951.251 .0260177
951.878 .0260142
952.504 .0260102
953.130 .0260056
953.755 .0260005
954.380 .0259949
955.005 .0259887
955.629 .0259819
956.253 .0259747
956.877 .0259669
957.500 .0259588
958.123 .0259502
958.746 .0259413
959.368 .0259322
959.990 .0259228
960.611 .0259132
961.232 .0259035
961.853 .0258938
962.473 .0258840
963.093 .0258743
963.712 .0258647
964.331 .0258554
964.950 .0258462
965.569 .0258373
966.187 .0258286
966.804 .0258200
967.422 .0258116
968.039 .0258033
968.655 .0257951
969.272 .0257869
969.887 .0257788
970.503 .0257708
971.118 .0257628
971.733 .0257548
972.347 .0257466
972.961 .0257383
973.575 .0257298
974.188 .0257209
974.801 .0257117
975.414 .0257020
976.026 .0256920
976.638 .0256814
977.250 .0256704
977.861 .0256589
978.472 .0256469
979.083 .0256343
979.693 .0256212
980.303 .0256075
980.912 .0255845
981.521 .0255695
982.130 .0255541
982.738 .0255383
983.346 .0255222
983.954 .0255060
984.562 .0254896
985.169 .0254732
985.775 .0254568
986.382 .0254405
986.988 .0254244
987.594 .0254083
988.199 .0253924
988.804 .0253767
989.409 .0253703
990.013 .0253553
990.617 .0253407
991.221 .0253266
991.824 .0253131
992.427 .0253003
993.030 .0252881
993.632 .0252765
994.234 .0252656
994.836 .0252553
995.438 .0252455
996.039 .0252363
996.640 .0252277
997.240 .0252197
997.840 .0252123
998.440 .0252057
999.040 .0251997
999.639 .0251943
1000.238 .0251897
1000.836 .0251855
1001.435 .0251819
1002.033 .0251788
1002.630 .0251759
1003.228 .0251735
1003.825 .0251712
1004.422 .0251693
1005.018 .0251676
1005.614 .0251660
1006.210 .0251647
1006.806 .0251636
1007.401 .0251625
1007.996 .0251615
1008.591 .0251605
1009.186 .0251595
1009.780 .0251583
1010.374 .0251571
1010.967 .0251559
1011.561 .0251547
1012.154 .0251535
1012.746 .0251526
1013.339 .0251518
1013.931 .0251512
1014.523 .0251510
1015.115 .0251510
1015.706 .0251513
1016.298 .0251520
1016.888 .0251529
1017.479 .0251542
1018.069 .0251559
1018.660 .0251580
1019.250 .0251605
1019.839 .0251635
1020.429 .0251670
1021.018 .0251708
1021.607 .0251750
1022.195 .0251795
1022.784 .0251843
1023.372 .0251895
1023.960 .0251949
1024.547 .0252006
1025.135 .0252065
1025.722 .0252128
1026.309 .0252194
1026.896 .0252262
1027.483 .0252333
1028.069 .0252407
1028.655 .0252482
1029.241 .0252559
1029.827 .0252637
1030.412 .0252717
1030.997 .0252797
1031.582 .0252877
1032.167 .0252957
1032.752 .0253035
1033.336 .0253113
1033.921 .0253188
1034.505 .0253261
1035.089 .0253331
1035.672 .0253398
1036.256 .0253462
1036.839 .0253522
1037.422 .0253579
1038.005 .0253633
1038.588 .0253683
1039.171 .0253730
1039.753 .0253773
1040.335 .0253813
1040.918 .0253850
1041.500 .0253885
1042.081 .0253918
1042.663 .0253951
1043.244 .0253983
1043.826 .0254015
1044.407 .0254048
1044.988 .0254082
1045.569 .0254116
1046.150 .0254151
1046.730 .0254187
1047.311 .0254222
1047.891 .0254258
1048.471 .0254292
1049.052 .0254326
1049.632 .0254359
1050.211 .0254391
1050.791 .0254422
1051.371 .0254452
1051.950 .0254480
1052.530 .0254505
1053.109 .0254528
1053.688 .0254548
1054.268 .0254564
1054.847 .0254578
1055.426 .0254591
1056.005 .0254605
1056.583 .0254621
1057.162 .0254641
1057.741 .0254666
1058.319 .0254696
1058.898 .0254732
1059.476 .0254771
1060.055 .0254814
1060.633 .0254860
1061.211 .0254906
1061.790 .0254954
1062.368 .0255002
1062.946 .0255052
1063.524 .0255103
1064.102 .0255156
1064.680 .0255209
1065.258 .0255263
1065.836 .0255315
1066.414 .0255365
1066.992 .0255412
1067.570 .0255456
1068.148 .0255497
1068.726 .0255537
1069.304 .0255578
1069.882 .0255620
1070.460 .0255667
1071.038 .0255719
1071.616 .0255778
1072.194 .0255844
1072.772 .0255916
1073.350 .0255993
1073.928 .0256072
1074.506 .0256154
1075.084 .0256238
1075.662 .0256323
1076.240 .0256411
1076.819 .0256502
1077.397 .0256597
1077.976 .0256698
1078.554 .0256804
1079.133 .0256916
1079.711 .0257032
1080.290 .0257151
1080.869 .0257272
1081.448 .0257393
1082.027 .0257514
1082.606 .0257637
1083.185 .0257761
1083.764 .0257887
1084.343 .0258017
1084.923 .0258151
1085.502 .0258290
1086.082 .0258434
1086.662 .0258581
1087.242 .0258732
1087.822 .0258885
1088.402 .0259038
1088.983 .0259190
1089.563 .0259342
1090.144 .0259493
1090.725 .0259643
1091.306 .0259794
1091.887 .0259946
1092.469 .0260099
1093.050 .0260253
1093.632 .0260409
1094.214 .0260566
1094.796 .0260724
1095.379 .0260882
1095.961 .0261041
1096.544 .0261200
1097.127 .0261362
1097.710 .0261526
1098.294 .0261696
1098.877 .0261872
1099.461 .0262054
1100.046 .0262244
1100.630 .0262441
1101.215 .0262646
1101.800 .0262859
1102.385 .0263079
1102.970 .0263305
1103.556 .0263537
1104.142 .0263775
1104.728 .0264017
1105.315 .0264262
1105.902 .0264510
1106.489 .0264760
1107.077 .0265012
1107.664 .0265266
1108.253 .0265523
1108.841 .0265786
1109.430 .0266055
1110.019 .0266330
1110.609 .0266614
1111.198 .0266907
1111.789 .0267208
1112.379 .0267519
1112.970 .0267838
1113.561 .0268165
1114.153 .0268498
1114.745 .0268838
1115.338 .0269185
1115.931 .0269539
1116.524 .0269902
1117.117 .0270272
1117.712 .0270649
1118.306 .0271035
1118.901 .0271426
1119.496 .0271826
1120.092 .0272237
1120.689 .0272658
1121.285 .0273091
1121.882 .0273539
1122.480 .0274003
1123.078 .0274485
1123.677 .0274984
1124.276 .0275502
1124.875 .0276038
1125.476 .0276590
1126.076 .0277156
1126.677 .0277733
1127.279 .0278323
1127.881 .0278922
1128.484 .0279531
1129.087 .0279799
1129.691 .0280418
1130.295 .0281045
1130.900 .0281679
1131.505 .0282322
1132.111 .0282973
1132.718 .0283630
1133.325 .0284303
1133.933 .0284996
1134.541 .0285713
1135.150 .0286420
1135.760 .0287078
1136.370 .0288004
1136.981 .0289144
1137.592 .0289927
1138.204 .0290628
1138.817 .0291284
1139.431 .0291970
1140.045 .0292616
1140.660 .0293239
1141.275 .0294111
1141.891 .0295130
1142.508 .0296239
1143.126 .0296406
1143.744 .0295495
1144.363 .0303445
1144.983 .0304839
