Measurement Sequence started on: 15-12-46-377
Integration time: 28
Scans to Average: 2 
>>>>>Begin Spectral Data<<<<<
432.689 .0000100
433.621 .0000100
434.552 .0000100
435.482 .0000100
436.410 .0000100
437.337 .0000100
438.262 .0285188
439.187 .0605030
440.110 .1003022
441.031 .1452218
441.952 .1169847
442.871 .1222124
443.789 .1270777
444.705 .1316568
445.621 .1360034
446.535 .1401583
447.447 .1426479
448.359 .1433106
449.269 .1417530
450.178 .1377194
451.086 .1312859
451.993 .1229471
452.898 .1135242
453.803 .1039543
454.706 .0950369
455.608 .0872705
456.508 .0808266
457.408 .0764438
458.306 .0730671
459.204 .0703163
460.100 .0679983
460.995 .0660058
461.888 .0642655
462.781 .0627272
463.673 .0613529
464.563 .0601183
465.452 .0590051
466.340 .0579979
467.228 .0570849
468.114 .0562566
468.999 .0555041
469.882 .0548207
470.765 .0541997
471.647 .0536349
472.528 .0531221
473.407 .0526570
474.286 .0522362
475.163 .0518570
476.040 .0515164
476.915 .0512107
477.790 .0509368
478.663 .0506919
479.535 .0504733
480.407 .0502787
481.277 .0501061
482.147 .0499534
483.015 .0498190
483.883 .0497013
484.749 .0495987
485.615 .0495102
486.479 .0494351
487.343 .0493730
488.206 .0493235
489.067 .0492872
489.928 .0492647
490.788 .0492573
491.647 .0492664
492.505 .0492939
493.362 .0493421
494.218 .0494125
495.073 .0495068
495.928 .0497425
496.781 .0499060
497.634 .0500979
498.486 .0503192
499.337 .0505713
500.187 .0508551
501.036 .0511723
501.884 .0515253
502.731 .0519175
503.578 .0523531
504.424 .0526643
505.268 .0531814
506.113 .0537572
506.956 .0543975
507.798 .0551092
508.640 .0558990
509.480 .0567760
510.320 .0577492
511.160 .0588299
511.998 .0600313
512.836 .0613693
513.672 .0628618
514.508 .0645316
515.344 .0664041
516.178 .0685043
517.012 .0708586
517.845 .0734937
518.677 .0764309
519.508 .0796854
520.339 .0832596
521.169 .0871499
521.998 .0913236
522.826 .0957359
523.654 .1003217
524.481 .1050047
525.307 .1097022
526.133 .1143221
526.958 .1187671
527.782 .1229461
528.605 .1267745
529.428 .1301786
530.250 .1330900
531.072 .1354645
531.892 .1372625
532.712 .1384601
533.532 .1390456
534.350 .1390164
535.168 .1383769
535.986 .1371411
536.802 .1353232
537.618 .1329444
538.434 .1300277
539.249 .1266211
540.063 .1227808
540.876 .1185793
541.689 .1140986
542.501 .1094253
543.313 .1046529
544.124 .0998790
544.934 .0951906
545.744 .0906667
546.553 .0863728
547.361 .0823641
548.169 .0786685
548.976 .0753051
549.783 .0722729
550.589 .0695586
551.395 .0671387
552.200 .0649822
553.004 .0630530
553.808 .0613201
554.611 .0597567
555.414 .0583388
556.216 .0570465
557.018 .0558620
557.819 .0547705
558.619 .0537601
559.419 .0528199
560.218 .0519409
561.017 .0511131
561.815 .0503307
562.613 .0495874
563.410 .0488771
564.207 .0481954
565.003 .0475390
565.799 .0469048
566.594 .0462911
567.388 .0456960
568.182 .0451183
568.976 .0445565
569.769 .0440099
570.562 .0434772
571.354 .0429582
572.145 .0424531
572.936 .0419620
573.727 .0414850
574.517 .0410228
575.307 .0405754
576.096 .0401429
576.885 .0397255
577.673 .0393235
578.461 .0389369
579.248 .0385658
580.035 .0382104
580.821 .0378709
581.607 .0375477
582.392 .0372411
583.177 .0369510
583.962 .0366780
584.746 .0364219
585.529 .0361825
586.313 .0359598
587.095 .0357536
587.878 .0355636
588.660 .0353892
589.441 .0352300
590.222 .0350852
591.003 .0349540
591.783 .0348355
592.563 .0347285
593.342 .0346319
594.121 .0345445
594.899 .0344652
595.678 .0343928
596.455 .0343266
597.233 .0342658
598.009 .0342095
598.786 .0341573
599.562 .0341085
600.338 .0340625
601.113 .0340188
601.888 .0339580
602.663 .0339178
603.437 .0338788
604.211 .0338406
604.984 .0338033
605.757 .0337666
606.530 .0337305
607.302 .0336950
608.074 .0336602
608.845 .0336260
609.616 .0335924
610.387 .0335771
611.158 .0335447
611.928 .0335130
612.697 .0334819
613.467 .0334515
614.236 .0334216
615.004 .0333923
615.773 .0333634
616.541 .0333348
617.308 .0333067
618.076 .0332788
618.843 .0332511
619.609 .0332234
620.375 .0331956
621.141 .0331676
621.907 .0331393
622.672 .0331107
623.437 .0330816
624.202 .0330520
624.966 .0330217
625.730 .0329908
626.493 .0329592
627.257 .0329267
628.020 .0328933
628.782 .0328591
629.545 .0328238
630.307 .0327878
631.068 .0327510
631.830 .0327136
632.591 .0326759
633.352 .0326379
634.112 .0325997
634.872 .0325614
635.632 .0325231
636.392 .0324848
637.151 .0324465
637.910 .0324083
638.668 .0323704
639.427 .0323327
640.185 .0322955
640.943 .0322589
641.700 .0322228
642.457 .0321873
643.214 .0321524
643.971 .0321181
644.727 .0320841
645.483 .0320506
646.239 .0320175
646.994 .0319847
647.750 .0319523
648.505 .0319202
649.259 .0318885
650.014 .0318571
650.768 .0318261
651.521 .0317954
652.275 .0317652
653.028 .0317354
653.781 .0317061
654.534 .0316774
655.286 .0316492
656.039 .0316217
656.791 .0315947
657.542 .0315684
658.294 .0315427
659.045 .0315176
659.796 .0314934
660.546 .0314699
661.297 .0314473
662.047 .0314257
662.796 .0314050
663.546 .0313853
664.295 .0313664
665.044 .0313484
665.793 .0313311
666.542 .0313144
667.290 .0312983
668.038 .0312828
668.786 .0312678
669.533 .0312533
670.281 .0312393
671.028 .0312256
671.774 .0312123
672.521 .0311993
673.267 .0311865
674.013 .0311737
674.759 .0311609
675.505 .0311481
676.250 .0311351
676.995 .0311220
677.740 .0311086
678.484 .0310950
679.229 .0310810
679.973 .0310666
680.717 .0310518
681.460 .0310366
682.204 .0310211
682.947 .0310051
683.690 .0309887
684.433 .0309718
685.175 .0309544
685.917 .0309364
686.659 .0309178
687.401 .0308986
688.142 .0308787
688.884 .0308582
689.625 .0308371
690.365 .0308154
691.106 .0307933
691.846 .0307706
692.586 .0307474
693.326 .0307238
694.066 .0306998
694.805 .0306753
695.545 .0306505
696.284 .0306252
697.022 .0305998
697.761 .0305740
698.499 .0305481
699.237 .0305220
699.975 .0304958
700.713 .0304695
701.450 .0304431
702.187 .0304167
702.924 .0303903
703.661 .0303638
704.397 .0303375
705.133 .0303112
705.869 .0302850
706.605 .0302589
707.341 .0302328
708.076 .0302067
708.811 .0301804
709.546 .0301541
710.281 .0301275
711.015 .0301009
711.749 .0300740
712.483 .0300471
713.217 .0300200
713.950 .0299929
714.684 .0299657
715.417 .0299384
716.150 .0299109
716.882 .0298832
717.615 .0298552
718.347 .0298270
719.079 .0297984
719.811 .0297695
720.542 .0297405
721.273 .0297113
722.005 .0296821
722.735 .0296531
723.466 .0296244
724.196 .0295960
724.927 .0295681
725.656 .0295408
726.386 .0295142
727.116 .0294882
727.845 .0294631
728.574 .0294388
729.303 .0294156
730.031 .0293934
730.760 .0293723
731.488 .0293526
732.216 .0293340
732.944 .0293168
733.671 .0293010
734.398 .0292864
735.125 .0292733
735.852 .0292614
736.579 .0292509
737.305 .0292417
738.031 .0292336
738.757 .0292266
739.483 .0292206
740.208 .0292153
740.933 .0292108
741.658 .0292067
742.383 .0292031
743.108 .0291999
743.832 .0291970
744.556 .0291944
745.280 .0291919
746.004 .0291895
746.727 .0291870
747.450 .0291844
748.173 .0291814
748.896 .0291781
749.618 .0291743
750.340 .0291701
751.062 .0291656
751.784 .0291607
752.506 .0291554
753.227 .0291498
753.948 .0291439
754.669 .0291377
755.389 .0291312
756.110 .0291245
756.830 .0291176
757.550 .0291106
758.269 .0291034
758.989 .0290960
759.708 .0290886
760.427 .0290810
761.146 .0290732
761.864 .0290652
762.582 .0290569
763.300 .0290484
764.018 .0290397
764.736 .0290308
765.453 .0290218
766.170 .0290127
766.887 .0290037
767.603 .0289947
768.320 .0289859
769.036 .0289771
769.751 .0289685
770.467 .0289600
771.182 .0289518
771.897 .0289438
772.612 .0289361
773.327 .0289289
774.041 .0289221
774.755 .0289158
775.469 .0289100
776.183 .0289049
776.896 .0289002
777.609 .0288961
778.322 .0288924
779.035 .0288891
779.747 .0288861
780.459 .0288833
781.171 .0288807
781.882 .0288781
782.594 .0288755
783.305 .0288729
784.016 .0288699
784.726 .0288667
785.436 .0288629
786.147 .0288542
786.856 .0288484
787.566 .0288418
788.275 .0288343
788.984 .0288259
789.693 .0288165
790.401 .0288060
791.110 .0287945
791.818 .0287820
792.525 .0287683
793.233 .0287535
793.940 .0287377
794.647 .0287274
795.353 .0287104
796.060 .0286925
796.766 .0286738
797.472 .0286542
798.177 .0286339
798.883 .0286129
799.588 .0285911
800.292 .0285687
800.997 .0285456
801.701 .0285220
802.405 .0284980
803.109 .0284734
803.812 .0284485
804.515 .0284231
805.218 .0283973
805.921 .0283711
806.623 .0283444
807.325 .0283173
808.027 .0282898
808.728 .0282619
809.429 .0282336
810.130 .0282050
810.831 .0281762
811.531 .0281472
812.231 .0281181
812.931 .0280889
813.630 .0280597
814.330 .0280307
815.029 .0280020
815.727 .0279738
816.426 .0279462
817.124 .0279192
817.821 .0278929
818.519 .0278674
819.216 .0278427
819.913 .0278188
820.609 .0277958
821.306 .0277738
822.002 .0277529
822.697 .0277331
823.393 .0277146
824.088 .0276974
824.783 .0276813
825.477 .0276664
826.171 .0276525
826.865 .0276396
827.559 .0276275
828.252 .0276162
828.945 .0276056
829.638 .0275958
830.330 .0275867
831.023 .0275782
831.714 .0275704
832.406 .0275631
833.097 .0275563
833.788 .0275499
834.479 .0275438
835.169 .0275380
835.859 .0275325
836.548 .0275273
837.238 .0275224
837.927 .0275179
838.615 .0275136
839.304 .0275097
839.992 .0275060
840.680 .0275025
841.367 .0274991
842.054 .0274959
842.741 .0274927
843.428 .0274897
844.114 .0274870
844.800 .0274844
845.485 .0274821
846.170 .0274800
846.855 .0274781
847.540 .0274762
848.224 .0274742
848.908 .0274720
849.592 .0274697
850.275 .0274671
850.958 .0274643
851.641 .0274614
852.323 .0274584
853.005 .0274553
853.687 .0274523
854.368 .0274492
855.049 .0274460
855.730 .0274428
856.410 .0274394
857.090 .0274359
857.769 .0274323
858.449 .0274286
859.128 .0274248
859.806 .0274211
860.485 .0274174
861.163 .0274137
861.840 .0274101
862.518 .0274065
863.195 .0274031
863.871 .0273997
864.548 .0273965
865.224 .0273935
865.899 .0273908
866.574 .0273883
867.249 .0273860
867.924 .0273840
868.598 .0273821
869.272 .0273803
869.946 .0273786
870.619 .0273769
871.292 .0273753
871.964 .0273737
872.636 .0273724
873.308 .0273712
873.979 .0273704
874.651 .0273698
875.321 .0273695
875.992 .0273696
876.662 .0273700
877.331 .0273706
878.001 .0273716
878.670 .0273729
879.338 .0273746
880.007 .0273766
880.675 .0273791
881.342 .0273820
882.009 .0273854
882.676 .0273893
883.343 .0273936
884.009 .0273983
884.675 .0274034
885.340 .0274089
886.005 .0274146
886.670 .0274207
887.334 .0274269
887.998 .0274334
888.662 .0274400
889.325 .0274466
889.988 .0274533
890.650 .0274600
891.312 .0274665
891.974 .0274729
892.636 .0274791
893.297 .0274849
893.957 .0274904
894.618 .0274954
895.278 .0274999
895.937 .0275038
896.596 .0275069
897.255 .0275092
897.914 .0275104
898.572 .0275104
899.230 .0275093
899.887 .0275067
900.544 .0275028
901.201 .0274973
901.857 .0274825
902.513 .0274730
903.168 .0274619
903.823 .0274494
904.478 .0274355
905.132 .0274201
905.786 .0274033
906.440 .0273851
907.093 .0273655
907.746 .0273446
908.399 .0273225
909.051 .0272992
909.703 .0272748
910.354 .0272602
911.005 .0272348
911.656 .0272087
912.306 .0271820
912.956 .0271547
913.605 .0271269
914.254 .0270985
914.903 .0270698
915.551 .0270407
916.199 .0270112
916.847 .0269814
917.494 .0269513
918.141 .0269210
918.788 .0268906
919.434 .0268600
920.079 .0268293
920.725 .0267985
921.370 .0267674
922.014 .0267361
922.658 .0267045
923.302 .0266725
923.946 .0266402
924.589 .0266075
925.231 .0265746
925.873 .0265413
926.515 .0265078
927.157 .0264741
927.798 .0264402
928.439 .0264060
929.079 .0263717
929.719 .0263371
930.359 .0263023
930.998 .0262675
931.637 .0262327
932.275 .0261980
932.913 .0261635
933.551 .0261294
934.188 .0260958
934.825 .0260628
935.462 .0260304
936.098 .0259986
936.733 .0259676
937.369 .0259374
938.004 .0259081
938.638 .0258797
939.273 .0258524
939.907 .0258262
940.540 .0258012
941.173 .0257773
941.806 .0257546
942.438 .0257331
943.070 .0257125
943.702 .0256929
944.333 .0256741
944.964 .0256562
945.594 .0256391
946.224 .0256226
946.854 .0256068
947.483 .0255916
948.112 .0255769
948.741 .0255626
949.369 .0255487
949.996 .0255351
950.624 .0255216
951.251 .0255082
951.878 .0254949
952.504 .0254816
953.130 .0254684
953.755 .0254551
954.380 .0254418
955.005 .0254285
955.629 .0254150
956.253 .0254015
956.877 .0253878
957.500 .0253739
958.123 .0253599
958.746 .0253459
959.368 .0253319
959.990 .0253178
960.611 .0253039
961.232 .0252901
961.853 .0252764
962.473 .0252629
963.093 .0252495
963.712 .0252362
964.331 .0252232
964.950 .0252104
965.569 .0251978
966.187 .0251855
966.804 .0251736
967.422 .0251621
968.039 .0251510
968.655 .0251402
969.272 .0251299
969.887 .0251199
970.503 .0251103
971.118 .0251009
971.733 .0250919
972.347 .0250830
972.961 .0250745
973.575 .0250662
974.188 .0250582
974.801 .0250505
975.414 .0250430
976.026 .0250357
976.638 .0250286
977.250 .0250218
977.861 .0250151
978.472 .0250086
979.083 .0250022
979.693 .0249960
980.303 .0249900
980.912 .0249818
981.521 .0249764
982.130 .0249712
982.738 .0249665
983.346 .0249621
983.954 .0249582
984.562 .0249548
985.169 .0249520
985.775 .0249498
986.382 .0249483
986.988 .0249474
987.594 .0249472
988.199 .0249476
988.804 .0249487
989.409 .0249512
990.013 .0249533
990.617 .0249561
991.221 .0249596
991.824 .0249639
992.427 .0249687
993.030 .0249742
993.632 .0249804
994.234 .0249870
994.836 .0249943
995.438 .0250020
996.039 .0250102
996.640 .0250190
997.240 .0250282
997.840 .0250381
998.440 .0250485
999.040 .0250595
999.639 .0250709
1000.238 .0250828
1000.836 .0250951
1001.435 .0251076
1002.033 .0251204
1002.630 .0251335
1003.228 .0251467
1003.825 .0251602
1004.422 .0251738
1005.018 .0251878
1005.614 .0252020
1006.210 .0252165
1006.806 .0252312
1007.401 .0252463
1007.996 .0252616
1008.591 .0252772
1009.186 .0252930
1009.780 .0253091
1010.374 .0253255
1010.967 .0253421
1011.561 .0253591
1012.154 .0253764
1012.746 .0253941
1013.339 .0254123
1013.931 .0254309
1014.523 .0254499
1015.115 .0254693
1015.706 .0254890
1016.298 .0255090
1016.888 .0255293
1017.479 .0255499
1018.069 .0255708
1018.660 .0255919
1019.250 .0256133
1019.839 .0256349
1020.429 .0256567
1021.018 .0256786
1021.607 .0257006
1022.195 .0257227
1022.784 .0257447
1023.372 .0257666
1023.960 .0257883
1024.547 .0258098
1025.135 .0258312
1025.722 .0258524
1026.309 .0258733
1026.896 .0258940
1027.483 .0259144
1028.069 .0259345
1028.655 .0259542
1029.241 .0259735
1029.827 .0259922
1030.412 .0260105
1030.997 .0260282
1031.582 .0260455
1032.167 .0260623
1032.752 .0260786
1033.336 .0260946
1033.921 .0261101
1034.505 .0261251
1035.089 .0261397
1035.672 .0261537
1036.256 .0261670
1036.839 .0261797
1037.422 .0261919
1038.005 .0262034
1038.588 .0262145
1039.171 .0262252
1039.753 .0262356
1040.335 .0262456
1040.918 .0262553
1041.500 .0262647
1042.081 .0262737
1042.663 .0262822
1043.244 .0262903
1043.826 .0262980
1044.407 .0263053
1044.988 .0263123
1045.569 .0263189
1046.150 .0263253
1046.730 .0263314
1047.311 .0263373
1047.891 .0263427
1048.471 .0263478
1049.052 .0263524
1049.632 .0263563
1050.211 .0263597
1050.791 .0263624
1051.371 .0263645
1051.950 .0263660
1052.530 .0263670
1053.109 .0263675
1053.688 .0263674
1054.268 .0263669
1054.847 .0263658
1055.426 .0263641
1056.005 .0263619
1056.583 .0263590
1057.162 .0263555
1057.741 .0263513
1058.319 .0263465
1058.898 .0263410
1059.476 .0263350
1060.055 .0263282
1060.633 .0263208
1061.211 .0263128
1061.790 .0263041
1062.368 .0262948
1062.946 .0262849
1063.524 .0262744
1064.102 .0262634
1064.680 .0262521
1065.258 .0262403
1065.836 .0262283
1066.414 .0262162
1066.992 .0262038
1067.570 .0261914
1068.148 .0261788
1068.726 .0261662
1069.304 .0261536
1069.882 .0261410
1070.460 .0261284
1071.038 .0261161
1071.616 .0261039
1072.194 .0260919
1072.772 .0260801
1073.350 .0260685
1073.928 .0260569
1074.506 .0260455
1075.084 .0260340
1075.662 .0260226
1076.240 .0260113
1076.819 .0260000
1077.397 .0259890
1077.976 .0259782
1078.554 .0259678
1079.133 .0259578
1079.711 .0259484
1080.290 .0259394
1080.869 .0259308
1081.448 .0259226
1082.027 .0259148
1082.606 .0259073
1083.185 .0259000
1083.764 .0258930
1084.343 .0258863
1084.923 .0258801
1085.502 .0258743
1086.082 .0258691
1086.662 .0258645
1087.242 .0258606
1087.822 .0258573
1088.402 .0258546
1088.983 .0258525
1089.563 .0258509
1090.144 .0258500
1090.725 .0258497
1091.306 .0258502
1091.887 .0258514
1092.469 .0258533
1093.050 .0258559
1093.632 .0258591
1094.214 .0258627
1094.796 .0258664
1095.379 .0258701
1095.961 .0258735
1096.544 .0258764
1097.127 .0258787
1097.710 .0258804
1098.294 .0258816
1098.877 .0258822
1099.461 .0258825
1100.046 .0258825
1100.630 .0258823
1101.215 .0258819
1101.800 .0258814
1102.385 .0258810
1102.970 .0258805
1103.556 .0258802
1104.142 .0258801
1104.728 .0258806
1105.315 .0258818
1105.902 .0258840
1106.489 .0258875
1107.077 .0258925
1107.664 .0258991
1108.253 .0259075
1108.841 .0259177
1109.430 .0259298
1110.019 .0259438
1110.609 .0259594
1111.198 .0259769
1111.789 .0259960
1112.379 .0260168
1112.970 .0260396
1113.561 .0260643
1114.153 .0260912
1114.745 .0261205
1115.338 .0261523
1115.931 .0261868
1116.524 .0262242
1117.117 .0262643
1117.712 .0263071
1118.306 .0263525
1118.901 .0264001
1119.496 .0264497
1120.092 .0265011
1120.689 .0265541
1121.285 .0266088
1121.882 .0266650
1122.480 .0267230
1123.078 .0267825
1123.677 .0268435
1124.276 .0269060
1124.875 .0269695
1125.476 .0270337
1126.076 .0270986
1126.677 .0271639
1127.279 .0272295
1127.881 .0272957
1128.484 .0273627
1129.087 .0273933
1129.691 .0274626
1130.295 .0275338
1130.900 .0276072
1131.505 .0276833
1132.111 .0277624
1132.718 .0278446
1133.325 .0279297
1133.933 .0280195
1134.541 .0281121
1135.150 .0282104
1135.760 .0283053
1136.370 .0284045
1136.981 .0283999
1137.592 .0284850
1138.204 .0285823
1138.817 .0286869
1139.431 .0288068
1140.045 .0289412
1140.660 .0290816
1141.275 .0292276
1141.891 .0294232
1142.508 .0295753
1143.126 .0298016
1143.744 .0297771
1144.363 .0299609
1144.983 .0313583
