Measurement Sequence started on: 15-12-46-377
Integration time: 28
Scans to Average: 2 
>>>>>Begin Spectral Data<<<<<
432.689 .0000100
433.621 .0000100
434.552 .0000100
435.482 .0000100
436.410 .0000100
437.337 .0000100
438.262 .0273831
439.187 .0581978
440.110 .0965735
441.031 .1399441
441.952 .1135862
442.871 .1187713
443.789 .1236020
444.705 .1281492
445.621 .1324634
446.535 .1365816
447.447 .1390917
448.359 .1398343
449.269 .1384298
450.178 .1346289
451.086 .1285018
451.993 .1205193
452.898 .1114695
453.803 .1022503
454.706 .0936305
455.608 .0860932
456.508 .0798083
457.408 .0754897
458.306 .0721329
459.204 .0693754
460.100 .0670361
460.995 .0650153
461.888 .0632453
462.781 .0616776
463.673 .0602783
464.563 .0590214
465.452 .0578880
466.340 .0568625
467.228 .0559340
468.114 .0550933
468.999 .0543320
469.882 .0536430
470.765 .0530187
471.647 .0524537
472.528 .0519427
473.407 .0514796
474.286 .0510602
475.163 .0506813
476.040 .0503396
476.915 .0500324
477.790 .0497577
478.663 .0495140
479.535 .0493004
480.407 .0491151
481.277 .0489560
482.147 .0488214
483.015 .0487090
483.883 .0486169
484.749 .0485435
485.615 .0484886
486.479 .0484517
487.343 .0484325
488.206 .0484320
489.067 .0484504
489.928 .0484882
490.788 .0485463
491.647 .0486249
492.505 .0487242
493.362 .0488440
494.218 .0489840
495.073 .0491438
495.928 .0494519
496.781 .0496588
497.634 .0498844
498.486 .0501293
499.337 .0503944
500.187 .0506812
501.036 .0509938
501.884 .0513351
502.731 .0517099
503.578 .0521222
504.424 .0524064
505.268 .0528925
506.113 .0534289
506.956 .0540199
507.798 .0546710
508.640 .0553902
509.480 .0561881
510.320 .0570772
511.160 .0580721
511.998 .0591883
512.836 .0604453
513.672 .0618627
514.508 .0634612
515.344 .0652614
516.178 .0672841
517.012 .0695523
517.845 .0720883
518.677 .0749096
519.508 .0780297
520.339 .0814550
521.169 .0851875
521.998 .0892038
522.826 .0934678
523.654 .0979270
524.481 .1025156
525.307 .1071570
526.133 .1117611
526.958 .1162308
527.782 .1204751
528.605 .1244052
529.428 .1279404
530.250 .1310078
531.072 .1335589
531.892 .1355542
532.712 .1369685
533.532 .1377892
534.350 .1380130
535.168 .1376421
535.986 .1366858
536.802 .1351534
537.618 .1330589
538.434 .1304192
539.249 .1272728
540.063 .1236695
540.876 .1196729
541.689 .1153588
542.501 .1108108
543.313 .1061214
544.124 .1013871
544.934 .0966934
545.744 .0921204
546.553 .0877401
547.361 .0836118
548.169 .0797693
548.976 .0762372
549.783 .0730245
550.589 .0701254
551.395 .0675229
552.200 .0651918
553.004 .0631028
553.808 .0612296
554.611 .0595458
555.414 .0580271
556.216 .0566528
557.018 .0554045
557.819 .0542656
558.619 .0532212
559.419 .0522590
560.218 .0513678
561.017 .0505377
561.815 .0497613
562.613 .0490325
563.410 .0483433
564.207 .0476877
565.003 .0470603
565.799 .0464549
566.594 .0458666
567.388 .0452925
568.182 .0447295
568.976 .0441763
569.769 .0436328
570.562 .0430990
571.354 .0425763
572.145 .0420670
572.936 .0415722
573.727 .0410923
574.517 .0406277
575.307 .0401785
576.096 .0397439
576.885 .0393245
577.673 .0389204
578.461 .0385318
579.248 .0381593
580.035 .0378040
580.821 .0374663
581.607 .0371467
582.392 .0368461
583.177 .0365642
583.962 .0363008
584.746 .0360554
585.529 .0358271
586.313 .0356146
587.095 .0354174
587.878 .0352346
588.660 .0350650
589.441 .0349081
590.222 .0347631
591.003 .0346294
591.783 .0345065
592.563 .0343938
593.342 .0342904
594.121 .0341954
594.899 .0341081
595.678 .0340273
596.455 .0339522
597.233 .0338819
598.009 .0338157
598.786 .0337532
599.562 .0336941
600.338 .0336381
601.113 .0335852
601.888 .0335158
602.663 .0334699
603.437 .0334267
604.211 .0333858
604.984 .0333471
605.757 .0333104
606.530 .0332754
607.302 .0332421
608.074 .0332103
608.845 .0331800
609.616 .0331512
610.387 .0331404
611.158 .0331134
611.928 .0330876
612.697 .0330629
613.467 .0330392
614.236 .0330164
615.004 .0329943
615.773 .0329726
616.541 .0329513
617.308 .0329302
618.076 .0329091
618.843 .0328880
619.609 .0328665
620.375 .0328447
621.141 .0328224
621.907 .0327994
622.672 .0327756
623.437 .0327510
624.202 .0327255
624.966 .0326989
625.730 .0326713
626.493 .0326426
627.257 .0326129
628.020 .0325821
628.782 .0325503
629.545 .0325174
630.307 .0324836
631.068 .0324488
631.830 .0324129
632.591 .0323762
633.352 .0323385
634.112 .0323000
634.872 .0322607
635.632 .0322209
636.392 .0321807
637.151 .0321402
637.910 .0320996
638.668 .0320592
639.427 .0320191
640.185 .0319794
640.943 .0319401
641.700 .0319015
642.457 .0318635
643.214 .0318263
643.971 .0317899
644.727 .0317544
645.483 .0317198
646.239 .0316863
646.994 .0316538
647.750 .0316223
648.505 .0315919
649.259 .0315623
650.014 .0315337
650.768 .0315059
651.521 .0314788
652.275 .0314524
653.028 .0314265
653.781 .0314011
654.534 .0313760
655.286 .0313512
656.039 .0313265
656.791 .0313019
657.542 .0312773
658.294 .0312528
659.045 .0312282
659.796 .0312036
660.546 .0311790
661.297 .0311544
662.047 .0311297
662.796 .0311050
663.546 .0310803
664.295 .0310555
665.044 .0310308
665.793 .0310062
666.542 .0309819
667.290 .0309578
668.038 .0309343
668.786 .0309113
669.533 .0308889
670.281 .0308672
671.028 .0308462
671.774 .0308260
672.521 .0308066
673.267 .0307880
674.013 .0307703
674.759 .0307533
675.505 .0307371
676.250 .0307216
676.995 .0307067
677.740 .0306923
678.484 .0306782
679.229 .0306644
679.973 .0306507
680.717 .0306371
681.460 .0306237
682.204 .0306103
682.947 .0305968
683.690 .0305832
684.433 .0305695
685.175 .0305555
685.917 .0305412
686.659 .0305265
687.401 .0305113
688.142 .0304957
688.884 .0304796
689.625 .0304631
690.365 .0304461
691.106 .0304286
691.846 .0304108
692.586 .0303926
693.326 .0303741
694.066 .0303553
694.805 .0303362
695.545 .0303170
696.284 .0302976
697.022 .0302782
697.761 .0302587
698.499 .0302392
699.237 .0302198
699.975 .0302004
700.713 .0301809
701.450 .0301615
702.187 .0301419
702.924 .0301223
703.661 .0301025
704.397 .0300824
705.133 .0300621
705.869 .0300416
706.605 .0300208
707.341 .0299996
708.076 .0299780
708.811 .0299561
709.546 .0299338
710.281 .0299110
711.015 .0298878
711.749 .0298640
712.483 .0298396
713.217 .0298147
713.950 .0297893
714.684 .0297633
715.417 .0297370
716.150 .0297102
716.882 .0296831
717.615 .0296557
718.347 .0296279
719.079 .0295999
719.811 .0295717
720.542 .0295433
721.273 .0295147
722.005 .0294859
722.735 .0294571
723.466 .0294283
724.196 .0293996
724.927 .0293710
725.656 .0293427
726.386 .0293147
727.116 .0292871
727.845 .0292599
728.574 .0292334
729.303 .0292074
730.031 .0291821
730.760 .0291575
731.488 .0291336
732.216 .0291103
732.944 .0290877
733.671 .0290657
734.398 .0290444
735.125 .0290238
735.852 .0290039
736.579 .0289849
737.305 .0289666
738.031 .0289492
738.757 .0289326
739.483 .0289167
740.208 .0289016
740.933 .0288871
741.658 .0288731
742.383 .0288597
743.108 .0288467
743.832 .0288341
744.556 .0288220
745.280 .0288104
746.004 .0287991
746.727 .0287883
747.450 .0287778
748.173 .0287676
748.896 .0287577
749.618 .0287481
750.340 .0287386
751.062 .0287293
751.784 .0287200
752.506 .0287108
753.227 .0287015
753.948 .0286923
754.669 .0286829
755.389 .0286734
756.110 .0286637
756.830 .0286539
757.550 .0286440
758.269 .0286339
758.989 .0286238
759.708 .0286135
760.427 .0286033
761.146 .0285930
761.864 .0285829
762.582 .0285727
763.300 .0285628
764.018 .0285529
764.736 .0285433
765.453 .0285339
766.170 .0285249
766.887 .0285162
767.603 .0285078
768.320 .0285000
769.036 .0284927
769.751 .0284859
770.467 .0284798
771.182 .0284742
771.897 .0284693
772.612 .0284650
773.327 .0284614
774.041 .0284582
774.755 .0284557
775.469 .0284537
776.183 .0284522
776.896 .0284512
777.609 .0284506
778.322 .0284505
779.035 .0284508
779.747 .0284514
780.459 .0284522
781.171 .0284532
781.882 .0284543
782.594 .0284554
783.305 .0284564
784.016 .0284573
784.726 .0284579
785.436 .0284582
786.147 .0284570
786.856 .0284559
787.566 .0284541
788.275 .0284518
788.984 .0284487
789.693 .0284449
790.401 .0284404
791.110 .0284351
791.818 .0284289
792.525 .0284219
793.233 .0284137
793.940 .0284045
794.647 .0283969
795.353 .0283861
796.060 .0283742
796.766 .0283612
797.472 .0283472
798.177 .0283322
798.883 .0283162
799.588 .0282994
800.292 .0282817
800.997 .0282632
801.701 .0282440
802.405 .0282241
803.109 .0282035
803.812 .0281823
804.515 .0281605
805.218 .0281382
805.921 .0281154
806.623 .0280921
807.325 .0280682
808.027 .0280438
808.728 .0280191
809.429 .0279939
810.130 .0279685
810.831 .0279428
811.531 .0279169
812.231 .0278909
812.931 .0278648
813.630 .0278387
814.330 .0278126
815.029 .0277866
815.727 .0277607
816.426 .0277350
817.124 .0277096
817.821 .0276844
818.519 .0276595
819.216 .0276349
819.913 .0276106
820.609 .0275868
821.306 .0275635
822.002 .0275408
822.697 .0275188
823.393 .0274975
824.088 .0274770
824.783 .0274573
825.477 .0274383
826.171 .0274201
826.865 .0274025
827.559 .0273855
828.252 .0273692
828.945 .0273536
829.638 .0273387
830.330 .0273244
831.023 .0273109
831.714 .0272979
832.406 .0272856
833.097 .0272736
833.788 .0272620
834.479 .0272506
835.169 .0272395
835.859 .0272285
836.548 .0272177
837.238 .0272070
837.927 .0271964
838.615 .0271858
839.304 .0271752
839.992 .0271645
840.680 .0271537
841.367 .0271427
842.054 .0271318
842.741 .0271208
843.428 .0271100
844.114 .0270992
844.800 .0270886
845.485 .0270781
846.170 .0270676
846.855 .0270571
847.540 .0270463
848.224 .0270354
848.908 .0270243
849.592 .0270130
850.275 .0270015
850.958 .0269901
851.641 .0269787
852.323 .0269674
853.005 .0269563
853.687 .0269452
854.368 .0269343
855.049 .0269235
855.730 .0269127
856.410 .0269020
857.090 .0268915
857.769 .0268810
858.449 .0268707
859.128 .0268605
859.806 .0268505
860.485 .0268406
861.163 .0268310
861.840 .0268215
862.518 .0268123
863.195 .0268033
863.871 .0267947
864.548 .0267865
865.224 .0267787
865.899 .0267713
866.574 .0267643
867.249 .0267577
867.924 .0267515
868.598 .0267457
869.272 .0267404
869.946 .0267355
870.619 .0267312
871.292 .0267274
871.964 .0267243
872.636 .0267218
873.308 .0267200
873.979 .0267188
874.651 .0267182
875.321 .0267183
875.992 .0267188
876.662 .0267199
877.331 .0267216
878.001 .0267237
878.670 .0267264
879.338 .0267297
880.007 .0267335
880.675 .0267378
881.342 .0267427
882.009 .0267481
882.676 .0267539
883.343 .0267603
884.009 .0267671
884.675 .0267744
885.340 .0267821
886.005 .0267901
886.670 .0267985
887.334 .0268073
887.998 .0268163
888.662 .0268256
889.325 .0268352
889.988 .0268449
890.650 .0268548
891.312 .0268649
891.974 .0268750
892.636 .0268851
893.297 .0268952
893.957 .0269052
894.618 .0269151
895.278 .0269246
895.937 .0269338
896.596 .0269424
897.255 .0269505
897.914 .0269578
898.572 .0269643
899.230 .0269698
899.887 .0269742
900.544 .0269773
901.201 .0269792
901.857 .0269759
902.513 .0269742
903.168 .0269710
903.823 .0269664
904.478 .0269604
905.132 .0269528
905.786 .0269437
906.440 .0269331
907.093 .0269211
907.746 .0269076
908.399 .0268928
909.051 .0268768
909.703 .0268597
910.354 .0268482
911.005 .0268301
911.656 .0268110
912.306 .0267912
912.956 .0267707
913.605 .0267495
914.254 .0267278
914.903 .0267056
915.551 .0266830
916.199 .0266601
916.847 .0266372
917.494 .0266141
918.141 .0265911
918.788 .0265680
919.434 .0265449
920.079 .0265217
920.725 .0264985
921.370 .0264750
922.014 .0264513
922.658 .0264274
923.302 .0264032
923.946 .0263787
924.589 .0263540
925.231 .0263289
925.873 .0263036
926.515 .0262778
927.157 .0262517
927.798 .0262252
928.439 .0261983
929.079 .0261710
929.719 .0261434
930.359 .0261154
930.998 .0260872
931.637 .0260587
932.275 .0260302
932.913 .0260016
933.551 .0259729
934.188 .0259444
934.825 .0259160
935.462 .0258878
936.098 .0258599
936.733 .0258323
937.369 .0258050
938.004 .0257781
938.638 .0257518
939.273 .0257259
939.907 .0257007
940.540 .0256761
941.173 .0256522
941.806 .0256290
942.438 .0256065
943.070 .0255847
943.702 .0255635
944.333 .0255429
944.964 .0255229
945.594 .0255033
946.224 .0254840
946.854 .0254651
947.483 .0254465
948.112 .0254280
948.741 .0254097
949.369 .0253915
949.996 .0253733
950.624 .0253552
951.251 .0253369
951.878 .0253186
952.504 .0253001
953.130 .0252814
953.755 .0252626
954.380 .0252436
955.005 .0252245
955.629 .0252051
956.253 .0251857
956.877 .0251660
957.500 .0251462
958.123 .0251263
958.746 .0251062
959.368 .0250861
959.990 .0250660
960.611 .0250459
961.232 .0250259
961.853 .0250062
962.473 .0249867
963.093 .0249676
963.712 .0249489
964.331 .0249305
964.950 .0249126
965.569 .0248951
966.187 .0248780
966.804 .0248612
967.422 .0248448
968.039 .0248287
968.655 .0248130
969.272 .0247975
969.887 .0247825
970.503 .0247677
971.118 .0247533
971.733 .0247391
972.347 .0247252
972.961 .0247115
973.575 .0246979
974.188 .0246845
974.801 .0246713
975.414 .0246581
976.026 .0246452
976.638 .0246323
977.250 .0246196
977.861 .0246071
978.472 .0245946
979.083 .0245822
979.693 .0245698
980.303 .0245573
980.912 .0245387
981.521 .0245265
982.130 .0245144
982.738 .0245026
983.346 .0244910
983.954 .0244798
984.562 .0244689
985.169 .0244586
985.775 .0244486
986.382 .0244392
986.988 .0244304
987.594 .0244222
988.199 .0244147
988.804 .0244081
989.409 .0244075
990.013 .0244025
990.617 .0243986
991.221 .0243957
991.824 .0243937
992.427 .0243927
993.030 .0243926
993.632 .0243933
994.234 .0243946
994.836 .0243967
995.438 .0243996
996.039 .0244031
996.640 .0244074
997.240 .0244125
997.840 .0244183
998.440 .0244247
999.040 .0244317
999.639 .0244392
1000.238 .0244469
1000.836 .0244550
1001.435 .0244634
1002.033 .0244722
1002.630 .0244813
1003.228 .0244910
1003.825 .0245010
1004.422 .0245116
1005.018 .0245225
1005.614 .0245337
1006.210 .0245451
1006.806 .0245566
1007.401 .0245681
1007.996 .0245797
1008.591 .0245915
1009.186 .0246034
1009.780 .0246156
1010.374 .0246280
1010.967 .0246407
1011.561 .0246536
1012.154 .0246667
1012.746 .0246799
1013.339 .0246931
1013.931 .0247064
1014.523 .0247197
1015.115 .0247331
1015.706 .0247468
1016.298 .0247607
1016.888 .0247751
1017.479 .0247900
1018.069 .0248055
1018.660 .0248216
1019.250 .0248381
1019.839 .0248551
1020.429 .0248724
1021.018 .0248901
1021.607 .0249080
1022.195 .0249261
1022.784 .0249446
1023.372 .0249634
1023.960 .0249825
1024.547 .0250020
1025.135 .0250217
1025.722 .0250416
1026.309 .0250616
1026.896 .0250817
1027.483 .0251017
1028.069 .0251217
1028.655 .0251417
1029.241 .0251617
1029.827 .0251817
1030.412 .0252019
1030.997 .0252223
1031.582 .0252429
1032.167 .0252636
1032.752 .0252844
1033.336 .0253052
1033.921 .0253259
1034.505 .0253463
1035.089 .0253664
1035.672 .0253862
1036.256 .0254055
1036.839 .0254244
1037.422 .0254428
1038.005 .0254607
1038.588 .0254780
1039.171 .0254947
1039.753 .0255108
1040.335 .0255261
1040.918 .0255408
1041.500 .0255546
1042.081 .0255677
1042.663 .0255801
1043.244 .0255918
1043.826 .0256031
1044.407 .0256139
1044.988 .0256244
1045.569 .0256346
1046.150 .0256445
1046.730 .0256542
1047.311 .0256637
1047.891 .0256727
1048.471 .0256813
1049.052 .0256895
1049.632 .0256971
1050.211 .0257043
1050.791 .0257111
1051.371 .0257176
1051.950 .0257237
1052.530 .0257296
1053.109 .0257350
1053.688 .0257400
1054.268 .0257445
1054.847 .0257486
1055.426 .0257522
1056.005 .0257554
1056.583 .0257584
1057.162 .0257613
1057.741 .0257641
1058.319 .0257670
1058.898 .0257701
1059.476 .0257733
1060.055 .0257765
1060.633 .0257797
1061.211 .0257828
1061.790 .0257857
1062.368 .0257884
1062.946 .0257907
1063.524 .0257928
1064.102 .0257946
1064.680 .0257960
1065.258 .0257969
1065.836 .0257973
1066.414 .0257970
1066.992 .0257961
1067.570 .0257945
1068.148 .0257920
1068.726 .0257888
1069.304 .0257850
1069.882 .0257806
1070.460 .0257759
1071.038 .0257711
1071.616 .0257661
1072.194 .0257612
1072.772 .0257563
1073.350 .0257515
1073.928 .0257467
1074.506 .0257419
1075.084 .0257371
1075.662 .0257323
1076.240 .0257274
1076.819 .0257226
1077.397 .0257178
1077.976 .0257131
1078.554 .0257085
1079.133 .0257039
1079.711 .0256992
1080.290 .0256943
1080.869 .0256892
1081.448 .0256839
1082.027 .0256784
1082.606 .0256728
1083.185 .0256672
1083.764 .0256618
1084.343 .0256565
1084.923 .0256516
1085.502 .0256470
1086.082 .0256427
1086.662 .0256388
1087.242 .0256350
1087.822 .0256315
1088.402 .0256281
1088.983 .0256248
1089.563 .0256219
1090.144 .0256192
1090.725 .0256169
1091.306 .0256151
1091.887 .0256140
1092.469 .0256135
1093.050 .0256137
1093.632 .0256145
1094.214 .0256159
1094.796 .0256179
1095.379 .0256204
1095.961 .0256233
1096.544 .0256267
1097.127 .0256308
1097.710 .0256355
1098.294 .0256410
1098.877 .0256473
1099.461 .0256545
1100.046 .0256626
1100.630 .0256717
1101.215 .0256816
1101.800 .0256922
1102.385 .0257034
1102.970 .0257150
1103.556 .0257271
1104.142 .0257397
1104.728 .0257526
1105.315 .0257661
1105.902 .0257802
1106.489 .0257950
1107.077 .0258105
1107.664 .0258268
1108.253 .0258438
1108.841 .0258612
1109.430 .0258790
1110.019 .0258970
1110.609 .0259152
1111.198 .0259337
1111.789 .0259524
1112.379 .0259717
1112.970 .0259917
1113.561 .0260128
1114.153 .0260350
1114.745 .0260587
1115.338 .0260840
1115.931 .0261108
1116.524 .0261392
1117.117 .0261690
1117.712 .0262001
1118.306 .0262326
1118.901 .0262664
1119.496 .0263014
1120.092 .0263376
1120.689 .0263749
1121.285 .0264132
1121.882 .0264524
1122.480 .0264926
1123.078 .0265337
1123.677 .0265755
1124.276 .0266179
1124.875 .0266610
1125.476 .0267050
1126.076 .0267501
1126.677 .0267965
1127.279 .0268444
1127.881 .0268940
1128.484 .0269453
1129.087 .0269693
1129.691 .0270233
1130.295 .0270793
1130.900 .0271372
1131.505 .0271968
1132.111 .0272582
1132.718 .0273213
1133.325 .0273861
1133.933 .0274527
1134.541 .0275181
1135.150 .0275945
1135.760 .0276661
1136.370 .0277366
1136.981 .0277325
1137.592 .0278167
1138.204 .0279112
1138.817 .0280063
1139.431 .0281024
1140.045 .0282059
1140.660 .0283104
1141.275 .0284153
1141.891 .0285213
1142.508 .0285418
1143.126 .0289030
1143.744 .0288238
1144.363 .0288455
1144.983 .0290290
