Measurement Sequence started on: 15-12-46-377
Integration time: 28
Scans to Average: 2 
>>>>>Begin Spectral Data<<<<<
432.689 .0000100
433.621 .0000100
434.552 .0000100
435.482 .0000100
436.410 .0000100
437.337 .0000100
438.262 .0293992
439.187 .0622603
440.110 .1030871
441.031 .1490949
441.952 .1191079
442.871 .1243132
443.789 .1291400
444.705 .1336668
445.621 .1379481
446.535 .1420269
447.447 .1443876
448.359 .1448732
449.269 .1430850
450.178 .1387661
451.086 .1320002
451.993 .1233018
452.898 .1135192
453.803 .1036139
454.706 .0944032
455.608 .0863953
456.508 .0797604
457.408 .0752557
458.306 .0717877
459.204 .0689646
460.100 .0665900
460.995 .0645544
461.888 .0627815
462.781 .0612191
463.673 .0598271
464.563 .0585769
465.452 .0574458
466.340 .0564165
467.228 .0554764
468.114 .0546164
468.999 .0538286
469.882 .0531064
470.765 .0524441
471.647 .0518373
472.528 .0512821
473.407 .0507757
474.286 .0503155
475.163 .0499002
476.040 .0495283
476.915 .0491981
477.790 .0489078
478.663 .0486553
479.535 .0484384
480.407 .0482543
481.277 .0480999
482.147 .0479714
483.015 .0478652
483.883 .0477780
484.749 .0477068
485.615 .0476498
486.479 .0476053
487.343 .0475725
488.206 .0475511
489.067 .0475403
489.928 .0475401
490.788 .0475503
491.647 .0475713
492.505 .0476028
493.362 .0476457
494.218 .0477003
495.073 .0477682
495.928 .0479311
496.781 .0480439
497.634 .0481775
498.486 .0483347
499.337 .0485183
500.187 .0487312
501.036 .0489763
501.884 .0492570
502.731 .0495771
503.578 .0499397
504.424 .0502141
505.268 .0506545
506.113 .0511487
506.956 .0517008
507.798 .0523154
508.640 .0529987
509.480 .0537588
510.320 .0546054
511.160 .0555494
511.998 .0566039
512.836 .0577864
513.672 .0591150
514.508 .0606106
515.344 .0622943
516.178 .0641874
517.012 .0663122
517.845 .0686901
518.677 .0713386
519.508 .0742733
520.339 .0775026
521.169 .0810304
521.998 .0848376
522.826 .0888965
523.654 .0931632
524.481 .0975797
525.307 .1020795
526.133 .1065816
526.958 .1109946
527.782 .1152271
528.605 .1191885
529.428 .1227974
530.250 .1259778
531.072 .1286745
531.892 .1308427
532.712 .1324524
533.532 .1334889
534.350 .1339457
535.168 .1338261
535.986 .1331411
536.802 .1318979
537.618 .1301070
538.434 .1277816
539.249 .1249557
540.063 .1216719
540.876 .1179831
541.689 .1139582
542.501 .1096711
543.313 .1052053
544.124 .1006532
544.934 .0961031
545.744 .0916410
546.553 .0873409
547.361 .0832665
548.169 .0794590
548.976 .0759464
549.783 .0727410
550.589 .0698383
551.395 .0672234
552.200 .0648723
553.004 .0627558
553.808 .0608480
554.611 .0591258
555.414 .0575679
556.216 .0561543
557.018 .0548659
557.819 .0536882
558.619 .0526053
559.419 .0516047
560.218 .0506776
561.017 .0498149
561.815 .0490092
562.613 .0482541
563.410 .0475432
564.207 .0468704
565.003 .0462304
565.799 .0456177
566.594 .0450268
567.388 .0444540
568.182 .0438965
568.976 .0433518
569.769 .0428192
570.562 .0422992
571.354 .0417925
572.145 .0413010
572.936 .0408256
573.727 .0403665
574.517 .0399239
575.307 .0394985
576.096 .0390895
576.885 .0386961
577.673 .0383180
578.461 .0379553
579.248 .0376075
580.035 .0372749
580.821 .0369574
581.607 .0366556
582.392 .0363699
583.177 .0361008
583.962 .0358482
584.746 .0356121
585.529 .0353921
586.313 .0351875
587.095 .0349974
587.878 .0348208
588.660 .0346567
589.441 .0345045
590.222 .0343636
591.003 .0342337
591.783 .0341142
592.563 .0340048
593.342 .0339049
594.121 .0338141
594.899 .0337314
595.678 .0336561
596.455 .0335873
597.233 .0335242
598.009 .0334662
598.786 .0334124
599.562 .0333623
600.338 .0333155
601.113 .0332717
601.888 .0332145
602.663 .0331764
603.437 .0331403
604.211 .0331059
604.984 .0330731
605.757 .0330416
606.530 .0330112
607.302 .0329816
608.074 .0329527
608.845 .0329243
609.616 .0328963
610.387 .0328834
611.158 .0328561
611.928 .0328293
612.697 .0328029
613.467 .0327770
614.236 .0327514
615.004 .0327260
615.773 .0327008
616.541 .0326754
617.308 .0326499
618.076 .0326241
618.843 .0325981
619.609 .0325718
620.375 .0325454
621.141 .0325189
621.907 .0324923
622.672 .0324655
623.437 .0324386
624.202 .0324113
624.966 .0323837
625.730 .0323556
626.493 .0323270
627.257 .0322979
628.020 .0322683
628.782 .0322382
629.545 .0322076
630.307 .0321766
631.068 .0321454
631.830 .0321140
632.591 .0320824
633.352 .0320508
634.112 .0320194
634.872 .0319880
635.632 .0319567
636.392 .0319254
637.151 .0318941
637.910 .0318627
638.668 .0318313
639.427 .0317999
640.185 .0317686
640.943 .0317377
641.700 .0317071
642.457 .0316771
643.214 .0316477
643.971 .0316188
644.727 .0315905
645.483 .0315627
646.239 .0315352
646.994 .0315082
647.750 .0314816
648.505 .0314555
649.259 .0314300
650.014 .0314051
650.768 .0313808
651.521 .0313572
652.275 .0313342
653.028 .0313118
653.781 .0312901
654.534 .0312690
655.286 .0312486
656.039 .0312289
656.791 .0312099
657.542 .0311917
658.294 .0311743
659.045 .0311576
659.796 .0311417
660.546 .0311265
661.297 .0311118
662.047 .0310977
662.796 .0310841
663.546 .0310708
664.295 .0310580
665.044 .0310456
665.793 .0310334
666.542 .0310215
667.290 .0310098
668.038 .0309982
668.786 .0309869
669.533 .0309756
670.281 .0309645
671.028 .0309534
671.774 .0309424
672.521 .0309314
673.267 .0309203
674.013 .0309091
674.759 .0308976
675.505 .0308858
676.250 .0308736
676.995 .0308610
677.740 .0308481
678.484 .0308349
679.229 .0308213
679.973 .0308076
680.717 .0307936
681.460 .0307794
682.204 .0307648
682.947 .0307498
683.690 .0307342
684.433 .0307179
685.175 .0307009
685.917 .0306832
686.659 .0306649
687.401 .0306460
688.142 .0306266
688.884 .0306068
689.625 .0305865
690.365 .0305658
691.106 .0305445
691.846 .0305228
692.586 .0305005
693.326 .0304778
694.066 .0304545
694.805 .0304310
695.545 .0304071
696.284 .0303830
697.022 .0303587
697.761 .0303343
698.499 .0303098
699.237 .0302852
699.975 .0302606
700.713 .0302361
701.450 .0302117
702.187 .0301873
702.924 .0301632
703.661 .0301391
704.397 .0301152
705.133 .0300914
705.869 .0300676
706.605 .0300440
707.341 .0300204
708.076 .0299969
708.811 .0299736
709.546 .0299503
710.281 .0299273
711.015 .0299043
711.749 .0298814
712.483 .0298586
713.217 .0298358
713.950 .0298131
714.684 .0297906
715.417 .0297682
716.150 .0297462
716.882 .0297244
717.615 .0297030
718.347 .0296819
719.079 .0296611
719.811 .0296407
720.542 .0296205
721.273 .0296007
722.005 .0295811
722.735 .0295620
723.466 .0295432
724.196 .0295251
724.927 .0295076
725.656 .0294908
726.386 .0294748
727.116 .0294596
727.845 .0294452
728.574 .0294317
729.303 .0294189
730.031 .0294069
730.760 .0293957
731.488 .0293851
732.216 .0293751
732.944 .0293657
733.671 .0293569
734.398 .0293486
735.125 .0293407
735.852 .0293334
736.579 .0293265
737.305 .0293200
738.031 .0293139
738.757 .0293082
739.483 .0293029
740.208 .0292978
740.933 .0292931
741.658 .0292885
742.383 .0292841
743.108 .0292800
743.832 .0292760
744.556 .0292723
745.280 .0292689
746.004 .0292658
746.727 .0292631
747.450 .0292608
748.173 .0292588
748.896 .0292572
749.618 .0292559
750.340 .0292548
751.062 .0292538
751.784 .0292530
752.506 .0292521
753.227 .0292512
753.948 .0292502
754.669 .0292490
755.389 .0292476
756.110 .0292458
756.830 .0292438
757.550 .0292414
758.269 .0292385
758.989 .0292352
759.708 .0292314
760.427 .0292270
761.146 .0292219
761.864 .0292160
762.582 .0292092
763.300 .0292016
764.018 .0291930
764.736 .0291833
765.453 .0291728
766.170 .0291614
766.887 .0291491
767.603 .0291361
768.320 .0291224
769.036 .0291080
769.751 .0290929
770.467 .0290771
771.182 .0290607
771.897 .0290436
772.612 .0290259
773.327 .0290075
774.041 .0289886
774.755 .0289691
775.469 .0289491
776.183 .0289287
776.896 .0289080
777.609 .0288868
778.322 .0288653
779.035 .0288435
779.747 .0288214
780.459 .0287990
781.171 .0287764
781.882 .0287535
782.594 .0287304
783.305 .0287070
784.016 .0286833
784.726 .0286593
785.436 .0286350
786.147 .0285979
786.856 .0285731
787.566 .0285482
788.275 .0285232
788.984 .0284983
789.693 .0284733
790.401 .0284485
791.110 .0284238
791.818 .0283992
792.525 .0283747
793.233 .0283505
793.940 .0283264
794.647 .0283152
795.353 .0282919
796.060 .0282691
796.766 .0282469
797.472 .0282252
798.177 .0282042
798.883 .0281837
799.588 .0281638
800.292 .0281444
800.997 .0281256
801.701 .0281071
802.405 .0280891
803.109 .0280716
803.812 .0280544
804.515 .0280376
805.218 .0280211
805.921 .0280049
806.623 .0279889
807.325 .0279731
808.027 .0279575
808.728 .0279422
809.429 .0279270
810.130 .0279122
810.831 .0278977
811.531 .0278835
812.231 .0278696
812.931 .0278561
813.630 .0278429
814.330 .0278301
815.029 .0278177
815.727 .0278057
816.426 .0277943
817.124 .0277835
817.821 .0277735
818.519 .0277643
819.216 .0277560
819.913 .0277487
820.609 .0277423
821.306 .0277369
822.002 .0277326
822.697 .0277293
823.393 .0277271
824.088 .0277258
824.783 .0277256
825.477 .0277263
826.171 .0277278
826.865 .0277300
827.559 .0277328
828.252 .0277362
828.945 .0277400
829.638 .0277442
830.330 .0277488
831.023 .0277536
831.714 .0277586
832.406 .0277638
833.097 .0277691
833.788 .0277744
834.479 .0277798
835.169 .0277851
835.859 .0277905
836.548 .0277959
837.238 .0278014
837.927 .0278068
838.615 .0278124
839.304 .0278179
839.992 .0278235
840.680 .0278291
841.367 .0278348
842.054 .0278405
842.741 .0278462
843.428 .0278521
844.114 .0278581
844.800 .0278643
845.485 .0278705
846.170 .0278768
846.855 .0278831
847.540 .0278893
848.224 .0278954
848.908 .0279013
849.592 .0279070
850.275 .0279124
850.958 .0279176
851.641 .0279224
852.323 .0279268
853.005 .0279306
853.687 .0279339
854.368 .0279364
855.049 .0279381
855.730 .0279390
856.410 .0279390
857.090 .0279382
857.769 .0279365
858.449 .0279340
859.128 .0279307
859.806 .0279264
860.485 .0279213
861.163 .0279154
861.840 .0279086
862.518 .0279009
863.195 .0278925
863.871 .0278834
864.548 .0278736
865.224 .0278631
865.899 .0278519
866.574 .0278400
867.249 .0278274
867.924 .0278140
868.598 .0277998
869.272 .0277848
869.946 .0277689
870.619 .0277523
871.292 .0277349
871.964 .0277169
872.636 .0276982
873.308 .0276790
873.979 .0276592
874.651 .0276389
875.321 .0276181
875.992 .0275966
876.662 .0275746
877.331 .0275519
878.001 .0275286
878.670 .0275046
879.338 .0274799
880.007 .0274546
880.675 .0274286
881.342 .0274019
882.009 .0273747
882.676 .0273469
883.343 .0273187
884.009 .0272900
884.675 .0272609
885.340 .0272316
886.005 .0272020
886.670 .0271723
887.334 .0271424
887.998 .0271126
888.662 .0270829
889.325 .0270533
889.988 .0270239
890.650 .0269947
891.312 .0269658
891.974 .0269373
892.636 .0269091
893.297 .0268814
893.957 .0268540
894.618 .0268270
895.278 .0268004
895.937 .0267740
896.596 .0267480
897.255 .0267221
897.914 .0266964
898.572 .0266707
899.230 .0266451
899.887 .0266195
900.544 .0265939
901.201 .0265682
901.857 .0265286
902.513 .0265025
903.168 .0264763
903.823 .0264500
904.478 .0264236
905.132 .0263973
905.786 .0263709
906.440 .0263446
907.093 .0263183
907.746 .0262920
908.399 .0262659
909.051 .0262400
909.703 .0262144
910.354 .0262029
911.005 .0261783
911.656 .0261543
912.306 .0261308
912.956 .0261081
913.605 .0260861
914.254 .0260650
914.903 .0260448
915.551 .0260255
916.199 .0260071
916.847 .0259896
917.494 .0259730
918.141 .0259573
918.788 .0259424
919.434 .0259283
920.079 .0259150
920.725 .0259024
921.370 .0258906
922.014 .0258794
922.658 .0258688
923.302 .0258587
923.946 .0258492
924.589 .0258402
925.231 .0258316
925.873 .0258234
926.515 .0258154
927.157 .0258079
927.798 .0258006
928.439 .0257936
929.079 .0257869
929.719 .0257806
930.359 .0257746
930.998 .0257688
931.637 .0257634
932.275 .0257583
932.913 .0257534
933.551 .0257490
934.188 .0257449
934.825 .0257412
935.462 .0257380
936.098 .0257354
936.733 .0257334
937.369 .0257319
938.004 .0257311
938.638 .0257308
939.273 .0257312
939.907 .0257322
940.540 .0257338
941.173 .0257361
941.806 .0257390
942.438 .0257425
943.070 .0257466
943.702 .0257513
944.333 .0257565
944.964 .0257621
945.594 .0257681
946.224 .0257743
946.854 .0257808
947.483 .0257874
948.112 .0257941
948.741 .0258010
949.369 .0258081
949.996 .0258153
950.624 .0258227
951.251 .0258303
951.878 .0258379
952.504 .0258457
953.130 .0258535
953.755 .0258614
954.380 .0258694
955.005 .0258775
955.629 .0258856
956.253 .0258938
956.877 .0259020
957.500 .0259103
958.123 .0259185
958.746 .0259268
959.368 .0259350
959.990 .0259432
960.611 .0259515
961.232 .0259598
961.853 .0259683
962.473 .0259769
963.093 .0259857
963.712 .0259947
964.331 .0260038
964.950 .0260132
965.569 .0260228
966.187 .0260325
966.804 .0260423
967.422 .0260522
968.039 .0260622
968.655 .0260721
969.272 .0260820
969.887 .0260918
970.503 .0261013
971.118 .0261107
971.733 .0261196
972.347 .0261282
972.961 .0261361
973.575 .0261435
974.188 .0261502
974.801 .0261563
975.414 .0261616
976.026 .0261663
976.638 .0261702
977.250 .0261735
977.861 .0261761
978.472 .0261780
979.083 .0261793
979.693 .0261799
980.303 .0261797
980.912 .0261762
981.521 .0261744
982.130 .0261718
982.738 .0261687
983.346 .0261649
983.954 .0261606
984.562 .0261559
985.169 .0261507
985.775 .0261450
986.382 .0261390
986.988 .0261327
987.594 .0261261
988.199 .0261192
988.804 .0261121
989.409 .0261086
990.013 .0261015
990.617 .0260944
991.221 .0260874
991.824 .0260804
992.427 .0260735
993.030 .0260665
993.632 .0260594
994.234 .0260522
994.836 .0260449
995.438 .0260373
996.039 .0260295
996.640 .0260214
997.240 .0260132
997.840 .0260047
998.440 .0259961
999.040 .0259872
999.639 .0259779
1000.238 .0259684
1000.836 .0259584
1001.435 .0259479
1002.033 .0259370
1002.630 .0259256
1003.228 .0259136
1003.825 .0259011
1004.422 .0258881
1005.018 .0258744
1005.614 .0258601
1006.210 .0258451
1006.806 .0258295
1007.401 .0258130
1007.996 .0257957
1008.591 .0257777
1009.186 .0257588
1009.780 .0257392
1010.374 .0257189
1010.967 .0256979
1011.561 .0256762
1012.154 .0256541
1012.746 .0256315
1013.339 .0256086
1013.931 .0255855
1014.523 .0255622
1015.115 .0255388
1015.706 .0255156
1016.298 .0254925
1016.888 .0254697
1017.479 .0254472
1018.069 .0254250
1018.660 .0254033
1019.250 .0253819
1019.839 .0253610
1020.429 .0253406
1021.018 .0253208
1021.607 .0253015
1022.195 .0252827
1022.784 .0252645
1023.372 .0252469
1023.960 .0252298
1024.547 .0252132
1025.135 .0251969
1025.722 .0251811
1026.309 .0251656
1026.896 .0251504
1027.483 .0251357
1028.069 .0251213
1028.655 .0251075
1029.241 .0250941
1029.827 .0250811
1030.412 .0250685
1030.997 .0250562
1031.582 .0250439
1032.167 .0250317
1032.752 .0250193
1033.336 .0250067
1033.921 .0249939
1034.505 .0249807
1035.089 .0249674
1035.672 .0249539
1036.256 .0249402
1036.839 .0249262
1037.422 .0249121
1038.005 .0248976
1038.588 .0248826
1039.171 .0248672
1039.753 .0248512
1040.335 .0248349
1040.918 .0248184
1041.500 .0248018
1042.081 .0247854
1042.663 .0247694
1043.244 .0247540
1043.826 .0247392
1044.407 .0247250
1044.988 .0247113
1045.569 .0246981
1046.150 .0246852
1046.730 .0246725
1047.311 .0246599
1047.891 .0246475
1048.471 .0246353
1049.052 .0246234
1049.632 .0246119
1050.211 .0246007
1050.791 .0245901
1051.371 .0245799
1051.950 .0245701
1052.530 .0245607
1053.109 .0245518
1053.688 .0245434
1054.268 .0245356
1054.847 .0245285
1055.426 .0245224
1056.005 .0245174
1056.583 .0245136
1057.162 .0245110
1057.741 .0245094
1058.319 .0245088
1058.898 .0245090
1059.476 .0245097
1060.055 .0245109
1060.633 .0245125
1061.211 .0245145
1061.790 .0245169
1062.368 .0245199
1062.946 .0245235
1063.524 .0245279
1064.102 .0245329
1064.680 .0245388
1065.258 .0245452
1065.836 .0245522
1066.414 .0245600
1066.992 .0245684
1067.570 .0245777
1068.148 .0245877
1068.726 .0245987
1069.304 .0246106
1069.882 .0246233
1070.460 .0246367
1071.038 .0246505
1071.616 .0246646
1072.194 .0246787
1072.772 .0246926
1073.350 .0247065
1073.928 .0247202
1074.506 .0247338
1075.084 .0247475
1075.662 .0247615
1076.240 .0247758
1076.819 .0247904
1077.397 .0248056
1077.976 .0248212
1078.554 .0248374
1079.133 .0248541
1079.711 .0248716
1080.290 .0248900
1080.869 .0249093
1081.448 .0249296
1082.027 .0249509
1082.606 .0249732
1083.185 .0249962
1083.764 .0250198
1084.343 .0250436
1084.923 .0250675
1085.502 .0250914
1086.082 .0251152
1086.662 .0251391
1087.242 .0251632
1087.822 .0251878
1088.402 .0252130
1088.983 .0252391
1089.563 .0252660
1090.144 .0252938
1090.725 .0253224
1091.306 .0253519
1091.887 .0253820
1092.469 .0254127
1093.050 .0254440
1093.632 .0254759
1094.214 .0255082
1094.796 .0255408
1095.379 .0255737
1095.961 .0256064
1096.544 .0256387
1097.127 .0256706
1097.710 .0257019
1098.294 .0257325
1098.877 .0257626
1099.461 .0257924
1100.046 .0258220
1100.630 .0258515
1101.215 .0258810
1101.800 .0259107
1102.385 .0259406
1102.970 .0259707
1103.556 .0260012
1104.142 .0260322
1104.728 .0260637
1105.315 .0260959
1105.902 .0261290
1106.489 .0261628
1107.077 .0261973
1107.664 .0262324
1108.253 .0262680
1108.841 .0263042
1109.430 .0263408
1110.019 .0263781
1110.609 .0264162
1111.198 .0264555
1111.789 .0264960
1112.379 .0265380
1112.970 .0265815
1113.561 .0266265
1114.153 .0266729
1114.745 .0267205
1115.338 .0267692
1115.931 .0268189
1116.524 .0268698
1117.117 .0269219
1117.712 .0269755
1118.306 .0270309
1118.901 .0270881
1119.496 .0271472
1120.092 .0272080
1120.689 .0272700
1121.285 .0273330
1121.882 .0273966
1122.480 .0274606
1123.078 .0275247
1123.677 .0275894
1124.276 .0276550
1124.875 .0277217
1125.476 .0277899
1126.076 .0278598
1126.677 .0279315
1127.279 .0280047
1127.881 .0280790
1128.484 .0281541
1129.087 .0281894
1129.691 .0282648
1130.295 .0283402
1130.900 .0284158
1131.505 .0284917
1132.111 .0285682
1132.718 .0286456
1133.325 .0287243
1133.933 .0288031
1134.541 .0288861
1135.150 .0289671
1135.760 .0290466
1136.370 .0291370
1136.981 .0292698
1137.592 .0293508
1138.204 .0294262
1138.817 .0294985
1139.431 .0295723
1140.045 .0296486
1140.660 .0297293
1141.275 .0298239
1141.891 .0298874
1142.508 .0300718
1143.126 .0300924
1143.744 .0301295
1144.363 .0305167
1144.983 .0295131
