Measurement Sequence started on: 15-12-46-377
Integration time: 28
Scans to Average: 2 
>>>>>Begin Spectral Data<<<<<
432.689 .0000100
433.621 .0000100
434.552 .0000100
435.482 .0000100
436.410 .0000100
437.337 .0000100
438.262 .0269952
439.187 .0572788
440.110 .0949347
441.031 .1373949
441.952 .1099438
442.871 .1148006
443.789 .1193254
444.705 .1235888
445.621 .1276373
446.535 .1315068
447.447 .1338037
448.359 .1343754
449.269 .1328524
450.178 .1289951
451.086 .1228809
451.993 .1149854
452.898 .1060893
453.803 .0970792
454.706 .0887106
455.608 .0814507
456.508 .0754558
457.408 .0714166
458.306 .0683269
459.204 .0658206
460.100 .0637124
460.995 .0618994
461.888 .0603125
462.781 .0589075
463.673 .0576513
464.563 .0565192
465.452 .0554930
466.340 .0545568
467.228 .0536996
468.114 .0529121
468.999 .0521857
469.882 .0515138
470.765 .0508912
471.647 .0503135
472.528 .0497783
473.407 .0492832
474.286 .0488270
475.163 .0484094
476.040 .0480302
476.915 .0476891
477.790 .0473853
478.663 .0471183
479.535 .0468870
480.407 .0466896
481.277 .0465251
482.147 .0463910
483.015 .0462857
483.883 .0462079
484.749 .0461560
485.615 .0461289
486.479 .0461257
487.343 .0461454
488.206 .0461874
489.067 .0462502
489.928 .0463327
490.788 .0464335
491.647 .0465517
492.505 .0466862
493.362 .0468358
494.218 .0470002
495.073 .0471795
495.928 .0474995
496.781 .0477174
497.634 .0479513
498.486 .0482028
499.337 .0484735
500.187 .0487659
501.036 .0490822
501.884 .0494259
502.731 .0498014
503.578 .0502131
504.424 .0505000
505.268 .0509850
506.113 .0515205
506.956 .0521123
507.798 .0527661
508.640 .0534889
509.480 .0542889
510.320 .0551761
511.160 .0561625
511.998 .0572620
512.836 .0584910
513.672 .0598673
514.508 .0614108
515.344 .0631424
516.178 .0650840
517.012 .0672584
517.845 .0696884
518.677 .0723947
519.508 .0753936
520.339 .0786965
521.169 .0823090
521.998 .0862113
522.826 .0903689
523.654 .0947295
524.481 .0992273
525.307 .1037835
526.133 .1083073
526.958 .1127025
527.782 .1168760
528.605 .1207404
529.428 .1242156
530.250 .1272296
531.072 .1297347
531.892 .1316894
532.712 .1330673
533.532 .1338524
534.350 .1340392
535.168 .1336314
535.986 .1326384
536.802 .1310720
537.618 .1289451
538.434 .1262741
539.249 .1230996
540.063 .1194723
540.876 .1154576
541.689 .1111302
542.501 .1065759
543.313 .1018897
544.124 .0971689
544.934 .0925034
545.744 .0879747
546.553 .0836536
547.361 .0795994
548.169 .0758445
548.976 .0724129
549.783 .0693121
550.589 .0665370
551.395 .0640706
552.200 .0618863
553.004 .0599522
553.808 .0582378
554.611 .0567143
555.414 .0553559
556.216 .0541360
557.018 .0530320
557.819 .0520243
558.619 .0510978
559.419 .0502400
560.218 .0494400
561.017 .0486883
561.815 .0479785
562.613 .0473047
563.410 .0466613
564.207 .0460439
565.003 .0454489
565.799 .0448729
566.594 .0443124
567.388 .0437654
568.182 .0432299
568.976 .0427042
569.769 .0421880
570.562 .0416820
571.354 .0411865
572.145 .0407023
572.936 .0402305
573.727 .0397727
574.517 .0393301
575.307 .0389032
576.096 .0384921
576.885 .0380968
577.673 .0377176
578.461 .0373548
579.248 .0370081
580.035 .0366786
580.821 .0363664
581.607 .0360720
582.392 .0357961
583.177 .0355391
583.962 .0353005
584.746 .0350801
585.529 .0348770
586.313 .0346902
587.095 .0345184
587.878 .0343606
588.660 .0342157
589.441 .0340832
590.222 .0339621
591.003 .0338514
591.783 .0337503
592.563 .0336579
593.342 .0335730
594.121 .0334946
594.899 .0334216
595.678 .0333530
596.455 .0332879
597.233 .0332258
598.009 .0331663
598.786 .0331091
599.562 .0330539
600.338 .0330006
601.113 .0329489
601.888 .0328751
602.663 .0328267
603.437 .0327793
604.211 .0327330
604.984 .0326877
605.757 .0326434
606.530 .0326003
607.302 .0325585
608.074 .0325182
608.845 .0324796
609.616 .0324427
610.387 .0324286
611.158 .0323942
611.928 .0323614
612.697 .0323304
613.467 .0323010
614.236 .0322730
615.004 .0322464
615.773 .0322209
616.541 .0321965
617.308 .0321729
618.076 .0321501
618.843 .0321279
619.609 .0321062
620.375 .0320849
621.141 .0320638
621.907 .0320427
622.672 .0320215
623.437 .0319998
624.202 .0319774
624.966 .0319543
625.730 .0319303
626.493 .0319054
627.257 .0318795
628.020 .0318528
628.782 .0318252
629.545 .0317969
630.307 .0317679
631.068 .0317384
631.830 .0317083
632.591 .0316779
633.352 .0316472
634.112 .0316163
634.872 .0315853
635.632 .0315544
636.392 .0315237
637.151 .0314933
637.910 .0314634
638.668 .0314340
639.427 .0314053
640.185 .0313774
640.943 .0313505
641.700 .0313249
642.457 .0313005
643.214 .0312775
643.971 .0312558
644.727 .0312356
645.483 .0312166
646.239 .0311988
646.994 .0311821
647.750 .0311662
648.505 .0311512
649.259 .0311367
650.014 .0311227
650.768 .0311091
651.521 .0310956
652.275 .0310822
653.028 .0310688
653.781 .0310552
654.534 .0310412
655.286 .0310268
656.039 .0310120
656.791 .0309967
657.542 .0309809
658.294 .0309646
659.045 .0309477
659.796 .0309302
660.546 .0309123
661.297 .0308939
662.047 .0308749
662.796 .0308555
663.546 .0308357
664.295 .0308154
665.044 .0307947
665.793 .0307738
666.542 .0307527
667.290 .0307315
668.038 .0307102
668.786 .0306888
669.533 .0306675
670.281 .0306462
671.028 .0306249
671.774 .0306036
672.521 .0305823
673.267 .0305610
674.013 .0305396
674.759 .0305181
675.505 .0304966
676.250 .0304751
676.995 .0304536
677.740 .0304320
678.484 .0304105
679.229 .0303889
679.973 .0303674
680.717 .0303459
681.460 .0303245
682.204 .0303032
682.947 .0302818
683.690 .0302603
684.433 .0302388
685.175 .0302172
685.917 .0301954
686.659 .0301736
687.401 .0301518
688.142 .0301299
688.884 .0301080
689.625 .0300862
690.365 .0300645
691.106 .0300429
691.846 .0300213
692.586 .0299997
693.326 .0299782
694.066 .0299567
694.805 .0299352
695.545 .0299139
696.284 .0298928
697.022 .0298720
697.761 .0298514
698.499 .0298312
699.237 .0298113
699.975 .0297919
700.713 .0297730
701.450 .0297548
702.187 .0297371
702.924 .0297201
703.661 .0297036
704.397 .0296878
705.133 .0296724
705.869 .0296575
706.605 .0296430
707.341 .0296288
708.076 .0296150
708.811 .0296015
709.546 .0295884
710.281 .0295755
711.015 .0295628
711.749 .0295502
712.483 .0295377
713.217 .0295252
713.950 .0295125
714.684 .0294997
715.417 .0294868
716.150 .0294737
716.882 .0294604
717.615 .0294469
718.347 .0294332
719.079 .0294192
719.811 .0294051
720.542 .0293908
721.273 .0293765
722.005 .0293621
722.735 .0293479
723.466 .0293339
724.196 .0293202
724.927 .0293069
725.656 .0292941
726.386 .0292817
727.116 .0292699
727.845 .0292585
728.574 .0292478
729.303 .0292376
730.031 .0292280
730.760 .0292191
731.488 .0292107
732.216 .0292029
732.944 .0291954
733.671 .0291883
734.398 .0291815
735.125 .0291748
735.852 .0291682
736.579 .0291617
737.305 .0291552
738.031 .0291488
738.757 .0291424
739.483 .0291359
740.208 .0291292
740.933 .0291223
741.658 .0291151
742.383 .0291076
743.108 .0290996
743.832 .0290911
744.556 .0290822
745.280 .0290728
746.004 .0290630
746.727 .0290527
747.450 .0290420
748.173 .0290308
748.896 .0290191
749.618 .0290070
750.340 .0289945
751.062 .0289815
751.784 .0289681
752.506 .0289543
753.227 .0289402
753.948 .0289257
754.669 .0289108
755.389 .0288956
756.110 .0288800
756.830 .0288642
757.550 .0288480
758.269 .0288316
758.989 .0288151
759.708 .0287984
760.427 .0287815
761.146 .0287645
761.864 .0287474
762.582 .0287301
763.300 .0287126
764.018 .0286949
764.736 .0286772
765.453 .0286593
766.170 .0286415
766.887 .0286236
767.603 .0286059
768.320 .0285883
769.036 .0285709
769.751 .0285537
770.467 .0285369
771.182 .0285204
771.897 .0285042
772.612 .0284884
773.327 .0284731
774.041 .0284582
774.755 .0284438
775.469 .0284299
776.183 .0284166
776.896 .0284039
777.609 .0283918
778.322 .0283802
779.035 .0283692
779.747 .0283586
780.459 .0283485
781.171 .0283389
781.882 .0283296
782.594 .0283207
783.305 .0283121
784.016 .0283038
784.726 .0282956
785.436 .0282876
786.147 .0282757
786.856 .0282677
787.566 .0282597
788.275 .0282517
788.984 .0282436
789.693 .0282355
790.401 .0282274
791.110 .0282191
791.818 .0282107
792.525 .0282021
793.233 .0281935
793.940 .0281847
794.647 .0281802
795.353 .0281715
796.060 .0281629
796.766 .0281542
797.472 .0281455
798.177 .0281367
798.883 .0281278
799.588 .0281188
800.292 .0281095
800.997 .0281000
801.701 .0280904
802.405 .0280806
803.109 .0280708
803.812 .0280609
804.515 .0280509
805.218 .0280410
805.921 .0280309
806.623 .0280208
807.325 .0280105
808.027 .0280003
808.728 .0279900
809.429 .0279798
810.130 .0279697
810.831 .0279598
811.531 .0279501
812.231 .0279406
812.931 .0279312
813.630 .0279221
814.330 .0279132
815.029 .0279045
815.727 .0278962
816.426 .0278883
817.124 .0278808
817.821 .0278738
818.519 .0278672
819.216 .0278612
819.913 .0278556
820.609 .0278503
821.306 .0278454
822.002 .0278409
822.697 .0278367
823.393 .0278328
824.088 .0278294
824.783 .0278263
825.477 .0278236
826.171 .0278211
826.865 .0278189
827.559 .0278167
828.252 .0278144
828.945 .0278120
829.638 .0278094
830.330 .0278066
831.023 .0278036
831.714 .0278005
832.406 .0277972
833.097 .0277938
833.788 .0277902
834.479 .0277864
835.169 .0277824
835.859 .0277781
836.548 .0277737
837.238 .0277690
837.927 .0277642
838.615 .0277591
839.304 .0277540
839.992 .0277486
840.680 .0277432
841.367 .0277375
842.054 .0277316
842.741 .0277254
843.428 .0277188
844.114 .0277119
844.800 .0277046
845.485 .0276969
846.170 .0276888
846.855 .0276803
847.540 .0276713
848.224 .0276618
848.908 .0276518
849.592 .0276413
850.275 .0276303
850.958 .0276186
851.641 .0276064
852.323 .0275937
853.005 .0275804
853.687 .0275665
854.368 .0275522
855.049 .0275373
855.730 .0275220
856.410 .0275062
857.090 .0274900
857.769 .0274734
858.449 .0274563
859.128 .0274389
859.806 .0274211
860.485 .0274030
861.163 .0273847
861.840 .0273664
862.518 .0273481
863.195 .0273299
863.871 .0273119
864.548 .0272941
865.224 .0272767
865.899 .0272595
866.574 .0272425
867.249 .0272258
867.924 .0272094
868.598 .0271932
869.272 .0271774
869.946 .0271620
870.619 .0271469
871.292 .0271323
871.964 .0271181
872.636 .0271043
873.308 .0270908
873.979 .0270778
874.651 .0270650
875.321 .0270525
875.992 .0270403
876.662 .0270285
877.331 .0270171
878.001 .0270060
878.670 .0269954
879.338 .0269851
880.007 .0269751
880.675 .0269655
881.342 .0269562
882.009 .0269472
882.676 .0269385
883.343 .0269301
884.009 .0269222
884.675 .0269146
885.340 .0269074
886.005 .0269007
886.670 .0268943
887.334 .0268883
887.998 .0268826
888.662 .0268773
889.325 .0268723
889.988 .0268677
890.650 .0268634
891.312 .0268595
891.974 .0268559
892.636 .0268526
893.297 .0268495
893.957 .0268466
894.618 .0268438
895.278 .0268410
895.937 .0268381
896.596 .0268350
897.255 .0268317
897.914 .0268281
898.572 .0268241
899.230 .0268197
899.887 .0268148
900.544 .0268094
901.201 .0268035
901.857 .0267919
902.513 .0267844
903.168 .0267762
903.823 .0267675
904.478 .0267582
905.132 .0267482
905.786 .0267376
906.440 .0267264
907.093 .0267146
907.746 .0267023
908.399 .0266895
909.051 .0266763
909.703 .0266628
910.354 .0266552
911.005 .0266416
911.656 .0266277
912.306 .0266138
912.956 .0265998
913.605 .0265857
914.254 .0265716
914.903 .0265575
915.551 .0265435
916.199 .0265296
916.847 .0265158
917.494 .0265022
918.141 .0264886
918.788 .0264751
919.434 .0264617
920.079 .0264484
920.725 .0264350
921.370 .0264217
922.014 .0264084
922.658 .0263951
923.302 .0263817
923.946 .0263684
924.589 .0263551
925.231 .0263419
925.873 .0263287
926.515 .0263155
927.157 .0263024
927.798 .0262893
928.439 .0262764
929.079 .0262636
929.719 .0262511
930.359 .0262388
930.998 .0262268
931.637 .0262151
932.275 .0262037
932.913 .0261927
933.551 .0261821
934.188 .0261719
934.825 .0261622
935.462 .0261528
936.098 .0261439
936.733 .0261355
937.369 .0261276
938.004 .0261202
938.638 .0261132
939.273 .0261067
939.907 .0261007
940.540 .0260950
941.173 .0260896
941.806 .0260846
942.438 .0260798
943.070 .0260752
943.702 .0260708
944.333 .0260666
944.964 .0260623
945.594 .0260581
946.224 .0260539
946.854 .0260494
947.483 .0260447
948.112 .0260397
948.741 .0260343
949.369 .0260285
949.996 .0260223
950.624 .0260157
951.251 .0260087
951.878 .0260013
952.504 .0259935
953.130 .0259854
953.755 .0259770
954.380 .0259683
955.005 .0259594
955.629 .0259503
956.253 .0259411
956.877 .0259317
957.500 .0259223
958.123 .0259130
958.746 .0259038
959.368 .0258948
959.990 .0258861
960.611 .0258778
961.232 .0258698
961.853 .0258622
962.473 .0258550
963.093 .0258482
963.712 .0258417
964.331 .0258355
964.950 .0258297
965.569 .0258243
966.187 .0258192
966.804 .0258144
967.422 .0258098
968.039 .0258056
968.655 .0258015
969.272 .0257976
969.887 .0257938
970.503 .0257900
971.118 .0257861
971.733 .0257821
972.347 .0257779
972.961 .0257735
973.575 .0257687
974.188 .0257636
974.801 .0257580
975.414 .0257520
976.026 .0257454
976.638 .0257381
977.250 .0257302
977.861 .0257214
978.472 .0257120
979.083 .0257017
979.693 .0256908
980.303 .0256791
980.912 .0256589
981.521 .0256461
982.130 .0256328
982.738 .0256192
983.346 .0256053
983.954 .0255913
984.562 .0255770
985.169 .0255626
985.775 .0255482
986.382 .0255339
986.988 .0255198
987.594 .0255060
988.199 .0254927
988.804 .0254800
989.409 .0254755
990.013 .0254639
990.617 .0254530
991.221 .0254428
991.824 .0254333
992.427 .0254244
993.030 .0254162
993.632 .0254086
994.234 .0254017
994.836 .0253955
995.438 .0253899
996.039 .0253850
996.640 .0253808
997.240 .0253772
997.840 .0253742
998.440 .0253716
999.040 .0253694
999.639 .0253674
1000.238 .0253656
1000.836 .0253638
1001.435 .0253621
1002.033 .0253605
1002.630 .0253589
1003.228 .0253575
1003.825 .0253563
1004.422 .0253551
1005.018 .0253539
1005.614 .0253527
1006.210 .0253512
1006.806 .0253495
1007.401 .0253475
1007.996 .0253452
1008.591 .0253427
1009.186 .0253401
1009.780 .0253374
1010.374 .0253347
1010.967 .0253321
1011.561 .0253297
1012.154 .0253272
1012.746 .0253248
1013.339 .0253225
1013.931 .0253201
1014.523 .0253177
1015.115 .0253153
1015.706 .0253131
1016.298 .0253111
1016.888 .0253094
1017.479 .0253083
1018.069 .0253076
1018.660 .0253075
1019.250 .0253080
1019.839 .0253091
1020.429 .0253107
1021.018 .0253129
1021.607 .0253156
1022.195 .0253188
1022.784 .0253225
1023.372 .0253268
1023.960 .0253319
1024.547 .0253376
1025.135 .0253440
1025.722 .0253512
1026.309 .0253590
1026.896 .0253674
1027.483 .0253762
1028.069 .0253852
1028.655 .0253943
1029.241 .0254034
1029.827 .0254123
1030.412 .0254210
1030.997 .0254295
1031.582 .0254377
1032.167 .0254456
1032.752 .0254533
1033.336 .0254607
1033.921 .0254679
1034.505 .0254747
1035.089 .0254811
1035.672 .0254871
1036.256 .0254925
1036.839 .0254974
1037.422 .0255018
1038.005 .0255057
1038.588 .0255091
1039.171 .0255121
1039.753 .0255149
1040.335 .0255174
1040.918 .0255197
1041.500 .0255218
1042.081 .0255236
1042.663 .0255251
1043.244 .0255261
1043.826 .0255268
1044.407 .0255270
1044.988 .0255268
1045.569 .0255264
1046.150 .0255260
1046.730 .0255255
1047.311 .0255251
1047.891 .0255249
1048.471 .0255249
1049.052 .0255251
1049.632 .0255254
1050.211 .0255259
1050.791 .0255263
1051.371 .0255269
1051.950 .0255276
1052.530 .0255286
1053.109 .0255297
1053.688 .0255312
1054.268 .0255329
1054.847 .0255347
1055.426 .0255367
1056.005 .0255387
1056.583 .0255406
1057.162 .0255424
1057.741 .0255441
1058.319 .0255456
1058.898 .0255472
1059.476 .0255489
1060.055 .0255507
1060.633 .0255525
1061.211 .0255545
1061.790 .0255565
1062.368 .0255585
1062.946 .0255605
1063.524 .0255626
1064.102 .0255647
1064.680 .0255670
1065.258 .0255695
1065.836 .0255722
1066.414 .0255753
1066.992 .0255787
1067.570 .0255823
1068.148 .0255860
1068.726 .0255896
1069.304 .0255933
1069.882 .0255970
1070.460 .0256006
1071.038 .0256044
1071.616 .0256083
1072.194 .0256123
1072.772 .0256165
1073.350 .0256208
1073.928 .0256251
1074.506 .0256293
1075.084 .0256334
1075.662 .0256373
1076.240 .0256410
1076.819 .0256445
1077.397 .0256482
1077.976 .0256520
1078.554 .0256561
1079.133 .0256604
1079.711 .0256650
1080.290 .0256698
1080.869 .0256746
1081.448 .0256794
1082.027 .0256841
1082.606 .0256888
1083.185 .0256933
1083.764 .0256979
1084.343 .0257028
1084.923 .0257080
1085.502 .0257139
1086.082 .0257203
1086.662 .0257273
1087.242 .0257350
1087.822 .0257433
1088.402 .0257521
1088.983 .0257614
1089.563 .0257713
1090.144 .0257817
1090.725 .0257927
1091.306 .0258043
1091.887 .0258166
1092.469 .0258296
1093.050 .0258433
1093.632 .0258575
1094.214 .0258721
1094.796 .0258869
1095.379 .0259019
1095.961 .0259170
1096.544 .0259321
1097.127 .0259474
1097.710 .0259627
1098.294 .0259782
1098.877 .0259939
1099.461 .0260100
1100.046 .0260264
1100.630 .0260433
1101.215 .0260607
1101.800 .0260786
1102.385 .0260971
1102.970 .0261161
1103.556 .0261357
1104.142 .0261558
1104.728 .0261762
1105.315 .0261970
1105.902 .0262180
1106.489 .0262395
1107.077 .0262613
1107.664 .0262837
1108.253 .0263068
1108.841 .0263306
1109.430 .0263555
1110.019 .0263811
1110.609 .0264076
1111.198 .0264349
1111.789 .0264630
1112.379 .0264919
1112.970 .0265216
1113.561 .0265521
1114.153 .0265836
1114.745 .0266162
1115.338 .0266500
1115.931 .0266852
1116.524 .0267217
1117.117 .0267595
1117.712 .0267984
1118.306 .0268381
1118.901 .0268784
1119.496 .0269193
1120.092 .0269605
1120.689 .0270021
1121.285 .0270442
1121.882 .0270868
1122.480 .0271303
1123.078 .0271750
1123.677 .0272212
1124.276 .0272689
1124.875 .0273184
1125.476 .0273695
1126.076 .0274223
1126.677 .0274765
1127.279 .0275324
1127.881 .0275900
1128.484 .0276498
1129.087 .0276745
1129.691 .0277375
1130.295 .0278034
1130.900 .0278725
1131.505 .0279449
1132.111 .0280205
1132.718 .0280994
1133.325 .0281817
1133.933 .0282672
1134.541 .0283548
1135.150 .0284437
1135.760 .0285396
1136.370 .0286447
1136.981 .0286529
1137.592 .0287615
1138.204 .0288757
1138.817 .0289959
1139.431 .0291257
1140.045 .0292558
1140.660 .0293919
1141.275 .0295350
1141.891 .0296757
1142.508 .0297893
1143.126 .0298759
1143.744 .0301229
1144.363 .0304285
1144.983 .0303388
