Measurement Sequence started on: 15-12-46-377
Integration time: 28
Scans to Average: 2 
>>>>>Begin Spectral Data<<<<<
432.689 .0000100
433.621 .0000100
434.552 .0000100
435.482 .0000100
436.410 .0000100
437.337 .0000100
438.262 .0270517
439.187 .0571606
440.110 .0945762
441.031 .1367633
441.952 .1097052
442.871 .1145942
443.789 .1191465
444.705 .1234348
445.621 .1275094
446.535 .1314087
447.447 .1337362
448.359 .1343493
449.269 .1328802
450.178 .1290892
451.086 .1230489
451.993 .1152279
452.898 .1064008
453.803 .0974468
454.706 .0891145
455.608 .0818674
456.508 .0758630
457.408 .0717983
458.306 .0686671
459.204 .0661135
460.100 .0639589
460.995 .0621037
461.888 .0604775
462.781 .0590327
463.673 .0577346
464.563 .0565589
465.452 .0554901
466.340 .0545140
467.228 .0536220
468.114 .0528067
468.999 .0520625
469.882 .0513833
470.765 .0507637
471.647 .0501981
472.528 .0496825
473.407 .0492127
474.286 .0487863
475.163 .0484016
476.040 .0480570
476.915 .0477515
477.790 .0474833
478.663 .0472502
479.535 .0470498
480.407 .0468788
481.277 .0467339
482.147 .0466120
483.015 .0465101
483.883 .0464255
484.749 .0463570
485.615 .0463036
486.479 .0462649
487.343 .0462411
488.206 .0462324
489.067 .0462385
489.928 .0462595
490.788 .0462954
491.647 .0463459
492.505 .0464111
493.362 .0464912
494.218 .0465864
495.073 .0466977
495.928 .0469336
496.781 .0470929
497.634 .0472733
498.486 .0474767
499.337 .0477054
500.187 .0479614
501.036 .0482467
501.884 .0485627
502.731 .0489110
503.578 .0492932
504.424 .0495548
505.268 .0499945
506.113 .0504752
506.956 .0510011
507.798 .0515790
508.640 .0522178
509.480 .0529289
510.320 .0537251
511.160 .0546214
511.998 .0556345
512.836 .0567808
513.672 .0580774
514.508 .0595436
515.344 .0611983
516.178 .0630622
517.012 .0651564
517.845 .0675028
518.677 .0701226
519.508 .0730340
520.339 .0762447
521.169 .0797613
521.998 .0835666
522.826 .0876304
523.654 .0919027
524.481 .0963209
525.307 .1008104
526.133 .1052856
526.958 .1096534
527.782 .1138222
528.605 .1177045
529.428 .1212230
530.250 .1243041
531.072 .1268980
531.892 .1289629
532.712 .1304731
533.532 .1314135
534.350 .1317788
535.168 .1315717
535.986 .1307998
536.802 .1294716
537.618 .1276023
538.434 .1252054
539.249 .1223151
540.063 .1189758
540.876 .1152475
541.689 .1112014
542.501 .1069176
543.313 .1024827
544.124 .0979889
544.934 .0935234
545.744 .0891660
546.553 .0849839
547.361 .0810382
548.169 .0773651
548.976 .0739893
549.783 .0709189
550.589 .0681487
551.395 .0656625
552.200 .0634359
553.004 .0614393
553.808 .0596448
554.611 .0580284
555.414 .0565678
556.216 .0552429
557.018 .0540359
557.819 .0529320
558.619 .0519166
559.419 .0509768
560.218 .0501020
561.017 .0492809
561.815 .0485050
562.613 .0477671
563.410 .0470604
564.207 .0463802
565.003 .0457225
565.799 .0450838
566.594 .0444619
567.388 .0438560
568.182 .0432652
568.976 .0426888
569.769 .0421267
570.562 .0415793
571.354 .0410465
572.145 .0405291
572.936 .0400280
573.727 .0395437
574.517 .0390771
575.307 .0386285
576.096 .0381979
576.885 .0377858
577.673 .0373924
578.461 .0370180
579.248 .0366627
580.035 .0363268
580.821 .0360102
581.607 .0357132
582.392 .0354359
583.177 .0351779
583.962 .0349389
584.746 .0347180
585.529 .0345142
586.313 .0343262
587.095 .0341530
587.878 .0339933
588.660 .0338464
589.441 .0337117
590.222 .0335883
591.003 .0334757
591.783 .0333733
592.563 .0332804
593.342 .0331960
594.121 .0331191
594.899 .0330488
595.678 .0329839
596.455 .0329236
597.233 .0328671
598.009 .0328138
598.786 .0327631
599.562 .0327148
600.338 .0326684
601.113 .0326238
601.888 .0325608
602.663 .0325194
603.437 .0324792
604.211 .0324399
604.984 .0324014
605.757 .0323635
606.530 .0323263
607.302 .0322896
608.074 .0322535
608.845 .0322179
609.616 .0321829
610.387 .0321672
611.158 .0321331
611.928 .0320996
612.697 .0320668
613.467 .0320346
614.236 .0320030
615.004 .0319719
615.773 .0319414
616.541 .0319113
617.308 .0318816
618.076 .0318523
618.843 .0318233
619.609 .0317947
620.375 .0317663
621.141 .0317382
621.907 .0317103
622.672 .0316826
623.437 .0316551
624.202 .0316277
624.966 .0316004
625.730 .0315730
626.493 .0315456
627.257 .0315179
628.020 .0314901
628.782 .0314621
629.545 .0314340
630.307 .0314057
631.068 .0313773
631.830 .0313488
632.591 .0313201
633.352 .0312914
634.112 .0312626
634.872 .0312337
635.632 .0312046
636.392 .0311754
637.151 .0311460
637.910 .0311166
638.668 .0310873
639.427 .0310581
640.185 .0310290
640.943 .0310002
641.700 .0309717
642.457 .0309435
643.214 .0309158
643.971 .0308886
644.727 .0308619
645.483 .0308357
646.239 .0308099
646.994 .0307846
647.750 .0307598
648.505 .0307354
649.259 .0307114
650.014 .0306879
650.768 .0306648
651.521 .0306421
652.275 .0306198
653.028 .0305978
653.781 .0305761
654.534 .0305545
655.286 .0305331
656.039 .0305117
656.791 .0304902
657.542 .0304687
658.294 .0304471
659.045 .0304254
659.796 .0304038
660.546 .0303821
661.297 .0303605
662.047 .0303389
662.796 .0303175
663.546 .0302963
664.295 .0302752
665.044 .0302544
665.793 .0302338
666.542 .0302136
667.290 .0301937
668.038 .0301742
668.786 .0301552
669.533 .0301366
670.281 .0301185
671.028 .0301007
671.774 .0300834
672.521 .0300665
673.267 .0300499
674.013 .0300336
674.759 .0300176
675.505 .0300018
676.250 .0299863
676.995 .0299710
677.740 .0299558
678.484 .0299408
679.229 .0299259
679.973 .0299110
680.717 .0298962
681.460 .0298814
682.204 .0298666
682.947 .0298518
683.690 .0298368
684.433 .0298217
685.175 .0298065
685.917 .0297910
686.659 .0297754
687.401 .0297595
688.142 .0297435
688.884 .0297272
689.625 .0297108
690.365 .0296942
691.106 .0296775
691.846 .0296607
692.586 .0296437
693.326 .0296266
694.066 .0296093
694.805 .0295919
695.545 .0295744
696.284 .0295569
697.022 .0295392
697.761 .0295215
698.499 .0295037
699.237 .0294858
699.975 .0294679
700.713 .0294499
701.450 .0294319
702.187 .0294139
702.924 .0293958
703.661 .0293777
704.397 .0293594
705.133 .0293411
705.869 .0293227
706.605 .0293042
707.341 .0292856
708.076 .0292667
708.811 .0292477
709.546 .0292286
710.281 .0292094
711.015 .0291900
711.749 .0291705
712.483 .0291509
713.217 .0291312
713.950 .0291114
714.684 .0290915
715.417 .0290714
716.150 .0290511
716.882 .0290306
717.615 .0290098
718.347 .0289887
719.079 .0289674
719.811 .0289459
720.542 .0289243
721.273 .0289026
722.005 .0288808
722.735 .0288592
723.466 .0288376
724.196 .0288162
724.927 .0287951
725.656 .0287741
726.386 .0287534
727.116 .0287330
727.845 .0287127
728.574 .0286928
729.303 .0286732
730.031 .0286539
730.760 .0286350
731.488 .0286166
732.216 .0285985
732.944 .0285809
733.671 .0285637
734.398 .0285470
735.125 .0285306
735.852 .0285145
736.579 .0284988
737.305 .0284834
738.031 .0284683
738.757 .0284533
739.483 .0284385
740.208 .0284237
740.933 .0284091
741.658 .0283945
742.383 .0283799
743.108 .0283653
743.832 .0283508
744.556 .0283362
745.280 .0283217
746.004 .0283071
746.727 .0282925
747.450 .0282778
748.173 .0282629
748.896 .0282480
749.618 .0282330
750.340 .0282179
751.062 .0282029
751.784 .0281880
752.506 .0281732
753.227 .0281586
753.948 .0281442
754.669 .0281300
755.389 .0281159
756.110 .0281021
756.830 .0280884
757.550 .0280749
758.269 .0280614
758.989 .0280481
759.708 .0280349
760.427 .0280219
761.146 .0280089
761.864 .0279961
762.582 .0279833
763.300 .0279707
764.018 .0279582
764.736 .0279458
765.453 .0279336
766.170 .0279216
766.887 .0279099
767.603 .0278983
768.320 .0278870
769.036 .0278761
769.751 .0278655
770.467 .0278554
771.182 .0278458
771.897 .0278367
772.612 .0278281
773.327 .0278202
774.041 .0278129
774.755 .0278062
775.469 .0278000
776.183 .0277943
776.896 .0277892
777.609 .0277846
778.322 .0277806
779.035 .0277770
779.747 .0277740
780.459 .0277714
781.171 .0277692
781.882 .0277673
782.594 .0277657
783.305 .0277644
784.016 .0277633
784.726 .0277624
785.436 .0277617
786.147 .0277608
786.856 .0277602
787.566 .0277597
788.275 .0277591
788.984 .0277583
789.693 .0277573
790.401 .0277560
791.110 .0277545
791.818 .0277527
792.525 .0277505
793.233 .0277479
793.940 .0277450
794.647 .0277424
795.353 .0277386
796.060 .0277343
796.766 .0277295
797.472 .0277242
798.177 .0277184
798.883 .0277121
799.588 .0277054
800.292 .0276982
800.997 .0276907
801.701 .0276827
802.405 .0276744
803.109 .0276657
803.812 .0276567
804.515 .0276474
805.218 .0276378
805.921 .0276280
806.623 .0276178
807.325 .0276075
808.027 .0275969
808.728 .0275862
809.429 .0275753
810.130 .0275643
810.831 .0275532
811.531 .0275421
812.231 .0275310
812.931 .0275199
813.630 .0275089
814.330 .0274980
815.029 .0274872
815.727 .0274766
816.426 .0274663
817.124 .0274561
817.821 .0274462
818.519 .0274365
819.216 .0274270
819.913 .0274178
820.609 .0274090
821.306 .0274004
822.002 .0273922
822.697 .0273844
823.393 .0273769
824.088 .0273698
824.783 .0273630
825.477 .0273565
826.171 .0273502
826.865 .0273441
827.559 .0273380
828.252 .0273320
828.945 .0273260
829.638 .0273200
830.330 .0273139
831.023 .0273078
831.714 .0273015
832.406 .0272951
833.097 .0272884
833.788 .0272816
834.479 .0272744
835.169 .0272670
835.859 .0272592
836.548 .0272511
837.238 .0272426
837.927 .0272337
838.615 .0272243
839.304 .0272145
839.992 .0272042
840.680 .0271934
841.367 .0271821
842.054 .0271704
842.741 .0271583
843.428 .0271458
844.114 .0271331
844.800 .0271200
845.485 .0271067
846.170 .0270931
846.855 .0270790
847.540 .0270647
848.224 .0270499
848.908 .0270347
849.592 .0270191
850.275 .0270031
850.958 .0269866
851.641 .0269698
852.323 .0269526
853.005 .0269349
853.687 .0269167
854.368 .0268979
855.049 .0268785
855.730 .0268586
856.410 .0268381
857.090 .0268172
857.769 .0267958
858.449 .0267742
859.128 .0267522
859.806 .0267301
860.485 .0267078
861.163 .0266854
861.840 .0266632
862.518 .0266410
863.195 .0266192
863.871 .0265976
864.548 .0265765
865.224 .0265558
865.899 .0265356
866.574 .0265158
867.249 .0264965
867.924 .0264777
868.598 .0264593
869.272 .0264414
869.946 .0264240
870.619 .0264072
871.292 .0263909
871.964 .0263752
872.636 .0263599
873.308 .0263451
873.979 .0263308
874.651 .0263168
875.321 .0263032
875.992 .0262899
876.662 .0262769
877.331 .0262643
878.001 .0262519
878.670 .0262399
879.338 .0262281
880.007 .0262166
880.675 .0262053
881.342 .0261942
882.009 .0261834
882.676 .0261728
883.343 .0261625
884.009 .0261527
884.675 .0261433
885.340 .0261344
886.005 .0261259
886.670 .0261180
887.334 .0261106
887.998 .0261037
888.662 .0260973
889.325 .0260914
889.988 .0260860
890.650 .0260810
891.312 .0260764
891.974 .0260722
892.636 .0260682
893.297 .0260645
893.957 .0260609
894.618 .0260573
895.278 .0260535
895.937 .0260496
896.596 .0260455
897.255 .0260410
897.914 .0260363
898.572 .0260311
899.230 .0260256
899.887 .0260195
900.544 .0260129
901.201 .0260057
901.857 .0259917
902.513 .0259827
903.168 .0259730
903.823 .0259627
904.478 .0259518
905.132 .0259403
905.786 .0259284
906.440 .0259160
907.093 .0259033
907.746 .0258901
908.399 .0258766
909.051 .0258629
909.703 .0258489
910.354 .0258419
911.005 .0258280
911.656 .0258143
912.306 .0258007
912.956 .0257875
913.605 .0257747
914.254 .0257623
914.903 .0257502
915.551 .0257385
916.199 .0257271
916.847 .0257160
917.494 .0257051
918.141 .0256947
918.788 .0256845
919.434 .0256747
920.079 .0256651
920.725 .0256557
921.370 .0256465
922.014 .0256372
922.658 .0256278
923.302 .0256182
923.946 .0256084
924.589 .0255984
925.231 .0255882
925.873 .0255779
926.515 .0255674
927.157 .0255568
927.798 .0255462
928.439 .0255354
929.079 .0255244
929.719 .0255133
930.359 .0255021
930.998 .0254907
931.637 .0254794
932.275 .0254681
932.913 .0254570
933.551 .0254462
934.188 .0254357
934.825 .0254257
935.462 .0254161
936.098 .0254069
936.733 .0253983
937.369 .0253902
938.004 .0253828
938.638 .0253760
939.273 .0253701
939.907 .0253651
940.540 .0253611
941.173 .0253581
941.806 .0253561
942.438 .0253551
943.070 .0253550
943.702 .0253557
944.333 .0253572
944.964 .0253593
945.594 .0253621
946.224 .0253654
946.854 .0253691
947.483 .0253732
948.112 .0253777
948.741 .0253823
949.369 .0253871
949.996 .0253920
950.624 .0253969
951.251 .0254017
951.878 .0254063
952.504 .0254108
953.130 .0254152
953.755 .0254194
954.380 .0254234
955.005 .0254273
955.629 .0254310
956.253 .0254344
956.877 .0254375
957.500 .0254402
958.123 .0254425
958.746 .0254443
959.368 .0254459
959.990 .0254470
960.611 .0254479
961.232 .0254485
961.853 .0254490
962.473 .0254493
963.093 .0254495
963.712 .0254496
964.331 .0254495
964.950 .0254493
965.569 .0254490
966.187 .0254485
966.804 .0254479
967.422 .0254472
968.039 .0254464
968.655 .0254455
969.272 .0254445
969.887 .0254433
970.503 .0254421
971.118 .0254408
971.733 .0254393
972.347 .0254376
972.961 .0254356
973.575 .0254333
974.188 .0254307
974.801 .0254278
975.414 .0254244
976.026 .0254207
976.638 .0254167
977.250 .0254123
977.861 .0254077
978.472 .0254030
979.083 .0253980
979.693 .0253929
980.303 .0253876
980.912 .0253789
981.521 .0253731
982.130 .0253671
982.738 .0253609
983.346 .0253545
983.954 .0253480
984.562 .0253415
985.169 .0253350
985.775 .0253287
986.382 .0253225
986.988 .0253165
987.594 .0253106
988.199 .0253048
988.804 .0252991
989.409 .0252971
990.013 .0252915
990.617 .0252860
991.221 .0252806
991.824 .0252753
992.427 .0252704
993.030 .0252656
993.632 .0252611
994.234 .0252568
994.836 .0252526
995.438 .0252483
996.039 .0252440
996.640 .0252396
997.240 .0252352
997.840 .0252306
998.440 .0252261
999.040 .0252218
999.639 .0252177
1000.238 .0252138
1000.836 .0252103
1001.435 .0252070
1002.033 .0252039
1002.630 .0252010
1003.228 .0251981
1003.825 .0251951
1004.422 .0251919
1005.018 .0251887
1005.614 .0251855
1006.210 .0251822
1006.806 .0251790
1007.401 .0251758
1007.996 .0251726
1008.591 .0251696
1009.186 .0251665
1009.780 .0251635
1010.374 .0251603
1010.967 .0251570
1011.561 .0251536
1012.154 .0251501
1012.746 .0251464
1013.339 .0251428
1013.931 .0251392
1014.523 .0251357
1015.115 .0251322
1015.706 .0251288
1016.298 .0251256
1016.888 .0251224
1017.479 .0251192
1018.069 .0251161
1018.660 .0251130
1019.250 .0251099
1019.839 .0251068
1020.429 .0251038
1021.018 .0251007
1021.607 .0250978
1022.195 .0250950
1022.784 .0250924
1023.372 .0250901
1023.960 .0250880
1024.547 .0250863
1025.135 .0250850
1025.722 .0250841
1026.309 .0250836
1026.896 .0250833
1027.483 .0250832
1028.069 .0250834
1028.655 .0250836
1029.241 .0250840
1029.827 .0250844
1030.412 .0250847
1030.997 .0250851
1031.582 .0250855
1032.167 .0250858
1032.752 .0250859
1033.336 .0250858
1033.921 .0250853
1034.505 .0250845
1035.089 .0250831
1035.672 .0250813
1036.256 .0250791
1036.839 .0250763
1037.422 .0250731
1038.005 .0250696
1038.588 .0250657
1039.171 .0250614
1039.753 .0250568
1040.335 .0250518
1040.918 .0250462
1041.500 .0250400
1042.081 .0250331
1042.663 .0250255
1043.244 .0250172
1043.826 .0250082
1044.407 .0249986
1044.988 .0249884
1045.569 .0249778
1046.150 .0249668
1046.730 .0249556
1047.311 .0249443
1047.891 .0249328
1048.471 .0249212
1049.052 .0249096
1049.632 .0248979
1050.211 .0248862
1050.791 .0248748
1051.371 .0248635
1051.950 .0248527
1052.530 .0248422
1053.109 .0248324
1053.688 .0248231
1054.268 .0248145
1054.847 .0248064
1055.426 .0247990
1056.005 .0247919
1056.583 .0247851
1057.162 .0247785
1057.741 .0247719
1058.319 .0247654
1058.898 .0247590
1059.476 .0247527
1060.055 .0247465
1060.633 .0247405
1061.211 .0247349
1061.790 .0247296
1062.368 .0247247
1062.946 .0247202
1063.524 .0247160
1064.102 .0247121
1064.680 .0247083
1065.258 .0247046
1065.836 .0247010
1066.414 .0246975
1066.992 .0246942
1067.570 .0246909
1068.148 .0246877
1068.726 .0246847
1069.304 .0246816
1069.882 .0246786
1070.460 .0246754
1071.038 .0246720
1071.616 .0246683
1072.194 .0246644
1072.772 .0246603
1073.350 .0246563
1073.928 .0246523
1074.506 .0246487
1075.084 .0246454
1075.662 .0246427
1076.240 .0246407
1076.819 .0246393
1077.397 .0246385
1077.976 .0246384
1078.554 .0246388
1079.133 .0246396
1079.711 .0246409
1080.290 .0246427
1080.869 .0246448
1081.448 .0246472
1082.027 .0246499
1082.606 .0246527
1083.185 .0246555
1083.764 .0246581
1084.343 .0246605
1084.923 .0246625
1085.502 .0246641
1086.082 .0246653
1086.662 .0246661
1087.242 .0246666
1087.822 .0246670
1088.402 .0246672
1088.983 .0246674
1089.563 .0246679
1090.144 .0246685
1090.725 .0246695
1091.306 .0246711
1091.887 .0246733
1092.469 .0246762
1093.050 .0246801
1093.632 .0246848
1094.214 .0246905
1094.796 .0246971
1095.379 .0247047
1095.961 .0247132
1096.544 .0247227
1097.127 .0247331
1097.710 .0247445
1098.294 .0247570
1098.877 .0247705
1099.461 .0247850
1100.046 .0248005
1100.630 .0248169
1101.215 .0248341
1101.800 .0248518
1102.385 .0248700
1102.970 .0248885
1103.556 .0249073
1104.142 .0249262
1104.728 .0249454
1105.315 .0249649
1105.902 .0249847
1106.489 .0250051
1107.077 .0250262
1107.664 .0250481
1108.253 .0250708
1108.841 .0250943
1109.430 .0251186
1110.019 .0251436
1110.609 .0251692
1111.198 .0251952
1111.789 .0252218
1112.379 .0252488
1112.970 .0252764
1113.561 .0253045
1114.153 .0253332
1114.745 .0253627
1115.338 .0253931
1115.931 .0254245
1116.524 .0254569
1117.117 .0254903
1117.712 .0255249
1118.306 .0255606
1118.901 .0255977
1119.496 .0256364
1120.092 .0256770
1120.689 .0257197
1121.285 .0257645
1121.882 .0258117
1122.480 .0258609
1123.078 .0259121
1123.677 .0259650
1124.276 .0260195
1124.875 .0260752
1125.476 .0261323
1126.076 .0261907
1126.677 .0262508
1127.279 .0263125
1127.881 .0263761
1128.484 .0264418
1129.087 .0264708
1129.691 .0265392
1130.295 .0266096
1130.900 .0266822
1131.505 .0267573
1132.111 .0268352
1132.718 .0269155
1133.325 .0269991
1133.933 .0270862
1134.541 .0271829
1135.150 .0272819
1135.760 .0273678
1136.370 .0274726
1136.981 .0274830
1137.592 .0275936
1138.204 .0277021
1138.817 .0278167
1139.431 .0279409
1140.045 .0280763
1140.660 .0282062
1141.275 .0283545
1141.891 .0285119
1142.508 .0288350
1143.126 .0289501
1143.744 .0286303
1144.363 .0292071
1144.983 .0295112
