Measurement Sequence started on: 15-12-46-377
Integration time: 28
Scans to Average: 2 
>>>>>Begin Spectral Data<<<<<
432.689 .0000100
433.621 .0000100
434.552 .0000100
435.482 .0000100
436.410 .0000100
437.337 .0000100
438.262 .0286230
439.187 .0606603
440.110 .1003871
441.031 .1451657
441.952 .1156127
442.871 .1206619
443.789 .1253606
444.705 .1297830
445.621 .1339798
446.535 .1379893
447.447 .1403328
448.359 .1408517
449.269 .1391600
450.178 .1350059
451.086 .1284760
451.993 .1200736
452.898 .1106289
453.803 .1010800
454.706 .0922227
455.608 .0845482
456.508 .0782172
457.408 .0739596
458.306 .0707057
459.204 .0680641
460.100 .0658423
460.995 .0639308
461.888 .0622579
462.781 .0607759
463.673 .0594497
464.563 .0582545
465.452 .0571722
466.340 .0561867
467.228 .0552870
468.114 .0544631
468.999 .0537071
469.882 .0530112
470.765 .0523698
471.647 .0517784
472.528 .0512341
473.407 .0507342
474.286 .0502778
475.163 .0498637
476.040 .0494909
476.915 .0491581
477.790 .0488636
478.663 .0486059
479.535 .0483827
480.407 .0481912
481.277 .0480295
482.147 .0478940
483.015 .0477819
483.883 .0476902
484.749 .0476163
485.615 .0475584
486.479 .0475148
487.343 .0474846
488.206 .0474676
489.067 .0474643
489.928 .0474757
490.788 .0475026
491.647 .0475470
492.505 .0476100
493.362 .0476927
494.218 .0477963
495.073 .0479216
495.928 .0481953
496.781 .0483805
497.634 .0485888
498.486 .0488210
499.337 .0490780
500.187 .0493607
501.036 .0496713
501.884 .0500126
502.731 .0503872
503.578 .0507987
504.424 .0510774
505.268 .0515543
506.113 .0520769
506.956 .0526487
507.798 .0532740
508.640 .0539584
509.480 .0547100
510.320 .0555388
511.160 .0564578
511.998 .0574832
512.836 .0586349
513.672 .0599350
514.508 .0614084
515.344 .0630787
516.178 .0649706
517.012 .0671090
517.845 .0695155
518.677 .0722091
519.508 .0752053
520.339 .0785129
521.169 .0821356
521.998 .0860523
522.826 .0902302
523.654 .0946197
524.481 .0991590
525.307 .1037716
526.133 .1083688
526.958 .1128567
527.782 .1171435
528.605 .1211416
529.428 .1247738
530.250 .1279675
531.072 .1306722
531.892 .1328443
532.712 .1344552
533.532 .1354850
534.350 .1359257
535.168 .1357806
535.986 .1350573
536.802 .1337632
537.618 .1319090
538.434 .1295066
539.249 .1265930
540.063 .1232152
540.876 .1194331
541.689 .1153165
542.501 .1109485
543.313 .1064203
544.124 .1018260
544.934 .0972548
545.744 .0927878
546.553 .0884934
547.361 .0844304
548.169 .0806316
548.976 .0771198
549.783 .0739039
550.589 .0709819
551.395 .0683387
552.200 .0659510
553.004 .0637921
553.808 .0618376
554.611 .0600664
555.414 .0584601
556.216 .0569995
557.018 .0556673
557.819 .0544489
558.619 .0533314
559.419 .0523021
560.218 .0513504
561.017 .0504655
561.815 .0496391
562.613 .0488631
563.410 .0481296
564.207 .0474315
565.003 .0467639
565.799 .0461226
566.594 .0455041
567.388 .0449055
568.182 .0443252
568.976 .0437611
569.769 .0432124
570.562 .0426781
571.354 .0421580
572.145 .0416517
572.936 .0411589
573.727 .0406798
574.517 .0402149
575.307 .0397647
576.096 .0393300
576.885 .0389118
577.673 .0385113
578.461 .0381289
579.248 .0377651
580.035 .0374199
580.821 .0370935
581.607 .0367857
582.392 .0364966
583.177 .0362256
583.962 .0359729
584.746 .0357379
585.529 .0355204
586.313 .0353200
587.095 .0351358
587.878 .0349666
588.660 .0348115
589.441 .0346690
590.222 .0345381
591.003 .0344175
591.783 .0343065
592.563 .0342042
593.342 .0341098
594.121 .0340227
594.899 .0339421
595.678 .0338673
596.455 .0337977
597.233 .0337327
598.009 .0336716
598.786 .0336136
599.562 .0335582
600.338 .0335048
601.113 .0334531
601.888 .0333798
602.663 .0333315
603.437 .0332844
604.211 .0332387
604.984 .0331943
605.757 .0331513
606.530 .0331095
607.302 .0330691
608.074 .0330298
608.845 .0329915
609.616 .0329543
610.387 .0329379
611.158 .0329019
611.928 .0328668
612.697 .0328324
613.467 .0327989
614.236 .0327661
615.004 .0327342
615.773 .0327033
616.541 .0326733
617.308 .0326442
618.076 .0326159
618.843 .0325882
619.609 .0325609
620.375 .0325337
621.141 .0325066
621.907 .0324794
622.672 .0324520
623.437 .0324244
624.202 .0323966
624.966 .0323689
625.730 .0323412
626.493 .0323135
627.257 .0322858
628.020 .0322580
628.782 .0322302
629.545 .0322021
630.307 .0321738
631.068 .0321453
631.830 .0321164
632.591 .0320874
633.352 .0320582
634.112 .0320290
634.872 .0319999
635.632 .0319708
636.392 .0319419
637.151 .0319131
637.910 .0318845
638.668 .0318561
639.427 .0318280
640.185 .0318000
640.943 .0317723
641.700 .0317447
642.457 .0317174
643.214 .0316902
643.971 .0316633
644.727 .0316366
645.483 .0316103
646.239 .0315843
646.994 .0315586
647.750 .0315332
648.505 .0315082
649.259 .0314834
650.014 .0314588
650.768 .0314345
651.521 .0314102
652.275 .0313860
653.028 .0313619
653.781 .0313378
654.534 .0313136
655.286 .0312894
656.039 .0312651
656.791 .0312408
657.542 .0312164
658.294 .0311920
659.045 .0311676
659.796 .0311432
660.546 .0311188
661.297 .0310945
662.047 .0310703
662.796 .0310460
663.546 .0310217
664.295 .0309973
665.044 .0309730
665.793 .0309487
666.542 .0309245
667.290 .0309004
668.038 .0308764
668.786 .0308527
669.533 .0308292
670.281 .0308060
671.028 .0307832
671.774 .0307608
672.521 .0307389
673.267 .0307176
674.013 .0306968
674.759 .0306767
675.505 .0306572
676.250 .0306383
676.995 .0306201
677.740 .0306024
678.484 .0305851
679.229 .0305684
679.973 .0305520
680.717 .0305360
681.460 .0305204
682.204 .0305050
682.947 .0304899
683.690 .0304749
684.433 .0304599
685.175 .0304449
685.917 .0304296
686.659 .0304142
687.401 .0303983
688.142 .0303822
688.884 .0303655
689.625 .0303485
690.365 .0303310
691.106 .0303130
691.846 .0302946
692.586 .0302757
693.326 .0302563
694.066 .0302364
694.805 .0302161
695.545 .0301955
696.284 .0301745
697.022 .0301533
697.761 .0301320
698.499 .0301106
699.237 .0300892
699.975 .0300678
700.713 .0300467
701.450 .0300257
702.187 .0300050
702.924 .0299846
703.661 .0299644
704.397 .0299445
705.133 .0299249
705.869 .0299055
706.605 .0298864
707.341 .0298675
708.076 .0298487
708.811 .0298300
709.546 .0298113
710.281 .0297926
711.015 .0297739
711.749 .0297552
712.483 .0297364
713.217 .0297175
713.950 .0296986
714.684 .0296797
715.417 .0296606
716.150 .0296413
716.882 .0296219
717.615 .0296021
718.347 .0295821
719.079 .0295619
719.811 .0295414
720.542 .0295209
721.273 .0295002
722.005 .0294796
722.735 .0294590
723.466 .0294385
724.196 .0294181
724.927 .0293978
725.656 .0293779
726.386 .0293582
727.116 .0293389
727.845 .0293200
728.574 .0293016
729.303 .0292836
730.031 .0292662
730.760 .0292492
731.488 .0292328
732.216 .0292168
732.944 .0292012
733.671 .0291862
734.398 .0291716
735.125 .0291574
735.852 .0291435
736.579 .0291299
737.305 .0291166
738.031 .0291033
738.757 .0290902
739.483 .0290772
740.208 .0290643
740.933 .0290515
741.658 .0290388
742.383 .0290262
743.108 .0290137
743.832 .0290013
744.556 .0289888
745.280 .0289763
746.004 .0289636
746.727 .0289508
747.450 .0289378
748.173 .0289247
748.896 .0289115
749.618 .0288982
750.340 .0288849
751.062 .0288715
751.784 .0288580
752.506 .0288444
753.227 .0288306
753.948 .0288167
754.669 .0288027
755.389 .0287884
756.110 .0287740
756.830 .0287595
757.550 .0287449
758.269 .0287303
758.989 .0287157
759.708 .0287011
760.427 .0286865
761.146 .0286720
761.864 .0286575
762.582 .0286431
763.300 .0286287
764.018 .0286143
764.736 .0286000
765.453 .0285858
766.170 .0285717
766.887 .0285579
767.603 .0285442
768.320 .0285309
769.036 .0285179
769.751 .0285053
770.467 .0284931
771.182 .0284813
771.897 .0284700
772.612 .0284592
773.327 .0284487
774.041 .0284386
774.755 .0284288
775.469 .0284193
776.183 .0284101
776.896 .0284011
777.609 .0283924
778.322 .0283840
779.035 .0283758
779.747 .0283680
780.459 .0283604
781.171 .0283531
781.882 .0283459
782.594 .0283390
783.305 .0283321
784.016 .0283254
784.726 .0283186
785.436 .0283118
786.147 .0283017
786.856 .0282947
787.566 .0282876
788.275 .0282804
788.984 .0282731
789.693 .0282658
790.401 .0282584
791.110 .0282508
791.818 .0282432
792.525 .0282354
793.233 .0282274
793.940 .0282193
794.647 .0282146
795.353 .0282064
796.060 .0281980
796.766 .0281896
797.472 .0281811
798.177 .0281726
798.883 .0281641
799.588 .0281556
800.292 .0281471
800.997 .0281385
801.701 .0281298
802.405 .0281209
803.109 .0281120
803.812 .0281030
804.515 .0280939
805.218 .0280846
805.921 .0280751
806.623 .0280655
807.325 .0280556
808.027 .0280455
808.728 .0280351
809.429 .0280245
810.130 .0280138
810.831 .0280028
811.531 .0279916
812.231 .0279804
812.931 .0279691
813.630 .0279577
814.330 .0279462
815.029 .0279348
815.727 .0279234
816.426 .0279120
817.124 .0279007
817.821 .0278895
818.519 .0278785
819.216 .0278676
819.913 .0278571
820.609 .0278468
821.306 .0278367
822.002 .0278270
822.697 .0278175
823.393 .0278082
824.088 .0277992
824.783 .0277904
825.477 .0277818
826.171 .0277734
826.865 .0277652
827.559 .0277571
828.252 .0277492
828.945 .0277414
829.638 .0277337
830.330 .0277259
831.023 .0277179
831.714 .0277099
832.406 .0277015
833.097 .0276930
833.788 .0276841
834.479 .0276750
835.169 .0276656
835.859 .0276559
836.548 .0276460
837.238 .0276359
837.927 .0276256
838.615 .0276151
839.304 .0276045
839.992 .0275937
840.680 .0275828
841.367 .0275718
842.054 .0275607
842.741 .0275494
843.428 .0275382
844.114 .0275269
844.800 .0275155
845.485 .0275040
846.170 .0274924
846.855 .0274806
847.540 .0274687
848.224 .0274566
848.908 .0274442
849.592 .0274315
850.275 .0274185
850.958 .0274051
851.641 .0273912
852.323 .0273770
853.005 .0273624
853.687 .0273474
854.368 .0273320
855.049 .0273163
855.730 .0273002
856.410 .0272839
857.090 .0272672
857.769 .0272503
858.449 .0272331
859.128 .0272156
859.806 .0271979
860.485 .0271800
861.163 .0271619
861.840 .0271438
862.518 .0271256
863.195 .0271075
863.871 .0270895
864.548 .0270717
865.224 .0270540
865.899 .0270367
866.574 .0270195
867.249 .0270026
867.924 .0269860
868.598 .0269697
869.272 .0269537
869.946 .0269380
870.619 .0269226
871.292 .0269075
871.964 .0268925
872.636 .0268778
873.308 .0268633
873.979 .0268489
874.651 .0268348
875.321 .0268208
875.992 .0268072
876.662 .0267937
877.331 .0267804
878.001 .0267674
878.670 .0267545
879.338 .0267417
880.007 .0267292
880.675 .0267167
881.342 .0267045
882.009 .0266926
882.676 .0266812
883.343 .0266702
884.009 .0266598
884.675 .0266500
885.340 .0266408
886.005 .0266323
886.670 .0266243
887.334 .0266168
887.998 .0266098
888.662 .0266032
889.325 .0265972
889.988 .0265915
890.650 .0265865
891.312 .0265819
891.974 .0265779
892.636 .0265743
893.297 .0265711
893.957 .0265681
894.618 .0265654
895.278 .0265626
895.937 .0265599
896.596 .0265570
897.255 .0265540
897.914 .0265508
898.572 .0265474
899.230 .0265437
899.887 .0265396
900.544 .0265351
901.201 .0265301
901.857 .0265201
902.513 .0265136
903.168 .0265066
903.823 .0264990
904.478 .0264911
905.132 .0264827
905.786 .0264740
906.440 .0264649
907.093 .0264554
907.746 .0264455
908.399 .0264351
909.051 .0264244
909.703 .0264133
910.354 .0264074
911.005 .0263962
911.656 .0263849
912.306 .0263737
912.956 .0263626
913.605 .0263517
914.254 .0263410
914.903 .0263302
915.551 .0263195
916.199 .0263087
916.847 .0262979
917.494 .0262869
918.141 .0262760
918.788 .0262650
919.434 .0262542
920.079 .0262434
920.725 .0262326
921.370 .0262219
922.014 .0262110
922.658 .0261999
923.302 .0261886
923.946 .0261772
924.589 .0261656
925.231 .0261539
925.873 .0261423
926.515 .0261308
927.157 .0261194
927.798 .0261082
928.439 .0260972
929.079 .0260863
929.719 .0260756
930.359 .0260651
930.998 .0260547
931.637 .0260447
932.275 .0260350
932.913 .0260257
933.551 .0260170
934.188 .0260088
934.825 .0260012
935.462 .0259942
936.098 .0259876
936.733 .0259814
937.369 .0259757
938.004 .0259703
938.638 .0259652
939.273 .0259606
939.907 .0259565
940.540 .0259528
941.173 .0259497
941.806 .0259470
942.438 .0259447
943.070 .0259427
943.702 .0259408
944.333 .0259391
944.964 .0259373
945.594 .0259354
946.224 .0259334
946.854 .0259311
947.483 .0259287
948.112 .0259260
948.741 .0259231
949.369 .0259199
949.996 .0259163
950.624 .0259123
951.251 .0259078
951.878 .0259029
952.504 .0258974
953.130 .0258915
953.755 .0258853
954.380 .0258787
955.005 .0258719
955.629 .0258649
956.253 .0258578
956.877 .0258507
957.500 .0258434
958.123 .0258361
958.746 .0258287
959.368 .0258213
959.990 .0258138
960.611 .0258064
961.232 .0257991
961.853 .0257918
962.473 .0257845
963.093 .0257773
963.712 .0257699
964.331 .0257626
964.950 .0257551
965.569 .0257475
966.187 .0257399
966.804 .0257322
967.422 .0257245
968.039 .0257168
968.655 .0257091
969.272 .0257014
969.887 .0256935
970.503 .0256856
971.118 .0256775
971.733 .0256692
972.347 .0256607
972.961 .0256520
973.575 .0256432
974.188 .0256342
974.801 .0256250
975.414 .0256156
976.026 .0256058
976.638 .0255956
977.250 .0255850
977.861 .0255740
978.472 .0255624
979.083 .0255505
979.693 .0255382
980.303 .0255256
980.912 .0255059
981.521 .0254931
982.130 .0254802
982.738 .0254672
983.346 .0254542
983.954 .0254412
984.562 .0254282
985.169 .0254153
985.775 .0254026
986.382 .0253901
986.988 .0253779
987.594 .0253660
988.199 .0253545
988.804 .0253432
989.409 .0253385
990.013 .0253277
990.617 .0253170
991.221 .0253065
991.824 .0252962
992.427 .0252859
993.030 .0252758
993.632 .0252659
994.234 .0252562
994.836 .0252467
995.438 .0252376
996.039 .0252286
996.640 .0252200
997.240 .0252116
997.840 .0252035
998.440 .0251956
999.040 .0251880
999.639 .0251806
1000.238 .0251733
1000.836 .0251661
1001.435 .0251590
1002.033 .0251520
1002.630 .0251451
1003.228 .0251382
1003.825 .0251313
1004.422 .0251244
1005.018 .0251174
1005.614 .0251104
1006.210 .0251033
1006.806 .0250961
1007.401 .0250886
1007.996 .0250810
1008.591 .0250731
1009.186 .0250651
1009.780 .0250570
1010.374 .0250489
1010.967 .0250409
1011.561 .0250328
1012.154 .0250249
1012.746 .0250171
1013.339 .0250095
1013.931 .0250019
1014.523 .0249945
1015.115 .0249871
1015.706 .0249800
1016.298 .0249730
1016.888 .0249663
1017.479 .0249600
1018.069 .0249540
1018.660 .0249484
1019.250 .0249432
1019.839 .0249383
1020.429 .0249337
1021.018 .0249294
1021.607 .0249254
1022.195 .0249216
1022.784 .0249182
1023.372 .0249151
1023.960 .0249123
1024.547 .0249099
1025.135 .0249079
1025.722 .0249062
1026.309 .0249048
1026.896 .0249036
1027.483 .0249027
1028.069 .0249019
1028.655 .0249013
1029.241 .0249007
1029.827 .0249002
1030.412 .0248999
1030.997 .0248996
1031.582 .0248994
1032.167 .0248994
1032.752 .0248994
1033.336 .0248996
1033.921 .0248998
1034.505 .0249000
1035.089 .0249001
1035.672 .0249002
1036.256 .0249002
1036.839 .0249001
1037.422 .0248999
1038.005 .0248996
1038.588 .0248992
1039.171 .0248986
1039.753 .0248979
1040.335 .0248969
1040.918 .0248958
1041.500 .0248945
1042.081 .0248929
1042.663 .0248911
1043.244 .0248890
1043.826 .0248866
1044.407 .0248839
1044.988 .0248811
1045.569 .0248781
1046.150 .0248750
1046.730 .0248718
1047.311 .0248685
1047.891 .0248653
1048.471 .0248619
1049.052 .0248586
1049.632 .0248553
1050.211 .0248520
1050.791 .0248486
1051.371 .0248454
1051.950 .0248423
1052.530 .0248393
1053.109 .0248366
1053.688 .0248342
1054.268 .0248321
1054.847 .0248304
1055.426 .0248290
1056.005 .0248279
1056.583 .0248272
1057.162 .0248268
1057.741 .0248267
1058.319 .0248269
1058.898 .0248275
1059.476 .0248286
1060.055 .0248302
1060.633 .0248323
1061.211 .0248349
1061.790 .0248380
1062.368 .0248415
1062.946 .0248454
1063.524 .0248494
1064.102 .0248537
1064.680 .0248581
1065.258 .0248626
1065.836 .0248672
1066.414 .0248719
1066.992 .0248766
1067.570 .0248813
1068.148 .0248859
1068.726 .0248904
1069.304 .0248947
1069.882 .0248987
1070.460 .0249026
1071.038 .0249061
1071.616 .0249095
1072.194 .0249129
1072.772 .0249162
1073.350 .0249196
1073.928 .0249232
1074.506 .0249269
1075.084 .0249307
1075.662 .0249348
1076.240 .0249392
1076.819 .0249440
1077.397 .0249494
1077.976 .0249554
1078.554 .0249621
1079.133 .0249697
1079.711 .0249782
1080.290 .0249876
1080.869 .0249977
1081.448 .0250085
1082.027 .0250198
1082.606 .0250314
1083.185 .0250435
1083.764 .0250561
1084.343 .0250692
1084.923 .0250831
1085.502 .0250979
1086.082 .0251135
1086.662 .0251299
1087.242 .0251470
1087.822 .0251648
1088.402 .0251831
1088.983 .0252017
1089.563 .0252206
1090.144 .0252399
1090.725 .0252596
1091.306 .0252799
1091.887 .0253009
1092.469 .0253226
1093.050 .0253450
1093.632 .0253679
1094.214 .0253910
1094.796 .0254141
1095.379 .0254370
1095.961 .0254594
1096.544 .0254813
1097.127 .0255027
1097.710 .0255237
1098.294 .0255446
1098.877 .0255654
1099.461 .0255861
1100.046 .0256067
1100.630 .0256269
1101.215 .0256466
1101.800 .0256656
1102.385 .0256838
1102.970 .0257012
1103.556 .0257179
1104.142 .0257345
1104.728 .0257511
1105.315 .0257682
1105.902 .0257860
1106.489 .0258047
1107.077 .0258245
1107.664 .0258452
1108.253 .0258667
1108.841 .0258892
1109.430 .0259125
1110.019 .0259368
1110.609 .0259624
1111.198 .0259896
1111.789 .0260186
1112.379 .0260496
1112.970 .0260829
1113.561 .0261184
1114.153 .0261561
1114.745 .0261959
1115.338 .0262377
1115.931 .0262813
1116.524 .0263268
1117.117 .0263741
1117.712 .0264234
1118.306 .0264749
1118.901 .0265286
1119.496 .0265847
1120.092 .0266430
1120.689 .0267035
1121.285 .0267656
1121.882 .0268293
1122.480 .0268943
1123.078 .0269601
1123.677 .0270265
1124.276 .0270934
1124.875 .0271606
1125.476 .0272282
1126.076 .0272964
1126.677 .0273653
1127.279 .0274350
1127.881 .0275057
1128.484 .0275772
1129.087 .0276124
1129.691 .0276846
1130.295 .0277577
1130.900 .0278316
1131.505 .0279062
1132.111 .0279818
1132.718 .0280584
1133.325 .0281365
1133.933 .0282165
1134.541 .0282932
1135.150 .0283812
1135.760 .0284679
1136.370 .0285608
1136.981 .0285894
1137.592 .0286912
1138.204 .0287955
1138.817 .0288976
1139.431 .0289929
1140.045 .0290915
1140.660 .0291906
1141.275 .0292988
1141.891 .0294141
1142.508 .0293877
1143.126 .0297684
1143.744 .0298017
1144.363 .0300419
1144.983 .0301023
