Measurement Sequence started on: 15-12-46-377
Integration time: 28
Scans to Average: 2 
>>>>>Begin Spectral Data<<<<<
432.689 .0000100
433.621 .0000100
434.552 .0000100
435.482 .0000100
436.410 .0000100
437.337 .0000100
438.262 .0243145
439.187 .0513913
440.110 .0850861
441.031 .1231007
441.952 .0992001
442.871 .1037209
443.789 .1079541
444.705 .1119631
445.621 .1157910
446.535 .1194710
447.447 .1217470
448.359 .1224898
449.269 .1213657
450.178 .1181568
451.086 .1129273
451.993 .1060954
452.898 .0983554
453.803 .0904942
454.706 .0831819
455.608 .0768329
456.508 .0715864
457.408 .0680672
458.306 .0653691
459.204 .0631725
460.100 .0613170
460.995 .0597119
461.888 .0582959
462.781 .0570277
463.673 .0558765
464.563 .0548219
465.452 .0538498
466.340 .0529486
467.228 .0521117
468.114 .0513345
468.999 .0506132
469.882 .0499434
470.765 .0493229
471.647 .0487484
472.528 .0482174
473.407 .0477280
474.286 .0472786
475.163 .0468686
476.040 .0464976
476.915 .0461653
477.790 .0458712
478.663 .0456147
479.535 .0453948
480.407 .0452091
481.277 .0450556
482.147 .0449310
483.015 .0448326
483.883 .0447581
484.749 .0447059
485.615 .0446746
486.479 .0446639
487.343 .0446734
488.206 .0447030
489.067 .0447523
489.928 .0448203
490.788 .0449060
491.647 .0450082
492.505 .0451256
493.362 .0452571
494.218 .0454026
495.073 .0455628
495.928 .0458647
496.781 .0460742
497.634 .0463066
498.486 .0465645
499.337 .0468505
500.187 .0471668
501.036 .0475155
501.884 .0478997
502.731 .0483223
503.578 .0487863
504.424 .0491137
505.268 .0496532
506.113 .0502438
506.956 .0508896
507.798 .0515964
508.640 .0523712
509.480 .0532224
510.320 .0541594
511.160 .0551928
511.998 .0563342
512.836 .0575983
513.672 .0590008
514.508 .0605600
515.344 .0622957
516.178 .0642281
517.012 .0663777
517.845 .0687661
518.677 .0714157
519.508 .0743459
520.339 .0775651
521.169 .0810810
521.998 .0848731
522.826 .0889062
523.654 .0931290
524.481 .0974753
525.307 .1018660
526.133 .1062115
526.958 .1104179
527.782 .1143954
528.605 .1180618
529.428 .1213468
530.250 .1241836
531.072 .1265307
531.892 .1283523
532.712 .1296224
533.532 .1303283
534.350 .1304705
535.168 .1300526
535.986 .1290814
536.802 .1275624
537.618 .1255083
538.434 .1229299
539.249 .1198635
540.063 .1163584
540.876 .1124754
541.689 .1082901
542.501 .1038871
543.313 .0993569
544.124 .0947945
544.934 .0902871
545.744 .0859126
546.553 .0817354
547.361 .0778120
548.169 .0741711
548.976 .0708327
549.783 .0678052
550.589 .0650810
551.395 .0626390
552.200 .0604526
553.004 .0584912
553.808 .0567269
554.611 .0551364
555.414 .0536977
556.216 .0523928
557.018 .0512051
557.819 .0501208
558.619 .0491271
559.419 .0482131
560.218 .0473707
561.017 .0465907
561.815 .0458660
562.613 .0451891
563.410 .0445524
564.207 .0439505
565.003 .0433780
565.799 .0428305
566.594 .0423041
567.388 .0417972
568.182 .0413079
568.976 .0408354
569.769 .0403790
570.562 .0399383
571.354 .0395125
572.145 .0391012
572.936 .0387033
573.727 .0383178
574.517 .0379440
575.307 .0375817
576.096 .0372309
576.885 .0368917
577.673 .0365644
578.461 .0362497
579.248 .0359482
580.035 .0356606
580.821 .0353867
581.607 .0351268
582.392 .0348809
583.177 .0346488
583.962 .0344300
584.746 .0342243
585.529 .0340315
586.313 .0338514
587.095 .0336834
587.878 .0335273
588.660 .0333826
589.441 .0332490
590.222 .0331261
591.003 .0330131
591.783 .0329093
592.563 .0328137
593.342 .0327255
594.121 .0326437
594.899 .0325674
595.678 .0324955
596.455 .0324274
597.233 .0323622
598.009 .0322996
598.786 .0322390
599.562 .0321801
600.338 .0321227
601.113 .0320667
601.888 .0319862
602.663 .0319332
603.437 .0318813
604.211 .0318305
604.984 .0317807
605.757 .0317319
606.530 .0316841
607.302 .0316374
608.074 .0315918
608.845 .0315475
609.616 .0315045
610.387 .0314866
611.158 .0314459
611.928 .0314068
612.697 .0313693
613.467 .0313334
614.236 .0312992
615.004 .0312665
615.773 .0312352
616.541 .0312053
617.308 .0311767
618.076 .0311493
618.843 .0311229
619.609 .0310975
620.375 .0310730
621.141 .0310492
621.907 .0310260
622.672 .0310034
623.437 .0309814
624.202 .0309598
624.966 .0309387
625.730 .0309179
626.493 .0308974
627.257 .0308772
628.020 .0308571
628.782 .0308371
629.545 .0308171
630.307 .0307970
631.068 .0307768
631.830 .0307565
632.591 .0307362
633.352 .0307159
634.112 .0306957
634.872 .0306757
635.632 .0306559
636.392 .0306364
637.151 .0306172
637.910 .0305982
638.668 .0305794
639.427 .0305609
640.185 .0305427
640.943 .0305250
641.700 .0305077
642.457 .0304910
643.214 .0304750
643.971 .0304595
644.727 .0304447
645.483 .0304304
646.239 .0304167
646.994 .0304034
647.750 .0303904
648.505 .0303777
649.259 .0303651
650.014 .0303525
650.768 .0303397
651.521 .0303267
652.275 .0303131
653.028 .0302988
653.781 .0302837
654.534 .0302676
655.286 .0302506
656.039 .0302326
656.791 .0302135
657.542 .0301934
658.294 .0301722
659.045 .0301498
659.796 .0301262
660.546 .0301014
661.297 .0300753
662.047 .0300481
662.796 .0300198
663.546 .0299906
664.295 .0299605
665.044 .0299298
665.793 .0298987
666.542 .0298674
667.290 .0298361
668.038 .0298049
668.786 .0297740
669.533 .0297435
670.281 .0297134
671.028 .0296839
671.774 .0296550
672.521 .0296267
673.267 .0295991
674.013 .0295723
674.759 .0295463
675.505 .0295212
676.250 .0294970
676.995 .0294737
677.740 .0294513
678.484 .0294297
679.229 .0294089
679.973 .0293888
680.717 .0293694
681.460 .0293505
682.204 .0293321
682.947 .0293140
683.690 .0292962
684.433 .0292785
685.175 .0292611
685.917 .0292437
686.659 .0292265
687.401 .0292095
688.142 .0291926
688.884 .0291761
689.625 .0291597
690.365 .0291436
691.106 .0291277
691.846 .0291118
692.586 .0290961
693.326 .0290804
694.066 .0290649
694.805 .0290496
695.545 .0290347
696.284 .0290202
697.022 .0290062
697.761 .0289929
698.499 .0289801
699.237 .0289680
699.975 .0289564
700.713 .0289454
701.450 .0289349
702.187 .0289250
702.924 .0289155
703.661 .0289066
704.397 .0288982
705.133 .0288904
705.869 .0288830
706.605 .0288760
707.341 .0288694
708.076 .0288631
708.811 .0288571
709.546 .0288513
710.281 .0288455
711.015 .0288398
711.749 .0288339
712.483 .0288278
713.217 .0288213
713.950 .0288144
714.684 .0288070
715.417 .0287990
716.150 .0287905
716.882 .0287814
717.615 .0287717
718.347 .0287614
719.079 .0287503
719.811 .0287385
720.542 .0287260
721.273 .0287126
722.005 .0286986
722.735 .0286838
723.466 .0286684
724.196 .0286526
724.927 .0286364
725.656 .0286200
726.386 .0286034
727.116 .0285867
727.845 .0285701
728.574 .0285535
729.303 .0285370
730.031 .0285208
730.760 .0285047
731.488 .0284889
732.216 .0284735
732.944 .0284584
733.671 .0284436
734.398 .0284293
735.125 .0284155
735.852 .0284021
736.579 .0283892
737.305 .0283766
738.031 .0283643
738.757 .0283522
739.483 .0283401
740.208 .0283280
740.933 .0283156
741.658 .0283029
742.383 .0282897
743.108 .0282761
743.832 .0282619
744.556 .0282471
745.280 .0282317
746.004 .0282156
746.727 .0281987
747.450 .0281810
748.173 .0281624
748.896 .0281429
749.618 .0281224
750.340 .0281010
751.062 .0280787
751.784 .0280557
752.506 .0280320
753.227 .0280078
753.948 .0279833
754.669 .0279586
755.389 .0279338
756.110 .0279090
756.830 .0278844
757.550 .0278600
758.269 .0278359
758.989 .0278121
759.708 .0277886
760.427 .0277655
761.146 .0277428
761.864 .0277206
762.582 .0276988
763.300 .0276776
764.018 .0276568
764.736 .0276367
765.453 .0276170
766.170 .0275978
766.887 .0275791
767.603 .0275608
768.320 .0275430
769.036 .0275256
769.751 .0275086
770.467 .0274921
771.182 .0274761
771.897 .0274607
772.612 .0274460
773.327 .0274320
774.041 .0274187
774.755 .0274064
775.469 .0273949
776.183 .0273844
776.896 .0273750
777.609 .0273665
778.322 .0273590
779.035 .0273525
779.747 .0273469
780.459 .0273422
781.171 .0273384
781.882 .0273355
782.594 .0273335
783.305 .0273322
784.016 .0273318
784.726 .0273322
785.436 .0273332
786.147 .0273363
786.856 .0273383
787.566 .0273406
788.275 .0273432
788.984 .0273459
789.693 .0273487
790.401 .0273515
791.110 .0273542
791.818 .0273568
792.525 .0273592
793.233 .0273614
793.940 .0273633
794.647 .0273635
795.353 .0273650
796.060 .0273661
796.766 .0273670
797.472 .0273675
798.177 .0273676
798.883 .0273674
799.588 .0273669
800.292 .0273660
800.997 .0273649
801.701 .0273634
802.405 .0273616
803.109 .0273595
803.812 .0273571
804.515 .0273544
805.218 .0273514
805.921 .0273481
806.623 .0273444
807.325 .0273403
808.027 .0273360
808.728 .0273312
809.429 .0273261
810.130 .0273206
810.831 .0273147
811.531 .0273084
812.231 .0273016
812.931 .0272944
813.630 .0272867
814.330 .0272787
815.029 .0272703
815.727 .0272618
816.426 .0272532
817.124 .0272445
817.821 .0272359
818.519 .0272272
819.216 .0272185
819.913 .0272099
820.609 .0272013
821.306 .0271928
822.002 .0271844
822.697 .0271761
823.393 .0271680
824.088 .0271600
824.783 .0271523
825.477 .0271447
826.171 .0271373
826.865 .0271299
827.559 .0271226
828.252 .0271154
828.945 .0271082
829.638 .0271010
830.330 .0270938
831.023 .0270865
831.714 .0270792
832.406 .0270718
833.097 .0270642
833.788 .0270563
834.479 .0270481
835.169 .0270395
835.859 .0270305
836.548 .0270211
837.238 .0270112
837.927 .0270007
838.615 .0269897
839.304 .0269780
839.992 .0269657
840.680 .0269526
841.367 .0269389
842.054 .0269244
842.741 .0269092
843.428 .0268933
844.114 .0268766
844.800 .0268593
845.485 .0268412
846.170 .0268223
846.855 .0268028
847.540 .0267826
848.224 .0267618
848.908 .0267404
849.592 .0267185
850.275 .0266960
850.958 .0266731
851.641 .0266496
852.323 .0266257
853.005 .0266013
853.687 .0265766
854.368 .0265515
855.049 .0265262
855.730 .0265006
856.410 .0264749
857.090 .0264491
857.769 .0264233
858.449 .0263973
859.128 .0263714
859.806 .0263454
860.485 .0263195
861.163 .0262939
861.840 .0262685
862.518 .0262435
863.195 .0262190
863.871 .0261950
864.548 .0261716
865.224 .0261487
865.899 .0261262
866.574 .0261043
867.249 .0260829
867.924 .0260620
868.598 .0260417
869.272 .0260221
869.946 .0260033
870.619 .0259852
871.292 .0259679
871.964 .0259515
872.636 .0259358
873.308 .0259210
873.979 .0259069
874.651 .0258936
875.321 .0258810
875.992 .0258692
876.662 .0258580
877.331 .0258475
878.001 .0258378
878.670 .0258287
879.338 .0258203
880.007 .0258126
880.675 .0258057
881.342 .0257995
882.009 .0257940
882.676 .0257894
883.343 .0257855
884.009 .0257825
884.675 .0257802
885.340 .0257787
886.005 .0257780
886.670 .0257781
887.334 .0257789
887.998 .0257805
888.662 .0257827
889.325 .0257857
889.988 .0257894
890.650 .0257937
891.312 .0257987
891.974 .0258043
892.636 .0258105
893.297 .0258172
893.957 .0258242
894.618 .0258316
895.278 .0258392
895.937 .0258468
896.596 .0258544
897.255 .0258618
897.914 .0258690
898.572 .0258759
899.230 .0258824
899.887 .0258885
900.544 .0258942
901.201 .0258995
901.857 .0259043
902.513 .0259080
903.168 .0259110
903.823 .0259134
904.478 .0259149
905.132 .0259157
905.786 .0259158
906.440 .0259152
907.093 .0259140
907.746 .0259122
908.399 .0259100
909.051 .0259074
909.703 .0259044
910.354 .0259024
911.005 .0258990
911.656 .0258953
912.306 .0258913
912.956 .0258871
913.605 .0258827
914.254 .0258782
914.903 .0258736
915.551 .0258689
916.199 .0258642
916.847 .0258593
917.494 .0258542
918.141 .0258489
918.788 .0258434
919.434 .0258376
920.079 .0258314
920.725 .0258250
921.370 .0258183
922.014 .0258112
922.658 .0258037
923.302 .0257959
923.946 .0257877
924.589 .0257791
925.231 .0257702
925.873 .0257609
926.515 .0257514
927.157 .0257417
927.798 .0257319
928.439 .0257221
929.079 .0257122
929.719 .0257024
930.359 .0256927
930.998 .0256831
931.637 .0256736
932.275 .0256642
932.913 .0256550
933.551 .0256461
934.188 .0256375
934.825 .0256293
935.462 .0256214
936.098 .0256139
936.733 .0256069
937.369 .0256002
938.004 .0255938
938.638 .0255878
939.273 .0255821
939.907 .0255766
940.540 .0255714
941.173 .0255664
941.806 .0255615
942.438 .0255567
943.070 .0255519
943.702 .0255472
944.333 .0255423
944.964 .0255373
945.594 .0255321
946.224 .0255266
946.854 .0255208
947.483 .0255146
948.112 .0255080
948.741 .0255009
949.369 .0254935
949.996 .0254855
950.624 .0254770
951.251 .0254681
951.878 .0254587
952.504 .0254488
953.130 .0254385
953.755 .0254277
954.380 .0254164
955.005 .0254048
955.629 .0253927
956.253 .0253803
956.877 .0253675
957.500 .0253543
958.123 .0253408
958.746 .0253268
959.368 .0253125
959.990 .0252977
960.611 .0252826
961.232 .0252671
961.853 .0252512
962.473 .0252350
963.093 .0252187
963.712 .0252023
964.331 .0251857
964.950 .0251692
965.569 .0251527
966.187 .0251361
966.804 .0251195
967.422 .0251028
968.039 .0250859
968.655 .0250688
969.272 .0250515
969.887 .0250340
970.503 .0250164
971.118 .0249985
971.733 .0249805
972.347 .0249623
972.961 .0249439
973.575 .0249252
974.188 .0249061
974.801 .0248867
975.414 .0248669
976.026 .0248468
976.638 .0248264
977.250 .0248057
977.861 .0247848
978.472 .0247637
979.083 .0247424
979.693 .0247210
980.303 .0246992
980.912 .0246652
981.521 .0246431
982.130 .0246208
982.738 .0245984
983.346 .0245760
983.954 .0245537
984.562 .0245314
985.169 .0245094
985.775 .0244876
986.382 .0244661
986.988 .0244449
987.594 .0244241
988.199 .0244037
988.804 .0243837
989.409 .0243760
990.013 .0243570
990.617 .0243387
991.221 .0243210
991.824 .0243042
992.427 .0242880
993.030 .0242726
993.632 .0242579
994.234 .0242437
994.836 .0242301
995.438 .0242170
996.039 .0242044
996.640 .0241922
997.240 .0241807
997.840 .0241696
998.440 .0241591
999.040 .0241491
999.639 .0241395
1000.238 .0241303
1000.836 .0241213
1001.435 .0241127
1002.033 .0241042
1002.630 .0240959
1003.228 .0240879
1003.825 .0240802
1004.422 .0240727
1005.018 .0240656
1005.614 .0240588
1006.210 .0240522
1006.806 .0240460
1007.401 .0240399
1007.996 .0240340
1008.591 .0240283
1009.186 .0240228
1009.780 .0240176
1010.374 .0240129
1010.967 .0240087
1011.561 .0240050
1012.154 .0240021
1012.746 .0239998
1013.339 .0239983
1013.931 .0239975
1014.523 .0239973
1015.115 .0239977
1015.706 .0239986
1016.298 .0240002
1016.888 .0240023
1017.479 .0240051
1018.069 .0240086
1018.660 .0240128
1019.250 .0240178
1019.839 .0240234
1020.429 .0240297
1021.018 .0240367
1021.607 .0240441
1022.195 .0240521
1022.784 .0240607
1023.372 .0240698
1023.960 .0240794
1024.547 .0240897
1025.135 .0241006
1025.722 .0241122
1026.309 .0241243
1026.896 .0241369
1027.483 .0241498
1028.069 .0241631
1028.655 .0241766
1029.241 .0241902
1029.827 .0242041
1030.412 .0242181
1030.997 .0242324
1031.582 .0242467
1032.167 .0242612
1032.752 .0242758
1033.336 .0242903
1033.921 .0243048
1034.505 .0243193
1035.089 .0243337
1035.672 .0243481
1036.256 .0243625
1036.839 .0243770
1037.422 .0243916
1038.005 .0244062
1038.588 .0244210
1039.171 .0244357
1039.753 .0244504
1040.335 .0244649
1040.918 .0244792
1041.500 .0244933
1042.081 .0245072
1042.663 .0245211
1043.244 .0245349
1043.826 .0245487
1044.407 .0245625
1044.988 .0245762
1045.569 .0245898
1046.150 .0246032
1046.730 .0246163
1047.311 .0246290
1047.891 .0246415
1048.471 .0246538
1049.052 .0246661
1049.632 .0246785
1050.211 .0246911
1050.791 .0247039
1051.371 .0247171
1051.950 .0247305
1052.530 .0247442
1053.109 .0247579
1053.688 .0247717
1054.268 .0247856
1054.847 .0247995
1055.426 .0248135
1056.005 .0248277
1056.583 .0248421
1057.162 .0248568
1057.741 .0248716
1058.319 .0248865
1058.898 .0249013
1059.476 .0249159
1060.055 .0249302
1060.633 .0249441
1061.211 .0249577
1061.790 .0249710
1062.368 .0249841
1062.946 .0249970
1063.524 .0250098
1064.102 .0250226
1064.680 .0250354
1065.258 .0250482
1065.836 .0250610
1066.414 .0250739
1066.992 .0250868
1067.570 .0250996
1068.148 .0251123
1068.726 .0251250
1069.304 .0251374
1069.882 .0251496
1070.460 .0251617
1071.038 .0251736
1071.616 .0251852
1072.194 .0251966
1072.772 .0252077
1073.350 .0252185
1073.928 .0252288
1074.506 .0252386
1075.084 .0252481
1075.662 .0252573
1076.240 .0252662
1076.819 .0252751
1077.397 .0252841
1077.976 .0252933
1078.554 .0253028
1079.133 .0253125
1079.711 .0253226
1080.290 .0253328
1080.869 .0253431
1081.448 .0253533
1082.027 .0253633
1082.606 .0253732
1083.185 .0253829
1083.764 .0253925
1084.343 .0254020
1084.923 .0254115
1085.502 .0254210
1086.082 .0254305
1086.662 .0254401
1087.242 .0254498
1087.822 .0254596
1088.402 .0254697
1088.983 .0254802
1089.563 .0254913
1090.144 .0255031
1090.725 .0255159
1091.306 .0255297
1091.887 .0255445
1092.469 .0255602
1093.050 .0255766
1093.632 .0255935
1094.214 .0256106
1094.796 .0256278
1095.379 .0256448
1095.961 .0256616
1096.544 .0256780
1097.127 .0256940
1097.710 .0257096
1098.294 .0257249
1098.877 .0257399
1099.461 .0257546
1100.046 .0257691
1100.630 .0257836
1101.215 .0257981
1101.800 .0258129
1102.385 .0258281
1102.970 .0258440
1103.556 .0258606
1104.142 .0258781
1104.728 .0258966
1105.315 .0259162
1105.902 .0259368
1106.489 .0259586
1107.077 .0259816
1107.664 .0260058
1108.253 .0260313
1108.841 .0260583
1109.430 .0260866
1110.019 .0261162
1110.609 .0261472
1111.198 .0261793
1111.789 .0262127
1112.379 .0262475
1112.970 .0262836
1113.561 .0263214
1114.153 .0263608
1114.745 .0264018
1115.338 .0264446
1115.931 .0264891
1116.524 .0265349
1117.117 .0265818
1117.712 .0266298
1118.306 .0266784
1118.901 .0267275
1119.496 .0267771
1120.092 .0268272
1120.689 .0268776
1121.285 .0269284
1121.882 .0269793
1122.480 .0270304
1123.078 .0270815
1123.677 .0271325
1124.276 .0271835
1124.875 .0272345
1125.476 .0272855
1126.076 .0273366
1126.677 .0273880
1127.279 .0274399
1127.881 .0274924
1128.484 .0275457
1129.087 .0275696
1129.691 .0276242
1130.295 .0276798
1130.900 .0277365
1131.505 .0277945
1132.111 .0278538
1132.718 .0279145
1133.325 .0279777
1133.933 .0280438
1134.541 .0281123
1135.150 .0281779
1135.760 .0282443
1136.370 .0283413
1136.981 .0283782
1137.592 .0284513
1138.204 .0285254
1138.817 .0286034
1139.431 .0286856
1140.045 .0287693
1140.660 .0288557
1141.275 .0289703
1141.891 .0290952
1142.508 .0292024
1143.126 .0291590
1143.744 .0292185
1144.363 .0301162
1144.983 .0300789
