Measurement Sequence started on: 15-12-46-377
Integration time: 28
Scans to Average: 2 
>>>>>Begin Spectral Data<<<<<
432.689 .0000100
433.621 .0000100
434.552 .0000100
435.482 .0000100
436.410 .0000100
437.337 .0000100
438.262 .0283178
439.187 .0599774
440.110 .0992548
441.031 .1434665
441.952 .1140924
442.871 .1190664
443.789 .1236959
444.705 .1280531
445.621 .1321874
446.535 .1361350
447.447 .1384318
448.359 .1389225
449.269 .1372239
450.178 .1330901
451.086 .1266062
451.993 .1182710
452.898 .1089057
453.803 .0994384
454.706 .0906553
455.608 .0830412
456.508 .0767543
457.408 .0725164
458.306 .0692682
459.204 .0666256
460.100 .0643972
460.995 .0624785
461.888 .0608004
462.781 .0593170
463.673 .0579951
464.563 .0568118
465.452 .0557488
466.340 .0547910
467.228 .0539266
468.114 .0531460
468.999 .0524401
469.882 .0518006
470.765 .0512202
471.647 .0506933
472.528 .0502155
473.407 .0497831
474.286 .0493933
475.163 .0490437
476.040 .0487319
476.915 .0484552
477.790 .0482111
478.663 .0479976
479.535 .0478120
480.407 .0476524
481.277 .0475163
482.147 .0474011
483.015 .0473042
483.883 .0472237
484.749 .0471581
485.615 .0471067
486.479 .0470694
487.343 .0470469
488.206 .0470403
489.067 .0470511
489.928 .0470808
490.788 .0471307
491.647 .0472018
492.505 .0472945
493.362 .0474082
494.218 .0475428
495.073 .0476973
495.928 .0480086
496.781 .0482187
497.634 .0484532
498.486 .0487145
499.337 .0490052
500.187 .0493277
501.036 .0496838
501.884 .0500753
502.731 .0505041
503.578 .0509722
504.424 .0512868
505.268 .0518228
506.113 .0524061
506.956 .0530415
507.798 .0537341
508.640 .0544906
509.480 .0553193
510.320 .0562304
511.160 .0572363
511.998 .0583521
512.836 .0595947
513.672 .0609813
514.508 .0625325
515.344 .0642700
516.178 .0662164
517.012 .0683979
517.845 .0708378
518.677 .0735579
519.508 .0765781
520.339 .0799091
521.169 .0835529
521.998 .0874871
522.826 .0916772
523.654 .0960701
524.481 .1005948
525.307 .1051716
526.133 .1097099
526.958 .1141168
527.782 .1183015
528.605 .1221774
529.428 .1256692
530.250 .1287102
531.072 .1312528
531.892 .1332565
532.712 .1346938
533.532 .1355507
534.350 .1358171
535.168 .1354944
535.986 .1345913
536.802 .1331155
537.618 .1310801
538.434 .1285045
539.249 .1254285
540.063 .1219025
540.876 .1179886
541.689 .1137637
542.501 .1093116
543.313 .1047243
544.124 .1000939
544.934 .0955080
545.744 .0910473
546.553 .0867798
547.361 .0827601
548.169 .0790219
548.976 .0755883
549.783 .0724663
550.589 .0696482
551.395 .0671181
552.200 .0648506
553.004 .0628146
553.808 .0609803
554.611 .0593223
555.414 .0578153
556.216 .0564386
557.018 .0551720
557.819 .0540009
558.619 .0529125
559.419 .0518961
560.218 .0509424
561.017 .0500432
561.815 .0491918
562.613 .0483822
563.410 .0476079
564.207 .0468645
565.003 .0461474
565.799 .0454531
566.594 .0447796
567.388 .0441247
568.182 .0434873
568.976 .0428668
569.769 .0422635
570.562 .0416782
571.354 .0411117
572.145 .0405657
572.936 .0400409
573.727 .0395383
574.517 .0390589
575.307 .0386030
576.096 .0381712
576.885 .0377638
577.673 .0373809
578.461 .0370222
579.248 .0366872
580.035 .0363749
580.821 .0360843
581.607 .0358147
582.392 .0355653
583.177 .0353350
583.962 .0351228
584.746 .0349279
585.529 .0347490
586.313 .0345845
587.095 .0344333
587.878 .0342940
588.660 .0341650
589.441 .0340454
590.222 .0339342
591.003 .0338304
591.783 .0337340
592.563 .0336443
593.342 .0335609
594.121 .0334835
594.899 .0334113
595.678 .0333438
596.455 .0332807
597.233 .0332213
598.009 .0331651
598.786 .0331115
599.562 .0330604
600.338 .0330112
601.113 .0329637
601.888 .0328974
602.663 .0328530
603.437 .0328099
604.211 .0327677
604.984 .0327264
605.757 .0326860
606.530 .0326462
607.302 .0326068
608.074 .0325678
608.845 .0325288
609.616 .0324899
610.387 .0324704
611.158 .0324317
611.928 .0323933
612.697 .0323550
613.467 .0323173
614.236 .0322800
615.004 .0322435
615.773 .0322078
616.541 .0321730
617.308 .0321390
618.076 .0321058
618.843 .0320735
619.609 .0320419
620.375 .0320112
621.141 .0319815
621.907 .0319526
622.672 .0319247
623.437 .0318978
624.202 .0318718
624.966 .0318467
625.730 .0318223
626.493 .0317986
627.257 .0317755
628.020 .0317529
628.782 .0317306
629.545 .0317085
630.307 .0316867
631.068 .0316648
631.830 .0316428
632.591 .0316207
633.352 .0315983
634.112 .0315756
634.872 .0315528
635.632 .0315298
636.392 .0315065
637.151 .0314832
637.910 .0314597
638.668 .0314359
639.427 .0314120
640.185 .0313877
640.943 .0313630
641.700 .0313381
642.457 .0313128
643.214 .0312873
643.971 .0312616
644.727 .0312360
645.483 .0312103
646.239 .0311849
646.994 .0311596
647.750 .0311344
648.505 .0311095
649.259 .0310847
650.014 .0310601
650.768 .0310357
651.521 .0310113
652.275 .0309870
653.028 .0309627
653.781 .0309384
654.534 .0309139
655.286 .0308894
656.039 .0308648
656.791 .0308402
657.542 .0308155
658.294 .0307910
659.045 .0307665
659.796 .0307422
660.546 .0307179
661.297 .0306937
662.047 .0306694
662.796 .0306449
663.546 .0306202
664.295 .0305954
665.044 .0305704
665.793 .0305454
666.542 .0305204
667.290 .0304955
668.038 .0304707
668.786 .0304460
669.533 .0304215
670.281 .0303971
671.028 .0303730
671.774 .0303489
672.521 .0303251
673.267 .0303015
674.013 .0302781
674.759 .0302551
675.505 .0302324
676.250 .0302100
676.995 .0301879
677.740 .0301660
678.484 .0301444
679.229 .0301230
679.973 .0301018
680.717 .0300810
681.460 .0300602
682.204 .0300397
682.947 .0300192
683.690 .0299987
684.433 .0299782
685.175 .0299576
685.917 .0299369
686.659 .0299160
687.401 .0298949
688.142 .0298737
688.884 .0298524
689.625 .0298309
690.365 .0298094
691.106 .0297877
691.846 .0297659
692.586 .0297440
693.326 .0297219
694.066 .0296998
694.805 .0296777
695.545 .0296556
696.284 .0296335
697.022 .0296116
697.761 .0295897
698.499 .0295682
699.237 .0295468
699.975 .0295258
700.713 .0295051
701.450 .0294847
702.187 .0294646
702.924 .0294450
703.661 .0294257
704.397 .0294069
705.133 .0293883
705.869 .0293701
706.605 .0293521
707.341 .0293343
708.076 .0293166
708.811 .0292990
709.546 .0292814
710.281 .0292637
711.015 .0292460
711.749 .0292281
712.483 .0292102
713.217 .0291921
713.950 .0291739
714.684 .0291556
715.417 .0291371
716.150 .0291186
716.882 .0291000
717.615 .0290813
718.347 .0290626
719.079 .0290439
719.811 .0290252
720.542 .0290065
721.273 .0289880
722.005 .0289696
722.735 .0289514
723.466 .0289335
724.196 .0289159
724.927 .0288988
725.656 .0288822
726.386 .0288662
727.116 .0288508
727.845 .0288361
728.574 .0288221
729.303 .0288087
730.031 .0287959
730.760 .0287836
731.488 .0287718
732.216 .0287605
732.944 .0287496
733.671 .0287391
734.398 .0287289
735.125 .0287192
735.852 .0287097
736.579 .0287006
737.305 .0286916
738.031 .0286828
738.757 .0286741
739.483 .0286654
740.208 .0286568
740.933 .0286481
741.658 .0286394
742.383 .0286305
743.108 .0286215
743.832 .0286124
744.556 .0286032
745.280 .0285938
746.004 .0285843
746.727 .0285746
747.450 .0285648
748.173 .0285550
748.896 .0285449
749.618 .0285348
750.340 .0285244
751.062 .0285138
751.784 .0285030
752.506 .0284918
753.227 .0284804
753.948 .0284687
754.669 .0284567
755.389 .0284445
756.110 .0284319
756.830 .0284191
757.550 .0284060
758.269 .0283925
758.989 .0283788
759.708 .0283647
760.427 .0283502
761.146 .0283353
761.864 .0283199
762.582 .0283041
763.300 .0282879
764.018 .0282713
764.736 .0282543
765.453 .0282371
766.170 .0282198
766.887 .0282025
767.603 .0281851
768.320 .0281679
769.036 .0281509
769.751 .0281340
770.467 .0281174
771.182 .0281012
771.897 .0280853
772.612 .0280699
773.327 .0280550
774.041 .0280405
774.755 .0280265
775.469 .0280131
776.183 .0280001
776.896 .0279877
777.609 .0279757
778.322 .0279643
779.035 .0279533
779.747 .0279427
780.459 .0279324
781.171 .0279224
781.882 .0279126
782.594 .0279028
783.305 .0278930
784.016 .0278831
784.726 .0278731
785.436 .0278629
786.147 .0278464
786.856 .0278355
787.566 .0278242
788.275 .0278126
788.984 .0278005
789.693 .0277879
790.401 .0277749
791.110 .0277613
791.818 .0277473
792.525 .0277328
793.233 .0277179
793.940 .0277027
794.647 .0276943
795.353 .0276789
796.060 .0276633
796.766 .0276476
797.472 .0276319
798.177 .0276163
798.883 .0276007
799.588 .0275853
800.292 .0275700
800.997 .0275549
801.701 .0275400
802.405 .0275253
803.109 .0275107
803.812 .0274964
804.515 .0274822
805.218 .0274682
805.921 .0274544
806.623 .0274407
807.325 .0274272
808.027 .0274137
808.728 .0274004
809.429 .0273871
810.130 .0273737
810.831 .0273605
811.531 .0273472
812.231 .0273338
812.931 .0273205
813.630 .0273072
814.330 .0272939
815.029 .0272806
815.727 .0272674
816.426 .0272542
817.124 .0272412
817.821 .0272283
818.519 .0272156
819.216 .0272031
819.913 .0271908
820.609 .0271788
821.306 .0271671
822.002 .0271557
822.697 .0271447
823.393 .0271341
824.088 .0271239
824.783 .0271144
825.477 .0271053
826.171 .0270968
826.865 .0270888
827.559 .0270814
828.252 .0270744
828.945 .0270680
829.638 .0270619
830.330 .0270562
831.023 .0270509
831.714 .0270459
832.406 .0270412
833.097 .0270367
833.788 .0270324
834.479 .0270282
835.169 .0270241
835.859 .0270199
836.548 .0270157
837.238 .0270115
837.927 .0270071
838.615 .0270026
839.304 .0269979
839.992 .0269930
840.680 .0269879
841.367 .0269826
842.054 .0269770
842.741 .0269712
843.428 .0269652
844.114 .0269591
844.800 .0269528
845.485 .0269464
846.170 .0269399
846.855 .0269333
847.540 .0269267
848.224 .0269199
848.908 .0269131
849.592 .0269061
850.275 .0268989
850.958 .0268916
851.641 .0268841
852.323 .0268765
853.005 .0268687
853.687 .0268607
854.368 .0268525
855.049 .0268441
855.730 .0268356
856.410 .0268269
857.090 .0268180
857.769 .0268090
858.449 .0268000
859.128 .0267909
859.806 .0267817
860.485 .0267725
861.163 .0267634
861.840 .0267543
862.518 .0267453
863.195 .0267364
863.871 .0267276
864.548 .0267190
865.224 .0267105
865.899 .0267021
866.574 .0266939
867.249 .0266859
867.924 .0266779
868.598 .0266701
869.272 .0266624
869.946 .0266549
870.619 .0266475
871.292 .0266402
871.964 .0266330
872.636 .0266260
873.308 .0266190
873.979 .0266122
874.651 .0266055
875.321 .0265989
875.992 .0265924
876.662 .0265860
877.331 .0265796
878.001 .0265732
878.670 .0265668
879.338 .0265602
880.007 .0265536
880.675 .0265469
881.342 .0265402
882.009 .0265334
882.676 .0265268
883.343 .0265203
884.009 .0265141
884.675 .0265080
885.340 .0265023
886.005 .0264968
886.670 .0264916
887.334 .0264869
887.998 .0264825
888.662 .0264787
889.325 .0264754
889.988 .0264726
890.650 .0264704
891.312 .0264687
891.974 .0264674
892.636 .0264664
893.297 .0264656
893.957 .0264651
894.618 .0264647
895.278 .0264644
895.937 .0264642
896.596 .0264638
897.255 .0264633
897.914 .0264623
898.572 .0264608
899.230 .0264586
899.887 .0264556
900.544 .0264517
901.201 .0264470
901.857 .0264353
902.513 .0264281
903.168 .0264199
903.823 .0264108
904.478 .0264005
905.132 .0263892
905.786 .0263768
906.440 .0263633
907.093 .0263487
907.746 .0263332
908.399 .0263169
909.051 .0262999
909.703 .0262824
910.354 .0262723
911.005 .0262544
911.656 .0262362
912.306 .0262176
912.956 .0261986
913.605 .0261794
914.254 .0261599
914.903 .0261404
915.551 .0261207
916.199 .0261011
916.847 .0260816
917.494 .0260623
918.141 .0260431
918.788 .0260239
919.434 .0260048
920.079 .0259857
920.725 .0259666
921.370 .0259473
922.014 .0259279
922.658 .0259083
923.302 .0258887
923.946 .0258689
924.589 .0258491
925.231 .0258290
925.873 .0258088
926.515 .0257884
927.157 .0257677
927.798 .0257466
928.439 .0257252
929.079 .0257036
929.719 .0256817
930.359 .0256596
930.998 .0256375
931.637 .0256153
932.275 .0255932
932.913 .0255711
933.551 .0255493
934.188 .0255277
934.825 .0255063
935.462 .0254851
936.098 .0254642
936.733 .0254437
937.369 .0254235
938.004 .0254038
938.638 .0253846
939.273 .0253659
939.907 .0253478
940.540 .0253303
941.173 .0253133
941.806 .0252969
942.438 .0252808
943.070 .0252651
943.702 .0252497
944.333 .0252345
944.964 .0252195
945.594 .0252046
946.224 .0251898
946.854 .0251750
947.483 .0251602
948.112 .0251454
948.741 .0251307
949.369 .0251159
949.996 .0251010
950.624 .0250859
951.251 .0250707
951.878 .0250553
952.504 .0250398
953.130 .0250240
953.755 .0250081
954.380 .0249922
955.005 .0249762
955.629 .0249602
956.253 .0249443
956.877 .0249283
957.500 .0249124
958.123 .0248965
958.746 .0248807
959.368 .0248649
959.990 .0248492
960.611 .0248337
961.232 .0248186
961.853 .0248039
962.473 .0247897
963.093 .0247760
963.712 .0247630
964.331 .0247504
964.950 .0247384
965.569 .0247268
966.187 .0247156
966.804 .0247048
967.422 .0246942
968.039 .0246840
968.655 .0246742
969.272 .0246646
969.887 .0246553
970.503 .0246462
971.118 .0246374
971.733 .0246285
972.347 .0246197
972.961 .0246108
973.575 .0246017
974.188 .0245925
974.801 .0245831
975.414 .0245736
976.026 .0245641
976.638 .0245544
977.250 .0245448
977.861 .0245351
978.472 .0245252
979.083 .0245152
979.693 .0245050
980.303 .0244945
980.912 .0244780
981.521 .0244673
982.130 .0244566
982.738 .0244459
983.346 .0244355
983.954 .0244253
984.562 .0244155
985.169 .0244060
985.775 .0243968
986.382 .0243881
986.988 .0243798
987.594 .0243721
988.199 .0243650
988.804 .0243585
989.409 .0243578
990.013 .0243525
990.617 .0243479
991.221 .0243440
991.824 .0243409
992.427 .0243384
993.030 .0243365
993.632 .0243352
994.234 .0243344
994.836 .0243341
995.438 .0243342
996.039 .0243347
996.640 .0243356
997.240 .0243371
997.840 .0243390
998.440 .0243414
999.040 .0243443
999.639 .0243477
1000.238 .0243515
1000.836 .0243556
1001.435 .0243600
1002.033 .0243645
1002.630 .0243691
1003.228 .0243738
1003.825 .0243784
1004.422 .0243830
1005.018 .0243875
1005.614 .0243918
1006.210 .0243961
1006.806 .0244002
1007.401 .0244042
1007.996 .0244080
1008.591 .0244118
1009.186 .0244155
1009.780 .0244191
1010.374 .0244229
1010.967 .0244268
1011.561 .0244310
1012.154 .0244356
1012.746 .0244405
1013.339 .0244460
1013.931 .0244520
1014.523 .0244585
1015.115 .0244655
1015.706 .0244731
1016.298 .0244810
1016.888 .0244895
1017.479 .0244983
1018.069 .0245076
1018.660 .0245174
1019.250 .0245275
1019.839 .0245382
1020.429 .0245492
1021.018 .0245606
1021.607 .0245724
1022.195 .0245844
1022.784 .0245967
1023.372 .0246091
1023.960 .0246217
1024.547 .0246344
1025.135 .0246475
1025.722 .0246607
1026.309 .0246743
1026.896 .0246882
1027.483 .0247023
1028.069 .0247165
1028.655 .0247309
1029.241 .0247453
1029.827 .0247595
1030.412 .0247737
1030.997 .0247877
1031.582 .0248016
1032.167 .0248153
1032.752 .0248289
1033.336 .0248424
1033.921 .0248557
1034.505 .0248689
1035.089 .0248819
1035.672 .0248946
1036.256 .0249072
1036.839 .0249196
1037.422 .0249319
1038.005 .0249442
1038.588 .0249565
1039.171 .0249690
1039.753 .0249816
1040.335 .0249944
1040.918 .0250074
1041.500 .0250203
1042.081 .0250332
1042.663 .0250459
1043.244 .0250584
1043.826 .0250706
1044.407 .0250826
1044.988 .0250942
1045.569 .0251056
1046.150 .0251166
1046.730 .0251272
1047.311 .0251373
1047.891 .0251470
1048.471 .0251560
1049.052 .0251645
1049.632 .0251724
1050.211 .0251799
1050.791 .0251869
1051.371 .0251937
1051.950 .0252004
1052.530 .0252071
1053.109 .0252138
1053.688 .0252205
1054.268 .0252270
1054.847 .0252335
1055.426 .0252398
1056.005 .0252458
1056.583 .0252518
1057.162 .0252575
1057.741 .0252632
1058.319 .0252688
1058.898 .0252743
1059.476 .0252798
1060.055 .0252851
1060.633 .0252901
1061.211 .0252949
1061.790 .0252993
1062.368 .0253034
1062.946 .0253072
1063.524 .0253109
1064.102 .0253144
1064.680 .0253180
1065.258 .0253215
1065.836 .0253250
1066.414 .0253284
1066.992 .0253316
1067.570 .0253344
1068.148 .0253369
1068.726 .0253389
1069.304 .0253406
1069.882 .0253420
1070.460 .0253434
1071.038 .0253447
1071.616 .0253462
1072.194 .0253479
1072.772 .0253499
1073.350 .0253522
1073.928 .0253549
1074.506 .0253581
1075.084 .0253618
1075.662 .0253661
1076.240 .0253710
1076.819 .0253767
1077.397 .0253831
1077.976 .0253903
1078.554 .0253983
1079.133 .0254069
1079.711 .0254161
1080.290 .0254259
1080.869 .0254360
1081.448 .0254464
1082.027 .0254571
1082.606 .0254679
1083.185 .0254789
1083.764 .0254899
1084.343 .0255011
1084.923 .0255124
1085.502 .0255238
1086.082 .0255353
1086.662 .0255469
1087.242 .0255585
1087.822 .0255700
1088.402 .0255815
1088.983 .0255928
1089.563 .0256039
1090.144 .0256149
1090.725 .0256255
1091.306 .0256359
1091.887 .0256459
1092.469 .0256556
1093.050 .0256648
1093.632 .0256735
1094.214 .0256817
1094.796 .0256893
1095.379 .0256963
1095.961 .0257026
1096.544 .0257084
1097.127 .0257136
1097.710 .0257183
1098.294 .0257226
1098.877 .0257264
1099.461 .0257299
1100.046 .0257332
1100.630 .0257364
1101.215 .0257394
1101.800 .0257423
1102.385 .0257450
1102.970 .0257477
1103.556 .0257502
1104.142 .0257526
1104.728 .0257549
1105.315 .0257573
1105.902 .0257598
1106.489 .0257627
1107.077 .0257661
1107.664 .0257703
1108.253 .0257754
1108.841 .0257815
1109.430 .0257890
1110.019 .0257979
1110.609 .0258085
1111.198 .0258211
1111.789 .0258356
1112.379 .0258524
1112.970 .0258714
1113.561 .0258926
1114.153 .0259160
1114.745 .0259417
1115.338 .0259697
1115.931 .0260000
1116.524 .0260326
1117.117 .0260672
1117.712 .0261039
1118.306 .0261428
1118.901 .0261834
1119.496 .0262256
1120.092 .0262692
1120.689 .0263140
1121.285 .0263598
1121.882 .0264069
1122.480 .0264554
1123.078 .0265056
1123.677 .0265579
1124.276 .0266122
1124.875 .0266686
1125.476 .0267272
1126.076 .0267879
1126.677 .0268505
1127.279 .0269150
1127.881 .0269816
1128.484 .0270505
1129.087 .0270802
1129.691 .0271524
1130.295 .0272280
1130.900 .0273076
1131.505 .0273913
1132.111 .0274793
1132.718 .0275719
1133.325 .0276699
1133.933 .0277746
1134.541 .0278767
1135.150 .0279862
1135.760 .0281057
1136.370 .0282542
1136.981 .0281576
1137.592 .0283004
1138.204 .0284595
1138.817 .0286277
1139.431 .0288052
1140.045 .0289846
1140.660 .0291711
1141.275 .0293827
1141.891 .0296278
1142.508 .0296093
1143.126 .0298751
1143.744 .0302076
1144.363 .0310689
1144.983 .0316907
