Measurement Sequence started on: 15-12-46-377
Integration time: 28
Scans to Average: 2 
>>>>>Begin Spectral Data<<<<<
432.689 .0000100
433.621 .0000100
434.552 .0000100
435.482 .0000100
436.410 .0000100
437.337 .0000100
438.262 .0268510
439.187 .0568540
440.110 .0941485
441.031 .1362392
441.952 .1088101
442.871 .1135876
443.789 .1180366
444.705 .1222282
445.621 .1262100
446.535 .1300175
447.447 .1322648
448.359 .1328066
449.269 .1312770
450.178 .1274375
451.086 .1213668
451.993 .1135354
452.898 .1047189
453.803 .0957954
454.706 .0875121
455.608 .0803313
456.508 .0744065
457.408 .0704244
458.306 .0673821
459.204 .0649183
460.100 .0628527
460.995 .0610812
461.888 .0595356
462.781 .0581708
463.673 .0569536
464.563 .0558592
465.452 .0548685
466.340 .0539650
467.228 .0531368
468.114 .0523745
468.999 .0516718
469.882 .0510234
470.765 .0504270
471.647 .0498810
472.528 .0493847
473.407 .0489365
474.286 .0485347
475.163 .0481774
476.040 .0478615
476.915 .0475836
477.790 .0473407
478.663 .0471298
479.535 .0469490
480.407 .0467968
481.277 .0466724
482.147 .0465749
483.015 .0465037
483.883 .0464579
484.749 .0464360
485.615 .0464353
486.479 .0464534
487.343 .0464872
488.206 .0465349
489.067 .0465948
489.928 .0466660
490.788 .0467489
491.647 .0468447
492.505 .0469541
493.362 .0470787
494.218 .0472195
495.073 .0473777
495.928 .0476763
496.781 .0478793
497.634 .0481000
498.486 .0483395
499.337 .0485996
500.187 .0488822
501.036 .0491904
501.884 .0495270
502.731 .0498956
503.578 .0503001
504.424 .0505807
505.268 .0510521
506.113 .0515701
506.956 .0521398
507.798 .0527672
508.640 .0534598
509.480 .0542277
510.320 .0550822
511.160 .0560371
511.998 .0571063
512.836 .0583060
513.672 .0596542
514.508 .0611704
515.344 .0628753
516.178 .0647890
517.012 .0669351
517.845 .0693375
518.677 .0720149
519.508 .0749877
520.339 .0782673
521.169 .0818574
521.998 .0857353
522.826 .0898631
523.654 .0941848
524.481 .0986315
525.307 .1031230
526.133 .1075680
526.958 .1118714
527.782 .1159453
528.605 .1197030
529.428 .1230716
530.250 .1259892
531.072 .1284129
531.892 .1303075
532.712 .1316516
533.532 .1324320
534.350 .1326444
535.168 .1322898
535.986 .1313766
536.802 .1299087
537.618 .1278956
538.434 .1253510
539.249 .1223128
540.063 .1188338
540.876 .1149818
541.689 .1108319
542.501 .1064698
543.313 .1019857
544.124 .0974713
544.934 .0930080
545.744 .0886724
546.553 .0845278
547.361 .0806250
548.169 .0769925
548.976 .0736507
549.783 .0706040
550.589 .0678482
551.395 .0653652
552.200 .0631308
553.004 .0611171
553.808 .0592988
554.611 .0576528
555.414 .0561584
556.216 .0547971
557.018 .0535508
557.819 .0524031
558.619 .0513428
559.419 .0503587
560.218 .0494439
561.017 .0485909
561.815 .0477943
562.613 .0470493
563.410 .0463505
564.207 .0456912
565.003 .0450669
565.799 .0444717
566.594 .0439010
567.388 .0433499
568.182 .0428159
568.976 .0422966
569.769 .0417909
570.562 .0412984
571.354 .0408198
572.145 .0403557
572.936 .0399065
573.727 .0394717
574.517 .0390516
575.307 .0386458
576.096 .0382532
576.885 .0378734
577.673 .0375066
578.461 .0371526
579.248 .0368123
580.035 .0364866
580.821 .0361768
581.607 .0358837
582.392 .0356082
583.177 .0353507
583.962 .0351111
584.746 .0348888
585.529 .0346830
586.313 .0344923
587.095 .0343158
587.878 .0341519
588.660 .0339997
589.441 .0338583
590.222 .0337273
591.003 .0336061
591.783 .0334941
592.563 .0333908
593.342 .0332955
594.121 .0332073
594.899 .0331255
595.678 .0330493
596.455 .0329778
597.233 .0329106
598.009 .0328469
598.786 .0327865
599.562 .0327292
600.338 .0326746
601.113 .0326227
601.888 .0325525
602.663 .0325060
603.437 .0324613
604.211 .0324182
604.984 .0323766
605.757 .0323362
606.530 .0322967
607.302 .0322581
608.074 .0322203
608.845 .0321833
609.616 .0321472
610.387 .0321314
611.158 .0320968
611.928 .0320633
612.697 .0320307
613.467 .0319990
614.236 .0319684
615.004 .0319386
615.773 .0319096
616.541 .0318813
617.308 .0318536
618.076 .0318265
618.843 .0317999
619.609 .0317738
620.375 .0317482
621.141 .0317231
621.907 .0316984
622.672 .0316741
623.437 .0316503
624.202 .0316266
624.966 .0316032
625.730 .0315798
626.493 .0315564
627.257 .0315328
628.020 .0315090
628.782 .0314850
629.545 .0314606
630.307 .0314361
631.068 .0314114
631.830 .0313865
632.591 .0313617
633.352 .0313368
634.112 .0313119
634.872 .0312870
635.632 .0312621
636.392 .0312372
637.151 .0312121
637.910 .0311870
638.668 .0311619
639.427 .0311367
640.185 .0311115
640.943 .0310866
641.700 .0310618
642.457 .0310374
643.214 .0310132
643.971 .0309894
644.727 .0309659
645.483 .0309426
646.239 .0309195
646.994 .0308966
647.750 .0308738
648.505 .0308511
649.259 .0308284
650.014 .0308057
650.768 .0307831
651.521 .0307604
652.275 .0307376
653.028 .0307147
653.781 .0306915
654.534 .0306682
655.286 .0306445
656.039 .0306206
656.791 .0305965
657.542 .0305721
658.294 .0305474
659.045 .0305224
659.796 .0304972
660.546 .0304716
661.297 .0304457
662.047 .0304194
662.796 .0303928
663.546 .0303659
664.295 .0303387
665.044 .0303114
665.793 .0302839
666.542 .0302563
667.290 .0302287
668.038 .0302010
668.786 .0301734
669.533 .0301458
670.281 .0301183
671.028 .0300910
671.774 .0300640
672.521 .0300374
673.267 .0300111
674.013 .0299853
674.759 .0299599
675.505 .0299350
676.250 .0299106
676.995 .0298867
677.740 .0298632
678.484 .0298404
679.229 .0298182
679.973 .0297968
680.717 .0297762
681.460 .0297563
682.204 .0297371
682.947 .0297185
683.690 .0297005
684.433 .0296830
685.175 .0296659
685.917 .0296492
686.659 .0296327
687.401 .0296165
688.142 .0296007
688.884 .0295851
689.625 .0295697
690.365 .0295546
691.106 .0295396
691.846 .0295246
692.586 .0295096
693.326 .0294945
694.066 .0294793
694.805 .0294641
695.545 .0294487
696.284 .0294333
697.022 .0294179
697.761 .0294024
698.499 .0293870
699.237 .0293717
699.975 .0293564
700.713 .0293414
701.450 .0293265
702.187 .0293118
702.924 .0292973
703.661 .0292831
704.397 .0292691
705.133 .0292553
705.869 .0292416
706.605 .0292281
707.341 .0292145
708.076 .0292010
708.811 .0291874
709.546 .0291738
710.281 .0291602
711.015 .0291466
711.749 .0291330
712.483 .0291193
713.217 .0291055
713.950 .0290916
714.684 .0290774
715.417 .0290629
716.150 .0290481
716.882 .0290329
717.615 .0290173
718.347 .0290013
719.079 .0289850
719.811 .0289685
720.542 .0289518
721.273 .0289349
722.005 .0289178
722.735 .0289007
723.466 .0288834
724.196 .0288661
724.927 .0288487
725.656 .0288313
726.386 .0288138
727.116 .0287963
727.845 .0287788
728.574 .0287613
729.303 .0287438
730.031 .0287263
730.760 .0287089
731.488 .0286915
732.216 .0286742
732.944 .0286569
733.671 .0286398
734.398 .0286227
735.125 .0286056
735.852 .0285884
736.579 .0285713
737.305 .0285540
738.031 .0285367
738.757 .0285193
739.483 .0285019
740.208 .0284844
740.933 .0284671
741.658 .0284498
742.383 .0284326
743.108 .0284156
743.832 .0283987
744.556 .0283820
745.280 .0283653
746.004 .0283486
746.727 .0283319
747.450 .0283151
748.173 .0282981
748.896 .0282810
749.618 .0282638
750.340 .0282465
751.062 .0282291
751.784 .0282116
752.506 .0281942
753.227 .0281766
753.948 .0281590
754.669 .0281414
755.389 .0281236
756.110 .0281058
756.830 .0280879
757.550 .0280698
758.269 .0280516
758.989 .0280334
759.708 .0280152
760.427 .0279969
761.146 .0279786
761.864 .0279604
762.582 .0279422
763.300 .0279241
764.018 .0279062
764.736 .0278886
765.453 .0278713
766.170 .0278545
766.887 .0278380
767.603 .0278220
768.320 .0278065
769.036 .0277914
769.751 .0277767
770.467 .0277626
771.182 .0277489
771.897 .0277359
772.612 .0277235
773.327 .0277118
774.041 .0277009
774.755 .0276909
775.469 .0276816
776.183 .0276731
776.896 .0276654
777.609 .0276583
778.322 .0276518
779.035 .0276459
779.747 .0276406
780.459 .0276356
781.171 .0276312
781.882 .0276271
782.594 .0276234
783.305 .0276200
784.016 .0276168
784.726 .0276139
785.436 .0276110
786.147 .0276064
786.856 .0276033
787.566 .0276000
788.275 .0275965
788.984 .0275928
789.693 .0275888
790.401 .0275845
791.110 .0275798
791.818 .0275747
792.525 .0275692
793.233 .0275634
793.940 .0275573
794.647 .0275535
795.353 .0275473
796.060 .0275410
796.766 .0275347
797.472 .0275283
798.177 .0275218
798.883 .0275153
799.588 .0275086
800.292 .0275019
800.997 .0274951
801.701 .0274883
802.405 .0274816
803.109 .0274749
803.812 .0274683
804.515 .0274618
805.218 .0274555
805.921 .0274493
806.623 .0274432
807.325 .0274371
808.027 .0274310
808.728 .0274249
809.429 .0274186
810.130 .0274122
810.831 .0274057
811.531 .0273989
812.231 .0273919
812.931 .0273846
813.630 .0273771
814.330 .0273694
815.029 .0273616
815.727 .0273536
816.426 .0273457
817.124 .0273377
817.821 .0273298
818.519 .0273219
819.216 .0273141
819.913 .0273064
820.609 .0272988
821.306 .0272913
822.002 .0272839
822.697 .0272767
823.393 .0272698
824.088 .0272631
824.783 .0272569
825.477 .0272510
826.171 .0272455
826.865 .0272404
827.559 .0272355
828.252 .0272310
828.945 .0272267
829.638 .0272226
830.330 .0272186
831.023 .0272148
831.714 .0272111
832.406 .0272075
833.097 .0272039
833.788 .0272004
834.479 .0271968
835.169 .0271931
835.859 .0271893
836.548 .0271852
837.238 .0271809
837.927 .0271763
838.615 .0271712
839.304 .0271658
839.992 .0271598
840.680 .0271531
841.367 .0271457
842.054 .0271376
842.741 .0271287
843.428 .0271189
844.114 .0271083
844.800 .0270970
845.485 .0270849
846.170 .0270721
846.855 .0270585
847.540 .0270443
848.224 .0270292
848.908 .0270134
849.592 .0269967
850.275 .0269792
850.958 .0269608
851.641 .0269417
852.323 .0269220
853.005 .0269017
853.687 .0268810
854.368 .0268598
855.049 .0268383
855.730 .0268165
856.410 .0267945
857.090 .0267722
857.769 .0267497
858.449 .0267272
859.128 .0267045
859.806 .0266819
860.485 .0266593
861.163 .0266368
861.840 .0266145
862.518 .0265924
863.195 .0265704
863.871 .0265486
864.548 .0265269
865.224 .0265055
865.899 .0264843
866.574 .0264633
867.249 .0264424
867.924 .0264218
868.598 .0264015
869.272 .0263813
869.946 .0263613
870.619 .0263416
871.292 .0263221
871.964 .0263029
872.636 .0262840
873.308 .0262654
873.979 .0262471
874.651 .0262293
875.321 .0262118
875.992 .0261947
876.662 .0261781
877.331 .0261619
878.001 .0261462
878.670 .0261309
879.338 .0261162
880.007 .0261019
880.675 .0260882
881.342 .0260750
882.009 .0260623
882.676 .0260501
883.343 .0260384
884.009 .0260272
884.675 .0260165
885.340 .0260063
886.005 .0259967
886.670 .0259876
887.334 .0259791
887.998 .0259710
888.662 .0259635
889.325 .0259565
889.988 .0259499
890.650 .0259438
891.312 .0259381
891.974 .0259327
892.636 .0259276
893.297 .0259228
893.957 .0259183
894.618 .0259139
895.278 .0259098
895.937 .0259057
896.596 .0259017
897.255 .0258977
897.914 .0258937
898.572 .0258895
899.230 .0258851
899.887 .0258804
900.544 .0258753
901.201 .0258698
901.857 .0258590
902.513 .0258521
903.168 .0258447
903.823 .0258367
904.478 .0258281
905.132 .0258188
905.786 .0258089
906.440 .0257984
907.093 .0257873
907.746 .0257758
908.399 .0257638
909.051 .0257516
909.703 .0257392
910.354 .0257325
911.005 .0257203
911.656 .0257081
912.306 .0256959
912.956 .0256837
913.605 .0256715
914.254 .0256595
914.903 .0256476
915.551 .0256360
916.199 .0256248
916.847 .0256139
917.494 .0256036
918.141 .0255937
918.788 .0255842
919.434 .0255751
920.079 .0255664
920.725 .0255579
921.370 .0255495
922.014 .0255413
922.658 .0255331
923.302 .0255251
923.946 .0255172
924.589 .0255093
925.231 .0255016
925.873 .0254940
926.515 .0254865
927.157 .0254790
927.798 .0254715
928.439 .0254639
929.079 .0254562
929.719 .0254485
930.359 .0254407
930.998 .0254330
931.637 .0254254
932.275 .0254181
932.913 .0254110
933.551 .0254043
934.188 .0253981
934.825 .0253924
935.462 .0253871
936.098 .0253824
936.733 .0253782
937.369 .0253745
938.004 .0253715
938.638 .0253691
939.273 .0253675
939.907 .0253666
940.540 .0253665
941.173 .0253671
941.806 .0253683
942.438 .0253701
943.070 .0253723
943.702 .0253749
944.333 .0253778
944.964 .0253809
945.594 .0253843
946.224 .0253878
946.854 .0253914
947.483 .0253951
948.112 .0253988
948.741 .0254023
949.369 .0254056
949.996 .0254085
950.624 .0254110
951.251 .0254130
951.878 .0254144
952.504 .0254153
953.130 .0254157
953.755 .0254157
954.380 .0254152
955.005 .0254144
955.629 .0254133
956.253 .0254119
956.877 .0254103
957.500 .0254084
958.123 .0254064
958.746 .0254041
959.368 .0254018
959.990 .0253994
960.611 .0253969
961.232 .0253945
961.853 .0253920
962.473 .0253895
963.093 .0253869
963.712 .0253844
964.331 .0253820
964.950 .0253795
965.569 .0253771
966.187 .0253747
966.804 .0253723
967.422 .0253697
968.039 .0253671
968.655 .0253643
969.272 .0253612
969.887 .0253580
970.503 .0253545
971.118 .0253507
971.733 .0253466
972.347 .0253421
972.961 .0253373
973.575 .0253321
974.188 .0253263
974.801 .0253199
975.414 .0253130
976.026 .0253053
976.638 .0252971
977.250 .0252882
977.861 .0252787
978.472 .0252686
979.083 .0252580
979.693 .0252469
980.303 .0252353
980.912 .0252163
981.521 .0252038
982.130 .0251911
982.738 .0251780
983.346 .0251649
983.954 .0251516
984.562 .0251384
985.169 .0251252
985.775 .0251121
986.382 .0250993
986.988 .0250867
987.594 .0250744
988.199 .0250624
988.804 .0250508
989.409 .0250463
990.013 .0250353
990.617 .0250245
991.221 .0250141
991.824 .0250039
992.427 .0249939
993.030 .0249842
993.632 .0249748
994.234 .0249657
994.836 .0249569
995.438 .0249483
996.039 .0249400
996.640 .0249319
997.240 .0249239
997.840 .0249159
998.440 .0249078
999.040 .0248997
999.639 .0248915
1000.238 .0248831
1000.836 .0248747
1001.435 .0248661
1002.033 .0248575
1002.630 .0248489
1003.228 .0248403
1003.825 .0248315
1004.422 .0248226
1005.018 .0248134
1005.614 .0248039
1006.210 .0247941
1006.806 .0247838
1007.401 .0247733
1007.996 .0247626
1008.591 .0247517
1009.186 .0247406
1009.780 .0247296
1010.374 .0247185
1010.967 .0247073
1011.561 .0246960
1012.154 .0246846
1012.746 .0246731
1013.339 .0246614
1013.931 .0246496
1014.523 .0246377
1015.115 .0246260
1015.706 .0246143
1016.298 .0246029
1016.888 .0245919
1017.479 .0245811
1018.069 .0245707
1018.660 .0245607
1019.250 .0245510
1019.839 .0245416
1020.429 .0245325
1021.018 .0245238
1021.607 .0245153
1022.195 .0245073
1022.784 .0244995
1023.372 .0244921
1023.960 .0244850
1024.547 .0244781
1025.135 .0244715
1025.722 .0244651
1026.309 .0244589
1026.896 .0244527
1027.483 .0244465
1028.069 .0244403
1028.655 .0244341
1029.241 .0244278
1029.827 .0244216
1030.412 .0244155
1030.997 .0244095
1031.582 .0244038
1032.167 .0243983
1032.752 .0243933
1033.336 .0243886
1033.921 .0243843
1034.505 .0243803
1035.089 .0243765
1035.672 .0243728
1036.256 .0243692
1036.839 .0243657
1037.422 .0243622
1038.005 .0243587
1038.588 .0243551
1039.171 .0243515
1039.753 .0243478
1040.335 .0243440
1040.918 .0243400
1041.500 .0243358
1042.081 .0243315
1042.663 .0243269
1043.244 .0243222
1043.826 .0243175
1044.407 .0243129
1044.988 .0243084
1045.569 .0243041
1046.150 .0243001
1046.730 .0242963
1047.311 .0242928
1047.891 .0242896
1048.471 .0242866
1049.052 .0242838
1049.632 .0242811
1050.211 .0242784
1050.791 .0242758
1051.371 .0242733
1051.950 .0242707
1052.530 .0242680
1053.109 .0242653
1053.688 .0242625
1054.268 .0242596
1054.847 .0242568
1055.426 .0242540
1056.005 .0242513
1056.583 .0242489
1057.162 .0242467
1057.741 .0242449
1058.319 .0242434
1058.898 .0242424
1059.476 .0242418
1060.055 .0242417
1060.633 .0242420
1061.211 .0242428
1061.790 .0242439
1062.368 .0242454
1062.946 .0242470
1063.524 .0242488
1064.102 .0242506
1064.680 .0242525
1065.258 .0242544
1065.836 .0242564
1066.414 .0242585
1066.992 .0242608
1067.570 .0242634
1068.148 .0242663
1068.726 .0242696
1069.304 .0242735
1069.882 .0242778
1070.460 .0242827
1071.038 .0242880
1071.616 .0242939
1072.194 .0243001
1072.772 .0243069
1073.350 .0243140
1073.928 .0243215
1074.506 .0243293
1075.084 .0243374
1075.662 .0243456
1076.240 .0243539
1076.819 .0243623
1077.397 .0243708
1077.976 .0243792
1078.554 .0243878
1079.133 .0243964
1079.711 .0244053
1080.290 .0244144
1080.869 .0244239
1081.448 .0244338
1082.027 .0244442
1082.606 .0244549
1083.185 .0244660
1083.764 .0244773
1084.343 .0244887
1084.923 .0245003
1085.502 .0245119
1086.082 .0245236
1086.662 .0245354
1087.242 .0245474
1087.822 .0245594
1088.402 .0245718
1088.983 .0245844
1089.563 .0245974
1090.144 .0246107
1090.725 .0246245
1091.306 .0246388
1091.887 .0246536
1092.469 .0246690
1093.050 .0246850
1093.632 .0247018
1094.214 .0247192
1094.796 .0247373
1095.379 .0247561
1095.961 .0247754
1096.544 .0247952
1097.127 .0248153
1097.710 .0248354
1098.294 .0248555
1098.877 .0248754
1099.461 .0248952
1100.046 .0249148
1100.630 .0249343
1101.215 .0249541
1101.800 .0249741
1102.385 .0249947
1102.970 .0250158
1103.556 .0250376
1104.142 .0250601
1104.728 .0250832
1105.315 .0251071
1105.902 .0251318
1106.489 .0251573
1107.077 .0251836
1107.664 .0252106
1108.253 .0252385
1108.841 .0252671
1109.430 .0252963
1110.019 .0253262
1110.609 .0253568
1111.198 .0253881
1111.789 .0254203
1112.379 .0254533
1112.970 .0254875
1113.561 .0255229
1114.153 .0255599
1114.745 .0255985
1115.338 .0256389
1115.931 .0256813
1116.524 .0257257
1117.117 .0257723
1117.712 .0258209
1118.306 .0258715
1118.901 .0259240
1119.496 .0259782
1120.092 .0260341
1120.689 .0260912
1121.285 .0261495
1121.882 .0262089
1122.480 .0262693
1123.078 .0263306
1123.677 .0263928
1124.276 .0264561
1124.875 .0265207
1125.476 .0265865
1126.076 .0266539
1126.677 .0267232
1127.279 .0267945
1127.881 .0268681
1128.484 .0269442
1129.087 .0269790
1129.691 .0270589
1130.295 .0271418
1130.900 .0272279
1131.505 .0273175
1132.111 .0274109
1132.718 .0275083
1133.325 .0276100
1133.933 .0277160
1134.541 .0278250
1135.150 .0279409
1135.760 .0280652
1136.370 .0281926
1136.981 .0281309
1137.592 .0282605
1138.204 .0283997
1138.817 .0285478
1139.431 .0287072
1140.045 .0288739
1140.660 .0290520
1141.275 .0292378
1141.891 .0294268
1142.508 .0295836
1143.126 .0298534
1143.744 .0301675
1144.363 .0303311
1144.983 .0302740
