Measurement Sequence started on: 15-12-46-377
Integration time: 28
Scans to Average: 2 
>>>>>Begin Spectral Data<<<<<
432.689 .0000100
433.621 .0000100
434.552 .0000100
435.482 .0000100
436.410 .0000100
437.337 .0000100
438.262 .0301100
439.187 .0636467
440.110 .1052909
441.031 .1522730
441.952 .1211516
442.871 .1264011
443.789 .1312777
444.705 .1358608
445.621 .1402067
446.535 .1443574
447.447 .1467579
448.359 .1472515
449.269 .1454308
450.178 .1410292
451.086 .1341376
451.993 .1252834
452.898 .1153363
453.803 .1052808
454.706 .0959528
455.608 .0878700
456.508 .0812032
457.408 .0767236
458.306 .0733031
459.204 .0705373
460.100 .0682248
460.995 .0662464
461.888 .0645247
462.781 .0630074
463.673 .0616555
464.563 .0604437
465.452 .0593522
466.340 .0583649
467.228 .0574696
468.114 .0566563
468.999 .0559152
469.882 .0552381
470.765 .0546172
471.647 .0540464
472.528 .0535214
473.407 .0530397
474.286 .0525989
475.163 .0521992
476.040 .0518404
476.915 .0515221
477.790 .0512429
478.663 .0510008
479.535 .0507923
480.407 .0506139
481.277 .0504616
482.147 .0503310
483.015 .0502188
483.883 .0501236
484.749 .0500446
485.615 .0499823
486.479 .0499378
487.343 .0499121
488.206 .0499059
489.067 .0499190
489.928 .0499509
490.788 .0500004
491.647 .0500662
492.505 .0501473
493.362 .0502436
494.218 .0503560
495.073 .0504871
495.928 .0507661
496.781 .0509620
497.634 .0511877
498.486 .0514451
499.337 .0517360
500.187 .0520609
501.036 .0524206
501.884 .0528155
502.731 .0532472
503.578 .0537172
504.424 .0540410
505.268 .0545779
506.113 .0551626
506.956 .0557989
507.798 .0564927
508.640 .0572511
509.480 .0580819
510.320 .0589947
511.160 .0600006
511.998 .0611121
512.836 .0623467
513.672 .0637223
514.508 .0652600
515.344 .0669837
516.178 .0689191
517.012 .0710957
517.845 .0735428
518.677 .0762887
519.508 .0793578
520.339 .0827621
521.169 .0865091
521.998 .0905726
522.826 .0949131
523.654 .0994691
524.481 .1041641
525.307 .1089128
526.133 .1136182
526.958 .1181833
527.782 .1225158
528.605 .1265309
529.428 .1301582
530.250 .1333279
531.072 .1359945
531.892 .1381167
532.712 .1396643
533.532 .1406181
534.350 .1409639
535.168 .1406979
535.986 .1398217
536.802 .1383382
537.618 .1362595
538.434 .1335992
539.249 .1304032
540.063 .1267286
540.876 .1226468
541.689 .1182440
542.501 .1136108
543.313 .1088461
544.124 .1040468
544.934 .0993020
545.744 .0946913
546.553 .0902779
547.361 .0861187
548.169 .0822444
548.976 .0786785
549.783 .0754301
550.589 .0724940
551.395 .0698553
552.200 .0674897
553.004 .0653669
553.808 .0634581
554.611 .0617365
555.414 .0601783
556.216 .0587603
557.018 .0574616
557.819 .0562676
558.619 .0551649
559.419 .0541430
560.218 .0531934
561.017 .0523078
561.815 .0514789
562.613 .0506996
563.410 .0499624
564.207 .0492601
565.003 .0485864
565.799 .0479350
566.594 .0473008
567.388 .0466814
568.182 .0460752
568.976 .0454812
569.769 .0448998
570.562 .0443320
571.354 .0437791
572.145 .0432424
572.936 .0427226
573.727 .0422201
574.517 .0417350
575.307 .0412673
576.096 .0408164
576.885 .0403822
577.673 .0399650
578.461 .0395653
579.248 .0391834
580.035 .0388198
580.821 .0384749
581.607 .0381494
582.392 .0378438
583.177 .0375584
583.962 .0372927
584.746 .0370465
585.529 .0368188
586.313 .0366082
587.095 .0364134
587.878 .0362331
588.660 .0360661
589.441 .0359115
590.222 .0357683
591.003 .0356357
591.783 .0355129
592.563 .0353991
593.342 .0352936
594.121 .0351956
594.899 .0351040
595.678 .0350182
596.455 .0349374
597.233 .0348611
598.009 .0347887
598.786 .0347200
599.562 .0346545
600.338 .0345920
601.113 .0345321
601.888 .0344511
602.663 .0343973
603.437 .0343459
604.211 .0342968
604.984 .0342499
605.757 .0342051
606.530 .0341622
607.302 .0341211
608.074 .0340815
608.845 .0340434
609.616 .0340065
610.387 .0339908
611.158 .0339553
611.928 .0339208
612.697 .0338871
613.467 .0338543
614.236 .0338222
615.004 .0337908
615.773 .0337600
616.541 .0337295
617.308 .0336994
618.076 .0336694
618.843 .0336396
619.609 .0336097
620.375 .0335796
621.141 .0335494
621.907 .0335189
622.672 .0334883
623.437 .0334575
624.202 .0334264
624.966 .0333952
625.730 .0333637
626.493 .0333318
627.257 .0332996
628.020 .0332671
628.782 .0332341
629.545 .0332007
630.307 .0331669
631.068 .0331328
631.830 .0330983
632.591 .0330638
633.352 .0330294
634.112 .0329950
634.872 .0329609
635.632 .0329271
636.392 .0328935
637.151 .0328602
637.910 .0328272
638.668 .0327946
639.427 .0327622
640.185 .0327300
640.943 .0326982
641.700 .0326666
642.457 .0326355
643.214 .0326048
643.971 .0325746
644.727 .0325450
645.483 .0325159
646.239 .0324874
646.994 .0324594
647.750 .0324318
648.505 .0324045
649.259 .0323774
650.014 .0323503
650.768 .0323232
651.521 .0322961
652.275 .0322690
653.028 .0322419
653.781 .0322149
654.534 .0321882
655.286 .0321616
656.039 .0321353
656.791 .0321093
657.542 .0320834
658.294 .0320576
659.045 .0320319
659.796 .0320061
660.546 .0319804
661.297 .0319547
662.047 .0319291
662.796 .0319038
663.546 .0318788
664.295 .0318542
665.044 .0318301
665.793 .0318066
666.542 .0317836
667.290 .0317611
668.038 .0317390
668.786 .0317172
669.533 .0316958
670.281 .0316745
671.028 .0316533
671.774 .0316321
672.521 .0316108
673.267 .0315894
674.013 .0315678
674.759 .0315460
675.505 .0315240
676.250 .0315019
676.995 .0314795
677.740 .0314569
678.484 .0314341
679.229 .0314110
679.973 .0313876
680.717 .0313638
681.460 .0313395
682.204 .0313149
682.947 .0312898
683.690 .0312643
684.433 .0312386
685.175 .0312127
685.917 .0311867
686.659 .0311606
687.401 .0311345
688.142 .0311083
688.884 .0310820
689.625 .0310556
690.365 .0310291
691.106 .0310025
691.846 .0309757
692.586 .0309488
693.326 .0309221
694.066 .0308955
694.805 .0308693
695.545 .0308436
696.284 .0308183
697.022 .0307936
697.761 .0307695
698.499 .0307461
699.237 .0307233
699.975 .0307012
700.713 .0306798
701.450 .0306591
702.187 .0306392
702.924 .0306200
703.661 .0306016
704.397 .0305840
705.133 .0305670
705.869 .0305508
706.605 .0305352
707.341 .0305202
708.076 .0305057
708.811 .0304917
709.546 .0304780
710.281 .0304646
711.015 .0304513
711.749 .0304381
712.483 .0304248
713.217 .0304114
713.950 .0303978
714.684 .0303840
715.417 .0303700
716.150 .0303558
716.882 .0303412
717.615 .0303263
718.347 .0303110
719.079 .0302953
719.811 .0302792
720.542 .0302626
721.273 .0302455
722.005 .0302280
722.735 .0302103
723.466 .0301924
724.196 .0301745
724.927 .0301567
725.656 .0301391
726.386 .0301217
727.116 .0301047
727.845 .0300879
728.574 .0300715
729.303 .0300554
730.031 .0300396
730.760 .0300242
731.488 .0300090
732.216 .0299940
732.944 .0299793
733.671 .0299649
734.398 .0299507
735.125 .0299367
735.852 .0299228
736.579 .0299091
737.305 .0298955
738.031 .0298818
738.757 .0298680
739.483 .0298540
740.208 .0298398
740.933 .0298252
741.658 .0298102
742.383 .0297947
743.108 .0297788
743.832 .0297624
744.556 .0297457
745.280 .0297285
746.004 .0297110
746.727 .0296931
747.450 .0296749
748.173 .0296564
748.896 .0296376
749.618 .0296185
750.340 .0295991
751.062 .0295796
751.784 .0295599
752.506 .0295400
753.227 .0295202
753.948 .0295003
754.669 .0294805
755.389 .0294608
756.110 .0294412
756.830 .0294217
757.550 .0294023
758.269 .0293830
758.989 .0293638
759.708 .0293447
760.427 .0293256
761.146 .0293065
761.864 .0292875
762.582 .0292685
763.300 .0292496
764.018 .0292308
764.736 .0292120
765.453 .0291935
766.170 .0291751
766.887 .0291569
767.603 .0291390
768.320 .0291214
769.036 .0291042
769.751 .0290873
770.467 .0290709
771.182 .0290550
771.897 .0290398
772.612 .0290251
773.327 .0290112
774.041 .0289981
774.755 .0289857
775.469 .0289741
776.183 .0289634
776.896 .0289535
777.609 .0289446
778.322 .0289365
779.035 .0289292
779.747 .0289228
780.459 .0289172
781.171 .0289123
781.882 .0289081
782.594 .0289045
783.305 .0289014
784.016 .0288988
784.726 .0288964
785.436 .0288943
786.147 .0288916
786.856 .0288895
787.566 .0288875
788.275 .0288855
788.984 .0288833
789.693 .0288810
790.401 .0288785
791.110 .0288758
791.818 .0288727
792.525 .0288693
793.233 .0288655
793.940 .0288614
794.647 .0288581
795.353 .0288536
796.060 .0288489
796.766 .0288440
797.472 .0288390
798.177 .0288337
798.883 .0288283
799.588 .0288226
800.292 .0288168
800.997 .0288108
801.701 .0288046
802.405 .0287983
803.109 .0287920
803.812 .0287857
804.515 .0287794
805.218 .0287730
805.921 .0287665
806.623 .0287601
807.325 .0287535
808.027 .0287469
808.728 .0287403
809.429 .0287338
810.130 .0287274
810.831 .0287211
811.531 .0287149
812.231 .0287088
812.931 .0287028
813.630 .0286967
814.330 .0286905
815.029 .0286844
815.727 .0286781
816.426 .0286719
817.124 .0286657
817.821 .0286596
818.519 .0286535
819.216 .0286474
819.913 .0286412
820.609 .0286350
821.306 .0286286
822.002 .0286220
822.697 .0286152
823.393 .0286081
824.088 .0286010
824.783 .0285936
825.477 .0285860
826.171 .0285783
826.865 .0285703
827.559 .0285620
828.252 .0285534
828.945 .0285445
829.638 .0285352
830.330 .0285256
831.023 .0285157
831.714 .0285055
832.406 .0284948
833.097 .0284838
833.788 .0284724
834.479 .0284605
835.169 .0284481
835.859 .0284352
836.548 .0284218
837.238 .0284080
837.927 .0283938
838.615 .0283793
839.304 .0283644
839.992 .0283492
840.680 .0283337
841.367 .0283177
842.054 .0283012
842.741 .0282843
843.428 .0282667
844.114 .0282487
844.800 .0282301
845.485 .0282110
846.170 .0281913
846.855 .0281712
847.540 .0281505
848.224 .0281293
848.908 .0281075
849.592 .0280853
850.275 .0280625
850.958 .0280393
851.641 .0280158
852.323 .0279920
853.005 .0279679
853.687 .0279439
854.368 .0279198
855.049 .0278958
855.730 .0278720
856.410 .0278485
857.090 .0278252
857.769 .0278023
858.449 .0277799
859.128 .0277579
859.806 .0277365
860.485 .0277157
861.163 .0276955
861.840 .0276759
862.518 .0276569
863.195 .0276384
863.871 .0276205
864.548 .0276030
865.224 .0275859
865.899 .0275691
866.574 .0275526
867.249 .0275363
867.924 .0275202
868.598 .0275044
869.272 .0274887
869.946 .0274731
870.619 .0274577
871.292 .0274423
871.964 .0274270
872.636 .0274117
873.308 .0273966
873.979 .0273815
874.651 .0273666
875.321 .0273520
875.992 .0273376
876.662 .0273236
877.331 .0273100
878.001 .0272967
878.670 .0272839
879.338 .0272715
880.007 .0272596
880.675 .0272482
881.342 .0272374
882.009 .0272272
882.676 .0272179
883.343 .0272093
884.009 .0272016
884.675 .0271948
885.340 .0271888
886.005 .0271837
886.670 .0271794
887.334 .0271760
887.998 .0271733
888.662 .0271714
889.325 .0271703
889.988 .0271699
890.650 .0271702
891.312 .0271711
891.974 .0271726
892.636 .0271746
893.297 .0271771
893.957 .0271800
894.618 .0271833
895.278 .0271870
895.937 .0271909
896.596 .0271951
897.255 .0271994
897.914 .0272037
898.572 .0272078
899.230 .0272117
899.887 .0272152
900.544 .0272184
901.201 .0272211
901.857 .0272231
902.513 .0272246
903.168 .0272258
903.823 .0272264
904.478 .0272266
905.132 .0272261
905.786 .0272250
906.440 .0272231
907.093 .0272207
907.746 .0272177
908.399 .0272142
909.051 .0272103
909.703 .0272062
910.354 .0272031
911.005 .0271989
911.656 .0271944
912.306 .0271897
912.956 .0271848
913.605 .0271797
914.254 .0271745
914.903 .0271694
915.551 .0271643
916.199 .0271594
916.847 .0271546
917.494 .0271501
918.141 .0271456
918.788 .0271412
919.434 .0271368
920.079 .0271322
920.725 .0271275
921.370 .0271227
922.014 .0271177
922.658 .0271125
923.302 .0271073
923.946 .0271019
924.589 .0270963
925.231 .0270904
925.873 .0270841
926.515 .0270774
927.157 .0270701
927.798 .0270622
928.439 .0270538
929.079 .0270449
929.719 .0270355
930.359 .0270257
930.998 .0270155
931.637 .0270049
932.275 .0269940
932.913 .0269827
933.551 .0269711
934.188 .0269593
934.825 .0269473
935.462 .0269352
936.098 .0269231
936.733 .0269110
937.369 .0268991
938.004 .0268873
938.638 .0268757
939.273 .0268644
939.907 .0268532
940.540 .0268424
941.173 .0268318
941.806 .0268215
942.438 .0268115
943.070 .0268018
943.702 .0267924
944.333 .0267834
944.964 .0267746
945.594 .0267660
946.224 .0267575
946.854 .0267491
947.483 .0267407
948.112 .0267323
948.741 .0267237
949.369 .0267151
949.996 .0267063
950.624 .0266973
951.251 .0266881
951.878 .0266787
952.504 .0266689
953.130 .0266588
953.755 .0266483
954.380 .0266375
955.005 .0266262
955.629 .0266145
956.253 .0266025
956.877 .0265900
957.500 .0265772
958.123 .0265640
958.746 .0265504
959.368 .0265363
959.990 .0265218
960.611 .0265068
961.232 .0264913
961.853 .0264753
962.473 .0264589
963.093 .0264420
963.712 .0264247
964.331 .0264070
964.950 .0263890
965.569 .0263707
966.187 .0263521
966.804 .0263331
967.422 .0263137
968.039 .0262940
968.655 .0262739
969.272 .0262535
969.887 .0262327
970.503 .0262117
971.118 .0261903
971.733 .0261687
972.347 .0261468
972.961 .0261247
973.575 .0261021
974.188 .0260792
974.801 .0260558
975.414 .0260320
976.026 .0260078
976.638 .0259831
977.250 .0259581
977.861 .0259328
978.472 .0259074
979.083 .0258818
979.693 .0258560
980.303 .0258302
980.912 .0257909
981.521 .0257649
982.130 .0257389
982.738 .0257129
983.346 .0256872
983.954 .0256618
984.562 .0256368
985.169 .0256123
985.775 .0255884
986.382 .0255649
986.988 .0255420
987.594 .0255196
988.199 .0254976
988.804 .0254762
989.409 .0254676
990.013 .0254472
990.617 .0254273
991.221 .0254082
991.824 .0253899
992.427 .0253724
993.030 .0253557
993.632 .0253397
994.234 .0253245
994.836 .0253098
995.438 .0252958
996.039 .0252822
996.640 .0252692
997.240 .0252567
997.840 .0252447
998.440 .0252333
999.040 .0252223
999.639 .0252118
1000.238 .0252016
1000.836 .0251918
1001.435 .0251823
1002.033 .0251731
1002.630 .0251642
1003.228 .0251554
1003.825 .0251469
1004.422 .0251387
1005.018 .0251307
1005.614 .0251230
1006.210 .0251155
1006.806 .0251082
1007.401 .0251011
1007.996 .0250942
1008.591 .0250875
1009.186 .0250809
1009.780 .0250746
1010.374 .0250685
1010.967 .0250626
1011.561 .0250570
1012.154 .0250516
1012.746 .0250466
1013.339 .0250419
1013.931 .0250376
1014.523 .0250337
1015.115 .0250304
1015.706 .0250277
1016.298 .0250256
1016.888 .0250243
1017.479 .0250238
1018.069 .0250241
1018.660 .0250251
1019.250 .0250269
1019.839 .0250293
1020.429 .0250325
1021.018 .0250364
1021.607 .0250411
1022.195 .0250464
1022.784 .0250524
1023.372 .0250590
1023.960 .0250663
1024.547 .0250742
1025.135 .0250827
1025.722 .0250916
1026.309 .0251010
1026.896 .0251108
1027.483 .0251210
1028.069 .0251317
1028.655 .0251428
1029.241 .0251544
1029.827 .0251662
1030.412 .0251785
1030.997 .0251912
1031.582 .0252042
1032.167 .0252176
1032.752 .0252312
1033.336 .0252451
1033.921 .0252593
1034.505 .0252735
1035.089 .0252879
1035.672 .0253024
1036.256 .0253168
1036.839 .0253312
1037.422 .0253455
1038.005 .0253597
1038.588 .0253738
1039.171 .0253878
1039.753 .0254018
1040.335 .0254156
1040.918 .0254293
1041.500 .0254428
1042.081 .0254561
1042.663 .0254693
1043.244 .0254824
1043.826 .0254954
1044.407 .0255084
1044.988 .0255214
1045.569 .0255346
1046.150 .0255479
1046.730 .0255613
1047.311 .0255750
1047.891 .0255888
1048.471 .0256027
1049.052 .0256166
1049.632 .0256304
1050.211 .0256442
1050.791 .0256579
1051.371 .0256716
1051.950 .0256851
1052.530 .0256984
1053.109 .0257117
1053.688 .0257248
1054.268 .0257377
1054.847 .0257506
1055.426 .0257634
1056.005 .0257761
1056.583 .0257888
1057.162 .0258017
1057.741 .0258147
1058.319 .0258282
1058.898 .0258420
1059.476 .0258563
1060.055 .0258711
1060.633 .0258864
1061.211 .0259023
1061.790 .0259188
1062.368 .0259358
1062.946 .0259534
1063.524 .0259713
1064.102 .0259896
1064.680 .0260082
1065.258 .0260269
1065.836 .0260457
1066.414 .0260644
1066.992 .0260829
1067.570 .0261012
1068.148 .0261191
1068.726 .0261368
1069.304 .0261541
1069.882 .0261711
1070.460 .0261880
1071.038 .0262047
1071.616 .0262212
1072.194 .0262376
1072.772 .0262539
1073.350 .0262699
1073.928 .0262855
1074.506 .0263007
1075.084 .0263153
1075.662 .0263294
1076.240 .0263429
1076.819 .0263559
1077.397 .0263685
1077.976 .0263805
1078.554 .0263921
1079.133 .0264033
1079.711 .0264140
1080.290 .0264242
1080.869 .0264339
1081.448 .0264432
1082.027 .0264521
1082.606 .0264608
1083.185 .0264696
1083.764 .0264787
1084.343 .0264883
1084.923 .0264986
1085.502 .0265096
1086.082 .0265215
1086.662 .0265342
1087.242 .0265476
1087.822 .0265616
1088.402 .0265763
1088.983 .0265917
1089.563 .0266076
1090.144 .0266242
1090.725 .0266418
1091.306 .0266601
1091.887 .0266794
1092.469 .0266993
1093.050 .0267198
1093.632 .0267406
1094.214 .0267617
1094.796 .0267827
1095.379 .0268037
1095.961 .0268245
1096.544 .0268452
1097.127 .0268659
1097.710 .0268867
1098.294 .0269076
1098.877 .0269285
1099.461 .0269495
1100.046 .0269703
1100.630 .0269907
1101.215 .0270105
1101.800 .0270298
1102.385 .0270484
1102.970 .0270667
1103.556 .0270845
1104.142 .0271022
1104.728 .0271198
1105.315 .0271374
1105.902 .0271548
1106.489 .0271722
1107.077 .0271894
1107.664 .0272064
1108.253 .0272233
1108.841 .0272402
1109.430 .0272573
1110.019 .0272748
1110.609 .0272929
1111.198 .0273120
1111.789 .0273319
1112.379 .0273528
1112.970 .0273748
1113.561 .0273977
1114.153 .0274215
1114.745 .0274463
1115.338 .0274721
1115.931 .0274990
1116.524 .0275272
1117.117 .0275569
1117.712 .0275881
1118.306 .0276211
1118.901 .0276560
1119.496 .0276925
1120.092 .0277308
1120.689 .0277707
1121.285 .0278122
1121.882 .0278556
1122.480 .0279008
1123.078 .0279482
1123.677 .0279981
1124.276 .0280507
1124.875 .0281062
1125.476 .0281648
1126.076 .0282267
1126.677 .0282919
1127.279 .0283605
1127.881 .0284324
1128.484 .0285075
1129.087 .0285370
1129.691 .0286164
1130.295 .0286987
1130.900 .0287837
1131.505 .0288710
1132.111 .0289604
1132.718 .0290517
1133.325 .0291440
1133.933 .0292362
1134.541 .0293325
1135.150 .0294324
1135.760 .0295287
1136.370 .0296169
1136.981 .0298164
1137.592 .0299454
1138.204 .0300708
1138.817 .0301840
1139.431 .0302912
1140.045 .0303928
1140.660 .0304848
1141.275 .0305630
1141.891 .0306062
1142.508 .0307751
1143.126 .0309318
1143.744 .0308884
1144.363 .0307243
1144.983 .0300236
