Measurement Sequence started on: 15-12-46-377
Integration time: 28
Scans to Average: 2 
>>>>>Begin Spectral Data<<<<<
432.689 .0000100
433.621 .0000100
434.552 .0000100
435.482 .0000100
436.410 .0000100
437.337 .0000100
438.262 .0276182
439.187 .0583718
440.110 .0966724
441.031 .1398865
441.952 .1122777
442.871 .1172697
443.789 .1219133
444.705 .1262804
445.621 .1304194
446.535 .1343686
447.447 .1367013
448.359 .1372733
449.269 .1357066
450.178 .1317573
451.086 .1255036
451.993 .1174265
452.898 .1083199
453.803 .0990851
454.706 .0904886
455.608 .0830070
456.508 .0768013
457.408 .0725842
458.306 .0693272
459.204 .0666687
460.100 .0644266
460.995 .0624979
461.888 .0608135
462.781 .0593276
463.673 .0580044
464.563 .0568200
465.452 .0557551
466.340 .0547930
467.228 .0539211
468.114 .0531291
468.999 .0524084
469.882 .0517510
470.765 .0511516
471.647 .0506049
472.528 .0501072
473.407 .0496549
474.286 .0492449
475.163 .0488747
476.040 .0485422
476.915 .0482447
477.790 .0479800
478.663 .0477462
479.535 .0475412
480.407 .0473627
481.277 .0472083
482.147 .0470760
483.015 .0469635
483.883 .0468688
484.749 .0467900
485.615 .0467255
486.479 .0466745
487.343 .0466362
488.206 .0466114
489.067 .0465999
489.928 .0466028
490.788 .0466208
491.647 .0466552
492.505 .0467068
493.362 .0467763
494.218 .0468647
495.073 .0469732
495.928 .0472176
496.781 .0473839
497.634 .0475747
498.486 .0477923
499.337 .0480388
500.187 .0483166
501.036 .0486281
501.884 .0489761
502.731 .0493635
503.578 .0497926
504.424 .0500951
505.268 .0505957
506.113 .0511455
506.956 .0517485
507.798 .0524095
508.640 .0531340
509.480 .0539306
510.320 .0548095
511.160 .0557810
511.998 .0568575
512.836 .0580532
513.672 .0593826
514.508 .0608629
515.344 .0625123
516.178 .0643494
517.012 .0663966
517.845 .0686783
518.677 .0712172
519.508 .0740336
520.339 .0771369
521.169 .0805327
521.998 .0842028
522.826 .0881170
523.654 .0922262
524.481 .0964683
525.307 .1007720
526.133 .1050558
526.958 .1092311
527.782 .1132129
528.605 .1169217
529.428 .1202874
530.250 .1232434
531.072 .1257458
531.892 .1277574
532.712 .1292536
533.532 .1302189
534.350 .1306460
535.168 .1305304
535.986 .1298730
536.802 .1286736
537.618 .1269407
538.434 .1246860
539.249 .1219432
540.063 .1187556
540.876 .1151831
541.689 .1112961
542.501 .1071724
543.313 .1028954
544.124 .0985535
544.934 .0942279
545.744 .0899934
546.553 .0859131
547.361 .0820441
548.169 .0784190
548.976 .0750631
549.783 .0719857
550.589 .0691854
551.395 .0666482
552.200 .0643547
553.004 .0622801
553.808 .0604028
554.611 .0587022
555.414 .0571584
556.216 .0557527
557.018 .0544695
557.819 .0532945
558.619 .0522144
559.419 .0512172
560.218 .0502946
561.017 .0494363
561.815 .0486350
562.613 .0478836
563.410 .0471752
564.207 .0465037
565.003 .0458643
565.799 .0452510
566.594 .0446594
567.388 .0440865
568.182 .0435298
568.976 .0429869
569.769 .0424574
570.562 .0419406
571.354 .0414365
572.145 .0409457
572.936 .0404683
573.727 .0400039
574.517 .0395528
575.307 .0391152
576.096 .0386911
576.885 .0382812
577.673 .0378865
578.461 .0375073
579.248 .0371445
580.035 .0367986
580.821 .0364701
581.607 .0361594
582.392 .0358668
583.177 .0355923
583.962 .0353354
584.746 .0350960
585.529 .0348738
586.313 .0346680
587.095 .0344782
587.878 .0343035
588.660 .0341431
589.441 .0339962
590.222 .0338616
591.003 .0337382
591.783 .0336249
592.563 .0335206
593.342 .0334240
594.121 .0333342
594.899 .0332503
595.678 .0331715
596.455 .0330974
597.233 .0330276
598.009 .0329614
598.786 .0328986
599.562 .0328387
600.338 .0327814
601.113 .0327264
601.888 .0326493
602.663 .0325988
603.437 .0325500
604.211 .0325027
604.984 .0324571
605.757 .0324130
606.530 .0323706
607.302 .0323300
608.074 .0322911
608.845 .0322541
609.616 .0322188
610.387 .0322062
611.158 .0321735
611.928 .0321424
612.697 .0321129
613.467 .0320850
614.236 .0320586
615.004 .0320335
615.773 .0320095
616.541 .0319866
617.308 .0319645
618.076 .0319433
618.843 .0319227
619.609 .0319027
620.375 .0318832
621.141 .0318639
621.907 .0318446
622.672 .0318252
623.437 .0318056
624.202 .0317856
624.966 .0317651
625.730 .0317440
626.493 .0317224
627.257 .0317001
628.020 .0316773
628.782 .0316538
629.545 .0316296
630.307 .0316049
631.068 .0315795
631.830 .0315535
632.591 .0315270
633.352 .0315002
634.112 .0314731
634.872 .0314460
635.632 .0314188
636.392 .0313918
637.151 .0313648
637.910 .0313381
638.668 .0313116
639.427 .0312854
640.185 .0312596
640.943 .0312341
641.700 .0312092
642.457 .0311848
643.214 .0311609
643.971 .0311376
644.727 .0311149
645.483 .0310927
646.239 .0310709
646.994 .0310496
647.750 .0310285
648.505 .0310078
649.259 .0309873
650.014 .0309671
650.768 .0309469
651.521 .0309268
652.275 .0309066
653.028 .0308863
653.781 .0308658
654.534 .0308449
655.286 .0308235
656.039 .0308016
656.791 .0307789
657.542 .0307556
658.294 .0307315
659.045 .0307068
659.796 .0306816
660.546 .0306560
661.297 .0306299
662.047 .0306036
662.796 .0305772
663.546 .0305506
664.295 .0305239
665.044 .0304971
665.793 .0304704
666.542 .0304438
667.290 .0304174
668.038 .0303915
668.786 .0303659
669.533 .0303409
670.281 .0303164
671.028 .0302926
671.774 .0302694
672.521 .0302468
673.267 .0302248
674.013 .0302034
674.759 .0301826
675.505 .0301624
676.250 .0301426
676.995 .0301233
677.740 .0301045
678.484 .0300859
679.229 .0300677
679.973 .0300498
680.717 .0300321
681.460 .0300148
682.204 .0299978
682.947 .0299812
683.690 .0299648
684.433 .0299486
685.175 .0299325
685.917 .0299163
686.659 .0298999
687.401 .0298833
688.142 .0298664
688.884 .0298492
689.625 .0298318
690.365 .0298142
691.106 .0297966
691.846 .0297788
692.586 .0297610
693.326 .0297430
694.066 .0297248
694.805 .0297063
695.545 .0296875
696.284 .0296685
697.022 .0296495
697.761 .0296304
698.499 .0296114
699.237 .0295927
699.975 .0295741
700.713 .0295557
701.450 .0295376
702.187 .0295197
702.924 .0295018
703.661 .0294842
704.397 .0294666
705.133 .0294491
705.869 .0294317
706.605 .0294144
707.341 .0293972
708.076 .0293800
708.811 .0293628
709.546 .0293454
710.281 .0293279
711.015 .0293103
711.749 .0292925
712.483 .0292744
713.217 .0292562
713.950 .0292377
714.684 .0292190
715.417 .0292000
716.150 .0291807
716.882 .0291612
717.615 .0291413
718.347 .0291213
719.079 .0291009
719.811 .0290805
720.542 .0290600
721.273 .0290395
722.005 .0290191
722.735 .0289990
723.466 .0289791
724.196 .0289596
724.927 .0289406
725.656 .0289221
726.386 .0289040
727.116 .0288866
727.845 .0288696
728.574 .0288532
729.303 .0288373
730.031 .0288219
730.760 .0288071
731.488 .0287928
732.216 .0287790
732.944 .0287657
733.671 .0287527
734.398 .0287401
735.125 .0287279
735.852 .0287158
736.579 .0287040
737.305 .0286923
738.031 .0286807
738.757 .0286691
739.483 .0286574
740.208 .0286457
740.933 .0286337
741.658 .0286217
742.383 .0286094
743.108 .0285969
743.832 .0285843
744.556 .0285715
745.280 .0285586
746.004 .0285456
746.727 .0285324
747.450 .0285190
748.173 .0285052
748.896 .0284912
749.618 .0284768
750.340 .0284621
751.062 .0284472
751.784 .0284321
752.506 .0284168
753.227 .0284014
753.948 .0283860
754.669 .0283704
755.389 .0283548
756.110 .0283391
756.830 .0283233
757.550 .0283075
758.269 .0282915
758.989 .0282756
759.708 .0282596
760.427 .0282438
761.146 .0282280
761.864 .0282124
762.582 .0281970
763.300 .0281818
764.018 .0281669
764.736 .0281522
765.453 .0281378
766.170 .0281236
766.887 .0281097
767.603 .0280959
768.320 .0280824
769.036 .0280691
769.751 .0280560
770.467 .0280433
771.182 .0280308
771.897 .0280186
772.612 .0280067
773.327 .0279950
774.041 .0279836
774.755 .0279724
775.469 .0279614
776.183 .0279505
776.896 .0279397
777.609 .0279291
778.322 .0279187
779.035 .0279084
779.747 .0278983
780.459 .0278884
781.171 .0278786
781.882 .0278689
782.594 .0278594
783.305 .0278501
784.016 .0278409
784.726 .0278319
785.436 .0278229
786.147 .0278099
786.856 .0278009
787.566 .0277919
788.275 .0277829
788.984 .0277738
789.693 .0277646
790.401 .0277555
791.110 .0277465
791.818 .0277374
792.525 .0277285
793.233 .0277195
793.940 .0277104
794.647 .0277054
795.353 .0276961
796.060 .0276867
796.766 .0276771
797.472 .0276675
798.177 .0276577
798.883 .0276479
799.588 .0276381
800.292 .0276282
800.997 .0276183
801.701 .0276083
802.405 .0275982
803.109 .0275879
803.812 .0275774
804.515 .0275668
805.218 .0275560
805.921 .0275451
806.623 .0275339
807.325 .0275226
808.027 .0275112
808.728 .0274995
809.429 .0274877
810.130 .0274757
810.831 .0274635
811.531 .0274513
812.231 .0274391
812.931 .0274268
813.630 .0274145
814.330 .0274023
815.029 .0273901
815.727 .0273779
816.426 .0273658
817.124 .0273537
817.821 .0273417
818.519 .0273299
819.216 .0273184
819.913 .0273073
820.609 .0272965
821.306 .0272863
822.002 .0272767
822.697 .0272676
823.393 .0272592
824.088 .0272514
824.783 .0272441
825.477 .0272375
826.171 .0272314
826.865 .0272259
827.559 .0272209
828.252 .0272165
828.945 .0272125
829.638 .0272090
830.330 .0272060
831.023 .0272033
831.714 .0272010
832.406 .0271989
833.097 .0271969
833.788 .0271951
834.479 .0271933
835.169 .0271914
835.859 .0271895
836.548 .0271875
837.238 .0271853
837.927 .0271829
838.615 .0271804
839.304 .0271776
839.992 .0271744
840.680 .0271709
841.367 .0271670
842.054 .0271627
842.741 .0271580
843.428 .0271529
844.114 .0271473
844.800 .0271414
845.485 .0271349
846.170 .0271279
846.855 .0271203
847.540 .0271122
848.224 .0271034
848.908 .0270940
849.592 .0270840
850.275 .0270735
850.958 .0270624
851.641 .0270508
852.323 .0270388
853.005 .0270263
853.687 .0270132
854.368 .0269997
855.049 .0269857
855.730 .0269712
856.410 .0269563
857.090 .0269412
857.769 .0269259
858.449 .0269105
859.128 .0268951
859.806 .0268796
860.485 .0268642
861.163 .0268489
861.840 .0268336
862.518 .0268185
863.195 .0268035
863.871 .0267888
864.548 .0267745
865.224 .0267605
865.899 .0267469
866.574 .0267337
867.249 .0267210
867.924 .0267087
868.598 .0266967
869.272 .0266851
869.946 .0266739
870.619 .0266631
871.292 .0266526
871.964 .0266425
872.636 .0266327
873.308 .0266232
873.979 .0266140
874.651 .0266050
875.321 .0265961
875.992 .0265873
876.662 .0265785
877.331 .0265696
878.001 .0265607
878.670 .0265516
879.338 .0265425
880.007 .0265334
880.675 .0265241
881.342 .0265149
882.009 .0265056
882.676 .0264963
883.343 .0264870
884.009 .0264777
884.675 .0264685
885.340 .0264595
886.005 .0264507
886.670 .0264422
887.334 .0264339
887.998 .0264260
888.662 .0264184
889.325 .0264112
889.988 .0264043
890.650 .0263976
891.312 .0263912
891.974 .0263849
892.636 .0263789
893.297 .0263731
893.957 .0263674
894.618 .0263619
895.278 .0263564
895.937 .0263510
896.596 .0263456
897.255 .0263400
897.914 .0263342
898.572 .0263280
899.230 .0263214
899.887 .0263143
900.544 .0263066
901.201 .0262983
901.857 .0262823
902.513 .0262721
903.168 .0262611
903.823 .0262492
904.478 .0262365
905.132 .0262229
905.786 .0262085
906.440 .0261932
907.093 .0261771
907.746 .0261602
908.399 .0261428
909.051 .0261248
909.703 .0261063
910.354 .0260961
911.005 .0260774
911.656 .0260586
912.306 .0260396
912.956 .0260206
913.605 .0260015
914.254 .0259826
914.903 .0259637
915.551 .0259450
916.199 .0259265
916.847 .0259081
917.494 .0258900
918.141 .0258720
918.788 .0258541
919.434 .0258364
920.079 .0258188
920.725 .0258013
921.370 .0257838
922.014 .0257663
922.658 .0257488
923.302 .0257312
923.946 .0257136
924.589 .0256959
925.231 .0256782
925.873 .0256603
926.515 .0256424
927.157 .0256243
927.798 .0256062
928.439 .0255881
929.079 .0255699
929.719 .0255517
930.359 .0255335
930.998 .0255153
931.637 .0254973
932.275 .0254793
932.913 .0254616
933.551 .0254441
934.188 .0254269
934.825 .0254101
935.462 .0253936
936.098 .0253777
936.733 .0253622
937.369 .0253471
938.004 .0253326
938.638 .0253185
939.273 .0253050
939.907 .0252920
940.540 .0252796
941.173 .0252678
941.806 .0252566
942.438 .0252460
943.070 .0252360
943.702 .0252265
944.333 .0252176
944.964 .0252090
945.594 .0252008
946.224 .0251927
946.854 .0251847
947.483 .0251768
948.112 .0251690
948.741 .0251611
949.369 .0251532
949.996 .0251453
950.624 .0251374
951.251 .0251295
951.878 .0251214
952.504 .0251133
953.130 .0251050
953.755 .0250965
954.380 .0250879
955.005 .0250792
955.629 .0250705
956.253 .0250618
956.877 .0250532
957.500 .0250447
958.123 .0250363
958.746 .0250280
959.368 .0250198
959.990 .0250117
960.611 .0250037
961.232 .0249957
961.853 .0249880
962.473 .0249804
963.093 .0249731
963.712 .0249661
964.331 .0249593
964.950 .0249529
965.569 .0249467
966.187 .0249406
966.804 .0249347
967.422 .0249289
968.039 .0249232
968.655 .0249176
969.272 .0249121
969.887 .0249067
970.503 .0249015
971.118 .0248965
971.733 .0248916
972.347 .0248867
972.961 .0248818
973.575 .0248769
974.188 .0248719
974.801 .0248669
975.414 .0248618
976.026 .0248567
976.638 .0248515
977.250 .0248463
977.861 .0248411
978.472 .0248358
979.083 .0248303
979.693 .0248247
980.303 .0248188
980.912 .0248094
981.521 .0248032
982.130 .0247969
982.738 .0247906
983.346 .0247843
983.954 .0247780
984.562 .0247718
985.169 .0247658
985.775 .0247598
986.382 .0247539
986.988 .0247483
987.594 .0247430
988.199 .0247381
988.804 .0247336
989.409 .0247325
990.013 .0247290
990.617 .0247261
991.221 .0247237
991.824 .0247218
992.427 .0247204
993.030 .0247192
993.632 .0247184
994.234 .0247177
994.836 .0247174
995.438 .0247173
996.039 .0247175
996.640 .0247181
997.240 .0247192
997.840 .0247206
998.440 .0247224
999.040 .0247246
999.639 .0247270
1000.238 .0247297
1000.836 .0247326
1001.435 .0247358
1002.033 .0247391
1002.630 .0247428
1003.228 .0247467
1003.825 .0247509
1004.422 .0247554
1005.018 .0247600
1005.614 .0247647
1006.210 .0247693
1006.806 .0247738
1007.401 .0247779
1007.996 .0247817
1008.591 .0247852
1009.186 .0247884
1009.780 .0247915
1010.374 .0247944
1010.967 .0247975
1011.561 .0248006
1012.154 .0248038
1012.746 .0248072
1013.339 .0248107
1013.931 .0248144
1014.523 .0248181
1015.115 .0248219
1015.706 .0248259
1016.298 .0248300
1016.888 .0248343
1017.479 .0248390
1018.069 .0248441
1018.660 .0248495
1019.250 .0248553
1019.839 .0248614
1020.429 .0248677
1021.018 .0248742
1021.607 .0248808
1022.195 .0248875
1022.784 .0248943
1023.372 .0249012
1023.960 .0249084
1024.547 .0249158
1025.135 .0249236
1025.722 .0249318
1026.309 .0249403
1026.896 .0249490
1027.483 .0249578
1028.069 .0249666
1028.655 .0249754
1029.241 .0249840
1029.827 .0249923
1030.412 .0250004
1030.997 .0250082
1031.582 .0250158
1032.167 .0250231
1032.752 .0250301
1033.336 .0250369
1033.921 .0250434
1034.505 .0250496
1035.089 .0250554
1035.672 .0250607
1036.256 .0250656
1036.839 .0250700
1037.422 .0250740
1038.005 .0250776
1038.588 .0250808
1039.171 .0250837
1039.753 .0250864
1040.335 .0250888
1040.918 .0250910
1041.500 .0250929
1042.081 .0250946
1042.663 .0250960
1043.244 .0250971
1043.826 .0250978
1044.407 .0250983
1044.988 .0250986
1045.569 .0250987
1046.150 .0250988
1046.730 .0250990
1047.311 .0250994
1047.891 .0251001
1048.471 .0251010
1049.052 .0251022
1049.632 .0251036
1050.211 .0251052
1050.791 .0251068
1051.371 .0251085
1051.950 .0251103
1052.530 .0251121
1053.109 .0251140
1053.688 .0251160
1054.268 .0251183
1054.847 .0251207
1055.426 .0251235
1056.005 .0251264
1056.583 .0251295
1057.162 .0251327
1057.741 .0251359
1058.319 .0251391
1058.898 .0251423
1059.476 .0251455
1060.055 .0251488
1060.633 .0251521
1061.211 .0251554
1061.790 .0251587
1062.368 .0251617
1062.946 .0251644
1063.524 .0251666
1064.102 .0251681
1064.680 .0251687
1065.258 .0251686
1065.836 .0251677
1066.414 .0251660
1066.992 .0251637
1067.570 .0251609
1068.148 .0251577
1068.726 .0251540
1069.304 .0251501
1069.882 .0251457
1070.460 .0251411
1071.038 .0251362
1071.616 .0251311
1072.194 .0251258
1072.772 .0251206
1073.350 .0251154
1073.928 .0251105
1074.506 .0251057
1075.084 .0251013
1075.662 .0250971
1076.240 .0250932
1076.819 .0250895
1077.397 .0250860
1077.976 .0250827
1078.554 .0250796
1079.133 .0250769
1079.711 .0250748
1080.290 .0250736
1080.869 .0250735
1081.448 .0250746
1082.027 .0250771
1082.606 .0250810
1083.185 .0250863
1083.764 .0250929
1084.343 .0251006
1084.923 .0251095
1085.502 .0251193
1086.082 .0251300
1086.662 .0251417
1087.242 .0251543
1087.822 .0251679
1088.402 .0251825
1088.983 .0251979
1089.563 .0252140
1090.144 .0252306
1090.725 .0252475
1091.306 .0252647
1091.887 .0252820
1092.469 .0252994
1093.050 .0253170
1093.632 .0253351
1094.214 .0253538
1094.796 .0253732
1095.379 .0253936
1095.961 .0254149
1096.544 .0254369
1097.127 .0254593
1097.710 .0254820
1098.294 .0255048
1098.877 .0255274
1099.461 .0255498
1100.046 .0255721
1100.630 .0255942
1101.215 .0256163
1101.800 .0256384
1102.385 .0256605
1102.970 .0256824
1103.556 .0257040
1104.142 .0257250
1104.728 .0257451
1105.315 .0257641
1105.902 .0257821
1106.489 .0257993
1107.077 .0258157
1107.664 .0258318
1108.253 .0258477
1108.841 .0258637
1109.430 .0258799
1110.019 .0258963
1110.609 .0259127
1111.198 .0259290
1111.789 .0259449
1112.379 .0259604
1112.970 .0259757
1113.561 .0259908
1114.153 .0260060
1114.745 .0260218
1115.338 .0260384
1115.931 .0260562
1116.524 .0260752
1117.117 .0260959
1117.712 .0261182
1118.306 .0261423
1118.901 .0261683
1119.496 .0261963
1120.092 .0262267
1120.689 .0262595
1121.285 .0262950
1121.882 .0263334
1122.480 .0263747
1123.078 .0264189
1123.677 .0264661
1124.276 .0265160
1124.875 .0265685
1125.476 .0266234
1126.076 .0266807
1126.677 .0267405
1127.279 .0268028
1127.881 .0268679
1128.484 .0269362
1129.087 .0269651
1129.691 .0270384
1130.295 .0271150
1130.900 .0271951
1131.505 .0272788
1132.111 .0273664
1132.718 .0274582
1133.325 .0275552
1133.933 .0276569
1134.541 .0277640
1135.150 .0278750
1135.760 .0279995
1136.370 .0281376
1136.981 .0280884
1137.592 .0281997
1138.204 .0283114
1138.817 .0284339
1139.431 .0285668
1140.045 .0287108
1140.660 .0288772
1141.275 .0290740
1141.891 .0292629
1142.508 .0294814
1143.126 .0296577
1143.744 .0301125
1144.363 .0305694
1144.983 .0298379
