Measurement Sequence started on: 15-12-46-377
Integration time: 28
Scans to Average: 2 
>>>>>Begin Spectral Data<<<<<
432.689 .0000100
433.621 .0000100
434.552 .0000100
435.482 .0000100
436.410 .0000100
437.337 .0000100
438.262 .0281140
439.187 .0594351
440.110 .0982931
441.031 .1420197
441.952 .1131295
442.871 .1181194
443.789 .1227719
444.705 .1271576
445.621 .1313259
446.535 .1353149
447.447 .1376727
448.359 .1382536
449.269 .1366793
450.178 .1327075
451.086 .1264225
451.993 .1183168
452.898 .1091989
453.803 .0999826
454.706 .0914395
455.608 .0840450
456.508 .0779517
457.408 .0738749
458.306 .0707607
459.204 .0682337
460.100 .0661074
460.995 .0642792
461.888 .0626813
462.781 .0612671
463.673 .0600007
464.563 .0588573
465.452 .0578163
466.340 .0568616
467.228 .0559817
468.114 .0551679
468.999 .0544121
469.882 .0537090
470.765 .0530543
471.647 .0524445
472.528 .0518777
473.407 .0513515
474.286 .0508648
475.163 .0504166
476.040 .0500058
476.915 .0496308
477.790 .0492907
478.663 .0489844
479.535 .0487104
480.407 .0484674
481.277 .0482537
482.147 .0480675
483.015 .0479073
483.883 .0477721
484.749 .0476608
485.615 .0475732
486.479 .0475096
487.343 .0474696
488.206 .0474538
489.067 .0474619
489.928 .0474939
490.788 .0475493
491.647 .0476278
492.505 .0477286
493.362 .0478513
494.218 .0479956
495.073 .0481610
495.928 .0484846
496.781 .0487039
497.634 .0489451
498.486 .0492082
499.337 .0494945
500.187 .0498050
501.036 .0501415
501.884 .0505064
502.731 .0509025
503.578 .0513331
504.424 .0516224
505.268 .0521198
506.113 .0526621
506.956 .0532521
507.798 .0538942
508.640 .0545925
509.480 .0553532
510.320 .0561837
511.160 .0570938
511.998 .0580973
512.836 .0592110
513.672 .0604523
514.508 .0618447
515.344 .0634128
516.178 .0651820
517.012 .0671784
517.845 .0694265
518.677 .0719468
519.508 .0747581
520.339 .0778714
521.169 .0812923
521.998 .0850006
522.826 .0889678
523.654 .0931445
524.481 .0974685
525.307 .1018666
526.133 .1062504
526.958 .1105269
527.782 .1146057
528.605 .1183988
529.428 .1218303
530.250 .1248309
531.072 .1273577
531.892 .1293720
532.712 .1308499
533.532 .1317775
534.350 .1321484
535.168 .1319669
535.986 .1312406
536.802 .1299739
537.618 .1281757
538.434 .1258564
539.249 .1230512
540.063 .1198015
540.876 .1161652
541.689 .1122131
542.501 .1080236
543.313 .1036870
544.124 .0992969
544.934 .0949411
545.744 .0907025
546.553 .0866479
547.361 .0828337
548.169 .0792886
548.976 .0760324
549.783 .0730679
550.589 .0703863
551.395 .0679695
552.200 .0657901
553.004 .0638181
553.808 .0620279
554.611 .0603959
555.414 .0589025
556.216 .0575280
557.018 .0562560
557.819 .0550741
558.619 .0539709
559.419 .0529377
560.218 .0519687
561.017 .0510574
561.815 .0501987
562.613 .0493875
563.410 .0486183
564.207 .0478859
565.003 .0471858
565.799 .0465133
566.594 .0458643
567.388 .0452361
568.182 .0446260
568.976 .0440320
569.769 .0434536
570.562 .0428916
571.354 .0423460
572.145 .0418176
572.936 .0413068
573.727 .0408136
574.517 .0403378
575.307 .0398797
576.096 .0394383
576.885 .0390138
577.673 .0386063
578.461 .0382161
579.248 .0378436
580.035 .0374897
580.821 .0371548
581.607 .0368392
582.392 .0365432
583.177 .0362665
583.962 .0360084
584.746 .0357682
585.529 .0355454
586.313 .0353389
587.095 .0351476
587.878 .0349710
588.660 .0348080
589.441 .0346579
590.222 .0345201
591.003 .0343937
591.783 .0342778
592.563 .0341718
593.342 .0340746
594.121 .0339852
594.899 .0339027
595.678 .0338263
596.455 .0337552
597.233 .0336886
598.009 .0336261
598.786 .0335672
599.562 .0335116
600.338 .0334590
601.113 .0334090
601.888 .0333417
602.663 .0332973
603.437 .0332548
604.211 .0332141
604.984 .0331749
605.757 .0331371
606.530 .0331007
607.302 .0330655
608.074 .0330316
608.845 .0329987
609.616 .0329669
610.387 .0329531
611.158 .0329223
611.928 .0328923
612.697 .0328629
613.467 .0328339
614.236 .0328055
615.004 .0327774
615.773 .0327496
616.541 .0327221
617.308 .0326947
618.076 .0326674
618.843 .0326399
619.609 .0326122
620.375 .0325842
621.141 .0325558
621.907 .0325270
622.672 .0324980
623.437 .0324686
624.202 .0324390
624.966 .0324090
625.730 .0323788
626.493 .0323482
627.257 .0323172
628.020 .0322859
628.782 .0322541
629.545 .0322221
630.307 .0321898
631.068 .0321573
631.830 .0321248
632.591 .0320923
633.352 .0320599
634.112 .0320276
634.872 .0319955
635.632 .0319636
636.392 .0319319
637.151 .0319006
637.910 .0318698
638.668 .0318396
639.427 .0318099
640.185 .0317807
640.943 .0317522
641.700 .0317243
642.457 .0316969
643.214 .0316702
643.971 .0316440
644.727 .0316183
645.483 .0315933
646.239 .0315688
646.994 .0315449
647.750 .0315215
648.505 .0314985
649.259 .0314759
650.014 .0314535
650.768 .0314311
651.521 .0314089
652.275 .0313866
653.028 .0313643
653.781 .0313419
654.534 .0313193
655.286 .0312966
656.039 .0312736
656.791 .0312504
657.542 .0312269
658.294 .0312032
659.045 .0311792
659.796 .0311550
660.546 .0311306
661.297 .0311062
662.047 .0310816
662.796 .0310570
663.546 .0310324
664.295 .0310078
665.044 .0309831
665.793 .0309586
666.542 .0309342
667.290 .0309101
668.038 .0308864
668.786 .0308630
669.533 .0308400
670.281 .0308175
671.028 .0307954
671.774 .0307737
672.521 .0307523
673.267 .0307312
674.013 .0307105
674.759 .0306900
675.505 .0306697
676.250 .0306496
676.995 .0306297
677.740 .0306100
678.484 .0305905
679.229 .0305711
679.973 .0305519
680.717 .0305330
681.460 .0305141
682.204 .0304954
682.947 .0304768
683.690 .0304582
684.433 .0304395
685.175 .0304208
685.917 .0304019
686.659 .0303830
687.401 .0303639
688.142 .0303449
688.884 .0303258
689.625 .0303068
690.365 .0302878
691.106 .0302688
691.846 .0302498
692.586 .0302308
693.326 .0302118
694.066 .0301927
694.805 .0301736
695.545 .0301546
696.284 .0301356
697.022 .0301166
697.761 .0300977
698.499 .0300789
699.237 .0300602
699.975 .0300417
700.713 .0300235
701.450 .0300054
702.187 .0299877
702.924 .0299702
703.661 .0299530
704.397 .0299360
705.133 .0299192
705.869 .0299024
706.605 .0298857
707.341 .0298690
708.076 .0298523
708.811 .0298357
709.546 .0298190
710.281 .0298023
711.015 .0297856
711.749 .0297688
712.483 .0297519
713.217 .0297349
713.950 .0297176
714.684 .0297002
715.417 .0296825
716.150 .0296645
716.882 .0296463
717.615 .0296277
718.347 .0296089
719.079 .0295899
719.811 .0295706
720.542 .0295511
721.273 .0295314
722.005 .0295115
722.735 .0294916
723.466 .0294717
724.196 .0294518
724.927 .0294321
725.656 .0294125
726.386 .0293933
727.116 .0293743
727.845 .0293558
728.574 .0293376
729.303 .0293199
730.031 .0293028
730.760 .0292861
731.488 .0292700
732.216 .0292545
732.944 .0292395
733.671 .0292250
734.398 .0292111
735.125 .0291977
735.852 .0291847
736.579 .0291721
737.305 .0291599
738.031 .0291480
738.757 .0291363
739.483 .0291249
740.208 .0291135
740.933 .0291021
741.658 .0290906
742.383 .0290788
743.108 .0290669
743.832 .0290546
744.556 .0290419
745.280 .0290289
746.004 .0290155
746.727 .0290016
747.450 .0289873
748.173 .0289726
748.896 .0289573
749.618 .0289416
750.340 .0289253
751.062 .0289086
751.784 .0288914
752.506 .0288739
753.227 .0288559
753.948 .0288377
754.669 .0288193
755.389 .0288008
756.110 .0287823
756.830 .0287639
757.550 .0287456
758.269 .0287275
758.989 .0287096
759.708 .0286922
760.427 .0286750
761.146 .0286583
761.864 .0286420
762.582 .0286262
763.300 .0286108
764.018 .0285959
764.736 .0285815
765.453 .0285676
766.170 .0285541
766.887 .0285410
767.603 .0285283
768.320 .0285160
769.036 .0285041
769.751 .0284926
770.467 .0284815
771.182 .0284708
771.897 .0284605
772.612 .0284504
773.327 .0284406
774.041 .0284311
774.755 .0284217
775.469 .0284125
776.183 .0284034
776.896 .0283945
777.609 .0283858
778.322 .0283773
779.035 .0283690
779.747 .0283608
780.459 .0283528
781.171 .0283449
781.882 .0283373
782.594 .0283297
783.305 .0283224
784.016 .0283151
784.726 .0283080
785.436 .0283010
786.147 .0282908
786.856 .0282839
787.566 .0282769
788.275 .0282699
788.984 .0282629
789.693 .0282558
790.401 .0282486
791.110 .0282414
791.818 .0282342
792.525 .0282268
793.233 .0282194
793.940 .0282118
794.647 .0282073
795.353 .0281995
796.060 .0281915
796.766 .0281834
797.472 .0281750
798.177 .0281665
798.883 .0281578
799.588 .0281490
800.292 .0281401
800.997 .0281311
801.701 .0281220
802.405 .0281127
803.109 .0281032
803.812 .0280936
804.515 .0280838
805.218 .0280737
805.921 .0280634
806.623 .0280529
807.325 .0280421
808.027 .0280311
808.728 .0280200
809.429 .0280087
810.130 .0279973
810.831 .0279857
811.531 .0279742
812.231 .0279625
812.931 .0279508
813.630 .0279391
814.330 .0279273
815.029 .0279157
815.727 .0279041
816.426 .0278928
817.124 .0278817
817.821 .0278708
818.519 .0278602
819.216 .0278499
819.913 .0278399
820.609 .0278301
821.306 .0278205
822.002 .0278112
822.697 .0278021
823.393 .0277932
824.088 .0277845
824.783 .0277761
825.477 .0277677
826.171 .0277594
826.865 .0277512
827.559 .0277428
828.252 .0277345
828.945 .0277260
829.638 .0277175
830.330 .0277089
831.023 .0277003
831.714 .0276917
832.406 .0276829
833.097 .0276742
833.788 .0276653
834.479 .0276563
835.169 .0276472
835.859 .0276380
836.548 .0276288
837.238 .0276197
837.927 .0276108
838.615 .0276020
839.304 .0275933
839.992 .0275848
840.680 .0275764
841.367 .0275681
842.054 .0275599
842.741 .0275516
843.428 .0275434
844.114 .0275352
844.800 .0275269
845.485 .0275185
846.170 .0275099
846.855 .0275011
847.540 .0274918
848.224 .0274821
848.908 .0274719
849.592 .0274610
850.275 .0274496
850.958 .0274377
851.641 .0274252
852.323 .0274123
853.005 .0273989
853.687 .0273849
854.368 .0273706
855.049 .0273558
855.730 .0273406
856.410 .0273251
857.090 .0273094
857.769 .0272934
858.449 .0272774
859.128 .0272613
859.806 .0272452
860.485 .0272291
861.163 .0272130
861.840 .0271969
862.518 .0271808
863.195 .0271648
863.871 .0271488
864.548 .0271328
865.224 .0271169
865.899 .0271011
866.574 .0270853
867.249 .0270696
867.924 .0270539
868.598 .0270382
869.272 .0270224
869.946 .0270067
870.619 .0269910
871.292 .0269752
871.964 .0269595
872.636 .0269438
873.308 .0269281
873.979 .0269125
874.651 .0268969
875.321 .0268814
875.992 .0268660
876.662 .0268507
877.331 .0268355
878.001 .0268204
878.670 .0268054
879.338 .0267907
880.007 .0267761
880.675 .0267619
881.342 .0267480
882.009 .0267346
882.676 .0267217
883.343 .0267094
884.009 .0266977
884.675 .0266865
885.340 .0266758
886.005 .0266657
886.670 .0266562
887.334 .0266471
887.998 .0266386
888.662 .0266305
889.325 .0266229
889.988 .0266158
890.650 .0266091
891.312 .0266028
891.974 .0265969
892.636 .0265913
893.297 .0265860
893.957 .0265809
894.618 .0265762
895.278 .0265717
895.937 .0265674
896.596 .0265632
897.255 .0265589
897.914 .0265546
898.572 .0265501
899.230 .0265454
899.887 .0265402
900.544 .0265347
901.201 .0265288
901.857 .0265174
902.513 .0265101
903.168 .0265022
903.823 .0264938
904.478 .0264848
905.132 .0264751
905.786 .0264649
906.440 .0264540
907.093 .0264425
907.746 .0264305
908.399 .0264182
909.051 .0264055
909.703 .0263927
910.354 .0263860
911.005 .0263733
911.656 .0263606
912.306 .0263480
912.956 .0263354
913.605 .0263229
914.254 .0263106
914.903 .0262984
915.551 .0262864
916.199 .0262746
916.847 .0262630
917.494 .0262514
918.141 .0262401
918.788 .0262288
919.434 .0262175
920.079 .0262064
920.725 .0261953
921.370 .0261842
922.014 .0261732
922.658 .0261620
923.302 .0261507
923.946 .0261393
924.589 .0261278
925.231 .0261160
925.873 .0261039
926.515 .0260917
927.157 .0260792
927.798 .0260667
928.439 .0260540
929.079 .0260412
929.719 .0260285
930.359 .0260158
930.998 .0260031
931.637 .0259905
932.275 .0259781
932.913 .0259659
933.551 .0259540
934.188 .0259425
934.825 .0259315
935.462 .0259210
936.098 .0259111
936.733 .0259018
937.369 .0258931
938.004 .0258851
938.638 .0258777
939.273 .0258709
939.907 .0258647
940.540 .0258593
941.173 .0258544
941.806 .0258503
942.438 .0258468
943.070 .0258439
943.702 .0258415
944.333 .0258395
944.964 .0258379
945.594 .0258365
946.224 .0258353
946.854 .0258342
947.483 .0258331
948.112 .0258320
948.741 .0258308
949.369 .0258296
949.996 .0258282
950.624 .0258266
951.251 .0258248
951.878 .0258227
952.504 .0258201
953.130 .0258171
953.755 .0258137
954.380 .0258098
955.005 .0258056
955.629 .0258010
956.253 .0257962
956.877 .0257911
957.500 .0257859
958.123 .0257805
958.746 .0257751
959.368 .0257695
959.990 .0257638
960.611 .0257581
961.232 .0257524
961.853 .0257466
962.473 .0257408
963.093 .0257350
963.712 .0257293
964.331 .0257237
964.950 .0257182
965.569 .0257128
966.187 .0257076
966.804 .0257026
967.422 .0256977
968.039 .0256930
968.655 .0256884
969.272 .0256840
969.887 .0256797
970.503 .0256755
971.118 .0256714
971.733 .0256674
972.347 .0256634
972.961 .0256594
973.575 .0256552
974.188 .0256509
974.801 .0256462
975.414 .0256412
976.026 .0256355
976.638 .0256293
977.250 .0256224
977.861 .0256147
978.472 .0256063
979.083 .0255971
979.693 .0255872
980.303 .0255765
980.912 .0255571
981.521 .0255448
982.130 .0255320
982.738 .0255186
983.346 .0255049
983.954 .0254909
984.562 .0254768
985.169 .0254626
985.775 .0254485
986.382 .0254345
986.988 .0254207
987.594 .0254071
988.199 .0253937
988.804 .0253806
989.409 .0253757
990.013 .0253633
990.617 .0253513
991.221 .0253395
991.824 .0253282
992.427 .0253173
993.030 .0253070
993.632 .0252971
994.234 .0252877
994.836 .0252788
995.438 .0252703
996.039 .0252623
996.640 .0252547
997.240 .0252475
997.840 .0252407
998.440 .0252344
999.040 .0252285
999.639 .0252230
1000.238 .0252178
1000.836 .0252128
1001.435 .0252079
1002.033 .0252031
1002.630 .0251981
1003.228 .0251931
1003.825 .0251878
1004.422 .0251823
1005.018 .0251767
1005.614 .0251708
1006.210 .0251647
1006.806 .0251585
1007.401 .0251520
1007.996 .0251453
1008.591 .0251383
1009.186 .0251311
1009.780 .0251237
1010.374 .0251162
1010.967 .0251085
1011.561 .0251008
1012.154 .0250932
1012.746 .0250857
1013.339 .0250784
1013.931 .0250712
1014.523 .0250642
1015.115 .0250574
1015.706 .0250507
1016.298 .0250442
1016.888 .0250379
1017.479 .0250318
1018.069 .0250261
1018.660 .0250207
1019.250 .0250157
1019.839 .0250110
1020.429 .0250068
1021.018 .0250030
1021.607 .0249995
1022.195 .0249963
1022.784 .0249934
1023.372 .0249908
1023.960 .0249885
1024.547 .0249866
1025.135 .0249851
1025.722 .0249840
1026.309 .0249833
1026.896 .0249829
1027.483 .0249830
1028.069 .0249833
1028.655 .0249838
1029.241 .0249846
1029.827 .0249855
1030.412 .0249865
1030.997 .0249877
1031.582 .0249889
1032.167 .0249901
1032.752 .0249913
1033.336 .0249925
1033.921 .0249934
1034.505 .0249942
1035.089 .0249945
1035.672 .0249945
1036.256 .0249940
1036.839 .0249931
1037.422 .0249917
1038.005 .0249898
1038.588 .0249875
1039.171 .0249848
1039.753 .0249816
1040.335 .0249779
1040.918 .0249738
1041.500 .0249693
1042.081 .0249643
1042.663 .0249590
1043.244 .0249533
1043.826 .0249474
1044.407 .0249412
1044.988 .0249349
1045.569 .0249285
1046.150 .0249222
1046.730 .0249160
1047.311 .0249098
1047.891 .0249038
1048.471 .0248979
1049.052 .0248922
1049.632 .0248868
1050.211 .0248817
1050.791 .0248771
1051.371 .0248728
1051.950 .0248690
1052.530 .0248657
1053.109 .0248628
1053.688 .0248603
1054.268 .0248581
1054.847 .0248562
1055.426 .0248545
1056.005 .0248529
1056.583 .0248516
1057.162 .0248503
1057.741 .0248493
1058.319 .0248483
1058.898 .0248475
1059.476 .0248468
1060.055 .0248461
1060.633 .0248454
1061.211 .0248447
1061.790 .0248438
1062.368 .0248429
1062.946 .0248417
1063.524 .0248405
1064.102 .0248392
1064.680 .0248380
1065.258 .0248368
1065.836 .0248358
1066.414 .0248349
1066.992 .0248343
1067.570 .0248337
1068.148 .0248334
1068.726 .0248331
1069.304 .0248330
1069.882 .0248331
1070.460 .0248333
1071.038 .0248339
1071.616 .0248349
1072.194 .0248364
1072.772 .0248385
1073.350 .0248411
1073.928 .0248442
1074.506 .0248477
1075.084 .0248514
1075.662 .0248554
1076.240 .0248594
1076.819 .0248636
1077.397 .0248679
1077.976 .0248724
1078.554 .0248772
1079.133 .0248825
1079.711 .0248883
1080.290 .0248945
1080.869 .0249012
1081.448 .0249083
1082.027 .0249156
1082.606 .0249232
1083.185 .0249309
1083.764 .0249390
1084.343 .0249475
1084.923 .0249566
1085.502 .0249666
1086.082 .0249774
1086.662 .0249892
1087.242 .0250018
1087.822 .0250150
1088.402 .0250286
1088.983 .0250425
1089.563 .0250565
1090.144 .0250707
1090.725 .0250851
1091.306 .0251000
1091.887 .0251156
1092.469 .0251322
1093.050 .0251499
1093.632 .0251686
1094.214 .0251884
1094.796 .0252090
1095.379 .0252301
1095.961 .0252515
1096.544 .0252732
1097.127 .0252953
1097.710 .0253178
1098.294 .0253409
1098.877 .0253650
1099.461 .0253900
1100.046 .0254158
1100.630 .0254424
1101.215 .0254695
1101.800 .0254968
1102.385 .0255241
1102.970 .0255512
1103.556 .0255781
1104.142 .0256050
1104.728 .0256320
1105.315 .0256594
1105.902 .0256874
1106.489 .0257160
1107.077 .0257454
1107.664 .0257755
1108.253 .0258064
1108.841 .0258380
1109.430 .0258704
1110.019 .0259037
1110.609 .0259381
1111.198 .0259736
1111.789 .0260104
1112.379 .0260487
1112.970 .0260885
1113.561 .0261296
1114.153 .0261717
1114.745 .0262148
1115.338 .0262587
1115.931 .0263036
1116.524 .0263494
1117.117 .0263965
1117.712 .0264450
1118.306 .0264951
1118.901 .0265470
1119.496 .0266007
1120.092 .0266561
1120.689 .0267129
1121.285 .0267709
1121.882 .0268301
1122.480 .0268902
1123.078 .0269514
1123.677 .0270139
1124.276 .0270779
1124.875 .0271433
1125.476 .0272104
1126.076 .0272790
1126.677 .0273489
1127.279 .0274203
1127.881 .0274930
1128.484 .0275670
1129.087 .0276015
1129.691 .0276776
1130.295 .0277558
1130.900 .0278366
1131.505 .0279206
1132.111 .0280084
1132.718 .0281008
1133.325 .0281988
1133.933 .0283025
1134.541 .0284077
1135.150 .0285222
1135.760 .0286487
1136.370 .0287916
1136.981 .0286895
1137.592 .0287990
1138.204 .0289154
1138.817 .0290429
1139.431 .0291860
1140.045 .0293480
1140.660 .0295336
1141.275 .0297536
1141.891 .0299827
1142.508 .0301052
1143.126 .0304475
1143.744 .0308691
1144.363 .0314132
1144.983 .0311444
