Measurement Sequence started on: 15-12-46-377
Integration time: 28
Scans to Average: 2 
>>>>>Begin Spectral Data<<<<<
432.689 .0000100
433.621 .0000100
434.552 .0000100
435.482 .0000100
436.410 .0000100
437.337 .0000100
438.262 .0278059
439.187 .0587858
440.110 .0972879
441.031 .1407213
441.952 .1128159
442.871 .1178711
443.789 .1225918
444.705 .1270482
445.621 .1312870
446.535 .1353437
447.447 .1377799
448.359 .1384483
449.269 .1369700
450.178 .1330986
451.086 .1269132
451.993 .1188977
452.898 .1098501
453.803 .1006751
454.706 .0921407
455.608 .0847220
456.508 .0785767
457.408 .0744180
458.306 .0712085
459.204 .0685805
460.100 .0663523
460.995 .0644221
461.888 .0627230
462.781 .0612111
463.673 .0598540
464.563 .0586301
465.452 .0575224
466.340 .0565167
467.228 .0556026
468.114 .0547717
468.999 .0540170
469.882 .0533323
470.765 .0527121
471.647 .0521511
472.528 .0516456
473.407 .0511912
474.286 .0507840
475.163 .0504211
476.040 .0500994
476.915 .0498164
477.790 .0495691
478.663 .0493552
479.535 .0491717
480.407 .0490161
481.277 .0488851
482.147 .0487754
483.015 .0486841
483.883 .0486096
484.749 .0485501
485.615 .0485052
486.479 .0484752
487.343 .0484603
488.206 .0484611
489.067 .0484771
489.928 .0485079
490.788 .0485529
491.647 .0486111
492.505 .0486819
493.362 .0487650
494.218 .0488611
495.073 .0489713
495.928 .0491993
496.781 .0493603
497.634 .0495455
498.486 .0497573
499.337 .0499977
500.187 .0502675
501.036 .0505676
501.884 .0508993
502.731 .0512648
503.578 .0516671
504.424 .0519550
505.268 .0524291
506.113 .0529537
506.956 .0535353
507.798 .0541800
508.640 .0548944
509.480 .0556861
510.320 .0565641
511.160 .0575365
511.998 .0586142
512.836 .0598110
513.672 .0611397
514.508 .0626172
515.344 .0642647
516.178 .0661035
517.012 .0681580
517.845 .0704547
518.677 .0730207
519.508 .0758780
520.339 .0790457
521.169 .0825350
521.998 .0863320
522.826 .0904118
523.654 .0947278
524.481 .0992159
525.307 .1038041
526.133 .1084044
526.958 .1129218
527.782 .1172645
528.605 .1213469
529.428 .1250881
530.250 .1284152
531.072 .1312783
531.892 .1336316
532.712 .1354416
533.532 .1366875
534.350 .1373546
535.168 .1374390
535.986 .1369400
536.802 .1358583
537.618 .1341983
538.434 .1319687
539.249 .1292005
540.063 .1259328
540.876 .1222241
541.689 .1181466
542.501 .1137794
543.313 .1092150
544.124 .1045511
544.934 .0998788
545.744 .0952820
546.553 .0908366
547.361 .0866070
548.169 .0826330
548.976 .0789467
549.783 .0755633
550.589 .0724850
551.395 .0697033
552.200 .0671967
553.004 .0649387
553.808 .0629045
554.611 .0610678
555.414 .0594043
556.216 .0578916
557.018 .0565097
557.819 .0552411
558.619 .0540711
559.419 .0529876
560.218 .0519809
561.017 .0510411
561.815 .0501608
562.613 .0493336
563.410 .0485529
564.207 .0478118
565.003 .0471050
565.799 .0464273
566.594 .0457741
567.388 .0451411
568.182 .0445260
568.976 .0439273
569.769 .0433455
570.562 .0427812
571.354 .0422356
572.145 .0417107
572.936 .0412078
573.727 .0407271
574.517 .0402694
575.307 .0398346
576.096 .0394218
576.885 .0390298
577.673 .0386582
578.461 .0383060
579.248 .0379726
580.035 .0376577
580.821 .0373610
581.607 .0370826
582.392 .0368224
583.177 .0365800
583.962 .0363554
584.746 .0361480
585.529 .0359566
586.313 .0357798
587.095 .0356162
587.878 .0354645
588.660 .0353231
589.441 .0351912
590.222 .0350681
591.003 .0349530
591.783 .0348455
592.563 .0347452
593.342 .0346517
594.121 .0345646
594.899 .0344833
595.678 .0344070
596.455 .0343351
597.233 .0342669
598.009 .0342016
598.786 .0341387
599.562 .0340776
600.338 .0340181
601.113 .0339597
601.888 .0338744
602.663 .0338179
603.437 .0337620
604.211 .0337067
604.984 .0336518
605.757 .0335972
606.530 .0335431
607.302 .0334894
608.074 .0334362
608.845 .0333835
609.616 .0333313
610.387 .0333066
611.158 .0332559
611.928 .0332059
612.697 .0331567
613.467 .0331085
614.236 .0330613
615.004 .0330154
615.773 .0329706
616.541 .0329272
617.308 .0328850
618.076 .0328440
618.843 .0328042
619.609 .0327656
620.375 .0327280
621.141 .0326913
621.907 .0326556
622.672 .0326207
623.437 .0325865
624.202 .0325529
624.966 .0325197
625.730 .0324868
626.493 .0324540
627.257 .0324214
628.020 .0323888
628.782 .0323562
629.545 .0323238
630.307 .0322915
631.068 .0322594
631.830 .0322274
632.591 .0321957
633.352 .0321642
634.112 .0321330
634.872 .0321022
635.632 .0320719
636.392 .0320420
637.151 .0320129
637.910 .0319845
638.668 .0319571
639.427 .0319307
640.185 .0319056
640.943 .0318817
641.700 .0318591
642.457 .0318379
643.214 .0318181
643.971 .0317997
644.727 .0317826
645.483 .0317666
646.239 .0317516
646.994 .0317375
647.750 .0317240
648.505 .0317110
649.259 .0316985
650.014 .0316862
650.768 .0316743
651.521 .0316624
652.275 .0316506
653.028 .0316387
653.781 .0316265
654.534 .0316140
655.286 .0316009
656.039 .0315871
656.791 .0315725
657.542 .0315569
658.294 .0315405
659.045 .0315230
659.796 .0315046
660.546 .0314854
661.297 .0314652
662.047 .0314441
662.796 .0314223
663.546 .0313996
664.295 .0313761
665.044 .0313519
665.793 .0313271
666.542 .0313018
667.290 .0312760
668.038 .0312498
668.786 .0312234
669.533 .0311967
670.281 .0311699
671.028 .0311428
671.774 .0311157
672.521 .0310883
673.267 .0310609
674.013 .0310335
674.759 .0310061
675.505 .0309785
676.250 .0309510
676.995 .0309233
677.740 .0308955
678.484 .0308676
679.229 .0308394
679.973 .0308109
680.717 .0307822
681.460 .0307532
682.204 .0307240
682.947 .0306945
683.690 .0306648
684.433 .0306349
685.175 .0306048
685.917 .0305744
686.659 .0305440
687.401 .0305134
688.142 .0304828
688.884 .0304523
689.625 .0304217
690.365 .0303913
691.106 .0303609
691.846 .0303308
692.586 .0303008
693.326 .0302711
694.066 .0302417
694.805 .0302127
695.545 .0301841
696.284 .0301561
697.022 .0301288
697.761 .0301021
698.499 .0300761
699.237 .0300508
699.975 .0300263
700.713 .0300024
701.450 .0299792
702.187 .0299568
702.924 .0299349
703.661 .0299138
704.397 .0298933
705.133 .0298734
705.869 .0298540
706.605 .0298352
707.341 .0298168
708.076 .0297987
708.811 .0297810
709.546 .0297635
710.281 .0297462
711.015 .0297291
711.749 .0297121
712.483 .0296952
713.217 .0296784
713.950 .0296617
714.684 .0296450
715.417 .0296284
716.150 .0296118
716.882 .0295954
717.615 .0295790
718.347 .0295628
719.079 .0295468
719.811 .0295310
720.542 .0295155
721.273 .0295003
722.005 .0294854
722.735 .0294710
723.466 .0294570
724.196 .0294435
724.927 .0294307
725.656 .0294184
726.386 .0294068
727.116 .0293959
727.845 .0293856
728.574 .0293761
729.303 .0293672
730.031 .0293590
730.760 .0293514
731.488 .0293444
732.216 .0293379
732.944 .0293319
733.671 .0293264
734.398 .0293213
735.125 .0293166
735.852 .0293121
736.579 .0293079
737.305 .0293039
738.031 .0293000
738.757 .0292962
739.483 .0292925
740.208 .0292889
740.933 .0292853
741.658 .0292817
742.383 .0292781
743.108 .0292743
743.832 .0292704
744.556 .0292663
745.280 .0292619
746.004 .0292571
746.727 .0292520
747.450 .0292465
748.173 .0292405
748.896 .0292341
749.618 .0292271
750.340 .0292196
751.062 .0292115
751.784 .0292027
752.506 .0291932
753.227 .0291829
753.948 .0291718
754.669 .0291598
755.389 .0291470
756.110 .0291333
756.830 .0291187
757.550 .0291033
758.269 .0290871
758.989 .0290701
759.708 .0290525
760.427 .0290342
761.146 .0290152
761.864 .0289957
762.582 .0289755
763.300 .0289548
764.018 .0289336
764.736 .0289120
765.453 .0288902
766.170 .0288681
766.887 .0288459
767.603 .0288238
768.320 .0288017
769.036 .0287797
769.751 .0287579
770.467 .0287364
771.182 .0287150
771.897 .0286940
772.612 .0286732
773.327 .0286527
774.041 .0286326
774.755 .0286128
775.469 .0285933
776.183 .0285742
776.896 .0285555
777.609 .0285371
778.322 .0285191
779.035 .0285014
779.747 .0284842
780.459 .0284672
781.171 .0284505
781.882 .0284341
782.594 .0284178
783.305 .0284017
784.016 .0283858
784.726 .0283698
785.436 .0283539
786.147 .0283300
786.856 .0283140
787.566 .0282980
788.275 .0282819
788.984 .0282658
789.693 .0282496
790.401 .0282333
791.110 .0282168
791.818 .0282001
792.525 .0281832
793.233 .0281661
793.940 .0281487
794.647 .0281396
795.353 .0281221
796.060 .0281045
796.766 .0280868
797.472 .0280690
798.177 .0280511
798.883 .0280332
799.588 .0280151
800.292 .0279969
800.997 .0279785
801.701 .0279600
802.405 .0279415
803.109 .0279228
803.812 .0279042
804.515 .0278854
805.218 .0278667
805.921 .0278479
806.623 .0278292
807.325 .0278104
808.027 .0277918
808.728 .0277734
809.429 .0277554
810.130 .0277378
810.831 .0277207
811.531 .0277042
812.231 .0276884
812.931 .0276733
813.630 .0276589
814.330 .0276453
815.029 .0276324
815.727 .0276204
816.426 .0276095
817.124 .0275996
817.821 .0275909
818.519 .0275835
819.216 .0275773
819.913 .0275725
820.609 .0275688
821.306 .0275662
822.002 .0275648
822.697 .0275644
823.393 .0275649
824.088 .0275665
824.783 .0275689
825.477 .0275723
826.171 .0275764
826.865 .0275812
827.559 .0275866
828.252 .0275925
828.945 .0275987
829.638 .0276052
830.330 .0276120
831.023 .0276189
831.714 .0276261
832.406 .0276334
833.097 .0276408
833.788 .0276482
834.479 .0276556
835.169 .0276629
835.859 .0276699
836.548 .0276766
837.238 .0276831
837.927 .0276894
838.615 .0276954
839.304 .0277012
839.992 .0277069
840.680 .0277124
841.367 .0277177
842.054 .0277227
842.741 .0277273
843.428 .0277315
844.114 .0277353
844.800 .0277385
845.485 .0277413
846.170 .0277435
846.855 .0277452
847.540 .0277464
848.224 .0277471
848.908 .0277472
849.592 .0277468
850.275 .0277457
850.958 .0277439
851.641 .0277414
852.323 .0277382
853.005 .0277341
853.687 .0277293
854.368 .0277237
855.049 .0277174
855.730 .0277103
856.410 .0277026
857.090 .0276941
857.769 .0276849
858.449 .0276750
859.128 .0276643
859.806 .0276531
860.485 .0276413
861.163 .0276289
861.840 .0276161
862.518 .0276029
863.195 .0275893
863.871 .0275754
864.548 .0275611
865.224 .0275465
865.899 .0275316
866.574 .0275163
867.249 .0275008
867.924 .0274851
868.598 .0274692
869.272 .0274532
869.946 .0274371
870.619 .0274210
871.292 .0274048
871.964 .0273886
872.636 .0273724
873.308 .0273563
873.979 .0273404
874.651 .0273245
875.321 .0273089
875.992 .0272935
876.662 .0272784
877.331 .0272636
878.001 .0272489
878.670 .0272345
879.338 .0272202
880.007 .0272061
880.675 .0271922
881.342 .0271785
882.009 .0271649
882.676 .0271517
883.343 .0271386
884.009 .0271257
884.675 .0271130
885.340 .0271005
886.005 .0270881
886.670 .0270757
887.334 .0270634
887.998 .0270512
888.662 .0270389
889.325 .0270266
889.988 .0270143
890.650 .0270019
891.312 .0269893
891.974 .0269766
892.636 .0269636
893.297 .0269504
893.957 .0269369
894.618 .0269231
895.278 .0269088
895.937 .0268941
896.596 .0268789
897.255 .0268630
897.914 .0268464
898.572 .0268290
899.230 .0268108
899.887 .0267917
900.544 .0267717
901.201 .0267508
901.857 .0267158
902.513 .0266928
903.168 .0266690
903.823 .0266445
904.478 .0266193
905.132 .0265934
905.786 .0265667
906.440 .0265393
907.093 .0265113
907.746 .0264826
908.399 .0264534
909.051 .0264237
909.703 .0263937
910.354 .0263781
911.005 .0263481
911.656 .0263180
912.306 .0262878
912.956 .0262577
913.605 .0262276
914.254 .0261976
914.903 .0261677
915.551 .0261380
916.199 .0261085
916.847 .0260792
917.494 .0260503
918.141 .0260217
918.788 .0259934
919.434 .0259654
920.079 .0259378
920.725 .0259105
921.370 .0258835
922.014 .0258568
922.658 .0258303
923.302 .0258039
923.946 .0257778
924.589 .0257519
925.231 .0257261
925.873 .0257006
926.515 .0256752
927.157 .0256501
927.798 .0256251
928.439 .0256005
929.079 .0255761
929.719 .0255521
930.359 .0255286
930.998 .0255055
931.637 .0254829
932.275 .0254609
932.913 .0254396
933.551 .0254190
934.188 .0253992
934.825 .0253802
935.462 .0253622
936.098 .0253452
936.733 .0253291
937.369 .0253141
938.004 .0253002
938.638 .0252873
939.273 .0252754
939.907 .0252647
940.540 .0252550
941.173 .0252465
941.806 .0252390
942.438 .0252326
943.070 .0252273
943.702 .0252231
944.333 .0252198
944.964 .0252174
945.594 .0252158
946.224 .0252149
946.854 .0252146
947.483 .0252148
948.112 .0252155
948.741 .0252166
949.369 .0252179
949.996 .0252195
950.624 .0252214
951.251 .0252235
951.878 .0252257
952.504 .0252282
953.130 .0252307
953.755 .0252334
954.380 .0252362
955.005 .0252391
955.629 .0252421
956.253 .0252452
956.877 .0252485
957.500 .0252518
958.123 .0252553
958.746 .0252590
959.368 .0252629
959.990 .0252669
960.611 .0252712
961.232 .0252756
961.853 .0252802
962.473 .0252850
963.093 .0252900
963.712 .0252951
964.331 .0253005
964.950 .0253061
965.569 .0253119
966.187 .0253180
966.804 .0253242
967.422 .0253307
968.039 .0253372
968.655 .0253436
969.272 .0253501
969.887 .0253565
970.503 .0253628
971.118 .0253690
971.733 .0253752
972.347 .0253813
972.961 .0253874
973.575 .0253934
974.188 .0253994
974.801 .0254053
975.414 .0254111
976.026 .0254168
976.638 .0254223
977.250 .0254277
977.861 .0254330
978.472 .0254381
979.083 .0254431
979.693 .0254480
980.303 .0254529
980.912 .0254600
981.521 .0254646
982.130 .0254691
982.738 .0254734
983.346 .0254776
983.954 .0254818
984.562 .0254860
985.169 .0254902
985.775 .0254945
986.382 .0254990
986.988 .0255038
987.594 .0255088
988.199 .0255141
988.804 .0255196
989.409 .0255230
990.013 .0255289
990.617 .0255350
991.221 .0255414
991.824 .0255479
992.427 .0255546
993.030 .0255615
993.632 .0255684
994.234 .0255754
994.836 .0255825
995.438 .0255894
996.039 .0255963
996.640 .0256031
997.240 .0256099
997.840 .0256167
998.440 .0256236
999.040 .0256307
999.639 .0256381
1000.238 .0256457
1000.836 .0256537
1001.435 .0256619
1002.033 .0256704
1002.630 .0256789
1003.228 .0256875
1003.825 .0256960
1004.422 .0257043
1005.018 .0257124
1005.614 .0257202
1006.210 .0257276
1006.806 .0257347
1007.401 .0257414
1007.996 .0257477
1008.591 .0257535
1009.186 .0257589
1009.780 .0257638
1010.374 .0257683
1010.967 .0257723
1011.561 .0257760
1012.154 .0257794
1012.746 .0257824
1013.339 .0257853
1013.931 .0257880
1014.523 .0257905
1015.115 .0257929
1015.706 .0257951
1016.298 .0257971
1016.888 .0257989
1017.479 .0258004
1018.069 .0258016
1018.660 .0258025
1019.250 .0258031
1019.839 .0258034
1020.429 .0258036
1021.018 .0258036
1021.607 .0258036
1022.195 .0258037
1022.784 .0258039
1023.372 .0258044
1023.960 .0258051
1024.547 .0258061
1025.135 .0258072
1025.722 .0258086
1026.309 .0258102
1026.896 .0258120
1027.483 .0258139
1028.069 .0258159
1028.655 .0258181
1029.241 .0258203
1029.827 .0258225
1030.412 .0258247
1030.997 .0258268
1031.582 .0258286
1032.167 .0258301
1032.752 .0258311
1033.336 .0258316
1033.921 .0258317
1034.505 .0258312
1035.089 .0258303
1035.672 .0258290
1036.256 .0258274
1036.839 .0258253
1037.422 .0258229
1038.005 .0258200
1038.588 .0258167
1039.171 .0258128
1039.753 .0258084
1040.335 .0258034
1040.918 .0257977
1041.500 .0257912
1042.081 .0257841
1042.663 .0257763
1043.244 .0257678
1043.826 .0257586
1044.407 .0257487
1044.988 .0257380
1045.569 .0257267
1046.150 .0257146
1046.730 .0257019
1047.311 .0256884
1047.891 .0256742
1048.471 .0256594
1049.052 .0256438
1049.632 .0256277
1050.211 .0256111
1050.791 .0255939
1051.371 .0255764
1051.950 .0255585
1052.530 .0255403
1053.109 .0255220
1053.688 .0255035
1054.268 .0254850
1054.847 .0254663
1055.426 .0254476
1056.005 .0254288
1056.583 .0254100
1057.162 .0253911
1057.741 .0253723
1058.319 .0253537
1058.898 .0253351
1059.476 .0253168
1060.055 .0252986
1060.633 .0252807
1061.211 .0252631
1061.790 .0252456
1062.368 .0252285
1062.946 .0252115
1063.524 .0251948
1064.102 .0251783
1064.680 .0251621
1065.258 .0251461
1065.836 .0251305
1066.414 .0251153
1066.992 .0251005
1067.570 .0250862
1068.148 .0250724
1068.726 .0250590
1069.304 .0250462
1069.882 .0250338
1070.460 .0250217
1071.038 .0250099
1071.616 .0249983
1072.194 .0249869
1072.772 .0249757
1073.350 .0249646
1073.928 .0249538
1074.506 .0249432
1075.084 .0249328
1075.662 .0249226
1076.240 .0249126
1076.819 .0249028
1077.397 .0248930
1077.976 .0248833
1078.554 .0248737
1079.133 .0248644
1079.711 .0248554
1080.290 .0248470
1080.869 .0248393
1081.448 .0248322
1082.027 .0248259
1082.606 .0248201
1083.185 .0248148
1083.764 .0248099
1084.343 .0248052
1084.923 .0248008
1085.502 .0247966
1086.082 .0247927
1086.662 .0247893
1087.242 .0247864
1087.822 .0247843
1088.402 .0247828
1088.983 .0247819
1089.563 .0247816
1090.144 .0247817
1090.725 .0247820
1091.306 .0247827
1091.887 .0247835
1092.469 .0247847
1093.050 .0247863
1093.632 .0247884
1094.214 .0247912
1094.796 .0247949
1095.379 .0247994
1095.961 .0248047
1096.544 .0248107
1097.127 .0248174
1097.710 .0248246
1098.294 .0248324
1098.877 .0248407
1099.461 .0248497
1100.046 .0248594
1100.630 .0248700
1101.215 .0248815
1101.800 .0248942
1102.385 .0249081
1102.970 .0249230
1103.556 .0249389
1104.142 .0249557
1104.728 .0249733
1105.315 .0249914
1105.902 .0250101
1106.489 .0250292
1107.077 .0250488
1107.664 .0250691
1108.253 .0250902
1108.841 .0251122
1109.430 .0251356
1110.019 .0251603
1110.609 .0251864
1111.198 .0252140
1111.789 .0252431
1112.379 .0252735
1112.970 .0253055
1113.561 .0253389
1114.153 .0253739
1114.745 .0254107
1115.338 .0254497
1115.931 .0254910
1116.524 .0255350
1117.117 .0255817
1117.712 .0256309
1118.306 .0256825
1118.901 .0257359
1119.496 .0257909
1120.092 .0258472
1120.689 .0259048
1121.285 .0259636
1121.882 .0260237
1122.480 .0260852
1123.078 .0261481
1123.677 .0262125
1124.276 .0262784
1124.875 .0263452
1125.476 .0264130
1126.076 .0264814
1126.677 .0265502
1127.279 .0266195
1127.881 .0266895
1128.484 .0267607
1129.087 .0267975
1129.691 .0268709
1130.295 .0269458
1130.900 .0270225
1131.505 .0271013
1132.111 .0271824
1132.718 .0272662
1133.325 .0273531
1133.933 .0274436
1134.541 .0275353
1135.150 .0276345
1135.760 .0277443
1136.370 .0278590
1136.981 .0277373
1137.592 .0278357
1138.204 .0279375
1138.817 .0280479
1139.431 .0281695
1140.045 .0283050
1140.660 .0284580
1141.275 .0286346
1141.891 .0288262
1142.508 .0289579
1143.126 .0292630
1143.744 .0296531
1144.363 .0298756
1144.983 .0299174
