Measurement Sequence started on: 15-12-46-377
Integration time: 28
Scans to Average: 2 
>>>>>Begin Spectral Data<<<<<
432.689 .0000100
433.621 .0000100
434.552 .0000100
435.482 .0000100
436.410 .0000100
437.337 .0000100
438.262 .0284529
439.187 .0603124
440.110 .0999618
441.031 .1447168
441.952 .1161064
442.871 .1212291
443.789 .1259904
444.705 .1304671
445.621 .1347124
446.535 .1387655
447.447 .1411571
448.359 .1417289
449.269 .1400900
450.178 .1359842
451.086 .1294899
451.993 .1211012
452.898 .1116401
453.803 .1020403
454.706 .0930987
455.608 .0853122
456.508 .0788515
457.408 .0744509
458.306 .0710552
459.204 .0682836
460.100 .0659433
460.995 .0639251
461.888 .0621549
462.781 .0605827
463.673 .0591726
464.563 .0578999
465.452 .0567463
466.340 .0556961
467.228 .0547400
468.114 .0538690
468.999 .0530761
469.882 .0523550
470.765 .0517001
471.647 .0511061
472.528 .0505686
473.407 .0500833
474.286 .0496465
475.163 .0492553
476.040 .0489069
476.915 .0485984
477.790 .0483277
478.663 .0480929
479.535 .0478917
480.407 .0477216
481.277 .0475802
482.147 .0474641
483.015 .0473703
483.883 .0472959
484.749 .0472383
485.615 .0471962
486.479 .0471683
487.343 .0471543
488.206 .0471546
489.067 .0471697
489.928 .0472004
490.788 .0472477
491.647 .0473129
492.505 .0473966
493.362 .0474996
494.218 .0476221
495.073 .0477649
495.928 .0480589
496.781 .0482590
497.634 .0484829
498.486 .0487324
499.337 .0490091
500.187 .0493151
501.036 .0496528
501.884 .0500241
502.731 .0504321
503.578 .0508790
504.424 .0511841
505.268 .0516988
506.113 .0522607
506.956 .0528746
507.798 .0535470
508.640 .0542859
509.480 .0551017
510.320 .0560070
511.160 .0570163
511.998 .0581450
512.836 .0594120
513.672 .0608366
514.508 .0624406
515.344 .0642467
516.178 .0662770
517.012 .0685570
517.845 .0711100
518.677 .0739566
519.508 .0771121
520.339 .0805838
521.169 .0843690
521.998 .0884380
522.826 .0927488
523.654 .0972418
524.481 .1018435
525.307 .1064729
526.133 .1110398
526.958 .1154503
527.782 .1196139
528.605 .1234468
529.428 .1268754
530.250 .1298346
531.072 .1322775
531.892 .1341668
532.712 .1354785
533.532 .1362012
534.350 .1363297
535.168 .1358678
535.986 .1348264
536.802 .1332156
537.618 .1310492
538.434 .1283472
539.249 .1251559
540.063 .1215312
540.876 .1175417
541.689 .1132675
542.501 .1087932
543.313 .1042079
544.124 .0996011
544.934 .0950565
545.744 .0906489
546.553 .0864420
547.361 .0824870
548.169 .0788147
548.976 .0754452
549.783 .0723821
550.589 .0696164
551.395 .0671288
552.200 .0648920
553.004 .0628740
553.808 .0610469
554.611 .0593877
555.414 .0578760
556.216 .0564929
557.018 .0552203
557.819 .0540456
558.619 .0529565
559.419 .0519424
560.218 .0509959
561.017 .0501097
561.815 .0492781
562.613 .0484948
563.410 .0477538
564.207 .0470494
565.003 .0463767
565.799 .0457311
566.594 .0451085
567.388 .0445061
568.182 .0439217
568.976 .0433536
569.769 .0428014
570.562 .0422651
571.354 .0417450
572.145 .0412416
572.936 .0407552
573.727 .0402861
574.517 .0398342
575.307 .0393996
576.096 .0389823
576.885 .0385821
577.673 .0381992
578.461 .0378334
579.248 .0374849
580.035 .0371537
580.821 .0368399
581.607 .0365436
582.392 .0362647
583.177 .0360032
583.962 .0357591
584.746 .0355323
585.529 .0353221
586.313 .0351278
587.095 .0349484
587.878 .0347829
588.660 .0346300
589.441 .0344884
590.222 .0343571
591.003 .0342351
591.783 .0341215
592.563 .0340156
593.342 .0339165
594.121 .0338238
594.899 .0337368
595.678 .0336547
596.455 .0335770
597.233 .0335029
598.009 .0334321
598.786 .0333641
599.562 .0332984
600.338 .0332348
601.113 .0331730
601.888 .0330876
602.663 .0330306
603.437 .0329756
604.211 .0329226
604.984 .0328719
605.757 .0328232
606.530 .0327768
607.302 .0327324
608.074 .0326901
608.845 .0326497
609.616 .0326110
610.387 .0325953
611.158 .0325588
611.928 .0325238
612.697 .0324903
613.467 .0324584
614.236 .0324279
615.004 .0323986
615.773 .0323706
616.541 .0323435
617.308 .0323173
618.076 .0322917
618.843 .0322667
619.609 .0322422
620.375 .0322180
621.141 .0321940
621.907 .0321701
622.672 .0321463
623.437 .0321224
624.202 .0320983
624.966 .0320739
625.730 .0320492
626.493 .0320241
627.257 .0319985
628.020 .0319727
628.782 .0319464
629.545 .0319197
630.307 .0318926
631.068 .0318652
631.830 .0318373
632.591 .0318090
633.352 .0317803
634.112 .0317513
634.872 .0317220
635.632 .0316925
636.392 .0316628
637.151 .0316330
637.910 .0316031
638.668 .0315734
639.427 .0315437
640.185 .0315142
640.943 .0314850
641.700 .0314562
642.457 .0314279
643.214 .0314001
643.971 .0313730
644.727 .0313464
645.483 .0313203
646.239 .0312947
646.994 .0312695
647.750 .0312446
648.505 .0312200
649.259 .0311956
650.014 .0311715
650.768 .0311477
651.521 .0311241
652.275 .0311007
653.028 .0310777
653.781 .0310549
654.534 .0310322
655.286 .0310096
656.039 .0309871
656.791 .0309646
657.542 .0309422
658.294 .0309198
659.045 .0308974
659.796 .0308752
660.546 .0308531
661.297 .0308311
662.047 .0308093
662.796 .0307877
663.546 .0307662
664.295 .0307448
665.044 .0307235
665.793 .0307025
666.542 .0306816
667.290 .0306610
668.038 .0306408
668.786 .0306209
669.533 .0306012
670.281 .0305819
671.028 .0305628
671.774 .0305438
672.521 .0305250
673.267 .0305063
674.013 .0304878
674.759 .0304694
675.505 .0304510
676.250 .0304328
676.995 .0304146
677.740 .0303963
678.484 .0303781
679.229 .0303598
679.973 .0303413
680.717 .0303227
681.460 .0303039
682.204 .0302848
682.947 .0302654
683.690 .0302457
684.433 .0302256
685.175 .0302051
685.917 .0301841
686.659 .0301627
687.401 .0301409
688.142 .0301188
688.884 .0300964
689.625 .0300737
690.365 .0300508
691.106 .0300277
691.846 .0300043
692.586 .0299807
693.326 .0299568
694.066 .0299326
694.805 .0299084
695.545 .0298842
696.284 .0298600
697.022 .0298361
697.761 .0298124
698.499 .0297892
699.237 .0297663
699.975 .0297439
700.713 .0297219
701.450 .0297003
702.187 .0296792
702.924 .0296585
703.661 .0296383
704.397 .0296185
705.133 .0295991
705.869 .0295801
706.605 .0295614
707.341 .0295430
708.076 .0295249
708.811 .0295072
709.546 .0294897
710.281 .0294725
711.015 .0294556
711.749 .0294391
712.483 .0294227
713.217 .0294065
713.950 .0293902
714.684 .0293738
715.417 .0293572
716.150 .0293403
716.882 .0293232
717.615 .0293057
718.347 .0292881
719.079 .0292702
719.811 .0292523
720.542 .0292342
721.273 .0292159
722.005 .0291974
722.735 .0291787
723.466 .0291598
724.196 .0291407
724.927 .0291214
725.656 .0291021
726.386 .0290827
727.116 .0290633
727.845 .0290440
728.574 .0290249
729.303 .0290059
730.031 .0289873
730.760 .0289690
731.488 .0289513
732.216 .0289340
732.944 .0289173
733.671 .0289012
734.398 .0288856
735.125 .0288704
735.852 .0288556
736.579 .0288412
737.305 .0288271
738.031 .0288133
738.757 .0288000
739.483 .0287871
740.208 .0287747
740.933 .0287628
741.658 .0287512
742.383 .0287399
743.108 .0287288
743.832 .0287178
744.556 .0287068
745.280 .0286957
746.004 .0286844
746.727 .0286730
747.450 .0286614
748.173 .0286498
748.896 .0286381
749.618 .0286264
750.340 .0286146
751.062 .0286029
751.784 .0285911
752.506 .0285795
753.227 .0285678
753.948 .0285563
754.669 .0285448
755.389 .0285334
756.110 .0285219
756.830 .0285105
757.550 .0284990
758.269 .0284875
758.989 .0284761
759.708 .0284646
760.427 .0284532
761.146 .0284418
761.864 .0284304
762.582 .0284190
763.300 .0284076
764.018 .0283960
764.736 .0283842
765.453 .0283722
766.170 .0283600
766.887 .0283475
767.603 .0283348
768.320 .0283220
769.036 .0283091
769.751 .0282961
770.467 .0282833
771.182 .0282706
771.897 .0282580
772.612 .0282457
773.327 .0282338
774.041 .0282221
774.755 .0282109
775.469 .0282003
776.183 .0281902
776.896 .0281808
777.609 .0281721
778.322 .0281641
779.035 .0281567
779.747 .0281501
780.459 .0281440
781.171 .0281385
781.882 .0281335
782.594 .0281289
783.305 .0281246
784.016 .0281206
784.726 .0281167
785.436 .0281128
786.147 .0281060
786.856 .0281013
787.566 .0280962
788.275 .0280906
788.984 .0280844
789.693 .0280777
790.401 .0280704
791.110 .0280624
791.818 .0280538
792.525 .0280445
793.233 .0280345
793.940 .0280238
794.647 .0280168
795.353 .0280055
796.060 .0279937
796.766 .0279816
797.472 .0279691
798.177 .0279564
798.883 .0279435
799.588 .0279305
800.292 .0279174
800.997 .0279042
801.701 .0278908
802.405 .0278773
803.109 .0278638
803.812 .0278502
804.515 .0278367
805.218 .0278233
805.921 .0278100
806.623 .0277967
807.325 .0277836
808.027 .0277704
808.728 .0277572
809.429 .0277439
810.130 .0277305
810.831 .0277170
811.531 .0277033
812.231 .0276894
812.931 .0276754
813.630 .0276613
814.330 .0276471
815.029 .0276328
815.727 .0276184
816.426 .0276040
817.124 .0275896
817.821 .0275751
818.519 .0275607
819.216 .0275464
819.913 .0275322
820.609 .0275182
821.306 .0275043
822.002 .0274907
822.697 .0274773
823.393 .0274642
824.088 .0274514
824.783 .0274389
825.477 .0274267
826.171 .0274148
826.865 .0274032
827.559 .0273919
828.252 .0273807
828.945 .0273698
829.638 .0273590
830.330 .0273482
831.023 .0273375
831.714 .0273268
832.406 .0273161
833.097 .0273053
833.788 .0272946
834.479 .0272837
835.169 .0272729
835.859 .0272621
836.548 .0272514
837.238 .0272407
837.927 .0272302
838.615 .0272197
839.304 .0272092
839.992 .0271987
840.680 .0271882
841.367 .0271776
842.054 .0271669
842.741 .0271561
843.428 .0271451
844.114 .0271341
844.800 .0271231
845.485 .0271119
846.170 .0271007
846.855 .0270895
847.540 .0270781
848.224 .0270665
848.908 .0270547
849.592 .0270427
850.275 .0270305
850.958 .0270180
851.641 .0270054
852.323 .0269926
853.005 .0269797
853.687 .0269666
854.368 .0269535
855.049 .0269403
855.730 .0269271
856.410 .0269137
857.090 .0269002
857.769 .0268866
858.449 .0268730
859.128 .0268593
859.806 .0268456
860.485 .0268318
861.163 .0268181
861.840 .0268045
862.518 .0267909
863.195 .0267775
863.871 .0267643
864.548 .0267514
865.224 .0267388
865.899 .0267266
866.574 .0267147
867.249 .0267033
867.924 .0266921
868.598 .0266813
869.272 .0266708
869.946 .0266606
870.619 .0266506
871.292 .0266410
871.964 .0266317
872.636 .0266227
873.308 .0266142
873.979 .0266060
874.651 .0265983
875.321 .0265909
875.992 .0265840
876.662 .0265776
877.331 .0265715
878.001 .0265659
878.670 .0265608
879.338 .0265561
880.007 .0265517
880.675 .0265478
881.342 .0265441
882.009 .0265408
882.676 .0265377
883.343 .0265349
884.009 .0265323
884.675 .0265301
885.340 .0265281
886.005 .0265264
886.670 .0265250
887.334 .0265238
887.998 .0265229
888.662 .0265221
889.325 .0265215
889.988 .0265210
890.650 .0265207
891.312 .0265205
891.974 .0265205
892.636 .0265206
893.297 .0265208
893.957 .0265211
894.618 .0265214
895.278 .0265215
895.937 .0265216
896.596 .0265214
897.255 .0265209
897.914 .0265201
898.572 .0265189
899.230 .0265173
899.887 .0265151
900.544 .0265125
901.201 .0265092
901.857 .0265012
902.513 .0264963
903.168 .0264908
903.823 .0264846
904.478 .0264778
905.132 .0264703
905.786 .0264622
906.440 .0264534
907.093 .0264441
907.746 .0264342
908.399 .0264238
909.051 .0264130
909.703 .0264019
910.354 .0263958
911.005 .0263845
911.656 .0263731
912.306 .0263616
912.956 .0263501
913.605 .0263385
914.254 .0263270
914.903 .0263156
915.551 .0263044
916.199 .0262933
916.847 .0262823
917.494 .0262715
918.141 .0262608
918.788 .0262502
919.434 .0262395
920.079 .0262288
920.725 .0262179
921.370 .0262069
922.014 .0261956
922.658 .0261842
923.302 .0261724
923.946 .0261605
924.589 .0261482
925.231 .0261357
925.873 .0261229
926.515 .0261099
927.157 .0260966
927.798 .0260830
928.439 .0260693
929.079 .0260554
929.719 .0260414
930.359 .0260273
930.998 .0260132
931.637 .0259990
932.275 .0259848
932.913 .0259707
933.551 .0259566
934.188 .0259427
934.825 .0259290
935.462 .0259155
936.098 .0259022
936.733 .0258892
937.369 .0258765
938.004 .0258641
938.638 .0258520
939.273 .0258402
939.907 .0258287
940.540 .0258175
941.173 .0258066
941.806 .0257960
942.438 .0257856
943.070 .0257753
943.702 .0257652
944.333 .0257552
944.964 .0257452
945.594 .0257352
946.224 .0257251
946.854 .0257150
947.483 .0257047
948.112 .0256942
948.741 .0256835
949.369 .0256726
949.996 .0256614
950.624 .0256499
951.251 .0256380
951.878 .0256259
952.504 .0256133
953.130 .0256004
953.755 .0255872
954.380 .0255737
955.005 .0255599
955.629 .0255460
956.253 .0255318
956.877 .0255176
957.500 .0255032
958.123 .0254888
958.746 .0254744
959.368 .0254599
959.990 .0254455
960.611 .0254312
961.232 .0254170
961.853 .0254029
962.473 .0253890
963.093 .0253753
963.712 .0253617
964.331 .0253483
964.950 .0253349
965.569 .0253215
966.187 .0253081
966.804 .0252947
967.422 .0252813
968.039 .0252678
968.655 .0252544
969.272 .0252411
969.887 .0252279
970.503 .0252148
971.118 .0252020
971.733 .0251892
972.347 .0251765
972.961 .0251638
973.575 .0251510
974.188 .0251382
974.801 .0251252
975.414 .0251120
976.026 .0250987
976.638 .0250852
977.250 .0250714
977.861 .0250572
978.472 .0250427
979.083 .0250277
979.693 .0250121
980.303 .0249961
980.912 .0249703
981.521 .0249532
982.130 .0249358
982.738 .0249183
983.346 .0249008
983.954 .0248833
984.562 .0248660
985.169 .0248489
985.775 .0248320
986.382 .0248153
986.988 .0247989
987.594 .0247828
988.199 .0247671
988.804 .0247518
989.409 .0247459
990.013 .0247317
990.617 .0247180
991.221 .0247050
991.824 .0246925
992.427 .0246806
993.030 .0246692
993.632 .0246583
994.234 .0246477
994.836 .0246375
995.438 .0246277
996.039 .0246183
996.640 .0246093
997.240 .0246009
997.840 .0245929
998.440 .0245856
999.040 .0245787
999.639 .0245724
1000.238 .0245665
1000.836 .0245610
1001.435 .0245558
1002.033 .0245508
1002.630 .0245461
1003.228 .0245415
1003.825 .0245371
1004.422 .0245329
1005.018 .0245289
1005.614 .0245250
1006.210 .0245212
1006.806 .0245174
1007.401 .0245137
1007.996 .0245098
1008.591 .0245060
1009.186 .0245020
1009.780 .0244980
1010.374 .0244941
1010.967 .0244902
1011.561 .0244865
1012.154 .0244830
1012.746 .0244799
1013.339 .0244772
1013.931 .0244749
1014.523 .0244731
1015.115 .0244719
1015.706 .0244712
1016.298 .0244711
1016.888 .0244717
1017.479 .0244728
1018.069 .0244746
1018.660 .0244770
1019.250 .0244799
1019.839 .0244834
1020.429 .0244873
1021.018 .0244916
1021.607 .0244962
1022.195 .0245012
1022.784 .0245064
1023.372 .0245119
1023.960 .0245176
1024.547 .0245235
1025.135 .0245297
1025.722 .0245361
1026.309 .0245428
1026.896 .0245496
1027.483 .0245567
1028.069 .0245639
1028.655 .0245713
1029.241 .0245787
1029.827 .0245862
1030.412 .0245936
1030.997 .0246010
1031.582 .0246082
1032.167 .0246153
1032.752 .0246223
1033.336 .0246291
1033.921 .0246358
1034.505 .0246422
1035.089 .0246485
1035.672 .0246546
1036.256 .0246604
1036.839 .0246660
1037.422 .0246713
1038.005 .0246765
1038.588 .0246814
1039.171 .0246862
1039.753 .0246908
1040.335 .0246954
1040.918 .0247001
1041.500 .0247047
1042.081 .0247094
1042.663 .0247142
1043.244 .0247191
1043.826 .0247241
1044.407 .0247292
1044.988 .0247343
1045.569 .0247395
1046.150 .0247449
1046.730 .0247505
1047.311 .0247564
1047.891 .0247627
1048.471 .0247693
1049.052 .0247762
1049.632 .0247834
1050.211 .0247908
1050.791 .0247983
1051.371 .0248060
1051.950 .0248137
1052.530 .0248214
1053.109 .0248293
1053.688 .0248373
1054.268 .0248455
1054.847 .0248539
1055.426 .0248626
1056.005 .0248716
1056.583 .0248809
1057.162 .0248904
1057.741 .0249001
1058.319 .0249099
1058.898 .0249198
1059.476 .0249299
1060.055 .0249401
1060.633 .0249504
1061.211 .0249609
1061.790 .0249717
1062.368 .0249826
1062.946 .0249935
1063.524 .0250045
1064.102 .0250154
1064.680 .0250260
1065.258 .0250365
1065.836 .0250466
1066.414 .0250566
1066.992 .0250665
1067.570 .0250765
1068.148 .0250867
1068.726 .0250973
1069.304 .0251084
1069.882 .0251200
1070.460 .0251321
1071.038 .0251445
1071.616 .0251572
1072.194 .0251701
1072.772 .0251828
1073.350 .0251955
1073.928 .0252079
1074.506 .0252201
1075.084 .0252321
1075.662 .0252438
1076.240 .0252553
1076.819 .0252665
1077.397 .0252774
1077.976 .0252881
1078.554 .0252984
1079.133 .0253085
1079.711 .0253185
1080.290 .0253285
1080.869 .0253385
1081.448 .0253489
1082.027 .0253598
1082.606 .0253714
1083.185 .0253837
1083.764 .0253968
1084.343 .0254107
1084.923 .0254253
1085.502 .0254405
1086.082 .0254561
1086.662 .0254719
1087.242 .0254880
1087.822 .0255041
1088.402 .0255204
1088.983 .0255367
1089.563 .0255532
1090.144 .0255699
1090.725 .0255868
1091.306 .0256041
1091.887 .0256218
1092.469 .0256400
1093.050 .0256588
1093.632 .0256784
1094.214 .0256987
1094.796 .0257199
1095.379 .0257418
1095.961 .0257646
1096.544 .0257882
1097.127 .0258123
1097.710 .0258370
1098.294 .0258621
1098.877 .0258875
1099.461 .0259131
1100.046 .0259388
1100.630 .0259644
1101.215 .0259897
1101.800 .0260146
1102.385 .0260390
1102.970 .0260628
1103.556 .0260861
1104.142 .0261088
1104.728 .0261313
1105.315 .0261536
1105.902 .0261761
1106.489 .0261988
1107.077 .0262221
1107.664 .0262458
1108.253 .0262700
1108.841 .0262946
1109.430 .0263195
1110.019 .0263447
1110.609 .0263702
1111.198 .0263958
1111.789 .0264217
1112.379 .0264480
1112.970 .0264746
1113.561 .0265014
1114.153 .0265287
1114.745 .0265565
1115.338 .0265848
1115.931 .0266137
1116.524 .0266434
1117.117 .0266742
1117.712 .0267064
1118.306 .0267401
1118.901 .0267756
1119.496 .0268131
1120.092 .0268527
1120.689 .0268941
1121.285 .0269375
1121.882 .0269824
1122.480 .0270288
1123.078 .0270764
1123.677 .0271251
1124.276 .0271749
1124.875 .0272256
1125.476 .0272775
1126.076 .0273303
1126.677 .0273841
1127.279 .0274387
1127.881 .0274941
1128.484 .0275503
1129.087 .0275775
1129.691 .0276352
1130.295 .0276940
1130.900 .0277543
1131.505 .0278165
1132.111 .0278811
1132.718 .0279484
1133.325 .0280191
1133.933 .0280939
1134.541 .0281715
1135.150 .0282526
1135.760 .0283336
1136.370 .0284318
1136.981 .0283852
1137.592 .0284422
1138.204 .0285065
1138.817 .0285825
1139.431 .0286732
1140.045 .0287800
1140.660 .0288986
1141.275 .0290461
1141.891 .0292136
1142.508 .0293524
1143.126 .0295248
1143.744 .0295959
1144.363 .0301540
1144.983 .0304169
