Measurement Sequence started on: 15-12-46-377
Integration time: 28
Scans to Average: 2 
>>>>>Begin Spectral Data<<<<<
432.689 .0000100
433.621 .0000100
434.552 .0000100
435.482 .0000100
436.410 .0000100
437.337 .0000100
438.262 .0259712
439.187 .0549485
440.110 .0908753
441.031 .1313875
441.952 .1056216
442.871 .1104126
443.789 .1148867
444.705 .1191068
445.621 .1231187
446.535 .1269555
447.447 .1292770
448.359 .1299452
449.269 .1286101
450.178 .1250421
451.086 .1193145
451.993 .1118755
452.898 .1034681
453.803 .0949320
454.706 .0869805
455.608 .0800550
456.508 .0743016
457.408 .0703881
458.306 .0673507
459.204 .0648480
460.100 .0627162
460.995 .0608647
461.888 .0592332
462.781 .0577787
463.673 .0564699
464.563 .0552830
465.452 .0542003
466.340 .0532085
467.228 .0522989
468.114 .0514641
468.999 .0506992
469.882 .0499997
470.765 .0493611
471.647 .0487795
472.528 .0482511
473.407 .0477717
474.286 .0473379
475.163 .0469464
476.040 .0465946
476.915 .0462801
477.790 .0460013
478.663 .0457561
479.535 .0455430
480.407 .0453601
481.277 .0452052
482.147 .0450750
483.015 .0449671
483.883 .0448790
484.749 .0448091
485.615 .0447562
486.479 .0447195
487.343 .0446990
488.206 .0446949
489.067 .0447068
489.928 .0447346
490.788 .0447783
491.647 .0448380
492.505 .0449136
493.362 .0450057
494.218 .0451151
495.073 .0452432
495.928 .0455111
496.781 .0456955
497.634 .0459032
498.486 .0461352
499.337 .0463923
500.187 .0466753
501.036 .0469848
501.884 .0473225
502.731 .0476911
503.578 .0480937
504.424 .0483680
505.268 .0488336
506.113 .0493435
506.956 .0499019
507.798 .0505139
508.640 .0511846
509.480 .0519216
510.320 .0527330
511.160 .0536277
511.998 .0546180
512.836 .0557186
513.672 .0569466
514.508 .0583220
515.344 .0598653
516.178 .0615963
517.012 .0635359
517.845 .0657032
518.677 .0681149
519.508 .0707843
520.339 .0737191
521.169 .0769215
521.998 .0803730
522.826 .0840469
523.654 .0878970
524.481 .0918702
525.307 .0959013
526.133 .0999109
526.958 .1038149
527.782 .1075298
528.605 .1109788
529.428 .1140928
530.250 .1168097
531.072 .1190867
531.892 .1208871
532.712 .1221914
533.532 .1229879
534.350 .1232746
535.168 .1230579
535.986 .1223474
536.802 .1211513
537.618 .1194792
538.434 .1173408
539.249 .1147659
540.063 .1117916
540.876 .1084711
541.689 .1048630
542.501 .1010354
543.313 .0970695
544.124 .0930489
544.934 .0890532
545.744 .0851553
546.553 .0814153
547.361 .0778851
548.169 .0745931
548.976 .0715591
549.783 .0687848
550.589 .0662648
551.395 .0639822
552.200 .0619128
553.004 .0600307
553.808 .0583129
554.611 .0567391
555.414 .0552944
556.216 .0539640
557.018 .0527343
557.819 .0515941
558.619 .0505336
559.419 .0495450
560.218 .0486210
561.017 .0477542
561.815 .0469389
562.613 .0461694
563.410 .0454411
564.207 .0447487
565.003 .0440880
565.799 .0434554
566.594 .0428483
567.388 .0422649
568.182 .0417031
568.976 .0411615
569.769 .0406396
570.562 .0401374
571.354 .0396548
572.145 .0391916
572.936 .0387474
573.727 .0383217
574.517 .0379139
575.307 .0375239
576.096 .0371510
576.885 .0367950
577.673 .0364556
578.461 .0361331
579.248 .0358274
580.035 .0355384
580.821 .0352659
581.607 .0350098
582.392 .0347698
583.177 .0345453
583.962 .0343352
584.746 .0341390
585.529 .0339559
586.313 .0337849
587.095 .0336253
587.878 .0334764
588.660 .0333373
589.441 .0332076
590.222 .0330866
591.003 .0329738
591.783 .0328689
592.563 .0327713
593.342 .0326804
594.121 .0325958
594.899 .0325169
595.678 .0324432
596.455 .0323740
597.233 .0323086
598.009 .0322464
598.786 .0321865
599.562 .0321286
600.338 .0320722
601.113 .0320170
601.888 .0319376
602.663 .0318851
603.437 .0318340
604.211 .0317841
604.984 .0317355
605.757 .0316884
606.530 .0316426
607.302 .0315980
608.074 .0315547
608.845 .0315125
609.616 .0314715
610.387 .0314544
611.158 .0314156
611.928 .0313781
612.697 .0313422
613.467 .0313079
614.236 .0312753
615.004 .0312443
615.773 .0312149
616.541 .0311869
617.308 .0311603
618.076 .0311349
618.843 .0311105
619.609 .0310871
620.375 .0310646
621.141 .0310428
621.907 .0310216
622.672 .0310010
623.437 .0309809
624.202 .0309611
624.966 .0309417
625.730 .0309225
626.493 .0309034
627.257 .0308844
628.020 .0308653
628.782 .0308461
629.545 .0308267
630.307 .0308070
631.068 .0307870
631.830 .0307666
632.591 .0307461
633.352 .0307254
634.112 .0307049
634.872 .0306845
635.632 .0306643
636.392 .0306444
637.151 .0306247
637.910 .0306052
638.668 .0305858
639.427 .0305666
640.185 .0305474
640.943 .0305283
641.700 .0305095
642.457 .0304911
643.214 .0304731
643.971 .0304557
644.727 .0304389
645.483 .0304226
646.239 .0304067
646.994 .0303912
647.750 .0303759
648.505 .0303607
649.259 .0303454
650.014 .0303300
650.768 .0303145
651.521 .0302988
652.275 .0302827
653.028 .0302663
653.781 .0302495
654.534 .0302322
655.286 .0302142
656.039 .0301956
656.791 .0301762
657.542 .0301560
658.294 .0301349
659.045 .0301129
659.796 .0300900
660.546 .0300661
661.297 .0300413
662.047 .0300157
662.796 .0299893
663.546 .0299623
664.295 .0299347
665.044 .0299068
665.793 .0298787
666.542 .0298505
667.290 .0298222
668.038 .0297941
668.786 .0297661
669.533 .0297384
670.281 .0297110
671.028 .0296840
671.774 .0296575
672.521 .0296315
673.267 .0296063
674.013 .0295817
674.759 .0295579
675.505 .0295349
676.250 .0295126
676.995 .0294910
677.740 .0294701
678.484 .0294497
679.229 .0294298
679.973 .0294103
680.717 .0293912
681.460 .0293725
682.204 .0293541
682.947 .0293360
683.690 .0293180
684.433 .0293002
685.175 .0292825
685.917 .0292648
686.659 .0292472
687.401 .0292297
688.142 .0292123
688.884 .0291950
689.625 .0291778
690.365 .0291608
691.106 .0291441
691.846 .0291276
692.586 .0291114
693.326 .0290956
694.066 .0290802
694.805 .0290652
695.545 .0290507
696.284 .0290367
697.022 .0290231
697.761 .0290101
698.499 .0289976
699.237 .0289856
699.975 .0289741
700.713 .0289631
701.450 .0289526
702.187 .0289425
702.924 .0289329
703.661 .0289238
704.397 .0289150
705.133 .0289065
705.869 .0288984
706.605 .0288903
707.341 .0288824
708.076 .0288745
708.811 .0288666
709.546 .0288586
710.281 .0288505
711.015 .0288422
711.749 .0288339
712.483 .0288253
713.217 .0288166
713.950 .0288076
714.684 .0287984
715.417 .0287887
716.150 .0287787
716.882 .0287682
717.615 .0287573
718.347 .0287459
719.079 .0287341
719.811 .0287218
720.542 .0287092
721.273 .0286961
722.005 .0286827
722.735 .0286690
723.466 .0286550
724.196 .0286407
724.927 .0286262
725.656 .0286115
726.386 .0285967
727.116 .0285817
727.845 .0285665
728.574 .0285513
729.303 .0285360
730.031 .0285206
730.760 .0285053
731.488 .0284901
732.216 .0284749
732.944 .0284598
733.671 .0284449
734.398 .0284300
735.125 .0284152
735.852 .0284004
736.579 .0283855
737.305 .0283707
738.031 .0283557
738.757 .0283406
739.483 .0283255
740.208 .0283103
740.933 .0282951
741.658 .0282798
742.383 .0282643
743.108 .0282487
743.832 .0282329
744.556 .0282168
745.280 .0282004
746.004 .0281836
746.727 .0281664
747.450 .0281488
748.173 .0281307
748.896 .0281122
749.618 .0280932
750.340 .0280737
751.062 .0280539
751.784 .0280338
752.506 .0280133
753.227 .0279927
753.948 .0279718
754.669 .0279508
755.389 .0279296
756.110 .0279083
756.830 .0278868
757.550 .0278652
758.269 .0278436
758.989 .0278219
759.708 .0278002
760.427 .0277786
761.146 .0277572
761.864 .0277360
762.582 .0277151
763.300 .0276946
764.018 .0276744
764.736 .0276547
765.453 .0276353
766.170 .0276163
766.887 .0275977
767.603 .0275796
768.320 .0275619
769.036 .0275447
769.751 .0275281
770.467 .0275121
771.182 .0274968
771.897 .0274823
772.612 .0274686
773.327 .0274557
774.041 .0274437
774.755 .0274325
775.469 .0274222
776.183 .0274128
776.896 .0274042
777.609 .0273965
778.322 .0273896
779.035 .0273835
779.747 .0273783
780.459 .0273739
781.171 .0273704
781.882 .0273677
782.594 .0273658
783.305 .0273648
784.016 .0273645
784.726 .0273649
785.436 .0273660
786.147 .0273693
786.856 .0273712
787.566 .0273734
788.275 .0273757
788.984 .0273782
789.693 .0273805
790.401 .0273829
791.110 .0273851
791.818 .0273872
792.525 .0273890
793.233 .0273906
793.940 .0273919
794.647 .0273914
795.353 .0273923
796.060 .0273929
796.766 .0273931
797.472 .0273930
798.177 .0273925
798.883 .0273916
799.588 .0273903
800.292 .0273886
800.997 .0273864
801.701 .0273838
802.405 .0273807
803.109 .0273771
803.812 .0273731
804.515 .0273687
805.218 .0273639
805.921 .0273586
806.623 .0273530
807.325 .0273469
808.027 .0273404
808.728 .0273336
809.429 .0273263
810.130 .0273187
810.831 .0273108
811.531 .0273025
812.231 .0272940
812.931 .0272853
813.630 .0272763
814.330 .0272672
815.029 .0272579
815.727 .0272484
816.426 .0272390
817.124 .0272294
817.821 .0272199
818.519 .0272105
819.216 .0272011
819.913 .0271918
820.609 .0271827
821.306 .0271738
822.002 .0271650
822.697 .0271564
823.393 .0271481
824.088 .0271401
824.783 .0271324
825.477 .0271250
826.171 .0271179
826.865 .0271109
827.559 .0271041
828.252 .0270974
828.945 .0270907
829.638 .0270838
830.330 .0270769
831.023 .0270698
831.714 .0270624
832.406 .0270547
833.097 .0270466
833.788 .0270381
834.479 .0270292
835.169 .0270198
835.859 .0270099
836.548 .0269995
837.238 .0269887
837.927 .0269774
838.615 .0269655
839.304 .0269532
839.992 .0269402
840.680 .0269267
841.367 .0269125
842.054 .0268977
842.741 .0268822
843.428 .0268663
844.114 .0268498
844.800 .0268328
845.485 .0268152
846.170 .0267972
846.855 .0267787
847.540 .0267596
848.224 .0267400
848.908 .0267199
849.592 .0266993
850.275 .0266783
850.958 .0266568
851.641 .0266349
852.323 .0266126
853.005 .0265900
853.687 .0265670
854.368 .0265437
855.049 .0265201
855.730 .0264963
856.410 .0264724
857.090 .0264484
857.769 .0264244
858.449 .0264004
859.128 .0263766
859.806 .0263530
860.485 .0263295
861.163 .0263063
861.840 .0262834
862.518 .0262609
863.195 .0262388
863.871 .0262173
864.548 .0261962
865.224 .0261757
865.899 .0261558
866.574 .0261364
867.249 .0261176
867.924 .0260993
868.598 .0260816
869.272 .0260644
869.946 .0260477
870.619 .0260316
871.292 .0260160
871.964 .0260008
872.636 .0259861
873.308 .0259719
873.979 .0259583
874.651 .0259451
875.321 .0259325
875.992 .0259206
876.662 .0259093
877.331 .0258986
878.001 .0258886
878.670 .0258792
879.338 .0258703
880.007 .0258619
880.675 .0258542
881.342 .0258471
882.009 .0258406
882.676 .0258349
883.343 .0258300
884.009 .0258259
884.675 .0258228
885.340 .0258205
886.005 .0258191
886.670 .0258186
887.334 .0258188
887.998 .0258198
888.662 .0258216
889.325 .0258241
889.988 .0258273
890.650 .0258311
891.312 .0258355
891.974 .0258404
892.636 .0258456
893.297 .0258510
893.957 .0258566
894.618 .0258623
895.278 .0258680
895.937 .0258737
896.596 .0258792
897.255 .0258846
897.914 .0258897
898.572 .0258944
899.230 .0258988
899.887 .0259026
900.544 .0259059
901.201 .0259087
901.857 .0259103
902.513 .0259117
903.168 .0259125
903.823 .0259128
904.478 .0259126
905.132 .0259120
905.786 .0259108
906.440 .0259092
907.093 .0259073
907.746 .0259050
908.399 .0259024
909.051 .0258996
909.703 .0258966
910.354 .0258950
911.005 .0258920
911.656 .0258888
912.306 .0258855
912.956 .0258822
913.605 .0258789
914.254 .0258755
914.903 .0258721
915.551 .0258687
916.199 .0258651
916.847 .0258613
917.494 .0258573
918.141 .0258530
918.788 .0258483
919.434 .0258432
920.079 .0258377
920.725 .0258317
921.370 .0258253
922.014 .0258186
922.658 .0258114
923.302 .0258038
923.946 .0257959
924.589 .0257875
925.231 .0257787
925.873 .0257696
926.515 .0257600
927.157 .0257501
927.798 .0257399
928.439 .0257295
929.079 .0257190
929.719 .0257084
930.359 .0256978
930.998 .0256872
931.637 .0256766
932.275 .0256659
932.913 .0256554
933.551 .0256449
934.188 .0256347
934.825 .0256248
935.462 .0256153
936.098 .0256063
936.733 .0255978
937.369 .0255898
938.004 .0255823
938.638 .0255753
939.273 .0255687
939.907 .0255625
940.540 .0255566
941.173 .0255510
941.806 .0255456
942.438 .0255404
943.070 .0255353
943.702 .0255302
944.333 .0255250
944.964 .0255197
945.594 .0255142
946.224 .0255083
946.854 .0255021
947.483 .0254955
948.112 .0254884
948.741 .0254810
949.369 .0254732
949.996 .0254649
950.624 .0254561
951.251 .0254468
951.878 .0254371
952.504 .0254267
953.130 .0254158
953.755 .0254042
954.380 .0253922
955.005 .0253796
955.629 .0253665
956.253 .0253529
956.877 .0253388
957.500 .0253242
958.123 .0253091
958.746 .0252934
959.368 .0252773
959.990 .0252608
960.611 .0252441
961.232 .0252271
961.853 .0252100
962.473 .0251930
963.093 .0251760
963.712 .0251591
964.331 .0251423
964.950 .0251256
965.569 .0251090
966.187 .0250924
966.804 .0250759
967.422 .0250595
968.039 .0250432
968.655 .0250270
969.272 .0250109
969.887 .0249949
970.503 .0249789
971.118 .0249629
971.733 .0249468
972.347 .0249306
972.961 .0249142
973.575 .0248977
974.188 .0248810
974.801 .0248641
975.414 .0248470
976.026 .0248296
976.638 .0248119
977.250 .0247936
977.861 .0247750
978.472 .0247557
979.083 .0247359
979.693 .0247156
980.303 .0246947
980.912 .0246612
981.521 .0246395
982.130 .0246175
982.738 .0245954
983.346 .0245731
983.954 .0245508
984.562 .0245285
985.169 .0245063
985.775 .0244842
986.382 .0244624
986.988 .0244410
987.594 .0244201
988.199 .0243997
988.804 .0243800
989.409 .0243727
990.013 .0243542
990.617 .0243363
991.221 .0243191
991.824 .0243026
992.427 .0242868
993.030 .0242716
993.632 .0242573
994.234 .0242437
994.836 .0242308
995.438 .0242188
996.039 .0242075
996.640 .0241970
997.240 .0241871
997.840 .0241779
998.440 .0241693
999.040 .0241613
999.639 .0241538
1000.238 .0241467
1000.836 .0241402
1001.435 .0241341
1002.033 .0241284
1002.630 .0241231
1003.228 .0241180
1003.825 .0241131
1004.422 .0241084
1005.018 .0241038
1005.614 .0240993
1006.210 .0240950
1006.806 .0240908
1007.401 .0240867
1007.996 .0240830
1008.591 .0240796
1009.186 .0240767
1009.780 .0240742
1010.374 .0240722
1010.967 .0240708
1011.561 .0240698
1012.154 .0240693
1012.746 .0240694
1013.339 .0240699
1013.931 .0240709
1014.523 .0240725
1015.115 .0240745
1015.706 .0240771
1016.298 .0240803
1016.888 .0240840
1017.479 .0240882
1018.069 .0240929
1018.660 .0240979
1019.250 .0241034
1019.839 .0241091
1020.429 .0241152
1021.018 .0241216
1021.607 .0241283
1022.195 .0241354
1022.784 .0241429
1023.372 .0241508
1023.960 .0241592
1024.547 .0241680
1025.135 .0241773
1025.722 .0241870
1026.309 .0241971
1026.896 .0242075
1027.483 .0242182
1028.069 .0242292
1028.655 .0242405
1029.241 .0242521
1029.827 .0242640
1030.412 .0242763
1030.997 .0242890
1031.582 .0243022
1032.167 .0243158
1032.752 .0243297
1033.336 .0243439
1033.921 .0243583
1034.505 .0243729
1035.089 .0243875
1035.672 .0244023
1036.256 .0244172
1036.839 .0244323
1037.422 .0244476
1038.005 .0244631
1038.588 .0244786
1039.171 .0244942
1039.753 .0245096
1040.335 .0245248
1040.918 .0245395
1041.500 .0245538
1042.081 .0245677
1042.663 .0245813
1043.244 .0245945
1043.826 .0246076
1044.407 .0246205
1044.988 .0246334
1045.569 .0246461
1046.150 .0246588
1046.730 .0246712
1047.311 .0246833
1047.891 .0246950
1048.471 .0247064
1049.052 .0247176
1049.632 .0247284
1050.211 .0247391
1050.791 .0247496
1051.371 .0247601
1051.950 .0247704
1052.530 .0247806
1053.109 .0247906
1053.688 .0248004
1054.268 .0248098
1054.847 .0248190
1055.426 .0248280
1056.005 .0248369
1056.583 .0248457
1057.162 .0248546
1057.741 .0248635
1058.319 .0248727
1058.898 .0248819
1059.476 .0248913
1060.055 .0249007
1060.633 .0249101
1061.211 .0249195
1061.790 .0249290
1062.368 .0249385
1062.946 .0249482
1063.524 .0249580
1064.102 .0249680
1064.680 .0249781
1065.258 .0249883
1065.836 .0249985
1066.414 .0250087
1066.992 .0250191
1067.570 .0250296
1068.148 .0250403
1068.726 .0250513
1069.304 .0250627
1069.882 .0250746
1070.460 .0250869
1071.038 .0250998
1071.616 .0251131
1072.194 .0251267
1072.772 .0251407
1073.350 .0251549
1073.928 .0251693
1074.506 .0251839
1075.084 .0251985
1075.662 .0252133
1076.240 .0252281
1076.819 .0252430
1077.397 .0252579
1077.976 .0252729
1078.554 .0252877
1079.133 .0253025
1079.711 .0253170
1080.290 .0253313
1080.869 .0253453
1081.448 .0253590
1082.027 .0253723
1082.606 .0253850
1083.185 .0253973
1083.764 .0254090
1084.343 .0254202
1084.923 .0254308
1085.502 .0254411
1086.082 .0254509
1086.662 .0254603
1087.242 .0254695
1087.822 .0254784
1088.402 .0254871
1088.983 .0254956
1089.563 .0255040
1090.144 .0255124
1090.725 .0255209
1091.306 .0255297
1091.887 .0255389
1092.469 .0255487
1093.050 .0255594
1093.632 .0255710
1094.214 .0255835
1094.796 .0255970
1095.379 .0256115
1095.961 .0256267
1096.544 .0256429
1097.127 .0256598
1097.710 .0256776
1098.294 .0256963
1098.877 .0257159
1099.461 .0257364
1100.046 .0257578
1100.630 .0257801
1101.215 .0258030
1101.800 .0258265
1102.385 .0258502
1102.970 .0258740
1103.556 .0258977
1104.142 .0259212
1104.728 .0259445
1105.315 .0259676
1105.902 .0259907
1106.489 .0260139
1107.077 .0260375
1107.664 .0260615
1108.253 .0260859
1108.841 .0261109
1109.430 .0261364
1110.019 .0261622
1110.609 .0261884
1111.198 .0262151
1111.789 .0262423
1112.379 .0262702
1112.970 .0262992
1113.561 .0263292
1114.153 .0263607
1114.745 .0263936
1115.338 .0264280
1115.931 .0264639
1116.524 .0265013
1117.117 .0265401
1117.712 .0265801
1118.306 .0266214
1118.901 .0266639
1119.496 .0267075
1120.092 .0267525
1120.689 .0267988
1121.285 .0268464
1121.882 .0268954
1122.480 .0269457
1123.078 .0269971
1123.677 .0270495
1124.276 .0271028
1124.875 .0271569
1125.476 .0272119
1126.076 .0272677
1126.677 .0273240
1127.279 .0273808
1127.881 .0274381
1128.484 .0274958
1129.087 .0275260
1129.691 .0275838
1130.295 .0276415
1130.900 .0276991
1131.505 .0277570
1132.111 .0278153
1132.718 .0278739
1133.325 .0279334
1133.933 .0279933
1134.541 .0280586
1135.150 .0281268
1135.760 .0281803
1136.370 .0282512
1136.981 .0282633
1137.592 .0283258
1138.204 .0283901
1138.817 .0284590
1139.431 .0285367
1140.045 .0286239
1140.660 .0287066
1141.275 .0288057
1141.891 .0288842
1142.508 .0291054
1143.126 .0292462
1143.744 .0288948
1144.363 .0294300
1144.983 .0288349
