Measurement Sequence started on: 15-12-46-377
Integration time: 28
Scans to Average: 2 
>>>>>Begin Spectral Data<<<<<
432.689 .0000100
433.621 .0000100
434.552 .0000100
435.482 .0000100
436.410 .0000100
437.337 .0000100
438.262 .0284895
439.187 .0602171
440.110 .0997130
441.031 .1441638
441.952 .1145362
442.871 .1194674
443.789 .1240451
444.705 .1283468
445.621 .1324242
446.535 .1363170
447.447 .1385535
448.359 .1389825
449.269 .1372133
450.178 .1329984
451.086 .1264212
451.993 .1179826
452.898 .1085078
453.803 .0989307
454.706 .0900463
455.608 .0823455
456.508 .0759916
457.408 .0717139
458.306 .0684447
459.204 .0658027
460.100 .0635910
460.995 .0616993
461.888 .0600528
462.781 .0586026
463.673 .0573126
464.563 .0561582
465.452 .0551221
466.340 .0541894
467.228 .0533488
468.114 .0525914
468.999 .0519096
469.882 .0512948
470.765 .0507420
471.647 .0502453
472.528 .0497998
473.407 .0494016
474.286 .0490472
475.163 .0487345
476.040 .0484606
476.915 .0482232
477.790 .0480197
478.663 .0478483
479.535 .0477063
480.407 .0475908
481.277 .0474993
482.147 .0474294
483.015 .0473782
483.883 .0473432
484.749 .0473226
485.615 .0473143
486.479 .0473173
487.343 .0473305
488.206 .0473538
489.067 .0473877
489.928 .0474322
490.788 .0474885
491.647 .0475574
492.505 .0476394
493.362 .0477346
494.218 .0478434
495.073 .0479658
495.928 .0482027
496.781 .0483612
497.634 .0485352
498.486 .0487261
499.337 .0489362
500.187 .0491683
501.036 .0494260
501.884 .0497126
502.731 .0500317
503.578 .0503873
504.424 .0506407
505.268 .0510658
506.113 .0515385
506.956 .0520631
507.798 .0526455
508.640 .0532933
509.480 .0540170
510.320 .0548298
511.160 .0557467
511.998 .0567850
512.836 .0579657
513.672 .0593101
514.508 .0608402
515.344 .0625778
516.178 .0645443
517.012 .0667628
517.845 .0692553
518.677 .0720402
519.508 .0751365
520.339 .0785579
521.169 .0823143
521.998 .0863903
522.826 .0907547
523.654 .0953593
524.481 .1001344
525.307 .1049972
526.133 .1098479
526.958 .1145794
527.782 .1190875
528.605 .1232738
529.428 .1270529
530.250 .1303486
531.072 .1331103
531.892 .1352994
532.712 .1368894
533.532 .1378693
534.350 .1382327
535.168 .1379826
535.986 .1371278
536.802 .1356756
537.618 .1336335
538.434 .1310125
539.249 .1278472
540.063 .1241867
540.876 .1200928
541.689 .1156460
542.501 .1109368
543.313 .1060681
544.124 .1011460
544.934 .0962698
545.744 .0915290
546.553 .0869987
547.361 .0827391
548.169 .0787840
548.976 .0751543
549.783 .0718574
550.589 .0688840
551.395 .0662177
552.200 .0638321
553.004 .0616978
553.808 .0597861
554.611 .0580727
555.414 .0565327
556.216 .0551430
557.018 .0538821
557.819 .0527314
558.619 .0516755
559.419 .0507004
560.218 .0497950
561.017 .0489494
561.815 .0481556
562.613 .0474068
563.410 .0466962
564.207 .0460189
565.003 .0453704
565.799 .0447463
566.594 .0441426
567.388 .0435573
568.182 .0429893
568.976 .0424378
569.769 .0419025
570.562 .0413833
571.354 .0408809
572.145 .0403953
572.936 .0399270
573.727 .0394757
574.517 .0390418
575.307 .0386253
576.096 .0382259
576.885 .0378437
577.673 .0374790
578.461 .0371321
579.248 .0368037
580.035 .0364939
580.821 .0362029
581.607 .0359304
582.392 .0356763
583.177 .0354403
583.962 .0352221
584.746 .0350205
585.529 .0348347
586.313 .0346638
587.095 .0345066
587.878 .0343619
588.660 .0342289
589.441 .0341067
590.222 .0339942
591.003 .0338905
591.783 .0337946
592.563 .0337055
593.342 .0336222
594.121 .0335437
594.899 .0334690
595.678 .0333974
596.455 .0333282
597.233 .0332609
598.009 .0331952
598.786 .0331309
599.562 .0330680
600.338 .0330065
601.113 .0329465
601.888 .0328636
602.663 .0328085
603.437 .0327553
604.211 .0327042
604.984 .0326551
605.757 .0326081
606.530 .0325632
607.302 .0325204
608.074 .0324795
608.845 .0324405
609.616 .0324034
610.387 .0323890
611.158 .0323540
611.928 .0323207
612.697 .0322887
613.467 .0322582
614.236 .0322289
615.004 .0322008
615.773 .0321737
616.541 .0321475
617.308 .0321220
618.076 .0320973
618.843 .0320732
619.609 .0320497
620.375 .0320267
621.141 .0320043
621.907 .0319824
622.672 .0319608
623.437 .0319397
624.202 .0319189
624.966 .0318985
625.730 .0318783
626.493 .0318584
627.257 .0318387
628.020 .0318191
628.782 .0317996
629.545 .0317801
630.307 .0317605
631.068 .0317408
631.830 .0317209
632.591 .0317009
633.352 .0316806
634.112 .0316602
634.872 .0316396
635.632 .0316187
636.392 .0315977
637.151 .0315762
637.910 .0315543
638.668 .0315319
639.427 .0315089
640.185 .0314855
640.943 .0314616
641.700 .0314373
642.457 .0314127
643.214 .0313878
643.971 .0313626
644.727 .0313373
645.483 .0313118
646.239 .0312860
646.994 .0312601
647.750 .0312340
648.505 .0312077
649.259 .0311813
650.014 .0311547
650.768 .0311279
651.521 .0311010
652.275 .0310738
653.028 .0310462
653.781 .0310183
654.534 .0309900
655.286 .0309611
656.039 .0309317
656.791 .0309017
657.542 .0308711
658.294 .0308399
659.045 .0308081
659.796 .0307758
660.546 .0307430
661.297 .0307099
662.047 .0306764
662.796 .0306428
663.546 .0306092
664.295 .0305758
665.044 .0305427
665.793 .0305099
666.542 .0304776
667.290 .0304459
668.038 .0304148
668.786 .0303845
669.533 .0303551
670.281 .0303265
671.028 .0302989
671.774 .0302723
672.521 .0302468
673.267 .0302226
674.013 .0301996
674.759 .0301778
675.505 .0301574
676.250 .0301382
676.995 .0301202
677.740 .0301033
678.484 .0300875
679.229 .0300728
679.973 .0300589
680.717 .0300459
681.460 .0300337
682.204 .0300221
682.947 .0300112
683.690 .0300007
684.433 .0299907
685.175 .0299809
685.917 .0299711
686.659 .0299614
687.401 .0299514
688.142 .0299412
688.884 .0299307
689.625 .0299198
690.365 .0299086
691.106 .0298970
691.846 .0298851
692.586 .0298729
693.326 .0298605
694.066 .0298478
694.805 .0298348
695.545 .0298217
696.284 .0298083
697.022 .0297948
697.761 .0297811
698.499 .0297674
699.237 .0297537
699.975 .0297399
700.713 .0297262
701.450 .0297126
702.187 .0296991
702.924 .0296858
703.661 .0296726
704.397 .0296597
705.133 .0296469
705.869 .0296343
706.605 .0296218
707.341 .0296092
708.076 .0295966
708.811 .0295838
709.546 .0295707
710.281 .0295572
711.015 .0295433
711.749 .0295289
712.483 .0295141
713.217 .0294988
713.950 .0294829
714.684 .0294665
715.417 .0294493
716.150 .0294314
716.882 .0294126
717.615 .0293928
718.347 .0293722
719.079 .0293505
719.811 .0293278
720.542 .0293043
721.273 .0292798
722.005 .0292546
722.735 .0292287
723.466 .0292022
724.196 .0291752
724.927 .0291478
725.656 .0291202
726.386 .0290924
727.116 .0290644
727.845 .0290364
728.574 .0290085
729.303 .0289806
730.031 .0289528
730.760 .0289252
731.488 .0288980
732.216 .0288710
732.944 .0288445
733.671 .0288186
734.398 .0287933
735.125 .0287686
735.852 .0287446
736.579 .0287212
737.305 .0286985
738.031 .0286764
738.757 .0286548
739.483 .0286339
740.208 .0286135
740.933 .0285938
741.658 .0285746
742.383 .0285561
743.108 .0285381
743.832 .0285209
744.556 .0285042
745.280 .0284882
746.004 .0284728
746.727 .0284580
747.450 .0284437
748.173 .0284299
748.896 .0284167
749.618 .0284040
750.340 .0283919
751.062 .0283803
751.784 .0283693
752.506 .0283588
753.227 .0283490
753.948 .0283397
754.669 .0283310
755.389 .0283230
756.110 .0283155
756.830 .0283087
757.550 .0283024
758.269 .0282968
758.989 .0282916
759.708 .0282870
760.427 .0282829
761.146 .0282791
761.864 .0282757
762.582 .0282726
763.300 .0282698
764.018 .0282673
764.736 .0282649
765.453 .0282627
766.170 .0282607
766.887 .0282589
767.603 .0282573
768.320 .0282559
769.036 .0282546
769.751 .0282536
770.467 .0282527
771.182 .0282521
771.897 .0282517
772.612 .0282515
773.327 .0282515
774.041 .0282518
774.755 .0282524
775.469 .0282532
776.183 .0282543
776.896 .0282558
777.609 .0282575
778.322 .0282595
779.035 .0282616
779.747 .0282638
780.459 .0282662
781.171 .0282686
781.882 .0282709
782.594 .0282731
783.305 .0282752
784.016 .0282769
784.726 .0282783
785.436 .0282793
786.147 .0282786
786.856 .0282779
787.566 .0282766
788.275 .0282747
788.984 .0282722
789.693 .0282689
790.401 .0282649
791.110 .0282601
791.818 .0282543
792.525 .0282476
793.233 .0282398
793.940 .0282309
794.647 .0282239
795.353 .0282136
796.060 .0282022
796.766 .0281900
797.472 .0281768
798.177 .0281627
798.883 .0281478
799.588 .0281319
800.292 .0281151
800.997 .0280974
801.701 .0280787
802.405 .0280592
803.109 .0280389
803.812 .0280179
804.515 .0279961
805.218 .0279736
805.921 .0279505
806.623 .0279266
807.325 .0279019
808.027 .0278767
808.728 .0278508
809.429 .0278243
810.130 .0277974
810.831 .0277700
811.531 .0277423
812.231 .0277142
812.931 .0276857
813.630 .0276570
814.330 .0276280
815.029 .0275988
815.727 .0275696
816.426 .0275404
817.124 .0275114
817.821 .0274826
818.519 .0274541
819.216 .0274260
819.913 .0273983
820.609 .0273711
821.306 .0273443
822.002 .0273180
822.697 .0272922
823.393 .0272669
824.088 .0272422
824.783 .0272181
825.477 .0271945
826.171 .0271715
826.865 .0271490
827.559 .0271270
828.252 .0271055
828.945 .0270845
829.638 .0270641
830.330 .0270442
831.023 .0270249
831.714 .0270063
832.406 .0269884
833.097 .0269711
833.788 .0269545
834.479 .0269385
835.169 .0269234
835.859 .0269089
836.548 .0268953
837.238 .0268825
837.927 .0268707
838.615 .0268597
839.304 .0268497
839.992 .0268407
840.680 .0268326
841.367 .0268255
842.054 .0268192
842.741 .0268139
843.428 .0268095
844.114 .0268059
844.800 .0268032
845.485 .0268012
846.170 .0267999
846.855 .0267992
847.540 .0267991
848.224 .0267996
848.908 .0268005
849.592 .0268019
850.275 .0268038
850.958 .0268060
851.641 .0268086
852.323 .0268114
853.005 .0268146
853.687 .0268179
854.368 .0268215
855.049 .0268252
855.730 .0268290
856.410 .0268330
857.090 .0268371
857.769 .0268413
858.449 .0268457
859.128 .0268501
859.806 .0268547
860.485 .0268595
861.163 .0268644
861.840 .0268696
862.518 .0268752
863.195 .0268811
863.871 .0268875
864.548 .0268943
865.224 .0269016
865.899 .0269092
866.574 .0269172
867.249 .0269254
867.924 .0269338
868.598 .0269424
869.272 .0269510
869.946 .0269597
870.619 .0269684
871.292 .0269771
871.964 .0269857
872.636 .0269941
873.308 .0270023
873.979 .0270101
874.651 .0270177
875.321 .0270248
875.992 .0270316
876.662 .0270380
877.331 .0270441
878.001 .0270499
878.670 .0270554
879.338 .0270604
880.007 .0270651
880.675 .0270692
881.342 .0270729
882.009 .0270761
882.676 .0270788
883.343 .0270811
884.009 .0270831
884.675 .0270847
885.340 .0270859
886.005 .0270868
886.670 .0270873
887.334 .0270873
887.998 .0270867
888.662 .0270857
889.325 .0270841
889.988 .0270821
890.650 .0270798
891.312 .0270771
891.974 .0270741
892.636 .0270708
893.297 .0270672
893.957 .0270630
894.618 .0270582
895.278 .0270527
895.937 .0270465
896.596 .0270393
897.255 .0270312
897.914 .0270220
898.572 .0270118
899.230 .0270004
899.887 .0269878
900.544 .0269738
901.201 .0269586
901.857 .0269298
902.513 .0269108
903.168 .0268906
903.823 .0268690
904.478 .0268461
905.132 .0268220
905.786 .0267967
906.440 .0267704
907.093 .0267429
907.746 .0267144
908.399 .0266850
909.051 .0266548
909.703 .0266237
910.354 .0266067
911.005 .0265751
911.656 .0265429
912.306 .0265103
912.956 .0264772
913.605 .0264439
914.254 .0264102
914.903 .0263764
915.551 .0263423
916.199 .0263082
916.847 .0262739
917.494 .0262395
918.141 .0262050
918.788 .0261705
919.434 .0261360
920.079 .0261014
920.725 .0260668
921.370 .0260323
922.014 .0259978
922.658 .0259633
923.302 .0259288
923.946 .0258942
924.589 .0258596
925.231 .0258249
925.873 .0257901
926.515 .0257551
927.157 .0257200
927.798 .0256849
928.439 .0256496
929.079 .0256144
929.719 .0255791
930.359 .0255439
930.998 .0255087
931.637 .0254737
932.275 .0254388
932.913 .0254042
933.551 .0253700
934.188 .0253363
934.825 .0253033
935.462 .0252711
936.098 .0252397
936.733 .0252092
937.369 .0251797
938.004 .0251512
938.638 .0251237
939.273 .0250973
939.907 .0250719
940.540 .0250477
941.173 .0250246
941.806 .0250027
942.438 .0249820
943.070 .0249624
943.702 .0249439
944.333 .0249264
944.964 .0249098
945.594 .0248941
946.224 .0248792
946.854 .0248652
947.483 .0248521
948.112 .0248399
948.741 .0248285
949.369 .0248180
949.996 .0248082
950.624 .0247992
951.251 .0247907
951.878 .0247829
952.504 .0247756
953.130 .0247688
953.755 .0247626
954.380 .0247569
955.005 .0247518
955.629 .0247472
956.253 .0247431
956.877 .0247395
957.500 .0247364
958.123 .0247336
958.746 .0247314
959.368 .0247296
959.990 .0247284
960.611 .0247278
961.232 .0247279
961.853 .0247288
962.473 .0247304
963.093 .0247328
963.712 .0247360
964.331 .0247399
964.950 .0247445
965.569 .0247499
966.187 .0247559
966.804 .0247627
967.422 .0247701
968.039 .0247781
968.655 .0247868
969.272 .0247960
969.887 .0248057
970.503 .0248158
971.118 .0248263
971.733 .0248372
972.347 .0248483
972.961 .0248598
973.575 .0248714
974.188 .0248831
974.801 .0248948
975.414 .0249065
976.026 .0249180
976.638 .0249293
977.250 .0249404
977.861 .0249513
978.472 .0249619
979.083 .0249723
979.693 .0249824
980.303 .0249924
980.912 .0250060
981.521 .0250155
982.130 .0250248
982.738 .0250339
983.346 .0250431
983.954 .0250523
984.562 .0250616
985.169 .0250712
985.775 .0250811
986.382 .0250914
986.988 .0251021
987.594 .0251132
988.199 .0251248
988.804 .0251367
989.409 .0251448
990.013 .0251576
990.617 .0251707
991.221 .0251842
991.824 .0251982
992.427 .0252126
993.030 .0252274
993.632 .0252427
994.234 .0252583
994.836 .0252742
995.438 .0252905
996.039 .0253069
996.640 .0253236
997.240 .0253405
997.840 .0253576
998.440 .0253749
999.040 .0253924
999.639 .0254100
1000.238 .0254277
1000.836 .0254454
1001.435 .0254630
1002.033 .0254805
1002.630 .0254978
1003.228 .0255146
1003.825 .0255311
1004.422 .0255470
1005.018 .0255623
1005.614 .0255770
1006.210 .0255911
1006.806 .0256045
1007.401 .0256173
1007.996 .0256294
1008.591 .0256410
1009.186 .0256520
1009.780 .0256625
1010.374 .0256726
1010.967 .0256822
1011.561 .0256912
1012.154 .0256998
1012.746 .0257078
1013.339 .0257153
1013.931 .0257222
1014.523 .0257285
1015.115 .0257343
1015.706 .0257396
1016.298 .0257444
1016.888 .0257488
1017.479 .0257528
1018.069 .0257563
1018.660 .0257594
1019.250 .0257619
1019.839 .0257640
1020.429 .0257656
1021.018 .0257668
1021.607 .0257676
1022.195 .0257681
1022.784 .0257685
1023.372 .0257688
1023.960 .0257692
1024.547 .0257695
1025.135 .0257700
1025.722 .0257703
1026.309 .0257704
1026.896 .0257702
1027.483 .0257695
1028.069 .0257683
1028.655 .0257665
1029.241 .0257640
1029.827 .0257610
1030.412 .0257574
1030.997 .0257533
1031.582 .0257487
1032.167 .0257436
1032.752 .0257379
1033.336 .0257316
1033.921 .0257244
1034.505 .0257165
1035.089 .0257077
1035.672 .0256981
1036.256 .0256877
1036.839 .0256767
1037.422 .0256651
1038.005 .0256530
1038.588 .0256404
1039.171 .0256271
1039.753 .0256133
1040.335 .0255987
1040.918 .0255833
1041.500 .0255670
1042.081 .0255498
1042.663 .0255317
1043.244 .0255130
1043.826 .0254938
1044.407 .0254743
1044.988 .0254545
1045.569 .0254346
1046.150 .0254147
1046.730 .0253947
1047.311 .0253747
1047.891 .0253548
1048.471 .0253349
1049.052 .0253149
1049.632 .0252951
1050.211 .0252755
1050.791 .0252562
1051.371 .0252371
1051.950 .0252182
1052.530 .0251995
1053.109 .0251808
1053.688 .0251621
1054.268 .0251433
1054.847 .0251243
1055.426 .0251054
1056.005 .0250864
1056.583 .0250676
1057.162 .0250489
1057.741 .0250305
1058.319 .0250124
1058.898 .0249945
1059.476 .0249767
1060.055 .0249590
1060.633 .0249413
1061.211 .0249236
1061.790 .0249061
1062.368 .0248887
1062.946 .0248714
1063.524 .0248545
1064.102 .0248377
1064.680 .0248211
1065.258 .0248044
1065.836 .0247877
1066.414 .0247707
1066.992 .0247533
1067.570 .0247356
1068.148 .0247175
1068.726 .0246992
1069.304 .0246809
1069.882 .0246627
1070.460 .0246447
1071.038 .0246269
1071.616 .0246096
1072.194 .0245926
1072.772 .0245760
1073.350 .0245598
1073.928 .0245440
1074.506 .0245285
1075.084 .0245135
1075.662 .0244988
1076.240 .0244846
1076.819 .0244710
1077.397 .0244579
1077.976 .0244454
1078.554 .0244335
1079.133 .0244222
1079.711 .0244115
1080.290 .0244013
1080.869 .0243916
1081.448 .0243824
1082.027 .0243735
1082.606 .0243650
1083.185 .0243569
1083.764 .0243492
1084.343 .0243423
1084.923 .0243361
1085.502 .0243309
1086.082 .0243269
1086.662 .0243241
1087.242 .0243226
1087.822 .0243224
1088.402 .0243232
1088.983 .0243250
1089.563 .0243276
1090.144 .0243309
1090.725 .0243347
1091.306 .0243393
1091.887 .0243446
1092.469 .0243510
1093.050 .0243585
1093.632 .0243673
1094.214 .0243772
1094.796 .0243883
1095.379 .0244002
1095.961 .0244127
1096.544 .0244257
1097.127 .0244390
1097.710 .0244527
1098.294 .0244669
1098.877 .0244818
1099.461 .0244976
1100.046 .0245145
1100.630 .0245325
1101.215 .0245517
1101.800 .0245719
1102.385 .0245929
1102.970 .0246143
1103.556 .0246359
1104.142 .0246578
1104.728 .0246797
1105.315 .0247020
1105.902 .0247246
1106.489 .0247479
1107.077 .0247720
1107.664 .0247973
1108.253 .0248237
1108.841 .0248517
1109.430 .0248813
1110.019 .0249126
1110.609 .0249459
1111.198 .0249814
1111.789 .0250191
1112.379 .0250592
1112.970 .0251018
1113.561 .0251469
1114.153 .0251947
1114.745 .0252450
1115.338 .0252978
1115.931 .0253530
1116.524 .0254106
1117.117 .0254705
1117.712 .0255327
1118.306 .0255970
1118.901 .0256634
1119.496 .0257317
1120.092 .0258016
1120.689 .0258730
1121.285 .0259455
1121.882 .0260191
1122.480 .0260936
1123.078 .0261690
1123.677 .0262456
1124.276 .0263233
1124.875 .0264026
1125.476 .0264831
1126.076 .0265649
1126.677 .0266475
1127.279 .0267306
1127.881 .0268139
1128.484 .0268971
1129.087 .0269389
1129.691 .0270215
1130.295 .0271040
1130.900 .0271869
1131.505 .0272705
1132.111 .0273551
1132.718 .0274411
1133.325 .0275295
1133.933 .0276211
1134.541 .0277131
1135.150 .0278045
1135.760 .0278973
1136.370 .0280140
1136.981 .0280450
1137.592 .0281340
1138.204 .0282264
1138.817 .0283275
1139.431 .0284374
1140.045 .0285522
1140.660 .0286776
1141.275 .0288263
1141.891 .0290015
1142.508 .0291018
1143.126 .0291762
1143.744 .0293036
1144.363 .0300587
1144.983 .0304014
