Measurement Sequence started on: 15-12-46-377
Integration time: 28
Scans to Average: 2 
>>>>>Begin Spectral Data<<<<<
432.689 .0000100
433.621 .0000100
434.552 .0000100
435.482 .0000100
436.410 .0000100
437.337 .0000100
438.262 .0257652
439.187 .0544092
440.110 .0900927
441.031 .1303277
441.952 .1044606
442.871 .1091119
443.789 .1134456
444.705 .1175276
445.621 .1214044
446.535 .1251135
447.447 .1273243
448.359 .1279065
449.269 .1265068
450.178 .1228974
451.086 .1171529
451.993 .1097189
452.898 .1013328
453.803 .0928326
454.706 .0849288
455.608 .0780627
456.508 .0723821
457.408 .0685492
458.306 .0656023
459.204 .0632062
460.100 .0611897
460.995 .0594561
461.888 .0579413
462.781 .0566010
463.673 .0554001
464.563 .0543155
465.452 .0533279
466.340 .0524227
467.228 .0515903
468.114 .0508228
468.999 .0501151
469.882 .0494627
470.765 .0488620
471.647 .0483097
472.528 .0478024
473.407 .0473370
474.286 .0469104
475.163 .0465209
476.040 .0461655
476.915 .0458425
477.790 .0455497
478.663 .0452855
479.535 .0450485
480.407 .0448373
481.277 .0446507
482.147 .0444871
483.015 .0443450
483.883 .0442227
484.749 .0441189
485.615 .0440323
486.479 .0439624
487.343 .0439085
488.206 .0438709
489.067 .0438497
489.928 .0438455
490.788 .0438593
491.647 .0438920
492.505 .0439448
493.362 .0440185
494.218 .0441136
495.073 .0442310
495.928 .0444887
496.781 .0446627
497.634 .0448591
498.486 .0450778
499.337 .0453191
500.187 .0455837
501.036 .0458736
501.884 .0461911
502.731 .0465399
503.578 .0469238
504.424 .0471863
505.268 .0476393
506.113 .0481410
506.956 .0486956
507.798 .0493080
508.640 .0499844
509.480 .0507326
510.320 .0515617
511.160 .0524822
511.998 .0535083
512.836 .0546568
513.672 .0559446
514.508 .0573912
515.344 .0590156
516.178 .0608386
517.012 .0628826
517.845 .0651682
518.677 .0677135
519.508 .0705346
520.339 .0736444
521.169 .0770496
521.998 .0807340
522.826 .0846699
523.654 .0888106
524.481 .0930986
525.307 .0974642
526.133 .1018246
526.958 .1060915
527.782 .1101767
528.605 .1139970
529.428 .1174749
530.250 .1205387
531.072 .1231390
531.892 .1252340
532.712 .1267976
533.532 .1278119
534.350 .1282682
535.168 .1281704
535.986 .1275266
536.802 .1263449
537.618 .1246313
538.434 .1223941
539.249 .1196646
540.063 .1164830
540.876 .1129046
541.689 .1089958
542.501 .1048324
543.313 .1005010
544.124 .0960905
544.934 .0916879
545.744 .0873723
546.553 .0832141
547.361 .0792747
548.169 .0755911
548.976 .0721905
549.783 .0690840
550.589 .0662710
551.395 .0637399
552.200 .0614675
553.004 .0594268
553.808 .0575915
554.611 .0559400
555.414 .0544533
556.216 .0531116
557.018 .0518972
557.819 .0507954
558.619 .0497913
559.419 .0488723
560.218 .0480269
561.017 .0472445
561.815 .0465157
562.613 .0458330
563.410 .0451887
564.207 .0445759
565.003 .0439896
565.799 .0434249
566.594 .0428781
567.388 .0423472
568.182 .0418295
568.976 .0413234
569.769 .0408280
570.562 .0403431
571.354 .0398684
572.145 .0394037
572.936 .0389492
573.727 .0385050
574.517 .0380717
575.307 .0376505
576.096 .0372417
576.885 .0368469
577.673 .0364672
578.461 .0361038
579.248 .0357574
580.035 .0354287
580.821 .0351180
581.607 .0348252
582.392 .0345501
583.177 .0342922
583.962 .0340508
584.746 .0338253
585.529 .0336153
586.313 .0334198
587.095 .0332382
587.878 .0330696
588.660 .0329133
589.441 .0327686
590.222 .0326348
591.003 .0325113
591.783 .0323974
592.563 .0322925
593.342 .0321957
594.121 .0321064
594.899 .0320238
595.678 .0319471
596.455 .0318756
597.233 .0318086
598.009 .0317457
598.786 .0316865
599.562 .0316307
600.338 .0315780
601.113 .0315285
601.888 .0314639
602.663 .0314212
603.437 .0313810
604.211 .0313433
604.984 .0313079
605.757 .0312745
606.530 .0312430
607.302 .0312132
608.074 .0311852
608.845 .0311588
609.616 .0311341
610.387 .0311259
611.158 .0311036
611.928 .0310830
612.697 .0310640
613.467 .0310465
614.236 .0310305
615.004 .0310156
615.773 .0310017
616.541 .0309886
617.308 .0309761
618.076 .0309640
618.843 .0309522
619.609 .0309405
620.375 .0309289
621.141 .0309173
621.907 .0309053
622.672 .0308929
623.437 .0308799
624.202 .0308662
624.966 .0308515
625.730 .0308358
626.493 .0308191
627.257 .0308012
628.020 .0307823
628.782 .0307622
629.545 .0307411
630.307 .0307189
631.068 .0306956
631.830 .0306713
632.591 .0306460
633.352 .0306196
634.112 .0305924
634.872 .0305645
635.632 .0305359
636.392 .0305069
637.151 .0304776
637.910 .0304481
638.668 .0304186
639.427 .0303892
640.185 .0303601
640.943 .0303312
641.700 .0303027
642.457 .0302745
643.214 .0302467
643.971 .0302193
644.727 .0301922
645.483 .0301655
646.239 .0301390
646.994 .0301128
647.750 .0300868
648.505 .0300610
649.259 .0300354
650.014 .0300101
650.768 .0299851
651.521 .0299604
652.275 .0299359
653.028 .0299116
653.781 .0298875
654.534 .0298633
655.286 .0298392
656.039 .0298150
656.791 .0297907
657.542 .0297665
658.294 .0297423
659.045 .0297182
659.796 .0296943
660.546 .0296706
661.297 .0296472
662.047 .0296241
662.796 .0296012
663.546 .0295785
664.295 .0295561
665.044 .0295340
665.793 .0295123
666.542 .0294911
667.290 .0294703
668.038 .0294501
668.786 .0294304
669.533 .0294114
670.281 .0293929
671.028 .0293751
671.774 .0293580
672.521 .0293414
673.267 .0293255
674.013 .0293101
674.759 .0292954
675.505 .0292812
676.250 .0292674
676.995 .0292541
677.740 .0292412
678.484 .0292286
679.229 .0292165
679.973 .0292048
680.717 .0291937
681.460 .0291831
682.204 .0291730
682.947 .0291634
683.690 .0291541
684.433 .0291452
685.175 .0291364
685.917 .0291278
686.659 .0291192
687.401 .0291108
688.142 .0291024
688.884 .0290940
689.625 .0290856
690.365 .0290771
691.106 .0290685
691.846 .0290596
692.586 .0290505
693.326 .0290411
694.066 .0290314
694.805 .0290215
695.545 .0290113
696.284 .0290009
697.022 .0289902
697.761 .0289792
698.499 .0289677
699.237 .0289558
699.975 .0289435
700.713 .0289307
701.450 .0289176
702.187 .0289042
702.924 .0288904
703.661 .0288763
704.397 .0288618
705.133 .0288468
705.869 .0288313
706.605 .0288151
707.341 .0287984
708.076 .0287812
708.811 .0287634
709.546 .0287452
710.281 .0287267
711.015 .0287080
711.749 .0286889
712.483 .0286695
713.217 .0286498
713.950 .0286297
714.684 .0286092
715.417 .0285883
716.150 .0285671
716.882 .0285455
717.615 .0285236
718.347 .0285014
719.079 .0284789
719.811 .0284561
720.542 .0284330
721.273 .0284097
722.005 .0283862
722.735 .0283627
723.466 .0283392
724.196 .0283158
724.927 .0282926
725.656 .0282696
726.386 .0282469
727.116 .0282244
727.845 .0282022
728.574 .0281803
729.303 .0281589
730.031 .0281380
730.760 .0281178
731.488 .0280981
732.216 .0280792
732.944 .0280610
733.671 .0280434
734.398 .0280264
735.125 .0280101
735.852 .0279943
736.579 .0279791
737.305 .0279645
738.031 .0279505
738.757 .0279370
739.483 .0279240
740.208 .0279115
740.933 .0278995
741.658 .0278877
742.383 .0278763
743.108 .0278650
743.832 .0278539
744.556 .0278429
745.280 .0278320
746.004 .0278211
746.727 .0278103
747.450 .0277995
748.173 .0277888
748.896 .0277783
749.618 .0277677
750.340 .0277573
751.062 .0277470
751.784 .0277367
752.506 .0277265
753.227 .0277165
753.948 .0277066
754.669 .0276969
755.389 .0276874
756.110 .0276781
756.830 .0276690
757.550 .0276602
758.269 .0276515
758.989 .0276431
759.708 .0276349
760.427 .0276268
761.146 .0276188
761.864 .0276110
762.582 .0276032
763.300 .0275954
764.018 .0275876
764.736 .0275797
765.453 .0275719
766.170 .0275641
766.887 .0275563
767.603 .0275485
768.320 .0275409
769.036 .0275334
769.751 .0275261
770.467 .0275190
771.182 .0275121
771.897 .0275055
772.612 .0274993
773.327 .0274934
774.041 .0274879
774.755 .0274829
775.469 .0274782
776.183 .0274740
776.896 .0274703
777.609 .0274669
778.322 .0274640
779.035 .0274615
779.747 .0274593
780.459 .0274574
781.171 .0274558
781.882 .0274545
782.594 .0274533
783.305 .0274522
784.016 .0274512
784.726 .0274501
785.436 .0274490
786.147 .0274462
786.856 .0274444
787.566 .0274423
788.275 .0274398
788.984 .0274369
789.693 .0274336
790.401 .0274299
791.110 .0274257
791.818 .0274210
792.525 .0274158
793.233 .0274100
793.940 .0274037
794.647 .0273994
795.353 .0273923
796.060 .0273848
796.766 .0273768
797.472 .0273682
798.177 .0273591
798.883 .0273493
799.588 .0273390
800.292 .0273280
800.997 .0273164
801.701 .0273041
802.405 .0272911
803.109 .0272775
803.812 .0272632
804.515 .0272482
805.218 .0272325
805.921 .0272160
806.623 .0271988
807.325 .0271807
808.027 .0271619
808.728 .0271423
809.429 .0271221
810.130 .0271013
810.831 .0270799
811.531 .0270581
812.231 .0270360
812.931 .0270137
813.630 .0269912
814.330 .0269688
815.029 .0269464
815.727 .0269243
816.426 .0269025
817.124 .0268810
817.821 .0268600
818.519 .0268394
819.216 .0268192
819.913 .0267996
820.609 .0267806
821.306 .0267622
822.002 .0267445
822.697 .0267276
823.393 .0267114
824.088 .0266960
824.783 .0266813
825.477 .0266673
826.171 .0266539
826.865 .0266410
827.559 .0266285
828.252 .0266163
828.945 .0266045
829.638 .0265929
830.330 .0265817
831.023 .0265706
831.714 .0265598
832.406 .0265490
833.097 .0265383
833.788 .0265277
834.479 .0265170
835.169 .0265064
835.859 .0264959
836.548 .0264854
837.238 .0264750
837.927 .0264647
838.615 .0264545
839.304 .0264442
839.992 .0264339
840.680 .0264235
841.367 .0264130
842.054 .0264024
842.741 .0263917
843.428 .0263810
844.114 .0263703
844.800 .0263597
845.485 .0263491
846.170 .0263385
846.855 .0263279
847.540 .0263172
848.224 .0263063
848.908 .0262952
849.592 .0262839
850.275 .0262724
850.958 .0262607
851.641 .0262489
852.323 .0262370
853.005 .0262251
853.687 .0262130
854.368 .0262010
855.049 .0261889
855.730 .0261768
856.410 .0261647
857.090 .0261526
857.769 .0261406
858.449 .0261286
859.128 .0261168
859.806 .0261051
860.485 .0260936
861.163 .0260824
861.840 .0260715
862.518 .0260610
863.195 .0260509
863.871 .0260413
864.548 .0260320
865.224 .0260233
865.899 .0260150
866.574 .0260072
867.249 .0259997
867.924 .0259927
868.598 .0259861
869.272 .0259798
869.946 .0259740
870.619 .0259686
871.292 .0259637
871.964 .0259592
872.636 .0259552
873.308 .0259516
873.979 .0259485
874.651 .0259459
875.321 .0259438
875.992 .0259422
876.662 .0259410
877.331 .0259403
878.001 .0259401
878.670 .0259403
879.338 .0259410
880.007 .0259421
880.675 .0259437
881.342 .0259457
882.009 .0259481
882.676 .0259509
883.343 .0259542
884.009 .0259580
884.675 .0259623
885.340 .0259670
886.005 .0259723
886.670 .0259780
887.334 .0259842
887.998 .0259907
888.662 .0259975
889.325 .0260045
889.988 .0260118
890.650 .0260193
891.312 .0260269
891.974 .0260346
892.636 .0260425
893.297 .0260503
893.957 .0260582
894.618 .0260658
895.278 .0260732
895.937 .0260802
896.596 .0260867
897.255 .0260926
897.914 .0260979
898.572 .0261023
899.230 .0261060
899.887 .0261087
900.544 .0261105
901.201 .0261113
901.857 .0261076
902.513 .0261056
903.168 .0261024
903.823 .0260982
904.478 .0260928
905.132 .0260864
905.786 .0260790
906.440 .0260707
907.093 .0260615
907.746 .0260514
908.399 .0260406
909.051 .0260290
909.703 .0260167
910.354 .0260091
911.005 .0259960
911.656 .0259823
912.306 .0259680
912.956 .0259532
913.605 .0259380
914.254 .0259225
914.903 .0259067
915.551 .0258906
916.199 .0258742
916.847 .0258575
917.494 .0258404
918.141 .0258230
918.788 .0258052
919.434 .0257870
920.079 .0257685
920.725 .0257495
921.370 .0257302
922.014 .0257104
922.658 .0256903
923.302 .0256698
923.946 .0256487
924.589 .0256273
925.231 .0256054
925.873 .0255831
926.515 .0255603
927.157 .0255372
927.798 .0255138
928.439 .0254902
929.079 .0254665
929.719 .0254427
930.359 .0254190
930.998 .0253954
931.637 .0253720
932.275 .0253489
932.913 .0253260
933.551 .0253035
934.188 .0252815
934.825 .0252599
935.462 .0252389
936.098 .0252185
936.733 .0251986
937.369 .0251794
938.004 .0251607
938.638 .0251426
939.273 .0251251
939.907 .0251081
940.540 .0250916
941.173 .0250756
941.806 .0250600
942.438 .0250449
943.070 .0250302
943.702 .0250158
944.333 .0250018
944.964 .0249881
945.594 .0249746
946.224 .0249612
946.854 .0249478
947.483 .0249344
948.112 .0249208
948.741 .0249070
949.369 .0248929
949.996 .0248784
950.624 .0248636
951.251 .0248484
951.878 .0248328
952.504 .0248169
953.130 .0248006
953.755 .0247839
954.380 .0247670
955.005 .0247498
955.629 .0247324
956.253 .0247148
956.877 .0246970
957.500 .0246792
958.123 .0246613
958.746 .0246435
959.368 .0246257
959.990 .0246082
960.611 .0245908
961.232 .0245737
961.853 .0245569
962.473 .0245404
963.093 .0245243
963.712 .0245085
964.331 .0244931
964.950 .0244781
965.569 .0244635
966.187 .0244493
966.804 .0244354
967.422 .0244218
968.039 .0244085
968.655 .0243953
969.272 .0243825
969.887 .0243698
970.503 .0243575
971.118 .0243454
971.733 .0243335
972.347 .0243220
972.961 .0243107
973.575 .0242995
974.188 .0242885
974.801 .0242775
975.414 .0242665
976.026 .0242555
976.638 .0242443
977.250 .0242331
977.861 .0242218
978.472 .0242104
979.083 .0241990
979.693 .0241875
980.303 .0241758
980.912 .0241582
981.521 .0241464
982.130 .0241345
982.738 .0241227
983.346 .0241109
983.954 .0240995
984.562 .0240885
985.169 .0240781
985.775 .0240684
986.382 .0240595
986.988 .0240513
987.594 .0240438
988.199 .0240372
988.804 .0240313
989.409 .0240309
990.013 .0240262
990.617 .0240223
991.221 .0240192
991.824 .0240168
992.427 .0240151
993.030 .0240142
993.632 .0240141
994.234 .0240145
994.836 .0240156
995.438 .0240172
996.039 .0240193
996.640 .0240218
997.240 .0240248
997.840 .0240283
998.440 .0240325
999.040 .0240373
999.639 .0240427
1000.238 .0240488
1000.836 .0240556
1001.435 .0240629
1002.033 .0240707
1002.630 .0240789
1003.228 .0240874
1003.825 .0240962
1004.422 .0241052
1005.018 .0241145
1005.614 .0241241
1006.210 .0241338
1006.806 .0241438
1007.401 .0241539
1007.996 .0241641
1008.591 .0241744
1009.186 .0241848
1009.780 .0241953
1010.374 .0242059
1010.967 .0242165
1011.561 .0242274
1012.154 .0242385
1012.746 .0242499
1013.339 .0242615
1013.931 .0242735
1014.523 .0242857
1015.115 .0242981
1015.706 .0243107
1016.298 .0243233
1016.888 .0243361
1017.479 .0243489
1018.069 .0243619
1018.660 .0243750
1019.250 .0243883
1019.839 .0244017
1020.429 .0244152
1021.018 .0244289
1021.607 .0244427
1022.195 .0244565
1022.784 .0244704
1023.372 .0244843
1023.960 .0244983
1024.547 .0245123
1025.135 .0245265
1025.722 .0245407
1026.309 .0245549
1026.896 .0245692
1027.483 .0245835
1028.069 .0245979
1028.655 .0246122
1029.241 .0246266
1029.827 .0246409
1030.412 .0246553
1030.997 .0246696
1031.582 .0246839
1032.167 .0246982
1032.752 .0247124
1033.336 .0247264
1033.921 .0247402
1034.505 .0247537
1035.089 .0247670
1035.672 .0247801
1036.256 .0247929
1036.839 .0248055
1037.422 .0248178
1038.005 .0248298
1038.588 .0248415
1039.171 .0248528
1039.753 .0248636
1040.335 .0248740
1040.918 .0248838
1041.500 .0248932
1042.081 .0249023
1042.663 .0249111
1043.244 .0249197
1043.826 .0249282
1044.407 .0249367
1044.988 .0249451
1045.569 .0249535
1046.150 .0249619
1046.730 .0249701
1047.311 .0249782
1047.891 .0249861
1048.471 .0249939
1049.052 .0250016
1049.632 .0250094
1050.211 .0250171
1050.791 .0250249
1051.371 .0250327
1051.950 .0250403
1052.530 .0250476
1053.109 .0250545
1053.688 .0250607
1054.268 .0250662
1054.847 .0250709
1055.426 .0250749
1056.005 .0250782
1056.583 .0250809
1057.162 .0250833
1057.741 .0250854
1058.319 .0250874
1058.898 .0250892
1059.476 .0250910
1060.055 .0250926
1060.633 .0250941
1061.211 .0250954
1061.790 .0250967
1062.368 .0250980
1062.946 .0250993
1063.524 .0251008
1064.102 .0251026
1064.680 .0251048
1065.258 .0251071
1065.836 .0251097
1066.414 .0251125
1066.992 .0251153
1067.570 .0251181
1068.148 .0251208
1068.726 .0251235
1069.304 .0251261
1069.882 .0251288
1070.460 .0251315
1071.038 .0251346
1071.616 .0251378
1072.194 .0251414
1072.772 .0251452
1073.350 .0251492
1073.928 .0251534
1074.506 .0251575
1075.084 .0251617
1075.662 .0251657
1076.240 .0251694
1076.819 .0251729
1077.397 .0251760
1077.976 .0251786
1078.554 .0251807
1079.133 .0251821
1079.711 .0251827
1080.290 .0251826
1080.869 .0251818
1081.448 .0251804
1082.027 .0251786
1082.606 .0251766
1083.185 .0251745
1083.764 .0251724
1084.343 .0251706
1084.923 .0251691
1085.502 .0251679
1086.082 .0251672
1086.662 .0251670
1087.242 .0251673
1087.822 .0251682
1088.402 .0251697
1088.983 .0251720
1089.563 .0251749
1090.144 .0251785
1090.725 .0251825
1091.306 .0251869
1091.887 .0251915
1092.469 .0251964
1093.050 .0252015
1093.632 .0252069
1094.214 .0252127
1094.796 .0252189
1095.379 .0252257
1095.961 .0252331
1096.544 .0252410
1097.127 .0252496
1097.710 .0252587
1098.294 .0252682
1098.877 .0252780
1099.461 .0252880
1100.046 .0252983
1100.630 .0253089
1101.215 .0253197
1101.800 .0253309
1102.385 .0253424
1102.970 .0253542
1103.556 .0253663
1104.142 .0253787
1104.728 .0253914
1105.315 .0254044
1105.902 .0254177
1106.489 .0254312
1107.077 .0254452
1107.664 .0254597
1108.253 .0254748
1108.841 .0254905
1109.430 .0255070
1110.019 .0255241
1110.609 .0255418
1111.198 .0255601
1111.789 .0255788
1112.379 .0255980
1112.970 .0256176
1113.561 .0256374
1114.153 .0256576
1114.745 .0256783
1115.338 .0256995
1115.931 .0257215
1116.524 .0257444
1117.117 .0257682
1117.712 .0257932
1118.306 .0258193
1118.901 .0258466
1119.496 .0258750
1120.092 .0259046
1120.689 .0259353
1121.285 .0259670
1121.882 .0260000
1122.480 .0260347
1123.078 .0260711
1123.677 .0261098
1124.276 .0261509
1124.875 .0261944
1125.476 .0262404
1126.076 .0262887
1126.677 .0263392
1127.279 .0263918
1127.881 .0264464
1128.484 .0265032
1129.087 .0265255
1129.691 .0265860
1130.295 .0266494
1130.900 .0267162
1131.505 .0267863
1132.111 .0268600
1132.718 .0269374
1133.325 .0270182
1133.933 .0271028
1134.541 .0271821
1135.150 .0272733
1135.760 .0273678
1136.370 .0274651
1136.981 .0275039
1137.592 .0275918
1138.204 .0276923
1138.817 .0278050
1139.431 .0279178
1140.045 .0280435
1140.660 .0281718
1141.275 .0283038
1141.891 .0284538
1142.508 .0283480
1143.126 .0287362
1143.744 .0288827
1144.363 .0290165
1144.983 .0296053
