Measurement Sequence started on: 15-12-46-377
Integration time: 28
Scans to Average: 2 
>>>>>Begin Spectral Data<<<<<
432.689 .0000100
433.621 .0000100
434.552 .0000100
435.482 .0000100
436.410 .0000100
437.337 .0000100
438.262 .0276560
439.187 .0586716
440.110 .0972484
441.031 .1407767
441.952 .1133316
442.871 .1183976
443.789 .1231144
444.705 .1275566
445.621 .1317773
446.535 .1358161
447.447 .1382468
448.359 .1389134
449.269 .1374349
450.178 .1335649
451.086 .1273778
451.993 .1193521
452.898 .1102852
453.803 .1010834
454.706 .0925206
455.608 .0850792
456.508 .0789237
457.408 .0747694
458.306 .0715931
459.204 .0690240
460.100 .0668747
460.995 .0650408
461.888 .0634497
462.781 .0620501
463.673 .0608039
464.563 .0596835
465.452 .0586687
466.340 .0577436
467.228 .0568958
468.114 .0561152
468.999 .0553943
469.882 .0547269
470.765 .0541073
471.647 .0535319
472.528 .0529976
473.407 .0525014
474.286 .0520411
475.163 .0516154
476.040 .0512222
476.915 .0508600
477.790 .0505278
478.663 .0502249
479.535 .0499507
480.407 .0497056
481.277 .0494894
482.147 .0493024
483.015 .0491450
483.883 .0490167
484.749 .0489167
485.615 .0488448
486.479 .0487989
487.343 .0487778
488.206 .0487799
489.067 .0488041
489.928 .0488490
490.788 .0489144
491.647 .0490005
492.505 .0491077
493.362 .0492368
494.218 .0493890
495.073 .0495648
495.928 .0499106
496.781 .0501474
497.634 .0504067
498.486 .0506876
499.337 .0509896
500.187 .0513127
501.036 .0516587
501.884 .0520303
502.731 .0524322
503.578 .0528698
504.424 .0531654
505.268 .0536763
506.113 .0542388
506.956 .0548588
507.798 .0555420
508.640 .0562953
509.480 .0571275
510.320 .0580505
511.160 .0590776
511.998 .0602256
512.836 .0615152
513.672 .0629686
514.508 .0646126
515.344 .0664745
516.178 .0685814
517.012 .0709613
517.845 .0736404
518.677 .0766420
519.508 .0799839
520.339 .0836766
521.169 .0877220
521.998 .0920933
522.826 .0967519
523.654 .1016363
524.481 .1066685
525.307 .1117602
526.133 .1168131
526.958 .1217216
527.782 .1263851
528.605 .1307084
529.428 .1346083
530.250 .1380086
531.072 .1408569
531.892 .1431049
532.712 .1447223
533.532 .1456922
534.350 .1460055
535.168 .1456634
535.986 .1446780
536.802 .1430591
537.618 .1408211
538.434 .1379813
539.249 .1345837
540.063 .1306797
540.876 .1263402
541.689 .1216500
542.501 .1167034
543.313 .1116014
544.124 .1064508
544.934 .1013481
545.744 .0963822
546.553 .0916271
547.361 .0871443
548.169 .0829699
548.976 .0791306
549.783 .0756335
550.589 .0724709
551.395 .0696260
552.200 .0670724
553.004 .0647739
553.808 .0627004
554.611 .0608234
555.414 .0591186
556.216 .0575637
557.018 .0561397
557.819 .0548317
558.619 .0536274
559.419 .0525156
560.218 .0514862
561.017 .0505296
561.815 .0496378
562.613 .0488034
563.410 .0480183
564.207 .0472759
565.003 .0465701
565.799 .0458960
566.594 .0452503
567.388 .0446307
568.182 .0440356
568.976 .0434635
569.769 .0429143
570.562 .0423875
571.354 .0418825
572.145 .0413992
572.936 .0409372
573.727 .0404965
574.517 .0400769
575.307 .0396780
576.096 .0392989
576.885 .0389393
577.673 .0385989
578.461 .0382767
579.248 .0379721
580.035 .0376846
580.821 .0374135
581.607 .0371582
582.392 .0369183
583.177 .0366930
583.962 .0364817
584.746 .0362838
585.529 .0360984
586.313 .0359247
587.095 .0357622
587.878 .0356105
588.660 .0354690
589.441 .0353378
590.222 .0352164
591.003 .0351045
591.783 .0350013
592.563 .0349062
593.342 .0348182
594.121 .0347362
594.899 .0346594
595.678 .0345865
596.455 .0345169
597.233 .0344501
598.009 .0343857
598.786 .0343233
599.562 .0342629
600.338 .0342042
601.113 .0341470
601.888 .0340632
602.663 .0340082
603.437 .0339538
604.211 .0338997
604.984 .0338458
605.757 .0337918
606.530 .0337378
607.302 .0336840
608.074 .0336305
608.845 .0335776
609.616 .0335256
610.387 .0335023
611.158 .0334523
611.928 .0334037
612.697 .0333564
613.467 .0333106
614.236 .0332662
615.004 .0332230
615.773 .0331810
616.541 .0331400
617.308 .0330998
618.076 .0330606
618.843 .0330222
619.609 .0329848
620.375 .0329482
621.141 .0329124
621.907 .0328774
622.672 .0328430
623.437 .0328091
624.202 .0327756
624.966 .0327423
625.730 .0327091
626.493 .0326758
627.257 .0326423
628.020 .0326086
628.782 .0325746
629.545 .0325403
630.307 .0325057
631.068 .0324710
631.830 .0324361
632.591 .0324012
633.352 .0323666
634.112 .0323324
634.872 .0322986
635.632 .0322655
636.392 .0322329
637.151 .0322011
637.910 .0321699
638.668 .0321394
639.427 .0321097
640.185 .0320810
640.943 .0320531
641.700 .0320262
642.457 .0320004
643.214 .0319758
643.971 .0319522
644.727 .0319298
645.483 .0319085
646.239 .0318881
646.994 .0318686
647.750 .0318499
648.505 .0318320
649.259 .0318148
650.014 .0317981
650.768 .0317818
651.521 .0317658
652.275 .0317501
653.028 .0317346
653.781 .0317193
654.534 .0317041
655.286 .0316890
656.039 .0316738
656.791 .0316587
657.542 .0316434
658.294 .0316279
659.045 .0316122
659.796 .0315961
660.546 .0315795
661.297 .0315625
662.047 .0315449
662.796 .0315267
663.546 .0315079
664.295 .0314886
665.044 .0314687
665.793 .0314481
666.542 .0314269
667.290 .0314051
668.038 .0313827
668.786 .0313597
669.533 .0313362
670.281 .0313120
671.028 .0312871
671.774 .0312617
672.521 .0312358
673.267 .0312093
674.013 .0311823
674.759 .0311550
675.505 .0311274
676.250 .0310996
676.995 .0310717
677.740 .0310437
678.484 .0310157
679.229 .0309879
679.973 .0309601
680.717 .0309325
681.460 .0309050
682.204 .0308776
682.947 .0308503
683.690 .0308231
684.433 .0307960
685.175 .0307689
685.917 .0307418
686.659 .0307146
687.401 .0306873
688.142 .0306598
688.884 .0306320
689.625 .0306040
690.365 .0305757
691.106 .0305470
691.846 .0305180
692.586 .0304887
693.326 .0304591
694.066 .0304293
694.805 .0303993
695.545 .0303692
696.284 .0303391
697.022 .0303090
697.761 .0302791
698.499 .0302493
699.237 .0302198
699.975 .0301907
700.713 .0301621
701.450 .0301341
702.187 .0301066
702.924 .0300798
703.661 .0300536
704.397 .0300281
705.133 .0300031
705.869 .0299788
706.605 .0299550
707.341 .0299318
708.076 .0299093
708.811 .0298873
709.546 .0298661
710.281 .0298454
711.015 .0298254
711.749 .0298059
712.483 .0297869
713.217 .0297683
713.950 .0297500
714.684 .0297321
715.417 .0297144
716.150 .0296969
716.882 .0296797
717.615 .0296627
718.347 .0296459
719.079 .0296293
719.811 .0296130
720.542 .0295970
721.273 .0295812
722.005 .0295658
722.735 .0295508
723.466 .0295362
724.196 .0295220
724.927 .0295084
725.656 .0294953
726.386 .0294828
727.116 .0294710
727.845 .0294597
728.574 .0294490
729.303 .0294391
730.031 .0294298
730.760 .0294213
731.488 .0294134
732.216 .0294063
732.944 .0293998
733.671 .0293939
734.398 .0293885
735.125 .0293837
735.852 .0293793
736.579 .0293753
737.305 .0293718
738.031 .0293687
738.757 .0293661
739.483 .0293638
740.208 .0293620
740.933 .0293603
741.658 .0293588
742.383 .0293573
743.108 .0293557
743.832 .0293538
744.556 .0293516
745.280 .0293490
746.004 .0293461
746.727 .0293427
747.450 .0293389
748.173 .0293347
748.896 .0293299
749.618 .0293246
750.340 .0293187
751.062 .0293120
751.784 .0293047
752.506 .0292966
753.227 .0292877
753.948 .0292782
754.669 .0292679
755.389 .0292568
756.110 .0292451
756.830 .0292326
757.550 .0292193
758.269 .0292054
758.989 .0291909
759.708 .0291758
760.427 .0291601
761.146 .0291439
761.864 .0291273
762.582 .0291101
763.300 .0290923
764.018 .0290740
764.736 .0290552
765.453 .0290359
766.170 .0290163
766.887 .0289963
767.603 .0289762
768.320 .0289561
769.036 .0289359
769.751 .0289158
770.467 .0288958
771.182 .0288758
771.897 .0288559
772.612 .0288360
773.327 .0288162
774.041 .0287965
774.755 .0287769
775.469 .0287574
776.183 .0287382
776.896 .0287192
777.609 .0287005
778.322 .0286820
779.035 .0286638
779.747 .0286459
780.459 .0286282
781.171 .0286108
781.882 .0285937
782.594 .0285768
783.305 .0285601
784.016 .0285435
784.726 .0285270
785.436 .0285105
786.147 .0284859
786.856 .0284693
787.566 .0284526
788.275 .0284359
788.984 .0284191
789.693 .0284022
790.401 .0283853
791.110 .0283684
791.818 .0283513
792.525 .0283342
793.233 .0283169
793.940 .0282995
794.647 .0282901
795.353 .0282725
796.060 .0282546
796.766 .0282365
797.472 .0282182
798.177 .0281996
798.883 .0281808
799.588 .0281618
800.292 .0281427
800.997 .0281233
801.701 .0281039
802.405 .0280842
803.109 .0280645
803.812 .0280446
804.515 .0280245
805.218 .0280042
805.921 .0279838
806.623 .0279634
807.325 .0279429
808.027 .0279225
808.728 .0279023
809.429 .0278825
810.130 .0278631
810.831 .0278441
811.531 .0278257
812.231 .0278078
812.931 .0277906
813.630 .0277741
814.330 .0277583
815.029 .0277434
815.727 .0277294
816.426 .0277164
817.124 .0277045
817.821 .0276935
818.519 .0276836
819.216 .0276747
819.913 .0276667
820.609 .0276598
821.306 .0276538
822.002 .0276490
822.697 .0276452
823.393 .0276425
824.088 .0276409
824.783 .0276403
825.477 .0276408
826.171 .0276420
826.865 .0276441
827.559 .0276467
828.252 .0276499
828.945 .0276536
829.638 .0276578
830.330 .0276625
831.023 .0276675
831.714 .0276730
832.406 .0276789
833.097 .0276850
833.788 .0276913
834.479 .0276977
835.169 .0277043
835.859 .0277108
836.548 .0277174
837.238 .0277240
837.927 .0277306
838.615 .0277371
839.304 .0277434
839.992 .0277496
840.680 .0277556
841.367 .0277612
842.054 .0277665
842.741 .0277713
843.428 .0277757
844.114 .0277797
844.800 .0277831
845.485 .0277860
846.170 .0277883
846.855 .0277899
847.540 .0277909
848.224 .0277911
848.908 .0277907
849.592 .0277896
850.275 .0277879
850.958 .0277856
851.641 .0277828
852.323 .0277795
853.005 .0277757
853.687 .0277714
854.368 .0277666
855.049 .0277613
855.730 .0277555
856.410 .0277492
857.090 .0277425
857.769 .0277353
858.449 .0277277
859.128 .0277196
859.806 .0277111
860.485 .0277021
861.163 .0276928
861.840 .0276830
862.518 .0276730
863.195 .0276628
863.871 .0276524
864.548 .0276419
865.224 .0276312
865.899 .0276204
866.574 .0276095
867.249 .0275984
867.924 .0275871
868.598 .0275755
869.272 .0275638
869.946 .0275520
870.619 .0275402
871.292 .0275284
871.964 .0275166
872.636 .0275050
873.308 .0274936
873.979 .0274822
874.651 .0274711
875.321 .0274600
875.992 .0274492
876.662 .0274385
877.331 .0274281
878.001 .0274179
878.670 .0274080
879.338 .0273983
880.007 .0273889
880.675 .0273797
881.342 .0273708
882.009 .0273620
882.676 .0273533
883.343 .0273448
884.009 .0273363
884.675 .0273279
885.340 .0273196
886.005 .0273113
886.670 .0273030
887.334 .0272946
887.998 .0272863
888.662 .0272778
889.325 .0272693
889.988 .0272606
890.650 .0272518
891.312 .0272428
891.974 .0272335
892.636 .0272240
893.297 .0272142
893.957 .0272039
894.618 .0271933
895.278 .0271820
895.937 .0271702
896.596 .0271577
897.255 .0271444
897.914 .0271303
898.572 .0271152
899.230 .0270993
899.887 .0270825
900.544 .0270647
901.201 .0270459
901.857 .0270133
902.513 .0269921
903.168 .0269698
903.823 .0269465
904.478 .0269223
905.132 .0268970
905.786 .0268708
906.440 .0268436
907.093 .0268156
907.746 .0267867
908.399 .0267571
909.051 .0267268
909.703 .0266960
910.354 .0266794
911.005 .0266482
911.656 .0266168
912.306 .0265852
912.956 .0265536
913.605 .0265220
914.254 .0264904
914.903 .0264589
915.551 .0264274
916.199 .0263961
916.847 .0263649
917.494 .0263339
918.141 .0263031
918.788 .0262725
919.434 .0262422
920.079 .0262121
920.725 .0261822
921.370 .0261524
922.014 .0261227
922.658 .0260930
923.302 .0260633
923.946 .0260336
924.589 .0260040
925.231 .0259744
925.873 .0259451
926.515 .0259160
927.157 .0258872
927.798 .0258587
928.439 .0258304
929.079 .0258024
929.719 .0257746
930.359 .0257470
930.998 .0257197
931.637 .0256927
932.275 .0256662
932.913 .0256403
933.551 .0256151
934.188 .0255908
934.825 .0255674
935.462 .0255448
936.098 .0255232
936.733 .0255025
937.369 .0254828
938.004 .0254639
938.638 .0254461
939.273 .0254293
939.907 .0254138
940.540 .0253994
941.173 .0253863
941.806 .0253745
942.438 .0253639
943.070 .0253544
943.702 .0253460
944.333 .0253384
944.964 .0253318
945.594 .0253259
946.224 .0253207
946.854 .0253162
947.483 .0253124
948.112 .0253092
948.741 .0253068
949.369 .0253048
949.996 .0253034
950.624 .0253024
951.251 .0253017
951.878 .0253013
952.504 .0253011
953.130 .0253011
953.755 .0253012
954.380 .0253016
955.005 .0253022
955.629 .0253031
956.253 .0253043
956.877 .0253056
957.500 .0253072
958.123 .0253089
958.746 .0253108
959.368 .0253127
959.990 .0253149
960.611 .0253172
961.232 .0253198
961.853 .0253228
962.473 .0253261
963.093 .0253298
963.712 .0253340
964.331 .0253385
964.950 .0253433
965.569 .0253483
966.187 .0253535
966.804 .0253589
967.422 .0253644
968.039 .0253701
968.655 .0253759
969.272 .0253819
969.887 .0253879
970.503 .0253940
971.118 .0254002
971.733 .0254063
972.347 .0254124
972.961 .0254183
973.575 .0254241
974.188 .0254298
974.801 .0254355
975.414 .0254411
976.026 .0254467
976.638 .0254523
977.250 .0254579
977.861 .0254635
978.472 .0254691
979.083 .0254746
979.693 .0254801
980.303 .0254853
980.912 .0254928
981.521 .0254977
982.130 .0255026
982.738 .0255073
983.346 .0255121
983.954 .0255168
984.562 .0255215
985.169 .0255262
985.775 .0255311
986.382 .0255361
986.988 .0255413
987.594 .0255467
988.199 .0255524
988.804 .0255585
989.409 .0255624
990.013 .0255691
990.617 .0255761
991.221 .0255835
991.824 .0255912
992.427 .0255992
993.030 .0256075
993.632 .0256158
994.234 .0256243
994.836 .0256327
995.438 .0256411
996.039 .0256493
996.640 .0256575
997.240 .0256655
997.840 .0256734
998.440 .0256812
999.040 .0256889
999.639 .0256966
1000.238 .0257042
1000.836 .0257118
1001.435 .0257195
1002.033 .0257272
1002.630 .0257349
1003.228 .0257427
1003.825 .0257504
1004.422 .0257582
1005.018 .0257660
1005.614 .0257737
1006.210 .0257813
1006.806 .0257889
1007.401 .0257964
1007.996 .0258038
1008.591 .0258111
1009.186 .0258184
1009.780 .0258258
1010.374 .0258331
1010.967 .0258405
1011.561 .0258479
1012.154 .0258555
1012.746 .0258632
1013.339 .0258710
1013.931 .0258791
1014.523 .0258873
1015.115 .0258957
1015.706 .0259042
1016.298 .0259129
1016.888 .0259216
1017.479 .0259303
1018.069 .0259389
1018.660 .0259474
1019.250 .0259557
1019.839 .0259638
1020.429 .0259716
1021.018 .0259792
1021.607 .0259865
1022.195 .0259937
1022.784 .0260007
1023.372 .0260076
1023.960 .0260145
1024.547 .0260214
1025.135 .0260284
1025.722 .0260353
1026.309 .0260424
1026.896 .0260493
1027.483 .0260563
1028.069 .0260631
1028.655 .0260697
1029.241 .0260760
1029.827 .0260819
1030.412 .0260875
1030.997 .0260926
1031.582 .0260973
1032.167 .0261015
1032.752 .0261053
1033.336 .0261086
1033.921 .0261115
1034.505 .0261139
1035.089 .0261159
1035.672 .0261173
1036.256 .0261181
1036.839 .0261184
1037.422 .0261181
1038.005 .0261173
1038.588 .0261160
1039.171 .0261142
1039.753 .0261118
1040.335 .0261089
1040.918 .0261053
1041.500 .0261011
1042.081 .0260960
1042.663 .0260902
1043.244 .0260836
1043.826 .0260763
1044.407 .0260683
1044.988 .0260599
1045.569 .0260510
1046.150 .0260418
1046.730 .0260323
1047.311 .0260226
1047.891 .0260127
1048.471 .0260025
1049.052 .0259919
1049.632 .0259811
1050.211 .0259700
1050.791 .0259586
1051.371 .0259471
1051.950 .0259353
1052.530 .0259234
1053.109 .0259112
1053.688 .0258986
1054.268 .0258854
1054.847 .0258715
1055.426 .0258568
1056.005 .0258412
1056.583 .0258247
1057.162 .0258073
1057.741 .0257892
1058.319 .0257705
1058.898 .0257513
1059.476 .0257317
1060.055 .0257118
1060.633 .0256915
1061.211 .0256709
1061.790 .0256499
1062.368 .0256286
1062.946 .0256068
1063.524 .0255849
1064.102 .0255628
1064.680 .0255408
1065.258 .0255190
1065.836 .0254975
1066.414 .0254765
1066.992 .0254559
1067.570 .0254358
1068.148 .0254161
1068.726 .0253969
1069.304 .0253783
1069.882 .0253603
1070.460 .0253433
1071.038 .0253274
1071.616 .0253127
1072.194 .0252993
1072.772 .0252872
1073.350 .0252762
1073.928 .0252663
1074.506 .0252572
1075.084 .0252488
1075.662 .0252411
1076.240 .0252341
1076.819 .0252276
1077.397 .0252219
1077.976 .0252169
1078.554 .0252125
1079.133 .0252087
1079.711 .0252052
1080.290 .0252018
1080.869 .0251983
1081.448 .0251946
1082.027 .0251905
1082.606 .0251861
1083.185 .0251814
1083.764 .0251764
1084.343 .0251713
1084.923 .0251661
1085.502 .0251606
1086.082 .0251550
1086.662 .0251490
1087.242 .0251427
1087.822 .0251361
1088.402 .0251292
1088.983 .0251222
1089.563 .0251153
1090.144 .0251088
1090.725 .0251030
1091.306 .0250978
1091.887 .0250934
1092.469 .0250898
1093.050 .0250868
1093.632 .0250845
1094.214 .0250827
1094.796 .0250815
1095.379 .0250808
1095.961 .0250807
1096.544 .0250813
1097.127 .0250827
1097.710 .0250849
1098.294 .0250881
1098.877 .0250922
1099.461 .0250970
1100.046 .0251027
1100.630 .0251093
1101.215 .0251166
1101.800 .0251249
1102.385 .0251341
1102.970 .0251446
1103.556 .0251562
1104.142 .0251693
1104.728 .0251837
1105.315 .0251995
1105.902 .0252168
1106.489 .0252354
1107.077 .0252555
1107.664 .0252770
1108.253 .0252999
1108.841 .0253241
1109.430 .0253494
1110.019 .0253756
1110.609 .0254026
1111.198 .0254302
1111.789 .0254581
1112.379 .0254865
1112.970 .0255155
1113.561 .0255451
1114.153 .0255756
1114.745 .0256073
1115.338 .0256404
1115.931 .0256752
1116.524 .0257118
1117.117 .0257500
1117.712 .0257901
1118.306 .0258320
1118.901 .0258758
1119.496 .0259215
1120.092 .0259693
1120.689 .0260191
1121.285 .0260712
1121.882 .0261259
1122.480 .0261829
1123.078 .0262425
1123.677 .0263046
1124.276 .0263690
1124.875 .0264358
1125.476 .0265048
1126.076 .0265762
1126.677 .0266498
1127.279 .0267261
1127.881 .0268048
1128.484 .0268864
1129.087 .0269197
1129.691 .0270062
1130.295 .0270960
1130.900 .0271890
1131.505 .0272852
1132.111 .0273845
1132.718 .0274864
1133.325 .0275910
1133.933 .0276986
1134.541 .0278094
1135.150 .0279187
1135.760 .0280236
1136.370 .0281426
1136.981 .0282912
1137.592 .0284064
1138.204 .0285249
1138.817 .0286494
1139.431 .0287780
1140.045 .0289064
1140.660 .0290316
1141.275 .0291613
1141.891 .0293071
1142.508 .0294591
1143.126 .0294820
1143.744 .0294283
1144.363 .0299002
1144.983 .0305267
