Measurement Sequence started on: 15-12-46-377
Integration time: 28
Scans to Average: 2 
>>>>>Begin Spectral Data<<<<<
432.689 .0000100
433.621 .0000100
434.552 .0000100
435.482 .0000100
436.410 .0000100
437.337 .0000100
438.262 .0277850
439.187 .0588680
440.110 .0975373
441.031 .1410777
441.952 .1131082
442.871 .1181109
443.789 .1227613
444.705 .1271345
445.621 .1312832
446.535 .1352471
447.447 .1375916
448.359 .1381653
449.269 .1365865
450.178 .1326118
451.086 .1263162
451.993 .1181834
452.898 .1090154
453.803 .0997219
454.706 .0910767
455.608 .0835625
456.508 .0773425
457.408 .0731326
458.306 .0699010
459.204 .0672771
460.100 .0650712
460.995 .0631810
461.888 .0615330
462.781 .0600772
463.673 .0587761
464.563 .0576046
465.452 .0565426
466.340 .0555747
467.228 .0546898
468.114 .0538787
468.999 .0531334
469.882 .0524471
470.765 .0518138
471.647 .0512289
472.528 .0506886
473.407 .0501898
474.286 .0497308
475.163 .0493103
476.040 .0489270
476.915 .0485806
477.790 .0482695
478.663 .0479931
479.535 .0477496
480.407 .0475378
481.277 .0473563
482.147 .0472031
483.015 .0470769
483.883 .0469763
484.749 .0469004
485.615 .0468479
486.479 .0468178
487.343 .0468088
488.206 .0468197
489.067 .0468492
489.928 .0468963
490.788 .0469600
491.647 .0470398
492.505 .0471358
493.362 .0472485
494.218 .0473786
495.073 .0475274
495.928 .0478194
496.781 .0480215
497.634 .0482453
498.486 .0484916
499.337 .0487618
500.187 .0490583
501.036 .0493830
501.884 .0497394
502.731 .0501322
503.578 .0505656
504.424 .0508725
505.268 .0513816
506.113 .0519424
506.956 .0525588
507.798 .0532366
508.640 .0539825
509.480 .0548057
510.320 .0557168
511.160 .0567281
511.998 .0578537
512.836 .0591094
513.672 .0605095
514.508 .0620700
515.344 .0638077
516.178 .0657394
517.012 .0678826
517.845 .0702578
518.677 .0728858
519.508 .0757833
520.339 .0789590
521.169 .0824172
521.998 .0861351
522.826 .0900794
523.654 .0941933
524.481 .0984100
525.307 .1026509
526.133 .1068308
526.958 .1108600
527.782 .1146572
528.605 .1181508
529.428 .1212796
530.250 .1239878
531.072 .1262442
531.892 .1280174
532.712 .1292879
533.532 .1300414
534.350 .1302712
535.168 .1299717
535.986 .1291415
536.802 .1277801
537.618 .1258958
538.434 .1235019
539.249 .1206387
540.063 .1173550
540.876 .1137202
541.689 .1098106
542.501 .1057091
543.313 .1015013
544.124 .0972736
544.934 .0931000
545.744 .0890432
546.553 .0851540
547.361 .0814763
548.169 .0780314
548.976 .0748392
549.783 .0719063
550.589 .0692338
551.395 .0668121
552.200 .0646261
553.004 .0626550
553.808 .0608791
554.611 .0592764
555.414 .0578246
556.216 .0565010
557.018 .0552860
557.819 .0541620
558.619 .0531151
559.419 .0521347
560.218 .0512134
561.017 .0503446
561.815 .0495234
562.613 .0487455
563.410 .0480061
564.207 .0473000
565.003 .0466219
565.799 .0459667
566.594 .0453296
567.388 .0447070
568.182 .0440963
568.976 .0434960
569.769 .0429062
570.562 .0423278
571.354 .0417619
572.145 .0412109
572.936 .0406764
573.727 .0401596
574.517 .0396610
575.307 .0391817
576.096 .0387219
576.885 .0382819
577.673 .0378621
578.461 .0374630
579.248 .0370848
580.035 .0367278
580.821 .0363919
581.607 .0360772
582.392 .0357836
583.177 .0355111
583.962 .0352589
584.746 .0350264
585.529 .0348128
586.313 .0346169
587.095 .0344375
587.878 .0342732
588.660 .0341225
589.441 .0339843
590.222 .0338573
591.003 .0337406
591.783 .0336333
592.563 .0335347
593.342 .0334440
594.121 .0333605
594.899 .0332834
595.678 .0332119
596.455 .0331455
597.233 .0330832
598.009 .0330246
598.786 .0329690
599.562 .0329158
600.338 .0328649
601.113 .0328158
601.888 .0327489
602.663 .0327041
603.437 .0326609
604.211 .0326194
604.984 .0325794
605.757 .0325409
606.530 .0325038
607.302 .0324681
608.074 .0324336
608.845 .0324002
609.616 .0323678
610.387 .0323537
611.158 .0323226
611.928 .0322925
612.697 .0322633
613.467 .0322349
614.236 .0322073
615.004 .0321804
615.773 .0321541
616.541 .0321283
617.308 .0321028
618.076 .0320778
618.843 .0320530
619.609 .0320285
620.375 .0320043
621.141 .0319803
621.907 .0319565
622.672 .0319327
623.437 .0319089
624.202 .0318850
624.966 .0318609
625.730 .0318368
626.493 .0318125
627.257 .0317881
628.020 .0317638
628.782 .0317394
629.545 .0317149
630.307 .0316903
631.068 .0316656
631.830 .0316407
632.591 .0316155
633.352 .0315900
634.112 .0315641
634.872 .0315379
635.632 .0315113
636.392 .0314844
637.151 .0314571
637.910 .0314296
638.668 .0314017
639.427 .0313735
640.185 .0313452
640.943 .0313167
641.700 .0312882
642.457 .0312598
643.214 .0312315
643.971 .0312032
644.727 .0311749
645.483 .0311467
646.239 .0311184
646.994 .0310900
647.750 .0310616
648.505 .0310331
649.259 .0310048
650.014 .0309766
650.768 .0309487
651.521 .0309212
652.275 .0308940
653.028 .0308673
653.781 .0308408
654.534 .0308146
655.286 .0307886
656.039 .0307628
656.791 .0307371
657.542 .0307115
658.294 .0306860
659.045 .0306605
659.796 .0306351
660.546 .0306097
661.297 .0305844
662.047 .0305590
662.796 .0305337
663.546 .0305084
664.295 .0304832
665.044 .0304580
665.793 .0304329
666.542 .0304079
667.290 .0303829
668.038 .0303581
668.786 .0303333
669.533 .0303086
670.281 .0302840
671.028 .0302595
671.774 .0302353
672.521 .0302113
673.267 .0301877
674.013 .0301644
674.759 .0301414
675.505 .0301187
676.250 .0300961
676.995 .0300738
677.740 .0300516
678.484 .0300295
679.229 .0300078
679.973 .0299863
680.717 .0299653
681.460 .0299446
682.204 .0299243
682.947 .0299044
683.690 .0298847
684.433 .0298652
685.175 .0298458
685.917 .0298265
686.659 .0298074
687.401 .0297884
688.142 .0297696
688.884 .0297510
689.625 .0297325
690.365 .0297141
691.106 .0296959
691.846 .0296778
692.586 .0296598
693.326 .0296420
694.066 .0296245
694.805 .0296072
695.545 .0295902
696.284 .0295735
697.022 .0295570
697.761 .0295406
698.499 .0295244
699.237 .0295084
699.975 .0294925
700.713 .0294769
701.450 .0294616
702.187 .0294466
702.924 .0294319
703.661 .0294174
704.397 .0294032
705.133 .0293892
705.869 .0293751
706.605 .0293611
707.341 .0293471
708.076 .0293329
708.811 .0293188
709.546 .0293046
710.281 .0292903
711.015 .0292759
711.749 .0292613
712.483 .0292465
713.217 .0292314
713.950 .0292160
714.684 .0292003
715.417 .0291841
716.150 .0291675
716.882 .0291504
717.615 .0291329
718.347 .0291148
719.079 .0290963
719.811 .0290773
720.542 .0290577
721.273 .0290378
722.005 .0290175
722.735 .0289970
723.466 .0289764
724.196 .0289558
724.927 .0289351
725.656 .0289145
726.386 .0288940
727.116 .0288736
727.845 .0288534
728.574 .0288333
729.303 .0288133
730.031 .0287936
730.760 .0287741
731.488 .0287550
732.216 .0287362
732.944 .0287179
733.671 .0287000
734.398 .0286825
735.125 .0286655
735.852 .0286488
736.579 .0286326
737.305 .0286168
738.031 .0286013
738.757 .0285862
739.483 .0285715
740.208 .0285570
740.933 .0285428
741.658 .0285289
742.383 .0285152
743.108 .0285018
743.832 .0284885
744.556 .0284755
745.280 .0284627
746.004 .0284499
746.727 .0284373
747.450 .0284246
748.173 .0284120
748.896 .0283992
749.618 .0283863
750.340 .0283732
751.062 .0283600
751.784 .0283466
752.506 .0283332
753.227 .0283196
753.948 .0283059
754.669 .0282919
755.389 .0282778
756.110 .0282633
756.830 .0282486
757.550 .0282335
758.269 .0282181
758.989 .0282024
759.708 .0281864
760.427 .0281702
761.146 .0281539
761.864 .0281374
762.582 .0281208
763.300 .0281041
764.018 .0280872
764.736 .0280703
765.453 .0280533
766.170 .0280363
766.887 .0280194
767.603 .0280025
768.320 .0279859
769.036 .0279694
769.751 .0279533
770.467 .0279376
771.182 .0279222
771.897 .0279074
772.612 .0278930
773.327 .0278792
774.041 .0278658
774.755 .0278530
775.469 .0278407
776.183 .0278288
776.896 .0278174
777.609 .0278066
778.322 .0277963
779.035 .0277865
779.747 .0277774
780.459 .0277688
781.171 .0277608
781.882 .0277533
782.594 .0277463
783.305 .0277397
784.016 .0277333
784.726 .0277270
785.436 .0277208
786.147 .0277114
786.856 .0277048
787.566 .0276980
788.275 .0276911
788.984 .0276838
789.693 .0276763
790.401 .0276685
791.110 .0276604
791.818 .0276518
792.525 .0276429
793.233 .0276335
793.940 .0276237
794.647 .0276173
795.353 .0276070
796.060 .0275964
796.766 .0275856
797.472 .0275745
798.177 .0275632
798.883 .0275518
799.588 .0275402
800.292 .0275285
800.997 .0275168
801.701 .0275050
802.405 .0274933
803.109 .0274816
803.812 .0274699
804.515 .0274582
805.218 .0274465
805.921 .0274348
806.623 .0274232
807.325 .0274115
808.027 .0273999
808.728 .0273883
809.429 .0273767
810.130 .0273651
810.831 .0273535
811.531 .0273418
812.231 .0273302
812.931 .0273185
813.630 .0273068
814.330 .0272952
815.029 .0272836
815.727 .0272720
816.426 .0272606
817.124 .0272493
817.821 .0272381
818.519 .0272272
819.216 .0272165
819.913 .0272062
820.609 .0271964
821.306 .0271871
822.002 .0271784
822.697 .0271703
823.393 .0271629
824.088 .0271560
824.783 .0271498
825.477 .0271441
826.171 .0271388
826.865 .0271341
827.559 .0271297
828.252 .0271258
828.945 .0271223
829.638 .0271192
830.330 .0271164
831.023 .0271139
831.714 .0271115
832.406 .0271092
833.097 .0271069
833.788 .0271045
834.479 .0271019
835.169 .0270992
835.859 .0270962
836.548 .0270931
837.238 .0270897
837.927 .0270860
838.615 .0270819
839.304 .0270773
839.992 .0270722
840.680 .0270666
841.367 .0270604
842.054 .0270538
842.741 .0270467
843.428 .0270392
844.114 .0270314
844.800 .0270232
845.485 .0270146
846.170 .0270056
846.855 .0269961
847.540 .0269861
848.224 .0269756
848.908 .0269645
849.592 .0269530
850.275 .0269410
850.958 .0269286
851.641 .0269159
852.323 .0269029
853.005 .0268896
853.687 .0268759
854.368 .0268619
855.049 .0268477
855.730 .0268333
856.410 .0268187
857.090 .0268040
857.769 .0267894
858.449 .0267750
859.128 .0267606
859.806 .0267465
860.485 .0267325
861.163 .0267187
861.840 .0267052
862.518 .0266918
863.195 .0266787
863.871 .0266658
864.548 .0266533
865.224 .0266412
865.899 .0266294
866.574 .0266180
867.249 .0266068
867.924 .0265959
868.598 .0265852
869.272 .0265746
869.946 .0265641
870.619 .0265538
871.292 .0265435
871.964 .0265333
872.636 .0265232
873.308 .0265131
873.979 .0265031
874.651 .0264931
875.321 .0264831
875.992 .0264729
876.662 .0264625
877.331 .0264519
878.001 .0264411
878.670 .0264301
879.338 .0264188
880.007 .0264072
880.675 .0263954
881.342 .0263835
882.009 .0263714
882.676 .0263592
883.343 .0263470
884.009 .0263349
884.675 .0263228
885.340 .0263109
886.005 .0262993
886.670 .0262879
887.334 .0262768
887.998 .0262660
888.662 .0262555
889.325 .0262455
889.988 .0262357
890.650 .0262264
891.312 .0262175
891.974 .0262090
892.636 .0262010
893.297 .0261933
893.957 .0261861
894.618 .0261793
895.278 .0261727
895.937 .0261664
896.596 .0261601
897.255 .0261537
897.914 .0261472
898.572 .0261403
899.230 .0261331
899.887 .0261253
900.544 .0261171
901.201 .0261082
901.857 .0260915
902.513 .0260808
903.168 .0260694
903.823 .0260573
904.478 .0260444
905.132 .0260307
905.786 .0260162
906.440 .0260010
907.093 .0259850
907.746 .0259683
908.399 .0259511
909.051 .0259334
909.703 .0259153
910.354 .0259058
911.005 .0258877
911.656 .0258694
912.306 .0258511
912.956 .0258328
913.605 .0258147
914.254 .0257968
914.903 .0257792
915.551 .0257620
916.199 .0257452
916.847 .0257289
917.494 .0257130
918.141 .0256975
918.788 .0256823
919.434 .0256674
920.079 .0256526
920.725 .0256381
921.370 .0256236
922.014 .0256092
922.658 .0255949
923.302 .0255804
923.946 .0255658
924.589 .0255510
925.231 .0255359
925.873 .0255204
926.515 .0255045
927.157 .0254881
927.798 .0254714
928.439 .0254542
929.079 .0254366
929.719 .0254187
930.359 .0254005
930.998 .0253822
931.637 .0253637
932.275 .0253452
932.913 .0253267
933.551 .0253084
934.188 .0252904
934.825 .0252726
935.462 .0252552
936.098 .0252383
936.733 .0252218
937.369 .0252058
938.004 .0251903
938.638 .0251754
939.273 .0251611
939.907 .0251475
940.540 .0251345
941.173 .0251222
941.806 .0251107
942.438 .0250999
943.070 .0250897
943.702 .0250801
944.333 .0250712
944.964 .0250627
945.594 .0250547
946.224 .0250471
946.854 .0250398
947.483 .0250328
948.112 .0250261
948.741 .0250196
949.369 .0250132
949.996 .0250070
950.624 .0250009
951.251 .0249948
951.878 .0249887
952.504 .0249826
953.130 .0249765
953.755 .0249704
954.380 .0249642
955.005 .0249579
955.629 .0249515
956.253 .0249450
956.877 .0249384
957.500 .0249317
958.123 .0249249
958.746 .0249181
959.368 .0249113
959.990 .0249045
960.611 .0248978
961.232 .0248912
961.853 .0248848
962.473 .0248786
963.093 .0248725
963.712 .0248667
964.331 .0248611
964.950 .0248558
965.569 .0248508
966.187 .0248461
966.804 .0248416
967.422 .0248374
968.039 .0248334
968.655 .0248294
969.272 .0248256
969.887 .0248217
970.503 .0248179
971.118 .0248141
971.733 .0248104
972.347 .0248067
972.961 .0248032
973.575 .0247997
974.188 .0247961
974.801 .0247925
975.414 .0247887
976.026 .0247847
976.638 .0247805
977.250 .0247760
977.861 .0247714
978.472 .0247667
979.083 .0247618
979.693 .0247569
980.303 .0247518
980.912 .0247430
981.521 .0247377
982.130 .0247322
982.738 .0247265
983.346 .0247206
983.954 .0247146
984.562 .0247085
985.169 .0247025
985.775 .0246966
986.382 .0246909
986.988 .0246855
987.594 .0246804
988.199 .0246756
988.804 .0246712
989.409 .0246707
990.013 .0246671
990.617 .0246639
991.221 .0246612
991.824 .0246590
992.427 .0246574
993.030 .0246563
993.632 .0246558
994.234 .0246557
994.836 .0246562
995.438 .0246570
996.039 .0246583
996.640 .0246599
997.240 .0246620
997.840 .0246645
998.440 .0246674
999.040 .0246706
999.639 .0246742
1000.238 .0246780
1000.836 .0246820
1001.435 .0246861
1002.033 .0246902
1002.630 .0246943
1003.228 .0246984
1003.825 .0247026
1004.422 .0247067
1005.018 .0247109
1005.614 .0247149
1006.210 .0247189
1006.806 .0247226
1007.401 .0247260
1007.996 .0247291
1008.591 .0247319
1009.186 .0247344
1009.780 .0247369
1010.374 .0247392
1010.967 .0247417
1011.561 .0247443
1012.154 .0247470
1012.746 .0247499
1013.339 .0247529
1013.931 .0247560
1014.523 .0247593
1015.115 .0247627
1015.706 .0247662
1016.298 .0247700
1016.888 .0247742
1017.479 .0247788
1018.069 .0247840
1018.660 .0247896
1019.250 .0247957
1019.839 .0248023
1020.429 .0248093
1021.018 .0248165
1021.607 .0248241
1022.195 .0248321
1022.784 .0248403
1023.372 .0248490
1023.960 .0248581
1024.547 .0248678
1025.135 .0248779
1025.722 .0248884
1026.309 .0248993
1026.896 .0249103
1027.483 .0249215
1028.069 .0249326
1028.655 .0249437
1029.241 .0249546
1029.827 .0249654
1030.412 .0249759
1030.997 .0249861
1031.582 .0249960
1032.167 .0250055
1032.752 .0250146
1033.336 .0250230
1033.921 .0250307
1034.505 .0250377
1035.089 .0250438
1035.672 .0250493
1036.256 .0250540
1036.839 .0250581
1037.422 .0250616
1038.005 .0250645
1038.588 .0250668
1039.171 .0250687
1039.753 .0250700
1040.335 .0250710
1040.918 .0250715
1041.500 .0250717
1042.081 .0250717
1042.663 .0250715
1043.244 .0250712
1043.826 .0250710
1044.407 .0250708
1044.988 .0250706
1045.569 .0250704
1046.150 .0250702
1046.730 .0250698
1047.311 .0250693
1047.891 .0250686
1048.471 .0250677
1049.052 .0250665
1049.632 .0250652
1050.211 .0250637
1050.791 .0250620
1051.371 .0250602
1051.950 .0250583
1052.530 .0250564
1053.109 .0250543
1053.688 .0250522
1054.268 .0250500
1054.847 .0250477
1055.426 .0250455
1056.005 .0250433
1056.583 .0250413
1057.162 .0250393
1057.741 .0250375
1058.319 .0250357
1058.898 .0250339
1059.476 .0250321
1060.055 .0250301
1060.633 .0250279
1061.211 .0250254
1061.790 .0250225
1062.368 .0250194
1062.946 .0250159
1063.524 .0250120
1064.102 .0250079
1064.680 .0250034
1065.258 .0249987
1065.836 .0249937
1066.414 .0249886
1066.992 .0249834
1067.570 .0249783
1068.148 .0249735
1068.726 .0249689
1069.304 .0249646
1069.882 .0249609
1070.460 .0249576
1071.038 .0249549
1071.616 .0249526
1072.194 .0249507
1072.772 .0249492
1073.350 .0249479
1073.928 .0249469
1074.506 .0249460
1075.084 .0249451
1075.662 .0249443
1076.240 .0249433
1076.819 .0249421
1077.397 .0249407
1077.976 .0249391
1078.554 .0249374
1079.133 .0249357
1079.711 .0249341
1080.290 .0249327
1080.869 .0249318
1081.448 .0249315
1082.027 .0249318
1082.606 .0249328
1083.185 .0249344
1083.764 .0249366
1084.343 .0249392
1084.923 .0249423
1085.502 .0249459
1086.082 .0249501
1086.662 .0249550
1087.242 .0249604
1087.822 .0249665
1088.402 .0249732
1088.983 .0249803
1089.563 .0249876
1090.144 .0249951
1090.725 .0250027
1091.306 .0250102
1091.887 .0250179
1092.469 .0250259
1093.050 .0250343
1093.632 .0250434
1094.214 .0250533
1094.796 .0250637
1095.379 .0250746
1095.961 .0250857
1096.544 .0250970
1097.127 .0251081
1097.710 .0251190
1098.294 .0251298
1098.877 .0251406
1099.461 .0251518
1100.046 .0251635
1100.630 .0251759
1101.215 .0251891
1101.800 .0252028
1102.385 .0252169
1102.970 .0252312
1103.556 .0252456
1104.142 .0252600
1104.728 .0252746
1105.315 .0252895
1105.902 .0253052
1106.489 .0253219
1107.077 .0253400
1107.664 .0253595
1108.253 .0253804
1108.841 .0254026
1109.430 .0254259
1110.019 .0254502
1110.609 .0254754
1111.198 .0255014
1111.789 .0255284
1112.379 .0255563
1112.970 .0255854
1113.561 .0256155
1114.153 .0256466
1114.745 .0256786
1115.338 .0257111
1115.931 .0257438
1116.524 .0257764
1117.117 .0258087
1117.712 .0258404
1118.306 .0258717
1118.901 .0259024
1119.496 .0259326
1120.092 .0259625
1120.689 .0259920
1121.285 .0260213
1121.882 .0260504
1122.480 .0260793
1123.078 .0261084
1123.677 .0261379
1124.276 .0261683
1124.875 .0261998
1125.476 .0262332
1126.076 .0262686
1126.677 .0263066
1127.279 .0263474
1127.881 .0263913
1128.484 .0264384
1129.087 .0264526
1129.691 .0265038
1130.295 .0265589
1130.900 .0266185
1131.505 .0266828
1132.111 .0267523
1132.718 .0268272
1133.325 .0269088
1133.933 .0269964
1134.541 .0270907
1135.150 .0271873
1135.760 .0272928
1136.370 .0274261
1136.981 .0273683
1137.592 .0275079
1138.204 .0276516
1138.817 .0278019
1139.431 .0279597
1140.045 .0281215
1140.660 .0282916
1141.275 .0284876
1141.891 .0286683
1142.508 .0288651
1143.126 .0289414
1143.744 .0292049
1144.363 .0299975
1144.983 .0293094
