Measurement Sequence started on: 15-12-46-377
Integration time: 28
Scans to Average: 2 
>>>>>Begin Spectral Data<<<<<
432.689 .0000100
433.621 .0000100
434.552 .0000100
435.482 .0000100
436.410 .0000100
437.337 .0000100
438.262 .0276388
439.187 .0585938
440.110 .0970640
441.031 .1404373
441.952 .1122162
442.871 .1171478
443.789 .1217378
444.705 .1260566
445.621 .1301527
446.535 .1340610
447.447 .1363523
448.359 .1368720
449.269 .1352435
450.178 .1312238
451.086 .1248947
451.993 .1167424
452.898 .1075696
453.803 .0982845
454.706 .0896585
455.608 .0821699
456.508 .0759774
457.408 .0717882
458.306 .0685709
459.204 .0659506
460.100 .0637398
460.995 .0618338
461.888 .0601645
462.781 .0586861
463.673 .0573665
464.563 .0561829
465.452 .0551174
466.340 .0541536
467.228 .0532790
468.114 .0524832
468.999 .0517556
469.882 .0510883
470.765 .0504748
471.647 .0499114
472.528 .0493946
473.407 .0489220
474.286 .0484922
475.163 .0481041
476.040 .0477573
476.915 .0474503
477.790 .0471818
478.663 .0469507
479.535 .0467552
480.407 .0465934
481.277 .0464625
482.147 .0463598
483.015 .0462818
483.883 .0462258
484.749 .0461897
485.615 .0461717
486.479 .0461702
487.343 .0461850
488.206 .0462160
489.067 .0462631
489.928 .0463266
490.788 .0464064
491.647 .0465024
492.505 .0466145
493.362 .0467414
494.218 .0468826
495.073 .0470377
495.928 .0473282
496.781 .0475231
497.634 .0477355
498.486 .0479669
499.337 .0482199
500.187 .0484967
501.036 .0487995
501.884 .0491302
502.731 .0494911
503.578 .0498844
504.424 .0501478
505.268 .0505980
506.113 .0510879
506.956 .0516218
507.798 .0522058
508.640 .0528473
509.480 .0535563
510.320 .0543451
511.160 .0552271
511.998 .0562164
512.836 .0573298
513.672 .0585857
514.508 .0600054
515.344 .0616094
516.178 .0634211
517.012 .0654655
517.845 .0677650
518.677 .0703392
519.508 .0732031
520.339 .0763633
521.169 .0798195
521.998 .0835476
522.826 .0875120
523.654 .0916611
524.481 .0959317
525.307 .1002506
526.133 .1045369
526.958 .1087042
527.782 .1126660
528.605 .1163404
529.428 .1196556
530.250 .1225445
531.072 .1249596
531.892 .1268598
532.712 .1282202
533.532 .1290261
534.350 .1292720
535.168 .1289620
535.986 .1281077
536.802 .1267219
537.618 .1248190
538.434 .1224160
539.249 .1195523
540.063 .1162754
540.876 .1126449
541.689 .1087290
542.501 .1046042
543.313 .1003508
544.124 .0960525
544.934 .0917903
545.744 .0876384
546.553 .0836601
547.361 .0799104
548.169 .0764227
548.976 .0732206
549.783 .0703112
550.589 .0676872
551.395 .0653302
552.200 .0632135
553.004 .0613047
553.808 .0595739
554.611 .0579972
555.414 .0565547
556.216 .0552284
557.018 .0540037
557.819 .0528692
558.619 .0518155
559.419 .0508335
560.218 .0499163
561.017 .0490568
561.815 .0482488
562.613 .0474861
563.410 .0467629
564.207 .0460735
565.003 .0454134
565.799 .0447777
566.594 .0441631
567.388 .0435676
568.182 .0429899
568.976 .0424289
569.769 .0418848
570.562 .0413581
571.354 .0408495
572.145 .0403594
572.936 .0398885
573.727 .0394364
574.517 .0390031
575.307 .0385881
576.096 .0381906
576.885 .0378103
577.673 .0374473
578.461 .0371011
579.248 .0367719
580.035 .0364598
580.821 .0361650
581.607 .0358873
582.392 .0356268
583.177 .0353833
583.962 .0351561
584.746 .0349447
585.529 .0347485
586.313 .0345667
587.095 .0343987
587.878 .0342436
588.660 .0341009
589.441 .0339697
590.222 .0338492
591.003 .0337386
591.783 .0336370
592.563 .0335437
593.342 .0334578
594.121 .0333784
594.899 .0333047
595.678 .0332359
596.455 .0331716
597.233 .0331110
598.009 .0330538
598.786 .0329993
599.562 .0329472
600.338 .0328968
601.113 .0328478
601.888 .0327774
602.663 .0327310
603.437 .0326855
604.211 .0326408
604.984 .0325970
605.757 .0325541
606.530 .0325120
607.302 .0324708
608.074 .0324304
608.845 .0323908
609.616 .0323519
610.387 .0323344
611.158 .0322968
611.928 .0322599
612.697 .0322237
613.467 .0321882
614.236 .0321535
615.004 .0321197
615.773 .0320865
616.541 .0320541
617.308 .0320224
618.076 .0319912
618.843 .0319604
619.609 .0319299
620.375 .0318997
621.141 .0318698
621.907 .0318400
622.672 .0318105
623.437 .0317811
624.202 .0317520
624.966 .0317230
625.730 .0316941
626.493 .0316653
627.257 .0316365
628.020 .0316077
628.782 .0315789
629.545 .0315501
630.307 .0315213
631.068 .0314928
631.830 .0314644
632.591 .0314364
633.352 .0314088
634.112 .0313818
634.872 .0313554
635.632 .0313297
636.392 .0313045
637.151 .0312800
637.910 .0312560
638.668 .0312326
639.427 .0312098
640.185 .0311875
640.943 .0311658
641.700 .0311447
642.457 .0311242
643.214 .0311043
643.971 .0310849
644.727 .0310660
645.483 .0310476
646.239 .0310295
646.994 .0310116
647.750 .0309939
648.505 .0309763
649.259 .0309587
650.014 .0309411
650.768 .0309234
651.521 .0309056
652.275 .0308877
653.028 .0308697
653.781 .0308515
654.534 .0308332
655.286 .0308148
656.039 .0307962
656.791 .0307775
657.542 .0307587
658.294 .0307398
659.045 .0307207
659.796 .0307015
660.546 .0306823
661.297 .0306631
662.047 .0306439
662.796 .0306249
663.546 .0306062
664.295 .0305877
665.044 .0305694
665.793 .0305515
666.542 .0305339
667.290 .0305165
668.038 .0304994
668.786 .0304825
669.533 .0304657
670.281 .0304492
671.028 .0304327
671.774 .0304164
672.521 .0304001
673.267 .0303838
674.013 .0303674
674.759 .0303508
675.505 .0303341
676.250 .0303171
676.995 .0302999
677.740 .0302825
678.484 .0302647
679.229 .0302467
679.973 .0302285
680.717 .0302100
681.460 .0301913
682.204 .0301723
682.947 .0301532
683.690 .0301337
684.433 .0301140
685.175 .0300940
685.917 .0300736
686.659 .0300530
687.401 .0300321
688.142 .0300109
688.884 .0299895
689.625 .0299679
690.365 .0299462
691.106 .0299245
691.846 .0299027
692.586 .0298809
693.326 .0298591
694.066 .0298372
694.805 .0298152
695.545 .0297932
696.284 .0297712
697.022 .0297492
697.761 .0297272
698.499 .0297052
699.237 .0296832
699.975 .0296613
700.713 .0296394
701.450 .0296176
702.187 .0295959
702.924 .0295741
703.661 .0295525
704.397 .0295308
705.133 .0295092
705.869 .0294876
706.605 .0294660
707.341 .0294443
708.076 .0294226
708.811 .0294008
709.546 .0293790
710.281 .0293572
711.015 .0293353
711.749 .0293136
712.483 .0292918
713.217 .0292702
713.950 .0292486
714.684 .0292271
715.417 .0292058
716.150 .0291845
716.882 .0291632
717.615 .0291421
718.347 .0291211
719.079 .0291003
719.811 .0290797
720.542 .0290593
721.273 .0290392
722.005 .0290194
722.735 .0290001
723.466 .0289811
724.196 .0289627
724.927 .0289447
725.656 .0289274
726.386 .0289106
727.116 .0288944
727.845 .0288787
728.574 .0288636
729.303 .0288490
730.031 .0288349
730.760 .0288212
731.488 .0288080
732.216 .0287952
732.944 .0287829
733.671 .0287711
734.398 .0287598
735.125 .0287489
735.852 .0287386
736.579 .0287289
737.305 .0287197
738.031 .0287110
738.757 .0287028
739.483 .0286951
740.208 .0286878
740.933 .0286808
741.658 .0286741
742.383 .0286676
743.108 .0286613
743.832 .0286552
744.556 .0286492
745.280 .0286433
746.004 .0286374
746.727 .0286316
747.450 .0286256
748.173 .0286195
748.896 .0286133
749.618 .0286068
750.340 .0286000
751.062 .0285931
751.784 .0285859
752.506 .0285786
753.227 .0285711
753.948 .0285634
754.669 .0285555
755.389 .0285474
756.110 .0285391
756.830 .0285306
757.550 .0285220
758.269 .0285131
758.989 .0285041
759.708 .0284950
760.427 .0284857
761.146 .0284762
761.864 .0284666
762.582 .0284569
763.300 .0284470
764.018 .0284369
764.736 .0284268
765.453 .0284166
766.170 .0284064
766.887 .0283962
767.603 .0283860
768.320 .0283759
769.036 .0283659
769.751 .0283559
770.467 .0283461
771.182 .0283364
771.897 .0283269
772.612 .0283176
773.327 .0283086
774.041 .0282999
774.755 .0282914
775.469 .0282832
776.183 .0282753
776.896 .0282676
777.609 .0282601
778.322 .0282527
779.035 .0282456
779.747 .0282385
780.459 .0282316
781.171 .0282247
781.882 .0282179
782.594 .0282110
783.305 .0282040
784.016 .0281970
784.726 .0281898
785.436 .0281824
786.147 .0281702
786.856 .0281623
787.566 .0281541
788.275 .0281457
788.984 .0281369
789.693 .0281279
790.401 .0281185
791.110 .0281088
791.818 .0280987
792.525 .0280884
793.233 .0280777
793.940 .0280667
794.647 .0280606
795.353 .0280490
796.060 .0280369
796.766 .0280242
797.472 .0280110
798.177 .0279972
798.883 .0279827
799.588 .0279675
800.292 .0279516
800.997 .0279350
801.701 .0279176
802.405 .0278995
803.109 .0278807
803.812 .0278612
804.515 .0278410
805.218 .0278201
805.921 .0277986
806.623 .0277766
807.325 .0277539
808.027 .0277308
808.728 .0277072
809.429 .0276832
810.130 .0276588
810.831 .0276342
811.531 .0276094
812.231 .0275845
812.931 .0275596
813.630 .0275348
814.330 .0275102
815.029 .0274860
815.727 .0274622
816.426 .0274389
817.124 .0274161
817.821 .0273940
818.519 .0273726
819.216 .0273519
819.913 .0273319
820.609 .0273127
821.306 .0272943
822.002 .0272767
822.697 .0272598
823.393 .0272438
824.088 .0272285
824.783 .0272139
825.477 .0271998
826.171 .0271863
826.865 .0271732
827.559 .0271606
828.252 .0271483
828.945 .0271363
829.638 .0271245
830.330 .0271130
831.023 .0271016
831.714 .0270903
832.406 .0270791
833.097 .0270679
833.788 .0270567
834.479 .0270455
835.169 .0270343
835.859 .0270231
836.548 .0270118
837.238 .0270005
837.927 .0269892
838.615 .0269778
839.304 .0269663
839.992 .0269547
840.680 .0269430
841.367 .0269313
842.054 .0269194
842.741 .0269076
843.428 .0268958
844.114 .0268841
844.800 .0268725
845.485 .0268610
846.170 .0268495
846.855 .0268382
847.540 .0268271
848.224 .0268162
848.908 .0268055
849.592 .0267950
850.275 .0267849
850.958 .0267751
851.641 .0267656
852.323 .0267564
853.005 .0267476
853.687 .0267389
854.368 .0267305
855.049 .0267223
855.730 .0267142
856.410 .0267063
857.090 .0266986
857.769 .0266909
858.449 .0266834
859.128 .0266760
859.806 .0266688
860.485 .0266616
861.163 .0266545
861.840 .0266475
862.518 .0266406
863.195 .0266339
863.871 .0266272
864.548 .0266207
865.224 .0266144
865.899 .0266082
866.574 .0266023
867.249 .0265966
867.924 .0265913
868.598 .0265863
869.272 .0265817
869.946 .0265776
870.619 .0265740
871.292 .0265709
871.964 .0265684
872.636 .0265664
873.308 .0265651
873.979 .0265644
874.651 .0265644
875.321 .0265651
875.992 .0265666
876.662 .0265688
877.331 .0265717
878.001 .0265753
878.670 .0265795
879.338 .0265843
880.007 .0265896
880.675 .0265953
881.342 .0266015
882.009 .0266081
882.676 .0266151
883.343 .0266225
884.009 .0266302
884.675 .0266383
885.340 .0266465
886.005 .0266549
886.670 .0266634
887.334 .0266720
887.998 .0266805
888.662 .0266890
889.325 .0266975
889.988 .0267058
890.650 .0267139
891.312 .0267219
891.974 .0267295
892.636 .0267368
893.297 .0267437
893.957 .0267501
894.618 .0267560
895.278 .0267614
895.937 .0267663
896.596 .0267706
897.255 .0267744
897.914 .0267775
898.572 .0267801
899.230 .0267820
899.887 .0267832
900.544 .0267836
901.201 .0267831
901.857 .0267785
902.513 .0267757
903.168 .0267718
903.823 .0267670
904.478 .0267613
905.132 .0267546
905.786 .0267471
906.440 .0267388
907.093 .0267297
907.746 .0267198
908.399 .0267093
909.051 .0266981
909.703 .0266864
910.354 .0266793
911.005 .0266670
911.656 .0266544
912.306 .0266414
912.956 .0266282
913.605 .0266149
914.254 .0266014
914.903 .0265877
915.551 .0265739
916.199 .0265599
916.847 .0265456
917.494 .0265311
918.141 .0265161
918.788 .0265008
919.434 .0264850
920.079 .0264688
920.725 .0264523
921.370 .0264354
922.014 .0264181
922.658 .0264005
923.302 .0263825
923.946 .0263641
924.589 .0263452
925.231 .0263258
925.873 .0263059
926.515 .0262854
927.157 .0262644
927.798 .0262430
928.439 .0262212
929.079 .0261992
929.719 .0261768
930.359 .0261543
930.998 .0261315
931.637 .0261084
932.275 .0260851
932.913 .0260617
933.551 .0260382
934.188 .0260147
934.825 .0259916
935.462 .0259688
936.098 .0259467
936.733 .0259252
937.369 .0259044
938.004 .0258843
938.638 .0258650
939.273 .0258462
939.907 .0258280
940.540 .0258103
941.173 .0257932
941.806 .0257765
942.438 .0257603
943.070 .0257447
943.702 .0257294
944.333 .0257144
944.964 .0256997
945.594 .0256850
946.224 .0256703
946.854 .0256554
947.483 .0256402
948.112 .0256247
948.741 .0256088
949.369 .0255925
949.996 .0255758
950.624 .0255585
951.251 .0255408
951.878 .0255224
952.504 .0255035
953.130 .0254840
953.755 .0254638
954.380 .0254430
955.005 .0254217
955.629 .0253998
956.253 .0253774
956.877 .0253546
957.500 .0253315
958.123 .0253080
958.746 .0252843
959.368 .0252605
959.990 .0252368
960.611 .0252131
961.232 .0251895
961.853 .0251662
962.473 .0251432
963.093 .0251206
963.712 .0250983
964.331 .0250764
964.950 .0250549
965.569 .0250339
966.187 .0250132
966.804 .0249931
967.422 .0249733
968.039 .0249540
968.655 .0249350
969.272 .0249163
969.887 .0248977
970.503 .0248793
971.118 .0248610
971.733 .0248427
972.347 .0248245
972.961 .0248063
973.575 .0247880
974.188 .0247698
974.801 .0247515
975.414 .0247331
976.026 .0247147
976.638 .0246962
977.250 .0246775
977.861 .0246587
978.472 .0246397
979.083 .0246205
979.693 .0246012
980.303 .0245816
980.912 .0245521
981.521 .0245326
982.130 .0245131
982.738 .0244937
983.346 .0244745
983.954 .0244555
984.562 .0244369
985.169 .0244185
985.775 .0244006
986.382 .0243832
986.988 .0243662
987.594 .0243499
988.199 .0243342
988.804 .0243192
989.409 .0243139
990.013 .0243003
990.617 .0242875
991.221 .0242757
991.824 .0242646
992.427 .0242545
993.030 .0242451
993.632 .0242364
994.234 .0242285
994.836 .0242213
995.438 .0242149
996.039 .0242092
996.640 .0242042
997.240 .0242002
997.840 .0241969
998.440 .0241944
999.040 .0241927
999.639 .0241915
1000.238 .0241908
1000.836 .0241905
1001.435 .0241906
1002.033 .0241909
1002.630 .0241914
1003.228 .0241922
1003.825 .0241933
1004.422 .0241945
1005.018 .0241960
1005.614 .0241976
1006.210 .0241994
1006.806 .0242012
1007.401 .0242030
1007.996 .0242049
1008.591 .0242068
1009.186 .0242087
1009.780 .0242109
1010.374 .0242134
1010.967 .0242162
1011.561 .0242195
1012.154 .0242233
1012.746 .0242275
1013.339 .0242323
1013.931 .0242374
1014.523 .0242430
1015.115 .0242489
1015.706 .0242553
1016.298 .0242620
1016.888 .0242692
1017.479 .0242768
1018.069 .0242851
1018.660 .0242940
1019.250 .0243035
1019.839 .0243138
1020.429 .0243248
1021.018 .0243366
1021.607 .0243490
1022.195 .0243623
1022.784 .0243762
1023.372 .0243908
1023.960 .0244062
1024.547 .0244222
1025.135 .0244388
1025.722 .0244561
1026.309 .0244738
1026.896 .0244920
1027.483 .0245105
1028.069 .0245292
1028.655 .0245481
1029.241 .0245671
1029.827 .0245860
1030.412 .0246049
1030.997 .0246236
1031.582 .0246422
1032.167 .0246605
1032.752 .0246786
1033.336 .0246965
1033.921 .0247141
1034.505 .0247314
1035.089 .0247484
1035.672 .0247650
1036.256 .0247813
1036.839 .0247972
1037.422 .0248127
1038.005 .0248277
1038.588 .0248423
1039.171 .0248565
1039.753 .0248702
1040.335 .0248833
1040.918 .0248960
1041.500 .0249082
1042.081 .0249199
1042.663 .0249312
1043.244 .0249421
1043.826 .0249528
1044.407 .0249631
1044.988 .0249733
1045.569 .0249832
1046.150 .0249929
1046.730 .0250025
1047.311 .0250119
1047.891 .0250213
1048.471 .0250307
1049.052 .0250401
1049.632 .0250498
1050.211 .0250597
1050.791 .0250700
1051.371 .0250807
1051.950 .0250918
1052.530 .0251035
1053.109 .0251155
1053.688 .0251281
1054.268 .0251411
1054.847 .0251546
1055.426 .0251687
1056.005 .0251835
1056.583 .0251988
1057.162 .0252149
1057.741 .0252317
1058.319 .0252490
1058.898 .0252669
1059.476 .0252850
1060.055 .0253032
1060.633 .0253214
1061.211 .0253396
1061.790 .0253575
1062.368 .0253752
1062.946 .0253928
1063.524 .0254102
1064.102 .0254276
1064.680 .0254447
1065.258 .0254616
1065.836 .0254782
1066.414 .0254944
1066.992 .0255099
1067.570 .0255248
1068.148 .0255391
1068.726 .0255527
1069.304 .0255659
1069.882 .0255785
1070.460 .0255908
1071.038 .0256026
1071.616 .0256140
1072.194 .0256248
1072.772 .0256351
1073.350 .0256447
1073.928 .0256538
1074.506 .0256623
1075.084 .0256704
1075.662 .0256783
1076.240 .0256862
1076.819 .0256940
1077.397 .0257020
1077.976 .0257100
1078.554 .0257182
1079.133 .0257265
1079.711 .0257348
1080.290 .0257433
1080.869 .0257519
1081.448 .0257608
1082.027 .0257700
1082.606 .0257794
1083.185 .0257893
1083.764 .0257995
1084.343 .0258101
1084.923 .0258210
1085.502 .0258323
1086.082 .0258439
1086.662 .0258560
1087.242 .0258686
1087.822 .0258819
1088.402 .0258959
1088.983 .0259107
1089.563 .0259263
1090.144 .0259427
1090.725 .0259597
1091.306 .0259774
1091.887 .0259957
1092.469 .0260145
1093.050 .0260339
1093.632 .0260538
1094.214 .0260742
1094.796 .0260953
1095.379 .0261169
1095.961 .0261390
1096.544 .0261615
1097.127 .0261844
1097.710 .0262075
1098.294 .0262308
1098.877 .0262543
1099.461 .0262779
1100.046 .0263017
1100.630 .0263258
1101.215 .0263501
1101.800 .0263745
1102.385 .0263990
1102.970 .0264233
1103.556 .0264475
1104.142 .0264714
1104.728 .0264948
1105.315 .0265178
1105.902 .0265404
1106.489 .0265626
1107.077 .0265844
1107.664 .0266061
1108.253 .0266275
1108.841 .0266487
1109.430 .0266700
1110.019 .0266912
1110.609 .0267125
1111.198 .0267340
1111.789 .0267556
1112.379 .0267775
1112.970 .0267995
1113.561 .0268216
1114.153 .0268437
1114.745 .0268658
1115.338 .0268880
1115.931 .0269102
1116.524 .0269326
1117.117 .0269552
1117.712 .0269782
1118.306 .0270017
1118.901 .0270258
1119.496 .0270505
1120.092 .0270761
1120.689 .0271026
1121.285 .0271304
1121.882 .0271598
1122.480 .0271913
1123.078 .0272252
1123.677 .0272619
1124.276 .0273019
1124.875 .0273452
1125.476 .0273917
1126.076 .0274412
1126.677 .0274936
1127.279 .0275486
1127.881 .0276061
1128.484 .0276662
1129.087 .0276870
1129.691 .0277509
1130.295 .0278180
1130.900 .0278891
1131.505 .0279640
1132.111 .0280432
1132.718 .0281267
1133.325 .0282147
1133.933 .0283076
1134.541 .0284002
1135.150 .0284982
1135.760 .0286032
1136.370 .0287211
1136.981 .0287909
1137.592 .0289062
1138.204 .0290289
1138.817 .0291623
1139.431 .0292953
1140.045 .0294320
1140.660 .0295717
1141.275 .0297193
1141.891 .0298789
1142.508 .0298946
1143.126 .0300756
1143.744 .0303026
1144.363 .0306975
1144.983 .0309893
