Measurement Sequence started on: 15-12-46-377
Integration time: 28
Scans to Average: 2 
>>>>>Begin Spectral Data<<<<<
432.689 .0000100
433.621 .0000100
434.552 .0000100
435.482 .0000100
436.410 .0000100
437.337 .0000100
438.262 .0277953
439.187 .0587926
440.110 .0972212
441.031 .1405786
441.952 .1120575
442.871 .1169359
443.789 .1214573
444.705 .1256922
445.621 .1296919
446.535 .1334952
447.447 .1356692
448.359 .1360683
449.269 .1343227
450.178 .1301893
451.086 .1237530
451.993 .1155002
452.898 .1062342
453.803 .0968623
454.706 .0881554
455.608 .0805907
456.508 .0743282
457.408 .0700831
458.306 .0668211
459.204 .0641724
460.100 .0619585
460.995 .0600753
461.888 .0584539
462.781 .0570447
463.673 .0558104
464.563 .0547219
465.452 .0537568
466.340 .0528945
467.228 .0521202
468.114 .0514218
468.999 .0507899
469.882 .0502168
470.765 .0496969
471.647 .0492252
472.528 .0487972
473.407 .0484085
474.286 .0480556
475.163 .0477353
476.040 .0474448
476.915 .0471813
477.790 .0469433
478.663 .0467297
479.535 .0465398
480.407 .0463733
481.277 .0462305
482.147 .0461114
483.015 .0460162
483.883 .0459443
484.749 .0458947
485.615 .0458664
486.479 .0458574
487.343 .0458662
488.206 .0458910
489.067 .0459306
489.928 .0459846
490.788 .0460530
491.647 .0461369
492.505 .0462375
493.362 .0463561
494.218 .0464947
495.073 .0466542
495.928 .0469717
496.781 .0471910
497.634 .0474340
498.486 .0477012
499.337 .0479941
500.187 .0483144
501.036 .0486645
501.884 .0490478
502.731 .0494689
503.578 .0499304
504.424 .0502515
505.268 .0507850
506.113 .0513678
506.956 .0520033
507.798 .0526971
508.640 .0534560
509.480 .0542881
510.320 .0552050
511.160 .0562191
511.998 .0573453
512.836 .0586002
513.672 .0600005
514.508 .0615635
515.344 .0633108
516.178 .0652627
517.012 .0674417
517.845 .0698715
518.677 .0725794
519.508 .0755867
520.339 .0789071
521.169 .0825484
521.998 .0864880
522.826 .0906906
523.654 .0951016
524.481 .0996474
525.307 .1042458
526.133 .1088032
526.958 .1132270
527.782 .1174241
528.605 .1213126
529.428 .1248198
530.250 .1278792
531.072 .1304493
531.892 .1324924
532.712 .1339805
533.532 .1349001
534.350 .1352467
535.168 .1350211
535.986 .1342224
536.802 .1328536
537.618 .1309214
538.434 .1284359
539.249 .1254362
540.063 .1219705
540.876 .1181040
541.689 .1139195
542.501 .1095047
543.313 .1049535
544.124 .1003585
544.934 .0958074
545.744 .0913748
546.553 .0871235
547.361 .0831073
548.169 .0793534
548.976 .0758865
549.783 .0727162
550.589 .0698379
551.395 .0672355
552.200 .0648854
553.004 .0627609
553.808 .0608358
554.611 .0590877
555.414 .0574961
556.216 .0560416
557.018 .0547081
557.819 .0534814
558.619 .0523474
559.419 .0512948
560.218 .0503147
561.017 .0493974
561.815 .0485357
562.613 .0477232
563.410 .0469540
564.207 .0462236
565.003 .0455295
565.799 .0448675
566.594 .0442345
567.388 .0436281
568.182 .0430458
568.976 .0424851
569.769 .0419447
570.562 .0414230
571.354 .0409194
572.145 .0404336
572.936 .0399657
573.727 .0395154
574.517 .0390835
575.307 .0386700
576.096 .0382746
576.885 .0378978
577.673 .0375396
578.461 .0371996
579.248 .0368779
580.035 .0365744
580.821 .0362885
581.607 .0360196
582.392 .0357670
583.177 .0355298
583.962 .0353073
584.746 .0350987
585.529 .0349033
586.313 .0347204
587.095 .0345495
587.878 .0343902
588.660 .0342418
589.441 .0341040
590.222 .0339762
591.003 .0338579
591.783 .0337488
592.563 .0336483
593.342 .0335559
594.121 .0334710
594.899 .0333930
595.678 .0333212
596.455 .0332547
597.233 .0331929
598.009 .0331348
598.786 .0330801
599.562 .0330280
600.338 .0329780
601.113 .0329298
601.888 .0328617
602.663 .0328168
603.437 .0327731
604.211 .0327306
604.984 .0326891
605.757 .0326485
606.530 .0326088
607.302 .0325699
608.074 .0325318
608.845 .0324944
609.616 .0324578
610.387 .0324418
611.158 .0324064
611.928 .0323718
612.697 .0323381
613.467 .0323054
614.236 .0322738
615.004 .0322433
615.773 .0322138
616.541 .0321854
617.308 .0321578
618.076 .0321311
618.843 .0321051
619.609 .0320798
620.375 .0320551
621.141 .0320308
621.907 .0320070
622.672 .0319836
623.437 .0319605
624.202 .0319375
624.966 .0319146
625.730 .0318916
626.493 .0318685
627.257 .0318451
628.020 .0318213
628.782 .0317971
629.545 .0317725
630.307 .0317476
631.068 .0317222
631.830 .0316964
632.591 .0316703
633.352 .0316438
634.112 .0316170
634.872 .0315900
635.632 .0315628
636.392 .0315354
637.151 .0315080
637.910 .0314806
638.668 .0314532
639.427 .0314261
640.185 .0313992
640.943 .0313727
641.700 .0313467
642.457 .0313215
643.214 .0312972
643.971 .0312740
644.727 .0312520
645.483 .0312312
646.239 .0312116
646.994 .0311930
647.750 .0311753
648.505 .0311583
649.259 .0311417
650.014 .0311255
650.768 .0311096
651.521 .0310939
652.275 .0310784
653.028 .0310631
653.781 .0310479
654.534 .0310327
655.286 .0310174
656.039 .0310019
656.791 .0309859
657.542 .0309693
658.294 .0309520
659.045 .0309338
659.796 .0309148
660.546 .0308949
661.297 .0308744
662.047 .0308532
662.796 .0308316
663.546 .0308097
664.295 .0307876
665.044 .0307654
665.793 .0307434
666.542 .0307215
667.290 .0306999
668.038 .0306785
668.786 .0306574
669.533 .0306364
670.281 .0306155
671.028 .0305948
671.774 .0305743
672.521 .0305540
673.267 .0305341
674.013 .0305146
674.759 .0304955
675.505 .0304768
676.250 .0304584
676.995 .0304403
677.740 .0304222
678.484 .0304040
679.229 .0303856
679.973 .0303669
680.717 .0303478
681.460 .0303283
682.204 .0303085
682.947 .0302883
683.690 .0302678
684.433 .0302470
685.175 .0302259
685.917 .0302046
686.659 .0301832
687.401 .0301618
688.142 .0301402
688.884 .0301186
689.625 .0300970
690.365 .0300754
691.106 .0300539
691.846 .0300323
692.586 .0300109
693.326 .0299896
694.066 .0299687
694.805 .0299480
695.545 .0299276
696.284 .0299077
697.022 .0298881
697.761 .0298688
698.499 .0298498
699.237 .0298311
699.975 .0298127
700.713 .0297945
701.450 .0297767
702.187 .0297592
702.924 .0297421
703.661 .0297253
704.397 .0297087
705.133 .0296923
705.869 .0296760
706.605 .0296598
707.341 .0296436
708.076 .0296276
708.811 .0296116
709.546 .0295958
710.281 .0295802
711.015 .0295649
711.749 .0295498
712.483 .0295349
713.217 .0295203
713.950 .0295058
714.684 .0294914
715.417 .0294770
716.150 .0294627
716.882 .0294484
717.615 .0294340
718.347 .0294196
719.079 .0294051
719.811 .0293907
720.542 .0293762
721.273 .0293619
722.005 .0293477
722.735 .0293338
723.466 .0293200
724.196 .0293065
724.927 .0292933
725.656 .0292803
726.386 .0292677
727.116 .0292553
727.845 .0292433
728.574 .0292316
729.303 .0292204
730.031 .0292097
730.760 .0291995
731.488 .0291899
732.216 .0291809
732.944 .0291724
733.671 .0291646
734.398 .0291572
735.125 .0291503
735.852 .0291438
736.579 .0291374
737.305 .0291312
738.031 .0291251
738.757 .0291191
739.483 .0291130
740.208 .0291069
740.933 .0291007
741.658 .0290944
742.383 .0290879
743.108 .0290811
743.832 .0290740
744.556 .0290665
745.280 .0290585
746.004 .0290499
746.727 .0290407
747.450 .0290308
748.173 .0290201
748.896 .0290088
749.618 .0289967
750.340 .0289838
751.062 .0289703
751.784 .0289562
752.506 .0289415
753.227 .0289262
753.948 .0289105
754.669 .0288944
755.389 .0288779
756.110 .0288610
756.830 .0288438
757.550 .0288263
758.269 .0288084
758.989 .0287904
759.708 .0287721
760.427 .0287536
761.146 .0287349
761.864 .0287161
762.582 .0286971
763.300 .0286781
764.018 .0286590
764.736 .0286399
765.453 .0286208
766.170 .0286019
766.887 .0285831
767.603 .0285646
768.320 .0285463
769.036 .0285282
769.751 .0285104
770.467 .0284929
771.182 .0284757
771.897 .0284589
772.612 .0284426
773.327 .0284268
774.041 .0284117
774.755 .0283972
775.469 .0283833
776.183 .0283701
776.896 .0283576
777.609 .0283458
778.322 .0283345
779.035 .0283239
779.747 .0283137
780.459 .0283042
781.171 .0282950
781.882 .0282863
782.594 .0282780
783.305 .0282701
784.016 .0282624
784.726 .0282551
785.436 .0282481
786.147 .0282380
786.856 .0282314
787.566 .0282251
788.275 .0282188
788.984 .0282125
789.693 .0282063
790.401 .0282001
791.110 .0281938
791.818 .0281874
792.525 .0281811
793.233 .0281747
793.940 .0281684
794.647 .0281654
795.353 .0281591
796.060 .0281527
796.766 .0281462
797.472 .0281395
798.177 .0281327
798.883 .0281257
799.588 .0281186
800.292 .0281112
800.997 .0281037
801.701 .0280960
802.405 .0280880
803.109 .0280798
803.812 .0280714
804.515 .0280628
805.218 .0280538
805.921 .0280445
806.623 .0280350
807.325 .0280251
808.027 .0280150
808.728 .0280046
809.429 .0279940
810.130 .0279831
810.831 .0279721
811.531 .0279610
812.231 .0279498
812.931 .0279387
813.630 .0279277
814.330 .0279169
815.029 .0279064
815.727 .0278962
816.426 .0278864
817.124 .0278770
817.821 .0278680
818.519 .0278594
819.216 .0278514
819.913 .0278438
820.609 .0278367
821.306 .0278302
822.002 .0278243
822.697 .0278189
823.393 .0278141
824.088 .0278098
824.783 .0278059
825.477 .0278024
826.171 .0277993
826.865 .0277965
827.559 .0277940
828.252 .0277916
828.945 .0277895
829.638 .0277874
830.330 .0277855
831.023 .0277836
831.714 .0277817
832.406 .0277799
833.097 .0277781
833.788 .0277762
834.479 .0277743
835.169 .0277723
835.859 .0277702
836.548 .0277680
837.238 .0277656
837.927 .0277630
838.615 .0277600
839.304 .0277568
839.992 .0277532
840.680 .0277493
841.367 .0277450
842.054 .0277403
842.741 .0277353
843.428 .0277297
844.114 .0277238
844.800 .0277172
845.485 .0277101
846.170 .0277024
846.855 .0276938
847.540 .0276846
848.224 .0276745
848.908 .0276637
849.592 .0276521
850.275 .0276398
850.958 .0276268
851.641 .0276132
852.323 .0275989
853.005 .0275840
853.687 .0275685
854.368 .0275525
855.049 .0275360
855.730 .0275190
856.410 .0275016
857.090 .0274838
857.769 .0274657
858.449 .0274472
859.128 .0274285
859.806 .0274095
860.485 .0273903
861.163 .0273710
861.840 .0273516
862.518 .0273323
863.195 .0273132
863.871 .0272943
864.548 .0272758
865.224 .0272576
865.899 .0272397
866.574 .0272221
867.249 .0272048
867.924 .0271877
868.598 .0271708
869.272 .0271542
869.946 .0271379
870.619 .0271219
871.292 .0271063
871.964 .0270911
872.636 .0270763
873.308 .0270619
873.979 .0270478
874.651 .0270340
875.321 .0270205
875.992 .0270072
876.662 .0269943
877.331 .0269817
878.001 .0269694
878.670 .0269574
879.338 .0269458
880.007 .0269346
880.675 .0269236
881.342 .0269130
882.009 .0269027
882.676 .0268928
883.343 .0268831
884.009 .0268738
884.675 .0268648
885.340 .0268563
886.005 .0268481
886.670 .0268402
887.334 .0268326
887.998 .0268254
888.662 .0268185
889.325 .0268120
889.988 .0268060
890.650 .0268003
891.312 .0267952
891.974 .0267906
892.636 .0267864
893.297 .0267827
893.957 .0267794
894.618 .0267763
895.278 .0267735
895.937 .0267706
896.596 .0267677
897.255 .0267646
897.914 .0267613
898.572 .0267576
899.230 .0267534
899.887 .0267488
900.544 .0267436
901.201 .0267379
901.857 .0267263
902.513 .0267191
903.168 .0267112
903.823 .0267028
904.478 .0266938
905.132 .0266843
905.786 .0266741
906.440 .0266634
907.093 .0266522
907.746 .0266407
908.399 .0266288
909.051 .0266167
909.703 .0266044
910.354 .0265981
911.005 .0265858
911.656 .0265733
912.306 .0265606
912.956 .0265478
913.605 .0265349
914.254 .0265219
914.903 .0265089
915.551 .0264960
916.199 .0264832
916.847 .0264704
917.494 .0264578
918.141 .0264452
918.788 .0264326
919.434 .0264199
920.079 .0264072
920.725 .0263944
921.370 .0263814
922.014 .0263684
922.658 .0263552
923.302 .0263419
923.946 .0263285
924.589 .0263150
925.231 .0263013
925.873 .0262874
926.515 .0262733
927.157 .0262590
927.798 .0262446
928.439 .0262303
929.079 .0262160
929.719 .0262019
930.359 .0261881
930.998 .0261746
931.637 .0261614
932.275 .0261487
932.913 .0261363
933.551 .0261244
934.188 .0261131
934.825 .0261024
935.462 .0260923
936.098 .0260829
936.733 .0260742
937.369 .0260663
938.004 .0260591
938.638 .0260527
939.273 .0260468
939.907 .0260416
940.540 .0260370
941.173 .0260330
941.806 .0260295
942.438 .0260266
943.070 .0260241
943.702 .0260220
944.333 .0260203
944.964 .0260189
945.594 .0260176
946.224 .0260165
946.854 .0260153
947.483 .0260140
948.112 .0260126
948.741 .0260109
949.369 .0260090
949.996 .0260068
950.624 .0260043
951.251 .0260015
951.878 .0259984
952.504 .0259950
953.130 .0259912
953.755 .0259871
954.380 .0259826
955.005 .0259777
955.629 .0259724
956.253 .0259668
956.877 .0259608
957.500 .0259545
958.123 .0259479
958.746 .0259410
959.368 .0259340
959.990 .0259269
960.611 .0259197
961.232 .0259124
961.853 .0259051
962.473 .0258979
963.093 .0258907
963.712 .0258836
964.331 .0258766
964.950 .0258698
965.569 .0258633
966.187 .0258568
966.804 .0258506
967.422 .0258445
968.039 .0258385
968.655 .0258325
969.272 .0258264
969.887 .0258202
970.503 .0258139
971.118 .0258074
971.733 .0258007
972.347 .0257938
972.961 .0257866
973.575 .0257790
974.188 .0257710
974.801 .0257625
975.414 .0257533
976.026 .0257436
976.638 .0257332
977.250 .0257221
977.861 .0257103
978.472 .0256979
979.083 .0256848
979.693 .0256711
980.303 .0256568
980.912 .0256324
981.521 .0256167
982.130 .0256003
982.738 .0255835
983.346 .0255662
983.954 .0255486
984.562 .0255308
985.169 .0255131
985.775 .0254955
986.382 .0254783
986.988 .0254614
987.594 .0254449
988.199 .0254290
988.804 .0254137
989.409 .0254083
990.013 .0253941
990.617 .0253807
991.221 .0253682
991.824 .0253566
992.427 .0253459
993.030 .0253362
993.632 .0253273
994.234 .0253192
994.836 .0253117
995.438 .0253047
996.039 .0252982
996.640 .0252921
997.240 .0252864
997.840 .0252812
998.440 .0252766
999.040 .0252725
999.639 .0252690
1000.238 .0252659
1000.836 .0252632
1001.435 .0252607
1002.033 .0252585
1002.630 .0252563
1003.228 .0252541
1003.825 .0252518
1004.422 .0252495
1005.018 .0252472
1005.614 .0252450
1006.210 .0252427
1006.806 .0252405
1007.401 .0252383
1007.996 .0252360
1008.591 .0252335
1009.186 .0252308
1009.780 .0252280
1010.374 .0252251
1010.967 .0252223
1011.561 .0252196
1012.154 .0252172
1012.746 .0252153
1013.339 .0252139
1013.931 .0252129
1014.523 .0252126
1015.115 .0252127
1015.706 .0252132
1016.298 .0252141
1016.888 .0252154
1017.479 .0252170
1018.069 .0252190
1018.660 .0252213
1019.250 .0252240
1019.839 .0252271
1020.429 .0252306
1021.018 .0252345
1021.607 .0252387
1022.195 .0252431
1022.784 .0252478
1023.372 .0252526
1023.960 .0252575
1024.547 .0252627
1025.135 .0252681
1025.722 .0252736
1026.309 .0252795
1026.896 .0252854
1027.483 .0252915
1028.069 .0252977
1028.655 .0253038
1029.241 .0253097
1029.827 .0253155
1030.412 .0253210
1030.997 .0253262
1031.582 .0253311
1032.167 .0253358
1032.752 .0253403
1033.336 .0253448
1033.921 .0253491
1034.505 .0253533
1035.089 .0253574
1035.672 .0253614
1036.256 .0253653
1036.839 .0253691
1037.422 .0253729
1038.005 .0253766
1038.588 .0253803
1039.171 .0253839
1039.753 .0253875
1040.335 .0253910
1040.918 .0253944
1041.500 .0253976
1042.081 .0254006
1042.663 .0254034
1043.244 .0254060
1043.826 .0254085
1044.407 .0254109
1044.988 .0254131
1045.569 .0254153
1046.150 .0254174
1046.730 .0254194
1047.311 .0254213
1047.891 .0254231
1048.471 .0254247
1049.052 .0254263
1049.632 .0254279
1050.211 .0254294
1050.791 .0254310
1051.371 .0254326
1051.950 .0254344
1052.530 .0254362
1053.109 .0254380
1053.688 .0254398
1054.268 .0254415
1054.847 .0254431
1055.426 .0254448
1056.005 .0254465
1056.583 .0254484
1057.162 .0254507
1057.741 .0254534
1058.319 .0254567
1058.898 .0254607
1059.476 .0254652
1060.055 .0254702
1060.633 .0254756
1061.211 .0254813
1061.790 .0254874
1062.368 .0254937
1062.946 .0255003
1063.524 .0255071
1064.102 .0255143
1064.680 .0255217
1065.258 .0255294
1065.836 .0255371
1066.414 .0255448
1066.992 .0255524
1067.570 .0255597
1068.148 .0255668
1068.726 .0255736
1069.304 .0255804
1069.882 .0255871
1070.460 .0255939
1071.038 .0256008
1071.616 .0256078
1072.194 .0256149
1072.772 .0256219
1073.350 .0256287
1073.928 .0256352
1074.506 .0256413
1075.084 .0256471
1075.662 .0256526
1076.240 .0256579
1076.819 .0256630
1077.397 .0256682
1077.976 .0256734
1078.554 .0256788
1079.133 .0256844
1079.711 .0256903
1080.290 .0256965
1080.869 .0257032
1081.448 .0257104
1082.027 .0257183
1082.606 .0257270
1083.185 .0257365
1083.764 .0257469
1084.343 .0257582
1084.923 .0257703
1085.502 .0257832
1086.082 .0257967
1086.662 .0258108
1087.242 .0258254
1087.822 .0258403
1088.402 .0258556
1088.983 .0258711
1089.563 .0258867
1090.144 .0259024
1090.725 .0259181
1091.306 .0259337
1091.887 .0259491
1092.469 .0259645
1093.050 .0259799
1093.632 .0259953
1094.214 .0260109
1094.796 .0260267
1095.379 .0260428
1095.961 .0260593
1096.544 .0260762
1097.127 .0260934
1097.710 .0261109
1098.294 .0261285
1098.877 .0261461
1099.461 .0261638
1100.046 .0261815
1100.630 .0261994
1101.215 .0262175
1101.800 .0262359
1102.385 .0262544
1102.970 .0262732
1103.556 .0262921
1104.142 .0263110
1104.728 .0263301
1105.315 .0263492
1105.902 .0263687
1106.489 .0263886
1107.077 .0264093
1107.664 .0264311
1108.253 .0264540
1108.841 .0264782
1109.430 .0265038
1110.019 .0265308
1110.609 .0265590
1111.198 .0265884
1111.789 .0266190
1112.379 .0266506
1112.970 .0266834
1113.561 .0267171
1114.153 .0267519
1114.745 .0267878
1115.338 .0268246
1115.931 .0268622
1116.524 .0269004
1117.117 .0269392
1117.712 .0269785
1118.306 .0270180
1118.901 .0270580
1119.496 .0270984
1120.092 .0271393
1120.689 .0271809
1121.285 .0272233
1121.882 .0272668
1122.480 .0273114
1123.078 .0273573
1123.677 .0274047
1124.276 .0274536
1124.875 .0275043
1125.476 .0275568
1126.076 .0276114
1126.677 .0276683
1127.279 .0277275
1127.881 .0277894
1128.484 .0278541
1129.087 .0278809
1129.691 .0279489
1130.295 .0280200
1130.900 .0280943
1131.505 .0281723
1132.111 .0282541
1132.718 .0283399
1133.325 .0284305
1133.933 .0285268
1134.541 .0286309
1135.150 .0287333
1135.760 .0288447
1136.370 .0289671
1136.981 .0289217
1137.592 .0290607
1138.204 .0292075
1138.817 .0293548
1139.431 .0295157
1140.045 .0296759
1140.660 .0298432
1141.275 .0300240
1141.891 .0302282
1142.508 .0304936
1143.126 .0304866
1143.744 .0307749
1144.363 .0311277
1144.983 .0317176
