Measurement Sequence started on: 15-12-46-377
Integration time: 28
Scans to Average: 2 
>>>>>Begin Spectral Data<<<<<
432.689 .0000100
433.621 .0000100
434.552 .0000100
435.482 .0000100
436.410 .0000100
437.337 .0000100
438.262 .0275422
439.187 .0584131
440.110 .0967249
441.031 .1399446
441.952 .1119421
442.871 .1168449
443.789 .1213973
444.705 .1256757
445.621 .1297324
446.535 .1336068
447.447 .1358792
448.359 .1363961
449.269 .1347831
450.178 .1307950
451.086 .1245089
451.993 .1164055
452.898 .1072818
453.803 .0980404
454.706 .0894508
455.608 .0819929
456.508 .0758283
457.408 .0716658
458.306 .0684836
459.204 .0659082
460.100 .0637537
460.995 .0619146
461.888 .0603169
462.781 .0589102
463.673 .0576582
464.563 .0565339
465.452 .0555176
466.340 .0545940
467.228 .0537522
468.114 .0529823
468.999 .0522772
469.882 .0516296
470.765 .0510337
471.647 .0504850
472.528 .0499795
473.407 .0495136
474.286 .0490852
475.163 .0486922
476.040 .0483332
476.915 .0480077
477.790 .0477141
478.663 .0474515
479.535 .0472193
480.407 .0470159
481.277 .0468401
482.147 .0466905
483.015 .0465661
483.883 .0464659
484.749 .0463891
485.615 .0463352
486.479 .0463039
487.343 .0462951
488.206 .0463086
489.067 .0463443
489.928 .0464023
490.788 .0464819
491.647 .0465825
492.505 .0467033
493.362 .0468432
494.218 .0470014
495.073 .0471767
495.928 .0474970
496.781 .0477133
497.634 .0479476
498.486 .0482011
499.337 .0484759
500.187 .0487745
501.036 .0490991
501.884 .0494532
502.731 .0498402
503.578 .0502639
504.424 .0505558
505.268 .0510530
506.113 .0516003
506.956 .0522036
507.798 .0528705
508.640 .0536098
509.480 .0544309
510.320 .0553461
511.160 .0563678
511.998 .0575110
512.836 .0587924
513.672 .0602297
514.508 .0618426
515.344 .0636531
516.178 .0656821
517.012 .0679514
517.845 .0704820
518.677 .0732919
519.508 .0763956
520.339 .0798001
521.169 .0835052
521.998 .0874863
522.826 .0917087
523.654 .0961178
524.481 .1006444
525.307 .1052099
526.133 .1097238
526.958 .1140930
527.782 .1182266
528.605 .1220397
529.428 .1254583
530.250 .1284177
531.072 .1308737
531.892 .1327878
532.712 .1341371
533.532 .1349088
534.350 .1350989
535.168 .1347114
535.986 .1337555
536.802 .1322412
537.618 .1301828
538.434 .1275973
539.249 .1245241
540.063 .1210110
540.876 .1171211
541.689 .1129295
542.501 .1085188
543.313 .1039791
544.124 .0994027
544.934 .0948764
545.744 .0904795
546.553 .0862778
547.361 .0823248
548.169 .0786510
548.976 .0752789
549.783 .0722119
550.589 .0694419
551.395 .0669497
552.200 .0647087
553.004 .0626894
553.808 .0608635
554.611 .0592065
555.414 .0576972
556.216 .0563163
557.018 .0550468
557.819 .0538744
558.619 .0527871
559.419 .0517746
560.218 .0508291
561.017 .0499422
561.815 .0491074
562.613 .0483189
563.410 .0475705
564.207 .0468569
565.003 .0461742
565.799 .0455174
566.594 .0448829
567.388 .0442686
568.182 .0436731
568.976 .0430951
569.769 .0425348
570.562 .0419922
571.354 .0414678
572.145 .0409622
572.936 .0404757
573.727 .0400083
574.517 .0395605
575.307 .0391324
576.096 .0387227
576.885 .0383313
577.673 .0379579
578.461 .0376011
579.248 .0372606
580.035 .0369362
580.821 .0366274
581.607 .0363342
582.392 .0360566
583.177 .0357948
583.962 .0355491
584.746 .0353198
585.529 .0351065
586.313 .0349086
587.095 .0347256
587.878 .0345565
588.660 .0344000
589.441 .0342551
590.222 .0341207
591.003 .0339957
591.783 .0338793
592.563 .0337709
593.342 .0336698
594.121 .0335755
594.899 .0334876
595.678 .0334058
596.455 .0333291
597.233 .0332571
598.009 .0331891
598.786 .0331244
599.562 .0330625
600.338 .0330028
601.113 .0329451
601.888 .0328651
602.663 .0328119
603.437 .0327605
604.211 .0327111
604.984 .0326636
605.757 .0326179
606.530 .0325741
607.302 .0325320
608.074 .0324915
608.845 .0324523
609.616 .0324145
610.387 .0323988
611.158 .0323629
611.928 .0323284
612.697 .0322951
613.467 .0322632
614.236 .0322325
615.004 .0322031
615.773 .0321748
616.541 .0321477
617.308 .0321215
618.076 .0320962
618.843 .0320716
619.609 .0320476
620.375 .0320241
621.141 .0320010
621.907 .0319782
622.672 .0319555
623.437 .0319329
624.202 .0319103
624.966 .0318877
625.730 .0318649
626.493 .0318420
627.257 .0318187
628.020 .0317951
628.782 .0317710
629.545 .0317465
630.307 .0317214
631.068 .0316958
631.830 .0316698
632.591 .0316433
633.352 .0316165
634.112 .0315893
634.872 .0315618
635.632 .0315340
636.392 .0315058
637.151 .0314774
637.910 .0314486
638.668 .0314196
639.427 .0313905
640.185 .0313612
640.943 .0313319
641.700 .0313027
642.457 .0312736
643.214 .0312449
643.971 .0312165
644.727 .0311885
645.483 .0311610
646.239 .0311341
646.994 .0311076
647.750 .0310817
648.505 .0310563
649.259 .0310314
650.014 .0310069
650.768 .0309829
651.521 .0309594
652.275 .0309363
653.028 .0309138
653.781 .0308917
654.534 .0308701
655.286 .0308489
656.039 .0308281
656.791 .0308076
657.542 .0307872
658.294 .0307670
659.045 .0307469
659.796 .0307268
660.546 .0307067
661.297 .0306864
662.047 .0306660
662.796 .0306454
663.546 .0306245
664.295 .0306033
665.044 .0305818
665.793 .0305600
666.542 .0305380
667.290 .0305157
668.038 .0304932
668.786 .0304707
669.533 .0304480
670.281 .0304252
671.028 .0304024
671.774 .0303795
672.521 .0303566
673.267 .0303337
674.013 .0303110
674.759 .0302884
675.505 .0302659
676.250 .0302437
676.995 .0302217
677.740 .0302000
678.484 .0301784
679.229 .0301572
679.973 .0301362
680.717 .0301155
681.460 .0300952
682.204 .0300751
682.947 .0300552
683.690 .0300356
684.433 .0300161
685.175 .0299967
685.917 .0299773
686.659 .0299578
687.401 .0299383
688.142 .0299186
688.884 .0298989
689.625 .0298790
690.365 .0298589
691.106 .0298386
691.846 .0298181
692.586 .0297972
693.326 .0297759
694.066 .0297542
694.805 .0297321
695.545 .0297096
696.284 .0296868
697.022 .0296637
697.761 .0296402
698.499 .0296167
699.237 .0295930
699.975 .0295692
700.713 .0295454
701.450 .0295215
702.187 .0294976
702.924 .0294738
703.661 .0294500
704.397 .0294264
705.133 .0294028
705.869 .0293794
706.605 .0293562
707.341 .0293332
708.076 .0293104
708.811 .0292879
709.546 .0292658
710.281 .0292440
711.015 .0292225
711.749 .0292014
712.483 .0291808
713.217 .0291605
713.950 .0291406
714.684 .0291211
715.417 .0291020
716.150 .0290830
716.882 .0290643
717.615 .0290457
718.347 .0290273
719.079 .0290089
719.811 .0289907
720.542 .0289726
721.273 .0289547
722.005 .0289370
722.735 .0289195
723.466 .0289024
724.196 .0288856
724.927 .0288692
725.656 .0288531
726.386 .0288374
727.116 .0288222
727.845 .0288074
728.574 .0287932
729.303 .0287795
730.031 .0287663
730.760 .0287538
731.488 .0287420
732.216 .0287307
732.944 .0287200
733.671 .0287099
734.398 .0287003
735.125 .0286912
735.852 .0286826
736.579 .0286743
737.305 .0286665
738.031 .0286590
738.757 .0286520
739.483 .0286452
740.208 .0286387
740.933 .0286324
741.658 .0286263
742.383 .0286201
743.108 .0286139
743.832 .0286076
744.556 .0286011
745.280 .0285945
746.004 .0285876
746.727 .0285805
747.450 .0285731
748.173 .0285654
748.896 .0285574
749.618 .0285490
750.340 .0285404
751.062 .0285313
751.784 .0285220
752.506 .0285123
753.227 .0285024
753.948 .0284923
754.669 .0284819
755.389 .0284714
756.110 .0284606
756.830 .0284498
757.550 .0284387
758.269 .0284275
758.989 .0284161
759.708 .0284046
760.427 .0283929
761.146 .0283809
761.864 .0283687
762.582 .0283563
763.300 .0283436
764.018 .0283307
764.736 .0283176
765.453 .0283043
766.170 .0282909
766.887 .0282774
767.603 .0282638
768.320 .0282502
769.036 .0282366
769.751 .0282231
770.467 .0282095
771.182 .0281960
771.897 .0281826
772.612 .0281692
773.327 .0281558
774.041 .0281426
774.755 .0281297
775.469 .0281169
776.183 .0281045
776.896 .0280925
777.609 .0280808
778.322 .0280695
779.035 .0280586
779.747 .0280479
780.459 .0280376
781.171 .0280274
781.882 .0280174
782.594 .0280075
783.305 .0279976
784.016 .0279879
784.726 .0279782
785.436 .0279685
786.147 .0279534
786.856 .0279433
787.566 .0279330
788.275 .0279225
788.984 .0279117
789.693 .0279005
790.401 .0278890
791.110 .0278771
791.818 .0278648
792.525 .0278521
793.233 .0278389
793.940 .0278254
794.647 .0278175
795.353 .0278035
796.060 .0277891
796.766 .0277744
797.472 .0277594
798.177 .0277440
798.883 .0277282
799.588 .0277121
800.292 .0276955
800.997 .0276786
801.701 .0276614
802.405 .0276438
803.109 .0276260
803.812 .0276081
804.515 .0275900
805.218 .0275717
805.921 .0275533
806.623 .0275349
807.325 .0275163
808.027 .0274976
808.728 .0274789
809.429 .0274601
810.130 .0274414
810.831 .0274227
811.531 .0274041
812.231 .0273856
812.931 .0273672
813.630 .0273489
814.330 .0273309
815.029 .0273130
815.727 .0272955
816.426 .0272783
817.124 .0272616
817.821 .0272453
818.519 .0272296
819.216 .0272144
819.913 .0271999
820.609 .0271859
821.306 .0271724
822.002 .0271597
822.697 .0271475
823.393 .0271360
824.088 .0271252
824.783 .0271150
825.477 .0271055
826.171 .0270966
826.865 .0270883
827.559 .0270805
828.252 .0270732
828.945 .0270663
829.638 .0270600
830.330 .0270543
831.023 .0270490
831.714 .0270442
832.406 .0270399
833.097 .0270361
833.788 .0270326
834.479 .0270296
835.169 .0270269
835.859 .0270245
836.548 .0270224
837.238 .0270205
837.927 .0270189
838.615 .0270176
839.304 .0270164
839.992 .0270153
840.680 .0270144
841.367 .0270136
842.054 .0270128
842.741 .0270122
843.428 .0270115
844.114 .0270109
844.800 .0270102
845.485 .0270094
846.170 .0270084
846.855 .0270073
847.540 .0270059
848.224 .0270043
848.908 .0270023
849.592 .0270000
850.275 .0269974
850.958 .0269944
851.641 .0269912
852.323 .0269875
853.005 .0269836
853.687 .0269793
854.368 .0269747
855.049 .0269697
855.730 .0269644
856.410 .0269589
857.090 .0269531
857.769 .0269472
858.449 .0269410
859.128 .0269348
859.806 .0269285
860.485 .0269223
861.163 .0269161
861.840 .0269100
862.518 .0269040
863.195 .0268981
863.871 .0268923
864.548 .0268866
865.224 .0268810
865.899 .0268754
866.574 .0268699
867.249 .0268645
867.924 .0268592
868.598 .0268539
869.272 .0268486
869.946 .0268434
870.619 .0268383
871.292 .0268331
871.964 .0268280
872.636 .0268229
873.308 .0268178
873.979 .0268127
874.651 .0268076
875.321 .0268025
875.992 .0267973
876.662 .0267920
877.331 .0267866
878.001 .0267811
878.670 .0267754
879.338 .0267697
880.007 .0267640
880.675 .0267583
881.342 .0267525
882.009 .0267469
882.676 .0267413
883.343 .0267357
884.009 .0267303
884.675 .0267249
885.340 .0267197
886.005 .0267146
886.670 .0267096
887.334 .0267047
887.998 .0267000
888.662 .0266954
889.325 .0266909
889.988 .0266865
890.650 .0266822
891.312 .0266779
891.974 .0266737
892.636 .0266694
893.297 .0266652
893.957 .0266609
894.618 .0266566
895.278 .0266521
895.937 .0266473
896.596 .0266423
897.255 .0266368
897.914 .0266309
898.572 .0266245
899.230 .0266175
899.887 .0266098
900.544 .0266015
901.201 .0265925
901.857 .0265754
902.513 .0265642
903.168 .0265521
903.823 .0265390
904.478 .0265250
905.132 .0265101
905.786 .0264942
906.440 .0264774
907.093 .0264596
907.746 .0264410
908.399 .0264215
909.051 .0264012
909.703 .0263801
910.354 .0263676
911.005 .0263456
911.656 .0263230
912.306 .0262999
912.956 .0262762
913.605 .0262521
914.254 .0262277
914.903 .0262029
915.551 .0261778
916.199 .0261525
916.847 .0261269
917.494 .0261010
918.141 .0260749
918.788 .0260486
919.434 .0260222
920.079 .0259956
920.725 .0259688
921.370 .0259419
922.014 .0259148
922.658 .0258876
923.302 .0258602
923.946 .0258325
924.589 .0258047
925.231 .0257766
925.873 .0257484
926.515 .0257200
927.157 .0256914
927.798 .0256628
928.439 .0256341
929.079 .0256053
929.719 .0255765
930.359 .0255478
930.998 .0255192
931.637 .0254907
932.275 .0254625
932.913 .0254347
933.551 .0254073
934.188 .0253805
934.825 .0253544
935.462 .0253290
936.098 .0253043
936.733 .0252806
937.369 .0252577
938.004 .0252357
938.638 .0252147
939.273 .0251947
939.907 .0251758
940.540 .0251579
941.173 .0251411
941.806 .0251252
942.438 .0251104
943.070 .0250965
943.702 .0250835
944.333 .0250713
944.964 .0250598
945.594 .0250490
946.224 .0250386
946.854 .0250288
947.483 .0250194
948.112 .0250104
948.741 .0250016
949.369 .0249931
949.996 .0249847
950.624 .0249763
951.251 .0249679
951.878 .0249595
952.504 .0249510
953.130 .0249422
953.755 .0249334
954.380 .0249244
955.005 .0249153
955.629 .0249062
956.253 .0248971
956.877 .0248879
957.500 .0248789
958.123 .0248698
958.746 .0248609
959.368 .0248521
959.990 .0248435
960.611 .0248352
961.232 .0248272
961.853 .0248196
962.473 .0248124
963.093 .0248057
963.712 .0247994
964.331 .0247935
964.950 .0247880
965.569 .0247829
966.187 .0247781
966.804 .0247737
967.422 .0247696
968.039 .0247658
968.655 .0247623
969.272 .0247591
969.887 .0247561
970.503 .0247534
971.118 .0247508
971.733 .0247484
972.347 .0247461
972.961 .0247440
973.575 .0247419
974.188 .0247399
974.801 .0247381
975.414 .0247364
976.026 .0247348
976.638 .0247333
977.250 .0247319
977.861 .0247305
978.472 .0247290
979.083 .0247275
979.693 .0247259
980.303 .0247242
980.912 .0247218
981.521 .0247200
982.130 .0247181
982.738 .0247163
983.346 .0247145
983.954 .0247128
984.562 .0247114
985.169 .0247101
985.775 .0247090
986.382 .0247083
986.988 .0247080
987.594 .0247082
988.199 .0247089
988.804 .0247102
989.409 .0247121
990.013 .0247145
990.617 .0247177
991.221 .0247216
991.824 .0247262
992.427 .0247315
993.030 .0247373
993.632 .0247437
994.234 .0247505
994.836 .0247578
995.438 .0247656
996.039 .0247737
996.640 .0247823
997.240 .0247912
997.840 .0248006
998.440 .0248104
999.040 .0248205
999.639 .0248309
1000.238 .0248416
1000.836 .0248525
1001.435 .0248637
1002.033 .0248750
1002.630 .0248866
1003.228 .0248984
1003.825 .0249103
1004.422 .0249224
1005.018 .0249346
1005.614 .0249468
1006.210 .0249588
1006.806 .0249708
1007.401 .0249824
1007.996 .0249936
1008.591 .0250045
1009.186 .0250149
1009.780 .0250250
1010.374 .0250348
1010.967 .0250443
1011.561 .0250535
1012.154 .0250625
1012.746 .0250713
1013.339 .0250800
1013.931 .0250886
1014.523 .0250973
1015.115 .0251059
1015.706 .0251148
1016.298 .0251238
1016.888 .0251333
1017.479 .0251431
1018.069 .0251534
1018.660 .0251641
1019.250 .0251752
1019.839 .0251867
1020.429 .0251985
1021.018 .0252105
1021.607 .0252227
1022.195 .0252350
1022.784 .0252474
1023.372 .0252600
1023.960 .0252726
1024.547 .0252854
1025.135 .0252984
1025.722 .0253114
1026.309 .0253245
1026.896 .0253376
1027.483 .0253505
1028.069 .0253633
1028.655 .0253758
1029.241 .0253882
1029.827 .0254004
1030.412 .0254125
1030.997 .0254243
1031.582 .0254360
1032.167 .0254473
1032.752 .0254583
1033.336 .0254687
1033.921 .0254784
1034.505 .0254874
1035.089 .0254955
1035.672 .0255027
1036.256 .0255091
1036.839 .0255147
1037.422 .0255196
1038.005 .0255238
1038.588 .0255273
1039.171 .0255301
1039.753 .0255320
1040.335 .0255331
1040.918 .0255332
1041.500 .0255325
1042.081 .0255309
1042.663 .0255287
1043.244 .0255259
1043.826 .0255229
1044.407 .0255196
1044.988 .0255163
1045.569 .0255130
1046.150 .0255096
1046.730 .0255060
1047.311 .0255021
1047.891 .0254980
1048.471 .0254935
1049.052 .0254888
1049.632 .0254838
1050.211 .0254788
1050.791 .0254737
1051.371 .0254686
1051.950 .0254634
1052.530 .0254581
1053.109 .0254526
1053.688 .0254467
1054.268 .0254403
1054.847 .0254335
1055.426 .0254263
1056.005 .0254188
1056.583 .0254112
1057.162 .0254039
1057.741 .0253969
1058.319 .0253903
1058.898 .0253840
1059.476 .0253781
1060.055 .0253723
1060.633 .0253666
1061.211 .0253610
1061.790 .0253554
1062.368 .0253500
1062.946 .0253447
1063.524 .0253398
1064.102 .0253351
1064.680 .0253307
1065.258 .0253265
1065.836 .0253223
1066.414 .0253179
1066.992 .0253134
1067.570 .0253088
1068.148 .0253041
1068.726 .0252993
1069.304 .0252946
1069.882 .0252901
1070.460 .0252858
1071.038 .0252818
1071.616 .0252780
1072.194 .0252744
1072.772 .0252708
1073.350 .0252673
1073.928 .0252637
1074.506 .0252601
1075.084 .0252564
1075.662 .0252526
1076.240 .0252487
1076.819 .0252445
1077.397 .0252399
1077.976 .0252348
1078.554 .0252291
1079.133 .0252229
1079.711 .0252161
1080.290 .0252088
1080.869 .0252010
1081.448 .0251930
1082.027 .0251847
1082.606 .0251763
1083.185 .0251679
1083.764 .0251593
1084.343 .0251507
1084.923 .0251420
1085.502 .0251333
1086.082 .0251247
1086.662 .0251163
1087.242 .0251085
1087.822 .0251012
1088.402 .0250946
1088.983 .0250889
1089.563 .0250840
1090.144 .0250799
1090.725 .0250766
1091.306 .0250742
1091.887 .0250726
1092.469 .0250718
1093.050 .0250717
1093.632 .0250726
1094.214 .0250743
1094.796 .0250768
1095.379 .0250801
1095.961 .0250841
1096.544 .0250887
1097.127 .0250938
1097.710 .0250995
1098.294 .0251056
1098.877 .0251123
1099.461 .0251197
1100.046 .0251278
1100.630 .0251365
1101.215 .0251458
1101.800 .0251558
1102.385 .0251663
1102.970 .0251772
1103.556 .0251886
1104.142 .0252004
1104.728 .0252129
1105.315 .0252260
1105.902 .0252400
1106.489 .0252549
1107.077 .0252707
1107.664 .0252874
1108.253 .0253049
1108.841 .0253230
1109.430 .0253418
1110.019 .0253612
1110.609 .0253812
1111.198 .0254019
1111.789 .0254236
1112.379 .0254462
1112.970 .0254700
1113.561 .0254949
1114.153 .0255209
1114.745 .0255478
1115.338 .0255756
1115.931 .0256041
1116.524 .0256332
1117.117 .0256629
1117.712 .0256932
1118.306 .0257242
1118.901 .0257560
1119.496 .0257884
1120.092 .0258216
1120.689 .0258554
1121.285 .0258894
1121.882 .0259237
1122.480 .0259580
1123.078 .0259921
1123.677 .0260262
1124.276 .0260603
1124.875 .0260949
1125.476 .0261302
1126.076 .0261668
1126.677 .0262049
1127.279 .0262451
1127.881 .0262876
1128.484 .0263325
1129.087 .0263504
1129.691 .0263984
1130.295 .0264494
1130.900 .0265038
1131.505 .0265622
1132.111 .0266254
1132.718 .0266937
1133.325 .0267678
1133.933 .0268485
1134.541 .0269391
1135.150 .0270397
1135.760 .0271355
1136.370 .0272445
1136.981 .0270999
1137.592 .0272168
1138.204 .0273422
1138.817 .0274743
1139.431 .0276251
1140.045 .0277923
1140.660 .0279690
1141.275 .0281643
1141.891 .0283719
1142.508 .0286806
1143.126 .0289838
1143.744 .0288787
1144.363 .0292758
1144.983 .0295215
