Measurement Sequence started on: 15-12-46-377
Integration time: 28
Scans to Average: 2 
>>>>>Begin Spectral Data<<<<<
432.689 .0000100
433.621 .0000100
434.552 .0000100
435.482 .0000100
436.410 .0000100
437.337 .0000100
438.262 .0286189
439.187 .0605689
440.110 .1002339
441.031 .1449306
441.952 .1160177
442.871 .1211764
443.789 .1259845
444.705 .1305164
445.621 .1348213
446.535 .1389374
447.447 .1413851
448.359 .1420099
449.269 .1404233
450.178 .1363754
451.086 .1299469
451.993 .1216374
452.898 .1122699
453.803 .1027780
454.706 .0939533
455.608 .0862856
456.508 .0799363
457.408 .0756379
458.306 .0723234
459.204 .0696104
460.100 .0673088
460.995 .0653152
461.888 .0635582
462.781 .0619918
463.673 .0605810
464.563 .0593032
465.452 .0581402
466.340 .0570781
467.228 .0561047
468.114 .0552106
468.999 .0543881
469.882 .0536311
470.765 .0529345
471.647 .0522942
472.528 .0517069
473.407 .0511697
474.286 .0506808
475.163 .0502392
476.040 .0498427
476.915 .0494905
477.790 .0491803
478.663 .0489109
479.535 .0486799
480.407 .0484854
481.277 .0483242
482.147 .0481940
483.015 .0480917
483.883 .0480147
484.749 .0479606
485.615 .0479277
486.479 .0479141
487.343 .0479188
488.206 .0479407
489.067 .0479784
489.928 .0480306
490.788 .0480967
491.647 .0481752
492.505 .0482654
493.362 .0483665
494.218 .0484782
495.073 .0486005
495.928 .0488203
496.781 .0489734
497.634 .0491413
498.486 .0493256
499.337 .0495291
500.187 .0497555
501.036 .0500092
501.884 .0502948
502.731 .0506183
503.578 .0509855
504.424 .0512704
505.268 .0517275
506.113 .0522443
506.956 .0528268
507.798 .0534812
508.640 .0542142
509.480 .0550349
510.320 .0559549
511.160 .0569871
511.998 .0581452
512.836 .0594477
513.672 .0609135
514.508 .0625638
515.344 .0644225
516.178 .0665144
517.012 .0688636
517.845 .0714944
518.677 .0744281
519.508 .0776829
520.339 .0812674
521.169 .0851831
521.998 .0894021
522.826 .0938870
523.654 .0985766
524.481 .1033938
525.307 .1082494
526.133 .1130475
526.958 .1176871
527.782 .1220700
528.605 .1261046
529.428 .1297146
530.250 .1328326
531.072 .1354165
531.892 .1374276
532.712 .1388448
533.532 .1396555
534.350 .1398577
535.168 .1394542
535.986 .1384537
536.802 .1368643
537.618 .1347001
538.434 .1319769
539.249 .1287372
540.063 .1250298
540.876 .1209243
541.689 .1165035
542.501 .1118606
543.313 .1070929
544.124 .1022987
544.934 .0975689
545.744 .0929871
546.553 .0886205
547.361 .0845221
548.169 .0807188
548.976 .0772319
549.783 .0740622
550.589 .0711993
551.395 .0686219
552.200 .0663022
553.004 .0642089
553.808 .0623128
554.611 .0605865
555.414 .0590077
556.216 .0575569
557.018 .0562171
557.819 .0549751
558.619 .0538204
559.419 .0527437
560.218 .0517370
561.017 .0507942
561.815 .0499108
562.613 .0490813
563.410 .0482999
564.207 .0475615
565.003 .0468615
565.799 .0461950
566.594 .0455570
567.388 .0449441
568.182 .0443538
568.976 .0437840
569.769 .0432331
570.562 .0427000
571.354 .0421846
572.145 .0416870
572.936 .0412070
573.727 .0407445
574.517 .0402995
575.307 .0398713
576.096 .0394593
576.885 .0390635
577.673 .0386842
578.461 .0383212
579.248 .0379747
580.035 .0376453
580.821 .0373331
581.607 .0370383
582.392 .0367608
583.177 .0365003
583.962 .0362563
584.746 .0360280
585.529 .0358145
586.313 .0356147
587.095 .0354279
587.878 .0352531
588.660 .0350894
589.441 .0349362
590.222 .0347926
591.003 .0346580
591.783 .0345318
592.563 .0344133
593.342 .0343021
594.121 .0341974
594.899 .0340989
595.678 .0340059
596.455 .0339181
597.233 .0338349
598.009 .0337557
598.786 .0336802
599.562 .0336078
600.338 .0335384
601.113 .0334716
601.888 .0333806
602.663 .0333201
603.437 .0332620
604.211 .0332063
604.984 .0331530
605.757 .0331018
606.530 .0330526
607.302 .0330053
608.074 .0329598
608.845 .0329160
609.616 .0328738
610.387 .0328568
611.158 .0328173
611.928 .0327796
612.697 .0327439
613.467 .0327100
614.236 .0326780
615.004 .0326479
615.773 .0326195
616.541 .0325927
617.308 .0325672
618.076 .0325430
618.843 .0325199
619.609 .0324979
620.375 .0324768
621.141 .0324566
621.907 .0324374
622.672 .0324188
623.437 .0324009
624.202 .0323835
624.966 .0323664
625.730 .0323494
626.493 .0323323
627.257 .0323149
628.020 .0322973
628.782 .0322793
629.545 .0322609
630.307 .0322420
631.068 .0322228
631.830 .0322030
632.591 .0321828
633.352 .0321621
634.112 .0321409
634.872 .0321193
635.632 .0320972
636.392 .0320749
637.151 .0320524
637.910 .0320297
638.668 .0320069
639.427 .0319841
640.185 .0319613
640.943 .0319386
641.700 .0319159
642.457 .0318934
643.214 .0318710
643.971 .0318489
644.727 .0318269
645.483 .0318050
646.239 .0317833
646.994 .0317615
647.750 .0317396
648.505 .0317175
649.259 .0316950
650.014 .0316722
650.768 .0316489
651.521 .0316252
652.275 .0316010
653.028 .0315761
653.781 .0315506
654.534 .0315243
655.286 .0314970
656.039 .0314689
656.791 .0314397
657.542 .0314096
658.294 .0313786
659.045 .0313470
659.796 .0313147
660.546 .0312819
661.297 .0312487
662.047 .0312150
662.796 .0311810
663.546 .0311467
664.295 .0311120
665.044 .0310772
665.793 .0310423
666.542 .0310074
667.290 .0309726
668.038 .0309379
668.786 .0309034
669.533 .0308691
670.281 .0308351
671.028 .0308014
671.774 .0307680
672.521 .0307351
673.267 .0307027
674.013 .0306708
674.759 .0306396
675.505 .0306090
676.250 .0305790
676.995 .0305496
677.740 .0305209
678.484 .0304927
679.229 .0304652
679.973 .0304383
680.717 .0304120
681.460 .0303864
682.204 .0303614
682.947 .0303371
683.690 .0303133
684.433 .0302901
685.175 .0302673
685.917 .0302450
686.659 .0302231
687.401 .0302015
688.142 .0301802
688.884 .0301592
689.625 .0301384
690.365 .0301179
691.106 .0300975
691.846 .0300774
692.586 .0300575
693.326 .0300378
694.066 .0300184
694.805 .0299992
695.545 .0299803
696.284 .0299618
697.022 .0299438
697.761 .0299262
698.499 .0299091
699.237 .0298927
699.975 .0298768
700.713 .0298616
701.450 .0298470
702.187 .0298332
702.924 .0298199
703.661 .0298073
704.397 .0297955
705.133 .0297842
705.869 .0297737
706.605 .0297638
707.341 .0297545
708.076 .0297457
708.811 .0297373
709.546 .0297292
710.281 .0297212
711.015 .0297134
711.749 .0297056
712.483 .0296977
713.217 .0296897
713.950 .0296815
714.684 .0296732
715.417 .0296645
716.150 .0296555
716.882 .0296462
717.615 .0296364
718.347 .0296263
719.079 .0296157
719.811 .0296048
720.542 .0295935
721.273 .0295819
722.005 .0295700
722.735 .0295579
723.466 .0295454
724.196 .0295326
724.927 .0295195
725.656 .0295062
726.386 .0294927
727.116 .0294790
727.845 .0294652
728.574 .0294512
729.303 .0294372
730.031 .0294229
730.760 .0294085
731.488 .0293939
732.216 .0293790
732.944 .0293640
733.671 .0293487
734.398 .0293333
735.125 .0293177
735.852 .0293021
736.579 .0292865
737.305 .0292709
738.031 .0292553
738.757 .0292398
739.483 .0292242
740.208 .0292087
740.933 .0291932
741.658 .0291777
742.383 .0291623
743.108 .0291468
743.832 .0291313
744.556 .0291158
745.280 .0291002
746.004 .0290844
746.727 .0290686
747.450 .0290526
748.173 .0290362
748.896 .0290196
749.618 .0290024
750.340 .0289848
751.062 .0289667
751.784 .0289479
752.506 .0289286
753.227 .0289086
753.948 .0288880
754.669 .0288667
755.389 .0288449
756.110 .0288225
756.830 .0287994
757.550 .0287758
758.269 .0287516
758.989 .0287268
759.708 .0287015
760.427 .0286758
761.146 .0286497
761.864 .0286233
762.582 .0285966
763.300 .0285697
764.018 .0285427
764.736 .0285157
765.453 .0284887
766.170 .0284619
766.887 .0284352
767.603 .0284088
768.320 .0283827
769.036 .0283569
769.751 .0283315
770.467 .0283065
771.182 .0282820
771.897 .0282581
772.612 .0282347
773.327 .0282120
774.041 .0281900
774.755 .0281688
775.469 .0281483
776.183 .0281287
776.896 .0281099
777.609 .0280919
778.322 .0280747
779.035 .0280584
779.747 .0280429
780.459 .0280282
781.171 .0280144
781.882 .0280015
782.594 .0279894
783.305 .0279781
784.016 .0279676
784.726 .0279577
785.436 .0279486
786.147 .0279369
786.856 .0279290
787.566 .0279215
788.275 .0279144
788.984 .0279076
789.693 .0279011
790.401 .0278947
791.110 .0278885
791.818 .0278824
792.525 .0278764
793.233 .0278705
793.940 .0278647
794.647 .0278617
795.353 .0278560
796.060 .0278503
796.766 .0278447
797.472 .0278390
798.177 .0278332
798.883 .0278273
799.588 .0278214
800.292 .0278154
800.997 .0278095
801.701 .0278035
802.405 .0277977
803.109 .0277919
803.812 .0277862
804.515 .0277806
805.218 .0277750
805.921 .0277696
806.623 .0277641
807.325 .0277587
808.027 .0277534
808.728 .0277481
809.429 .0277428
810.130 .0277375
810.831 .0277323
811.531 .0277271
812.231 .0277221
812.931 .0277171
813.630 .0277123
814.330 .0277078
815.029 .0277035
815.727 .0276996
816.426 .0276960
817.124 .0276929
817.821 .0276901
818.519 .0276878
819.216 .0276859
819.913 .0276844
820.609 .0276835
821.306 .0276830
822.002 .0276830
822.697 .0276836
823.393 .0276846
824.088 .0276861
824.783 .0276880
825.477 .0276903
826.171 .0276930
826.865 .0276960
827.559 .0276992
828.252 .0277027
828.945 .0277063
829.638 .0277101
830.330 .0277140
831.023 .0277180
831.714 .0277219
832.406 .0277257
833.097 .0277294
833.788 .0277328
834.479 .0277360
835.169 .0277388
835.859 .0277412
836.548 .0277432
837.238 .0277446
837.927 .0277455
838.615 .0277456
839.304 .0277451
839.992 .0277438
840.680 .0277418
841.367 .0277390
842.054 .0277355
842.741 .0277311
843.428 .0277259
844.114 .0277199
844.800 .0277130
845.485 .0277052
846.170 .0276964
846.855 .0276866
847.540 .0276759
848.224 .0276640
848.908 .0276512
849.592 .0276373
850.275 .0276224
850.958 .0276064
851.641 .0275894
852.323 .0275714
853.005 .0275523
853.687 .0275322
854.368 .0275111
855.049 .0274892
855.730 .0274664
856.410 .0274428
857.090 .0274185
857.769 .0273936
858.449 .0273682
859.128 .0273422
859.806 .0273159
860.485 .0272891
861.163 .0272620
861.840 .0272348
862.518 .0272074
863.195 .0271799
863.871 .0271524
864.548 .0271251
865.224 .0270978
865.899 .0270706
866.574 .0270436
867.249 .0270168
867.924 .0269902
868.598 .0269640
869.272 .0269381
869.946 .0269127
870.619 .0268878
871.292 .0268635
871.964 .0268396
872.636 .0268163
873.308 .0267936
873.979 .0267713
874.651 .0267496
875.321 .0267284
875.992 .0267077
876.662 .0266875
877.331 .0266677
878.001 .0266484
878.670 .0266294
879.338 .0266108
880.007 .0265924
880.675 .0265745
881.342 .0265568
882.009 .0265396
882.676 .0265228
883.343 .0265064
884.009 .0264905
884.675 .0264751
885.340 .0264601
886.005 .0264455
886.670 .0264312
887.334 .0264172
887.998 .0264035
888.662 .0263901
889.325 .0263770
889.988 .0263643
890.650 .0263519
891.312 .0263399
891.974 .0263281
892.636 .0263165
893.297 .0263049
893.957 .0262933
894.618 .0262815
895.278 .0262696
895.937 .0262574
896.596 .0262449
897.255 .0262322
897.914 .0262192
898.572 .0262058
899.230 .0261920
899.887 .0261778
900.544 .0261631
901.201 .0261478
901.857 .0261220
902.513 .0261052
903.168 .0260880
903.823 .0260703
904.478 .0260522
905.132 .0260337
905.786 .0260148
906.440 .0259955
907.093 .0259759
907.746 .0259560
908.399 .0259359
909.051 .0259156
909.703 .0258953
910.354 .0258860
911.005 .0258661
911.656 .0258464
912.306 .0258273
912.956 .0258086
913.605 .0257904
914.254 .0257728
914.903 .0257557
915.551 .0257392
916.199 .0257230
916.847 .0257073
917.494 .0256920
918.141 .0256770
918.788 .0256625
919.434 .0256482
920.079 .0256343
920.725 .0256207
921.370 .0256073
922.014 .0255941
922.658 .0255809
923.302 .0255677
923.946 .0255546
924.589 .0255414
925.231 .0255283
925.873 .0255153
926.515 .0255024
927.157 .0254897
927.798 .0254773
928.439 .0254652
929.079 .0254534
929.719 .0254420
930.359 .0254310
930.998 .0254204
931.637 .0254102
932.275 .0254005
932.913 .0253913
933.551 .0253828
934.188 .0253751
934.825 .0253681
935.462 .0253621
936.098 .0253571
936.733 .0253531
937.369 .0253500
938.004 .0253480
938.638 .0253470
939.273 .0253471
939.907 .0253484
940.540 .0253507
941.173 .0253541
941.806 .0253586
942.438 .0253640
943.070 .0253704
943.702 .0253776
944.333 .0253856
944.964 .0253941
945.594 .0254032
946.224 .0254128
946.854 .0254228
947.483 .0254332
948.112 .0254439
948.741 .0254548
949.369 .0254657
949.996 .0254766
950.624 .0254873
951.251 .0254979
951.878 .0255082
952.504 .0255184
953.130 .0255284
953.755 .0255382
954.380 .0255480
955.005 .0255577
955.629 .0255672
956.253 .0255764
956.877 .0255853
957.500 .0255936
958.123 .0256015
958.746 .0256088
959.368 .0256157
959.990 .0256223
960.611 .0256286
961.232 .0256347
961.853 .0256405
962.473 .0256461
963.093 .0256515
963.712 .0256564
964.331 .0256611
964.950 .0256653
965.569 .0256691
966.187 .0256727
966.804 .0256760
967.422 .0256792
968.039 .0256823
968.655 .0256851
969.272 .0256877
969.887 .0256900
970.503 .0256919
971.118 .0256933
971.733 .0256942
972.347 .0256946
972.961 .0256946
973.575 .0256941
974.188 .0256932
974.801 .0256919
975.414 .0256904
976.026 .0256884
976.638 .0256861
977.250 .0256833
977.861 .0256800
978.472 .0256761
979.083 .0256718
979.693 .0256670
980.303 .0256618
980.912 .0256527
981.521 .0256470
982.130 .0256412
982.738 .0256354
983.346 .0256295
983.954 .0256235
984.562 .0256175
985.169 .0256113
985.775 .0256051
986.382 .0255988
986.988 .0255925
987.594 .0255861
988.199 .0255797
988.804 .0255733
989.409 .0255705
990.013 .0255642
990.617 .0255578
991.221 .0255516
991.824 .0255453
992.427 .0255391
993.030 .0255328
993.632 .0255264
994.234 .0255199
994.836 .0255132
995.438 .0255063
996.039 .0254993
996.640 .0254922
997.240 .0254851
997.840 .0254780
998.440 .0254709
999.040 .0254639
999.639 .0254569
1000.238 .0254499
1000.836 .0254429
1001.435 .0254358
1002.033 .0254286
1002.630 .0254213
1003.228 .0254137
1003.825 .0254061
1004.422 .0253983
1005.018 .0253903
1005.614 .0253821
1006.210 .0253738
1006.806 .0253652
1007.401 .0253564
1007.996 .0253473
1008.591 .0253380
1009.186 .0253285
1009.780 .0253188
1010.374 .0253091
1010.967 .0252995
1011.561 .0252900
1012.154 .0252808
1012.746 .0252719
1013.339 .0252632
1013.931 .0252547
1014.523 .0252464
1015.115 .0252382
1015.706 .0252300
1016.298 .0252218
1016.888 .0252136
1017.479 .0252054
1018.069 .0251972
1018.660 .0251890
1019.250 .0251810
1019.839 .0251730
1020.429 .0251650
1021.018 .0251571
1021.607 .0251492
1022.195 .0251412
1022.784 .0251334
1023.372 .0251256
1023.960 .0251179
1024.547 .0251103
1025.135 .0251029
1025.722 .0250957
1026.309 .0250886
1026.896 .0250816
1027.483 .0250747
1028.069 .0250676
1028.655 .0250605
1029.241 .0250532
1029.827 .0250457
1030.412 .0250380
1030.997 .0250300
1031.582 .0250218
1032.167 .0250135
1032.752 .0250049
1033.336 .0249963
1033.921 .0249875
1034.505 .0249785
1035.089 .0249695
1035.672 .0249602
1036.256 .0249508
1036.839 .0249412
1037.422 .0249315
1038.005 .0249216
1038.588 .0249115
1039.171 .0249013
1039.753 .0248908
1040.335 .0248801
1040.918 .0248691
1041.500 .0248578
1042.081 .0248460
1042.663 .0248339
1043.244 .0248214
1043.826 .0248086
1044.407 .0247955
1044.988 .0247822
1045.569 .0247686
1046.150 .0247549
1046.730 .0247411
1047.311 .0247270
1047.891 .0247128
1048.471 .0246984
1049.052 .0246837
1049.632 .0246688
1050.211 .0246536
1050.791 .0246382
1051.371 .0246227
1051.950 .0246070
1052.530 .0245912
1053.109 .0245752
1053.688 .0245591
1054.268 .0245429
1054.847 .0245266
1055.426 .0245104
1056.005 .0244943
1056.583 .0244786
1057.162 .0244634
1057.741 .0244488
1058.319 .0244351
1058.898 .0244221
1059.476 .0244100
1060.055 .0243987
1060.633 .0243881
1061.211 .0243781
1061.790 .0243686
1062.368 .0243596
1062.946 .0243512
1063.524 .0243433
1064.102 .0243358
1064.680 .0243288
1065.258 .0243223
1065.836 .0243162
1066.414 .0243105
1066.992 .0243051
1067.570 .0242997
1068.148 .0242944
1068.726 .0242892
1069.304 .0242838
1069.882 .0242785
1070.460 .0242733
1071.038 .0242682
1071.616 .0242632
1072.194 .0242583
1072.772 .0242534
1073.350 .0242486
1073.928 .0242438
1074.506 .0242388
1075.084 .0242337
1075.662 .0242287
1076.240 .0242236
1076.819 .0242187
1077.397 .0242142
1077.976 .0242100
1078.554 .0242062
1079.133 .0242030
1079.711 .0242002
1080.290 .0241980
1080.869 .0241966
1081.448 .0241961
1082.027 .0241965
1082.606 .0241980
1083.185 .0242007
1083.764 .0242046
1084.343 .0242099
1084.923 .0242164
1085.502 .0242240
1086.082 .0242328
1086.662 .0242425
1087.242 .0242533
1087.822 .0242650
1088.402 .0242776
1088.983 .0242910
1089.563 .0243053
1090.144 .0243202
1090.725 .0243355
1091.306 .0243513
1091.887 .0243674
1092.469 .0243837
1093.050 .0244001
1093.632 .0244167
1094.214 .0244335
1094.796 .0244507
1095.379 .0244682
1095.961 .0244862
1096.544 .0245048
1097.127 .0245238
1097.710 .0245435
1098.294 .0245636
1098.877 .0245842
1099.461 .0246052
1100.046 .0246267
1100.630 .0246486
1101.215 .0246711
1101.800 .0246942
1102.385 .0247179
1102.970 .0247425
1103.556 .0247680
1104.142 .0247945
1104.728 .0248220
1105.315 .0248504
1105.902 .0248798
1106.489 .0249104
1107.077 .0249423
1107.664 .0249757
1108.253 .0250108
1108.841 .0250478
1109.430 .0250868
1110.019 .0251277
1110.609 .0251705
1111.198 .0252150
1111.789 .0252610
1112.379 .0253083
1112.970 .0253567
1113.561 .0254061
1114.153 .0254565
1114.745 .0255077
1115.338 .0255599
1115.931 .0256131
1116.524 .0256671
1117.117 .0257220
1117.712 .0257775
1118.306 .0258336
1118.901 .0258902
1119.496 .0259472
1120.092 .0260046
1120.689 .0260624
1121.285 .0261208
1121.882 .0261799
1122.480 .0262399
1123.078 .0263009
1123.677 .0263631
1124.276 .0264268
1124.875 .0264919
1125.476 .0265585
1126.076 .0266266
1126.677 .0266963
1127.279 .0267675
1127.881 .0268402
1128.484 .0269146
1129.087 .0269471
1129.691 .0270238
1130.295 .0271026
1130.900 .0271835
1131.505 .0272668
1132.111 .0273526
1132.718 .0274410
1133.325 .0275321
1133.933 .0276260
1134.541 .0277234
1135.150 .0278227
1135.760 .0279279
1136.370 .0280336
1136.981 .0280964
1137.592 .0282089
1138.204 .0283248
1138.817 .0284440
1139.431 .0285689
1140.045 .0286984
1140.660 .0288380
1141.275 .0289783
1141.891 .0291223
1142.508 .0292834
1143.126 .0294021
1143.744 .0296234
1144.363 .0296963
1144.983 .0298395
