Measurement Sequence started on: 15-12-46-377
Integration time: 28
Scans to Average: 2 
>>>>>Begin Spectral Data<<<<<
432.689 .0000100
433.621 .0000100
434.552 .0000100
435.482 .0000100
436.410 .0000100
437.337 .0000100
438.262 .0299499
439.187 .0633320
440.110 .1049140
441.031 .1517701
441.952 .1210842
442.871 .1263414
443.789 .1312160
444.705 .1357882
445.621 .1401129
446.535 .1442338
447.447 .1466059
448.359 .1470726
449.269 .1452228
450.178 .1407944
451.086 .1338738
451.993 .1249864
452.898 .1149963
453.803 .1048844
454.706 .0954860
455.608 .0873192
456.508 .0805576
457.408 .0759719
458.306 .0724439
459.204 .0695774
460.100 .0671671
460.995 .0650982
461.888 .0632924
462.781 .0616981
463.673 .0602752
464.563 .0589956
465.452 .0578383
466.340 .0567860
467.228 .0558259
468.114 .0549486
468.999 .0541451
469.882 .0534083
470.765 .0527323
471.647 .0521119
472.528 .0515440
473.407 .0510263
474.286 .0505574
475.163 .0501359
476.040 .0497605
476.915 .0494295
477.790 .0491404
478.663 .0488911
479.535 .0486788
480.407 .0484997
481.277 .0483514
482.147 .0482301
483.015 .0481328
483.883 .0480574
484.749 .0480022
485.615 .0479659
486.479 .0479473
487.343 .0479456
488.206 .0479602
489.067 .0479901
489.928 .0480351
490.788 .0480951
491.647 .0481710
492.505 .0482635
493.362 .0483741
494.218 .0485048
495.073 .0486581
495.928 .0489846
496.781 .0492109
497.634 .0494689
498.486 .0497606
499.337 .0500886
500.187 .0504552
501.036 .0508622
501.884 .0513112
502.731 .0518048
503.578 .0523456
504.424 .0527204
505.268 .0533400
506.113 .0540147
506.956 .0547479
507.798 .0555444
508.640 .0564098
509.480 .0573502
510.320 .0583740
511.160 .0594905
511.998 .0607110
512.836 .0620503
513.672 .0635242
514.508 .0651542
515.344 .0669636
516.178 .0689773
517.012 .0712235
517.845 .0737261
518.677 .0765092
519.508 .0795910
520.339 .0829805
521.169 .0866824
521.998 .0906791
522.826 .0949417
523.654 .0994215
524.481 .1040560
525.307 .1087698
526.133 .1134702
526.958 .1180603
527.782 .1224398
528.605 .1265125
529.428 .1301945
530.250 .1334091
531.072 .1361050
531.892 .1382413
532.712 .1397924
533.532 .1407446
534.350 .1410898
535.168 .1408310
535.986 .1399724
536.802 .1385205
537.618 .1364877
538.434 .1338869
539.249 .1307549
540.063 .1271380
540.876 .1230976
541.689 .1187083
542.501 .1140552
543.313 .1092362
544.124 .1043517
544.934 .0995004
545.744 .0947738
546.553 .0902482
547.361 .0859889
548.169 .0820330
548.976 .0784019
549.783 .0750995
550.589 .0721158
551.395 .0694305
552.200 .0670157
553.004 .0648420
553.808 .0628833
554.611 .0611163
555.414 .0595199
556.216 .0580722
557.018 .0567526
557.819 .0555446
558.619 .0544323
559.419 .0534010
560.218 .0524392
561.017 .0515364
561.815 .0506848
562.613 .0498779
563.410 .0491096
564.207 .0483745
565.003 .0476684
565.799 .0469874
566.594 .0463278
567.388 .0456872
568.182 .0450642
568.976 .0444577
569.769 .0438679
570.562 .0432945
571.354 .0427375
572.145 .0421975
572.936 .0416751
573.727 .0411708
574.517 .0406843
575.307 .0402157
576.096 .0397647
576.885 .0393314
577.673 .0389159
578.461 .0385186
579.248 .0381400
580.035 .0377807
580.821 .0374410
581.607 .0371211
582.392 .0368211
583.177 .0365411
583.962 .0362806
584.746 .0360393
585.529 .0358165
586.313 .0356111
587.095 .0354221
587.878 .0352486
588.660 .0350895
589.441 .0349439
590.222 .0348106
591.003 .0346887
591.783 .0345769
592.563 .0344743
593.342 .0343797
594.121 .0342923
594.899 .0342109
595.678 .0341349
596.455 .0340634
597.233 .0339959
598.009 .0339321
598.786 .0338715
599.562 .0338140
600.338 .0337592
601.113 .0337070
601.888 .0336369
602.663 .0335906
603.437 .0335465
604.211 .0335045
604.984 .0334646
605.757 .0334268
606.530 .0333908
607.302 .0333568
608.074 .0333246
608.845 .0332942
609.616 .0332656
610.387 .0332551
611.158 .0332286
611.928 .0332034
612.697 .0331795
613.467 .0331568
614.236 .0331351
615.004 .0331142
615.773 .0330942
616.541 .0330748
617.308 .0330559
618.076 .0330373
618.843 .0330189
619.609 .0330004
620.375 .0329818
621.141 .0329629
621.907 .0329435
622.672 .0329234
623.437 .0329026
624.202 .0328810
624.966 .0328584
625.730 .0328349
626.493 .0328104
627.257 .0327848
628.020 .0327581
628.782 .0327303
629.545 .0327015
630.307 .0326717
631.068 .0326408
631.830 .0326090
632.591 .0325763
633.352 .0325429
634.112 .0325087
634.872 .0324740
635.632 .0324388
636.392 .0324032
637.151 .0323674
637.910 .0323313
638.668 .0322950
639.427 .0322584
640.185 .0322218
640.943 .0321849
641.700 .0321480
642.457 .0321111
643.214 .0320743
643.971 .0320376
644.727 .0320012
645.483 .0319651
646.239 .0319293
646.994 .0318939
647.750 .0318590
648.505 .0318246
649.259 .0317907
650.014 .0317572
650.768 .0317242
651.521 .0316916
652.275 .0316594
653.028 .0316276
653.781 .0315960
654.534 .0315648
655.286 .0315340
656.039 .0315034
656.791 .0314733
657.542 .0314435
658.294 .0314141
659.045 .0313850
659.796 .0313562
660.546 .0313277
661.297 .0312992
662.047 .0312709
662.796 .0312426
663.546 .0312145
664.295 .0311864
665.044 .0311586
665.793 .0311312
666.542 .0311042
667.290 .0310777
668.038 .0310517
668.786 .0310262
669.533 .0310011
670.281 .0309766
671.028 .0309526
671.774 .0309291
672.521 .0309062
673.267 .0308841
674.013 .0308629
674.759 .0308427
675.505 .0308236
676.250 .0308057
676.995 .0307890
677.740 .0307734
678.484 .0307589
679.229 .0307454
679.973 .0307328
680.717 .0307211
681.460 .0307101
682.204 .0306998
682.947 .0306899
683.690 .0306806
684.433 .0306715
685.175 .0306628
685.917 .0306542
686.659 .0306457
687.401 .0306372
688.142 .0306286
688.884 .0306198
689.625 .0306107
690.365 .0306011
691.106 .0305910
691.846 .0305803
692.586 .0305691
693.326 .0305574
694.066 .0305452
694.805 .0305326
695.545 .0305198
696.284 .0305067
697.022 .0304935
697.761 .0304802
698.499 .0304667
699.237 .0304530
699.975 .0304391
700.713 .0304251
701.450 .0304108
702.187 .0303964
702.924 .0303817
703.661 .0303668
704.397 .0303516
705.133 .0303363
705.869 .0303208
706.605 .0303050
707.341 .0302889
708.076 .0302725
708.811 .0302556
709.546 .0302383
710.281 .0302204
711.015 .0302019
711.749 .0301829
712.483 .0301632
713.217 .0301428
713.950 .0301219
714.684 .0301004
715.417 .0300783
716.150 .0300558
716.882 .0300329
717.615 .0300094
718.347 .0299855
719.079 .0299612
719.811 .0299365
720.542 .0299115
721.273 .0298861
722.005 .0298605
722.735 .0298348
723.466 .0298090
724.196 .0297832
724.927 .0297574
725.656 .0297317
726.386 .0297061
727.116 .0296808
727.845 .0296556
728.574 .0296307
729.303 .0296060
730.031 .0295816
730.760 .0295575
731.488 .0295337
732.216 .0295102
732.944 .0294870
733.671 .0294642
734.398 .0294417
735.125 .0294194
735.852 .0293973
736.579 .0293755
737.305 .0293539
738.031 .0293325
738.757 .0293114
739.483 .0292904
740.208 .0292698
740.933 .0292495
741.658 .0292294
742.383 .0292096
743.108 .0291900
743.832 .0291705
744.556 .0291511
745.280 .0291317
746.004 .0291124
746.727 .0290929
747.450 .0290735
748.173 .0290539
748.896 .0290342
749.618 .0290145
750.340 .0289946
751.062 .0289746
751.784 .0289545
752.506 .0289343
753.227 .0289140
753.948 .0288936
754.669 .0288733
755.389 .0288530
756.110 .0288327
756.830 .0288125
757.550 .0287924
758.269 .0287724
758.989 .0287527
759.708 .0287331
760.427 .0287139
761.146 .0286952
761.864 .0286769
762.582 .0286591
763.300 .0286418
764.018 .0286251
764.736 .0286089
765.453 .0285932
766.170 .0285781
766.887 .0285634
767.603 .0285493
768.320 .0285359
769.036 .0285233
769.751 .0285116
770.467 .0285008
771.182 .0284911
771.897 .0284825
772.612 .0284749
773.327 .0284683
774.041 .0284627
774.755 .0284580
775.469 .0284543
776.183 .0284515
776.896 .0284497
777.609 .0284488
778.322 .0284488
779.035 .0284498
779.747 .0284517
780.459 .0284543
781.171 .0284578
781.882 .0284619
782.594 .0284666
783.305 .0284718
784.016 .0284775
784.726 .0284835
785.436 .0284898
786.147 .0284993
786.856 .0285057
787.566 .0285121
788.275 .0285183
788.984 .0285244
789.693 .0285302
790.401 .0285357
791.110 .0285407
791.818 .0285453
792.525 .0285494
793.233 .0285530
793.940 .0285560
794.647 .0285559
795.353 .0285580
796.060 .0285594
796.766 .0285601
797.472 .0285601
798.177 .0285593
798.883 .0285579
799.588 .0285558
800.292 .0285531
800.997 .0285498
801.701 .0285460
802.405 .0285416
803.109 .0285366
803.812 .0285310
804.515 .0285247
805.218 .0285176
805.921 .0285098
806.623 .0285013
807.325 .0284920
808.027 .0284820
808.728 .0284714
809.429 .0284602
810.130 .0284484
810.831 .0284360
811.531 .0284231
812.231 .0284097
812.931 .0283959
813.630 .0283817
814.330 .0283673
815.029 .0283528
815.727 .0283382
816.426 .0283237
817.124 .0283092
817.821 .0282948
818.519 .0282806
819.216 .0282665
819.913 .0282525
820.609 .0282388
821.306 .0282253
822.002 .0282123
822.697 .0281996
823.393 .0281873
824.088 .0281753
824.783 .0281636
825.477 .0281521
826.171 .0281407
826.865 .0281293
827.559 .0281179
828.252 .0281065
828.945 .0280951
829.638 .0280837
830.330 .0280722
831.023 .0280605
831.714 .0280487
832.406 .0280365
833.097 .0280240
833.788 .0280111
834.479 .0279977
835.169 .0279839
835.859 .0279696
836.548 .0279549
837.238 .0279398
837.927 .0279242
838.615 .0279081
839.304 .0278916
839.992 .0278745
840.680 .0278569
841.367 .0278389
842.054 .0278204
842.741 .0278016
843.428 .0277824
844.114 .0277630
844.800 .0277432
845.485 .0277230
846.170 .0277025
846.855 .0276816
847.540 .0276601
848.224 .0276381
848.908 .0276155
849.592 .0275923
850.275 .0275686
850.958 .0275442
851.641 .0275193
852.323 .0274938
853.005 .0274678
853.687 .0274412
854.368 .0274139
855.049 .0273861
855.730 .0273577
856.410 .0273287
857.090 .0272993
857.769 .0272695
858.449 .0272395
859.128 .0272093
859.806 .0271790
860.485 .0271489
861.163 .0271190
861.840 .0270895
862.518 .0270604
863.195 .0270318
863.871 .0270038
864.548 .0269764
865.224 .0269497
865.899 .0269237
866.574 .0268985
867.249 .0268741
867.924 .0268505
868.598 .0268278
869.272 .0268060
869.946 .0267851
870.619 .0267651
871.292 .0267460
871.964 .0267278
872.636 .0267104
873.308 .0266939
873.979 .0266782
874.651 .0266634
875.321 .0266495
875.992 .0266364
876.662 .0266241
877.331 .0266125
878.001 .0266016
878.670 .0265915
879.338 .0265820
880.007 .0265731
880.675 .0265649
881.342 .0265574
882.009 .0265507
882.676 .0265447
883.343 .0265395
884.009 .0265351
884.675 .0265313
885.340 .0265283
886.005 .0265259
886.670 .0265240
887.334 .0265228
887.998 .0265221
888.662 .0265219
889.325 .0265224
889.988 .0265234
890.650 .0265249
891.312 .0265270
891.974 .0265296
892.636 .0265325
893.297 .0265358
893.957 .0265393
894.618 .0265430
895.278 .0265468
895.937 .0265505
896.596 .0265542
897.255 .0265577
897.914 .0265610
898.572 .0265640
899.230 .0265668
899.887 .0265692
900.544 .0265712
901.201 .0265728
901.857 .0265733
902.513 .0265736
903.168 .0265733
903.823 .0265724
904.478 .0265710
905.132 .0265691
905.786 .0265667
906.440 .0265640
907.093 .0265609
907.746 .0265576
908.399 .0265541
909.051 .0265504
909.703 .0265466
910.354 .0265444
911.005 .0265408
911.656 .0265372
912.306 .0265336
912.956 .0265303
913.605 .0265272
914.254 .0265244
914.903 .0265219
915.551 .0265198
916.199 .0265179
916.847 .0265163
917.494 .0265148
918.141 .0265135
918.788 .0265123
919.434 .0265113
920.079 .0265104
920.725 .0265096
921.370 .0265090
922.014 .0265083
922.658 .0265077
923.302 .0265069
923.946 .0265059
924.589 .0265045
925.231 .0265028
925.873 .0265007
926.515 .0264982
927.157 .0264953
927.798 .0264921
928.439 .0264886
929.079 .0264846
929.719 .0264803
930.359 .0264756
930.998 .0264705
931.637 .0264650
932.275 .0264590
932.913 .0264528
933.551 .0264463
934.188 .0264398
934.825 .0264333
935.462 .0264269
936.098 .0264207
936.733 .0264147
937.369 .0264091
938.004 .0264038
938.638 .0263988
939.273 .0263943
939.907 .0263901
940.540 .0263865
941.173 .0263833
941.806 .0263807
942.438 .0263786
943.070 .0263770
943.702 .0263760
944.333 .0263753
944.964 .0263751
945.594 .0263751
946.224 .0263754
946.854 .0263759
947.483 .0263764
948.112 .0263770
948.741 .0263777
949.369 .0263783
949.996 .0263788
950.624 .0263792
951.251 .0263793
951.878 .0263791
952.504 .0263785
953.130 .0263775
953.755 .0263762
954.380 .0263744
955.005 .0263723
955.629 .0263698
956.253 .0263670
956.877 .0263638
957.500 .0263602
958.123 .0263563
958.746 .0263519
959.368 .0263471
959.990 .0263418
960.611 .0263360
961.232 .0263298
961.853 .0263231
962.473 .0263160
963.093 .0263086
963.712 .0263008
964.331 .0262927
964.950 .0262842
965.569 .0262752
966.187 .0262658
966.804 .0262559
967.422 .0262454
968.039 .0262343
968.655 .0262226
969.272 .0262102
969.887 .0261972
970.503 .0261835
971.118 .0261692
971.733 .0261542
972.347 .0261385
972.961 .0261220
973.575 .0261048
974.188 .0260868
974.801 .0260679
975.414 .0260482
976.026 .0260277
976.638 .0260064
977.250 .0259843
977.861 .0259616
978.472 .0259381
979.083 .0259141
979.693 .0258896
980.303 .0258646
980.912 .0258259
981.521 .0258003
982.130 .0257746
982.738 .0257487
983.346 .0257229
983.954 .0256971
984.562 .0256715
985.169 .0256462
985.775 .0256213
986.382 .0255966
986.988 .0255724
987.594 .0255484
988.199 .0255248
988.804 .0255015
989.409 .0254914
990.013 .0254685
990.617 .0254459
991.221 .0254237
991.824 .0254019
992.427 .0253805
993.030 .0253596
993.632 .0253392
994.234 .0253193
994.836 .0252997
995.438 .0252804
996.039 .0252614
996.640 .0252427
997.240 .0252243
997.840 .0252061
998.440 .0251881
999.040 .0251705
999.639 .0251532
1000.238 .0251361
1000.836 .0251193
1001.435 .0251028
1002.033 .0250864
1002.630 .0250703
1003.228 .0250543
1003.825 .0250385
1004.422 .0250229
1005.018 .0250074
1005.614 .0249922
1006.210 .0249773
1006.806 .0249627
1007.401 .0249482
1007.996 .0249341
1008.591 .0249201
1009.186 .0249064
1009.780 .0248928
1010.374 .0248794
1010.967 .0248662
1011.561 .0248532
1012.154 .0248405
1012.746 .0248281
1013.339 .0248159
1013.931 .0248040
1014.523 .0247924
1015.115 .0247811
1015.706 .0247700
1016.298 .0247592
1016.888 .0247487
1017.479 .0247386
1018.069 .0247288
1018.660 .0247194
1019.250 .0247105
1019.839 .0247021
1020.429 .0246941
1021.018 .0246866
1021.607 .0246794
1022.195 .0246726
1022.784 .0246661
1023.372 .0246600
1023.960 .0246542
1024.547 .0246489
1025.135 .0246440
1025.722 .0246396
1026.309 .0246357
1026.896 .0246323
1027.483 .0246294
1028.069 .0246269
1028.655 .0246248
1029.241 .0246231
1029.827 .0246218
1030.412 .0246209
1030.997 .0246204
1031.582 .0246204
1032.167 .0246207
1032.752 .0246215
1033.336 .0246226
1033.921 .0246240
1034.505 .0246258
1035.089 .0246276
1035.672 .0246296
1036.256 .0246317
1036.839 .0246338
1037.422 .0246359
1038.005 .0246381
1038.588 .0246402
1039.171 .0246423
1039.753 .0246443
1040.335 .0246463
1040.918 .0246481
1041.500 .0246497
1042.081 .0246511
1042.663 .0246522
1043.244 .0246532
1043.826 .0246540
1044.407 .0246546
1044.988 .0246551
1045.569 .0246555
1046.150 .0246556
1046.730 .0246555
1047.311 .0246552
1047.891 .0246548
1048.471 .0246544
1049.052 .0246539
1049.632 .0246536
1050.211 .0246535
1050.791 .0246537
1051.371 .0246541
1051.950 .0246547
1052.530 .0246555
1053.109 .0246563
1053.688 .0246570
1054.268 .0246578
1054.847 .0246586
1055.426 .0246597
1056.005 .0246612
1056.583 .0246632
1057.162 .0246659
1057.741 .0246692
1058.319 .0246731
1058.898 .0246774
1059.476 .0246822
1060.055 .0246872
1060.633 .0246926
1061.211 .0246982
1061.790 .0247043
1062.368 .0247109
1062.946 .0247182
1063.524 .0247262
1064.102 .0247349
1064.680 .0247441
1065.258 .0247537
1065.836 .0247637
1066.414 .0247737
1066.992 .0247838
1067.570 .0247938
1068.148 .0248038
1068.726 .0248140
1069.304 .0248243
1069.882 .0248351
1070.460 .0248463
1071.038 .0248581
1071.616 .0248704
1072.194 .0248832
1072.772 .0248964
1073.350 .0249101
1073.928 .0249242
1074.506 .0249388
1075.084 .0249539
1075.662 .0249697
1076.240 .0249861
1076.819 .0250032
1077.397 .0250210
1077.976 .0250393
1078.554 .0250580
1079.133 .0250771
1079.711 .0250962
1080.290 .0251156
1080.869 .0251350
1081.448 .0251545
1082.027 .0251742
1082.606 .0251940
1083.185 .0252139
1083.764 .0252338
1084.343 .0252537
1084.923 .0252735
1085.502 .0252934
1086.082 .0253132
1086.662 .0253332
1087.242 .0253535
1087.822 .0253741
1088.402 .0253951
1088.983 .0254167
1089.563 .0254389
1090.144 .0254615
1090.725 .0254845
1091.306 .0255078
1091.887 .0255312
1092.469 .0255545
1093.050 .0255778
1093.632 .0256011
1094.214 .0256245
1094.796 .0256480
1095.379 .0256717
1095.961 .0256954
1096.544 .0257192
1097.127 .0257430
1097.710 .0257668
1098.294 .0257904
1098.877 .0258138
1099.461 .0258372
1100.046 .0258608
1100.630 .0258847
1101.215 .0259093
1101.800 .0259348
1102.385 .0259614
1102.970 .0259892
1103.556 .0260184
1104.142 .0260487
1104.728 .0260803
1105.315 .0261129
1105.902 .0261466
1106.489 .0261810
1107.077 .0262162
1107.664 .0262522
1108.253 .0262889
1108.841 .0263263
1109.430 .0263643
1110.019 .0264028
1110.609 .0264417
1111.198 .0264810
1111.789 .0265205
1112.379 .0265604
1112.970 .0266005
1113.561 .0266410
1114.153 .0266819
1114.745 .0267234
1115.338 .0267656
1115.931 .0268089
1116.524 .0268534
1117.117 .0268992
1117.712 .0269464
1118.306 .0269952
1118.901 .0270455
1119.496 .0270972
1120.092 .0271503
1120.689 .0272045
1121.285 .0272598
1121.882 .0273162
1122.480 .0273737
1123.078 .0274321
1123.677 .0274916
1124.276 .0275522
1124.875 .0276139
1125.476 .0276770
1126.076 .0277417
1126.677 .0278083
1127.279 .0278772
1127.881 .0279483
1128.484 .0280221
1129.087 .0280528
1129.691 .0281311
1130.295 .0282126
1130.900 .0282974
1131.505 .0283859
1132.111 .0284782
1132.718 .0285741
1133.325 .0286744
1133.933 .0287796
1134.541 .0288869
1135.150 .0290024
1135.760 .0291140
1136.370 .0292454
1136.981 .0292702
1137.592 .0293859
1138.204 .0295082
1138.817 .0296348
1139.431 .0297684
1140.045 .0299087
1140.660 .0300502
1141.275 .0302159
1141.891 .0304043
1142.508 .0305174
1143.126 .0308173
1143.744 .0307817
1144.363 .0314185
1144.983 .0318308
