Measurement Sequence started on: 15-12-46-377
Integration time: 28
Scans to Average: 2 
>>>>>Begin Spectral Data<<<<<
432.689 .0000100
433.621 .0000100
434.552 .0000100
435.482 .0000100
436.410 .0000100
437.337 .0000100
438.262 .0266620
439.187 .0565238
440.110 .0936461
441.031 .1355132
441.952 .1086802
442.871 .1135145
443.789 .1180179
444.705 .1222589
445.621 .1262838
446.535 .1301282
447.447 .1324144
448.359 .1329940
449.269 .1315022
450.178 .1277029
451.086 .1216722
451.993 .1138755
452.898 .1050828
453.803 .0961678
454.706 .0878738
455.608 .0806622
456.508 .0746874
457.408 .0706346
458.306 .0675132
459.204 .0649658
460.100 .0628140
460.995 .0609596
461.888 .0593372
462.781 .0579036
463.673 .0566260
464.563 .0554818
465.452 .0544529
466.340 .0535237
467.228 .0526822
468.114 .0519178
468.999 .0512216
469.882 .0505858
470.765 .0500036
471.647 .0494701
472.528 .0489820
473.407 .0485354
474.286 .0481276
475.163 .0477570
476.040 .0474214
476.915 .0471192
477.790 .0468476
478.663 .0466051
479.535 .0463894
480.407 .0461985
481.277 .0460304
482.147 .0458832
483.015 .0457560
483.883 .0456478
484.749 .0455581
485.615 .0454868
486.479 .0454339
487.343 .0453990
488.206 .0453823
489.067 .0453834
489.928 .0454017
490.788 .0454369
491.647 .0454885
492.505 .0455558
493.362 .0456385
494.218 .0457374
495.073 .0458529
495.928 .0460909
496.781 .0462583
497.634 .0464492
498.486 .0466663
499.337 .0469120
500.187 .0471898
501.036 .0475028
501.884 .0478550
502.731 .0482506
503.578 .0486944
504.424 .0490275
505.268 .0495609
506.113 .0501540
506.956 .0508109
507.798 .0515361
508.640 .0523353
509.480 .0532158
510.320 .0541852
511.160 .0552534
511.998 .0564325
512.836 .0577369
513.672 .0591827
514.508 .0607888
515.344 .0625751
516.178 .0645612
517.012 .0667672
517.845 .0692118
518.677 .0719117
519.508 .0748838
520.339 .0781346
521.169 .0816699
521.998 .0854719
522.826 .0895148
523.654 .0937513
524.481 .0981209
525.307 .1025516
526.133 .1069589
526.958 .1112497
527.782 .1153337
528.605 .1191220
529.428 .1225393
530.250 .1255153
531.072 .1280048
531.892 .1299687
532.712 .1313843
533.532 .1322393
534.350 .1325316
535.168 .1322646
535.986 .1314479
536.802 .1300866
537.618 .1281934
538.434 .1257778
539.249 .1228721
540.063 .1195158
540.876 .1157670
541.689 .1116966
542.501 .1073849
543.313 .1029200
544.124 .0983968
544.934 .0939044
545.744 .0895262
546.553 .0853298
547.361 .0813745
548.169 .0776917
548.976 .0743046
549.783 .0712179
550.589 .0684251
551.395 .0659076
552.200 .0636422
553.004 .0616008
553.808 .0597580
554.611 .0580904
555.414 .0565776
556.216 .0551998
557.018 .0539392
557.819 .0527795
558.619 .0517058
559.419 .0507059
560.218 .0497707
561.017 .0488909
561.815 .0480600
562.613 .0472734
563.410 .0465259
564.207 .0458125
565.003 .0451295
565.799 .0444728
566.594 .0438379
567.388 .0432219
568.182 .0426229
568.976 .0420390
569.769 .0414696
570.562 .0409152
571.354 .0403764
572.145 .0398550
572.936 .0393530
573.727 .0388710
574.517 .0384099
575.307 .0379705
576.096 .0375524
576.885 .0371551
577.673 .0367787
578.461 .0364230
579.248 .0360872
580.035 .0357712
580.821 .0354751
581.607 .0351984
582.392 .0349411
583.177 .0347031
583.962 .0344839
584.746 .0342829
585.529 .0340994
586.313 .0339321
587.095 .0337797
587.878 .0336409
588.660 .0335141
589.441 .0333977
590.222 .0332911
591.003 .0331930
591.783 .0331025
592.563 .0330194
593.342 .0329426
594.121 .0328715
594.899 .0328054
595.678 .0327436
596.455 .0326855
597.233 .0326304
598.009 .0325778
598.786 .0325273
599.562 .0324787
600.338 .0324317
601.113 .0323864
601.888 .0323240
602.663 .0322823
603.437 .0322417
604.211 .0322023
604.984 .0321639
605.757 .0321264
606.530 .0320898
607.302 .0320541
608.074 .0320193
608.845 .0319855
609.616 .0319529
610.387 .0319388
611.158 .0319080
611.928 .0318784
612.697 .0318499
613.467 .0318224
614.236 .0317959
615.004 .0317701
615.773 .0317450
616.541 .0317205
617.308 .0316966
618.076 .0316731
618.843 .0316499
619.609 .0316271
620.375 .0316044
621.141 .0315820
621.907 .0315596
622.672 .0315372
623.437 .0315147
624.202 .0314919
624.966 .0314687
625.730 .0314450
626.493 .0314206
627.257 .0313956
628.020 .0313699
628.782 .0313435
629.545 .0313165
630.307 .0312890
631.068 .0312613
631.830 .0312334
632.591 .0312055
633.352 .0311776
634.112 .0311499
634.872 .0311224
635.632 .0310952
636.392 .0310682
637.151 .0310417
637.910 .0310158
638.668 .0309905
639.427 .0309660
640.185 .0309424
640.943 .0309200
641.700 .0308987
642.457 .0308786
643.214 .0308597
643.971 .0308420
644.727 .0308255
645.483 .0308100
646.239 .0307954
646.994 .0307817
647.750 .0307687
648.505 .0307562
649.259 .0307441
650.014 .0307323
650.768 .0307205
651.521 .0307087
652.275 .0306967
653.028 .0306844
653.781 .0306718
654.534 .0306587
655.286 .0306451
656.039 .0306309
656.791 .0306160
657.542 .0306004
658.294 .0305839
659.045 .0305665
659.796 .0305482
660.546 .0305289
661.297 .0305088
662.047 .0304877
662.796 .0304659
663.546 .0304434
664.295 .0304203
665.044 .0303966
665.793 .0303726
666.542 .0303481
667.290 .0303235
668.038 .0302986
668.786 .0302738
669.533 .0302489
670.281 .0302240
671.028 .0301994
671.774 .0301750
672.521 .0301508
673.267 .0301270
674.013 .0301035
674.759 .0300803
675.505 .0300574
676.250 .0300348
676.995 .0300125
677.740 .0299903
678.484 .0299684
679.229 .0299466
679.973 .0299249
680.717 .0299034
681.460 .0298820
682.204 .0298605
682.947 .0298390
683.690 .0298173
684.433 .0297954
685.175 .0297731
685.917 .0297504
686.659 .0297274
687.401 .0297042
688.142 .0296809
688.884 .0296575
689.625 .0296342
690.365 .0296111
691.106 .0295884
691.846 .0295660
692.586 .0295440
693.326 .0295225
694.066 .0295014
694.805 .0294807
695.545 .0294604
696.284 .0294406
697.022 .0294214
697.761 .0294027
698.499 .0293847
699.237 .0293673
699.975 .0293506
700.713 .0293346
701.450 .0293194
702.187 .0293050
702.924 .0292913
703.661 .0292781
704.397 .0292655
705.133 .0292532
705.869 .0292413
706.605 .0292295
707.341 .0292178
708.076 .0292061
708.811 .0291945
709.546 .0291830
710.281 .0291717
711.015 .0291604
711.749 .0291494
712.483 .0291384
713.217 .0291276
713.950 .0291168
714.684 .0291059
715.417 .0290948
716.150 .0290835
716.882 .0290719
717.615 .0290601
718.347 .0290479
719.079 .0290356
719.811 .0290231
720.542 .0290105
721.273 .0289979
722.005 .0289851
722.735 .0289722
723.466 .0289592
724.196 .0289461
724.927 .0289326
725.656 .0289189
726.386 .0289049
727.116 .0288905
727.845 .0288758
728.574 .0288608
729.303 .0288455
730.031 .0288300
730.760 .0288142
731.488 .0287983
732.216 .0287823
732.944 .0287660
733.671 .0287496
734.398 .0287330
735.125 .0287162
735.852 .0286992
736.579 .0286819
737.305 .0286644
738.031 .0286465
738.757 .0286285
739.483 .0286102
740.208 .0285917
740.933 .0285730
741.658 .0285542
742.383 .0285353
743.108 .0285162
743.832 .0284971
744.556 .0284778
745.280 .0284583
746.004 .0284385
746.727 .0284186
747.450 .0283983
748.173 .0283779
748.896 .0283572
749.618 .0283363
750.340 .0283153
751.062 .0282942
751.784 .0282731
752.506 .0282520
753.227 .0282308
753.948 .0282096
754.669 .0281883
755.389 .0281668
756.110 .0281452
756.830 .0281235
757.550 .0281015
758.269 .0280794
758.989 .0280572
759.708 .0280349
760.427 .0280125
761.146 .0279900
761.864 .0279676
762.582 .0279451
763.300 .0279226
764.018 .0279001
764.736 .0278776
765.453 .0278552
766.170 .0278328
766.887 .0278106
767.603 .0277886
768.320 .0277670
769.036 .0277459
769.751 .0277253
770.467 .0277055
771.182 .0276864
771.897 .0276683
772.612 .0276511
773.327 .0276350
774.041 .0276200
774.755 .0276061
775.469 .0275934
776.183 .0275818
776.896 .0275713
777.609 .0275620
778.322 .0275536
779.035 .0275463
779.747 .0275400
780.459 .0275346
781.171 .0275301
781.882 .0275265
782.594 .0275238
783.305 .0275218
784.016 .0275204
784.726 .0275197
785.436 .0275194
786.147 .0275197
786.856 .0275199
787.566 .0275203
788.275 .0275208
788.984 .0275213
789.693 .0275218
790.401 .0275222
791.110 .0275226
791.818 .0275228
792.525 .0275228
793.233 .0275225
793.940 .0275218
794.647 .0275207
795.353 .0275193
796.060 .0275175
796.766 .0275154
797.472 .0275129
798.177 .0275100
798.883 .0275067
799.588 .0275031
800.292 .0274991
800.997 .0274946
801.701 .0274897
802.405 .0274843
803.109 .0274785
803.812 .0274722
804.515 .0274654
805.218 .0274582
805.921 .0274503
806.623 .0274418
807.325 .0274327
808.027 .0274228
808.728 .0274122
809.429 .0274010
810.130 .0273891
810.831 .0273766
811.531 .0273635
812.231 .0273500
812.931 .0273359
813.630 .0273213
814.330 .0273063
815.029 .0272908
815.727 .0272749
816.426 .0272587
817.124 .0272421
817.821 .0272254
818.519 .0272086
819.216 .0271915
819.913 .0271744
820.609 .0271572
821.306 .0271398
822.002 .0271224
822.697 .0271049
823.393 .0270875
824.088 .0270701
824.783 .0270529
825.477 .0270358
826.171 .0270188
826.865 .0270021
827.559 .0269854
828.252 .0269689
828.945 .0269525
829.638 .0269363
830.330 .0269203
831.023 .0269044
831.714 .0268887
832.406 .0268730
833.097 .0268574
833.788 .0268416
834.479 .0268257
835.169 .0268095
835.859 .0267930
836.548 .0267761
837.238 .0267588
837.927 .0267411
838.615 .0267230
839.304 .0267045
839.992 .0266856
840.680 .0266664
841.367 .0266467
842.054 .0266265
842.741 .0266060
843.428 .0265850
844.114 .0265636
844.800 .0265420
845.485 .0265200
846.170 .0264979
846.855 .0264755
847.540 .0264531
848.224 .0264305
848.908 .0264078
849.592 .0263850
850.275 .0263621
850.958 .0263391
851.641 .0263161
852.323 .0262931
853.005 .0262702
853.687 .0262474
854.368 .0262247
855.049 .0262022
855.730 .0261798
856.410 .0261576
857.090 .0261356
857.769 .0261138
858.449 .0260922
859.128 .0260710
859.806 .0260501
860.485 .0260297
861.163 .0260097
861.840 .0259902
862.518 .0259713
863.195 .0259528
863.871 .0259348
864.548 .0259174
865.224 .0259004
865.899 .0258841
866.574 .0258683
867.249 .0258532
867.924 .0258388
868.598 .0258251
869.272 .0258122
869.946 .0258001
870.619 .0257889
871.292 .0257784
871.964 .0257687
872.636 .0257600
873.308 .0257523
873.979 .0257455
874.651 .0257397
875.321 .0257349
875.992 .0257311
876.662 .0257282
877.331 .0257262
878.001 .0257251
878.670 .0257248
879.338 .0257252
880.007 .0257264
880.675 .0257284
881.342 .0257312
882.009 .0257347
882.676 .0257390
883.343 .0257441
884.009 .0257499
884.675 .0257564
885.340 .0257635
886.005 .0257712
886.670 .0257795
887.334 .0257883
887.998 .0257977
888.662 .0258075
889.325 .0258179
889.988 .0258286
890.650 .0258397
891.312 .0258510
891.974 .0258625
892.636 .0258741
893.297 .0258856
893.957 .0258970
894.618 .0259082
895.278 .0259192
895.937 .0259299
896.596 .0259403
897.255 .0259504
897.914 .0259600
898.572 .0259690
899.230 .0259774
899.887 .0259851
900.544 .0259919
901.201 .0259979
901.857 .0260029
902.513 .0260065
903.168 .0260093
903.823 .0260112
904.478 .0260122
905.132 .0260122
905.786 .0260112
906.440 .0260091
907.093 .0260058
907.746 .0260015
908.399 .0259961
909.051 .0259897
909.703 .0259825
910.354 .0259766
911.005 .0259681
911.656 .0259589
912.306 .0259489
912.956 .0259381
913.605 .0259265
914.254 .0259141
914.903 .0259008
915.551 .0258868
916.199 .0258719
916.847 .0258563
917.494 .0258399
918.141 .0258228
918.788 .0258050
919.434 .0257864
920.079 .0257672
920.725 .0257472
921.370 .0257266
922.014 .0257054
922.658 .0256835
923.302 .0256611
923.946 .0256382
924.589 .0256149
925.231 .0255910
925.873 .0255668
926.515 .0255421
927.157 .0255170
927.798 .0254915
928.439 .0254658
929.079 .0254398
929.719 .0254137
930.359 .0253874
930.998 .0253611
931.637 .0253348
932.275 .0253085
932.913 .0252823
933.551 .0252562
934.188 .0252303
934.825 .0252047
935.462 .0251793
936.098 .0251543
936.733 .0251297
937.369 .0251055
938.004 .0250816
938.638 .0250580
939.273 .0250348
939.907 .0250119
940.540 .0249893
941.173 .0249670
941.806 .0249450
942.438 .0249233
943.070 .0249018
943.702 .0248806
944.333 .0248597
944.964 .0248389
945.594 .0248183
946.224 .0247979
946.854 .0247776
947.483 .0247574
948.112 .0247373
948.741 .0247173
949.369 .0246975
949.996 .0246778
950.624 .0246583
951.251 .0246388
951.878 .0246193
952.504 .0245999
953.130 .0245803
953.755 .0245607
954.380 .0245409
955.005 .0245210
955.629 .0245009
956.253 .0244807
956.877 .0244604
957.500 .0244401
958.123 .0244197
958.746 .0243992
959.368 .0243788
959.990 .0243584
960.611 .0243380
961.232 .0243178
961.853 .0242977
962.473 .0242777
963.093 .0242580
963.712 .0242384
964.331 .0242191
964.950 .0241999
965.569 .0241809
966.187 .0241621
966.804 .0241434
967.422 .0241250
968.039 .0241067
968.655 .0240886
969.272 .0240708
969.887 .0240532
970.503 .0240358
971.118 .0240187
971.733 .0240018
972.347 .0239852
972.961 .0239688
973.575 .0239528
974.188 .0239371
974.801 .0239216
975.414 .0239065
976.026 .0238917
976.638 .0238772
977.250 .0238630
977.861 .0238491
978.472 .0238355
979.083 .0238222
979.693 .0238092
980.303 .0237966
980.912 .0237790
981.521 .0237673
982.130 .0237559
982.738 .0237449
983.346 .0237342
983.954 .0237239
984.562 .0237140
985.169 .0237046
985.775 .0236958
986.382 .0236877
986.988 .0236804
987.594 .0236739
988.199 .0236682
988.804 .0236634
989.409 .0236634
990.013 .0236599
990.617 .0236571
991.221 .0236551
991.824 .0236539
992.427 .0236535
993.030 .0236539
993.632 .0236551
994.234 .0236570
994.836 .0236597
995.438 .0236632
996.039 .0236675
996.640 .0236724
997.240 .0236780
997.840 .0236844
998.440 .0236915
999.040 .0236993
999.639 .0237080
1000.238 .0237174
1000.836 .0237275
1001.435 .0237385
1002.033 .0237501
1002.630 .0237623
1003.228 .0237752
1003.825 .0237886
1004.422 .0238025
1005.018 .0238169
1005.614 .0238316
1006.210 .0238468
1006.806 .0238622
1007.401 .0238779
1007.996 .0238938
1008.591 .0239099
1009.186 .0239263
1009.780 .0239428
1010.374 .0239595
1010.967 .0239764
1011.561 .0239937
1012.154 .0240112
1012.746 .0240291
1013.339 .0240472
1013.931 .0240657
1014.523 .0240844
1015.115 .0241034
1015.706 .0241226
1016.298 .0241419
1016.888 .0241613
1017.479 .0241807
1018.069 .0242002
1018.660 .0242197
1019.250 .0242391
1019.839 .0242585
1020.429 .0242777
1021.018 .0242968
1021.607 .0243158
1022.195 .0243345
1022.784 .0243530
1023.372 .0243713
1023.960 .0243893
1024.547 .0244072
1025.135 .0244249
1025.722 .0244426
1026.309 .0244602
1026.896 .0244776
1027.483 .0244950
1028.069 .0245123
1028.655 .0245294
1029.241 .0245462
1029.827 .0245626
1030.412 .0245786
1030.997 .0245942
1031.582 .0246094
1032.167 .0246241
1032.752 .0246385
1033.336 .0246527
1033.921 .0246666
1034.505 .0246802
1035.089 .0246936
1035.672 .0247068
1036.256 .0247197
1036.839 .0247322
1037.422 .0247444
1038.005 .0247561
1038.588 .0247675
1039.171 .0247784
1039.753 .0247889
1040.335 .0247992
1040.918 .0248092
1041.500 .0248189
1042.081 .0248283
1042.663 .0248373
1043.244 .0248459
1043.826 .0248541
1044.407 .0248617
1044.988 .0248687
1045.569 .0248752
1046.150 .0248813
1046.730 .0248868
1047.311 .0248919
1047.891 .0248966
1048.471 .0249009
1049.052 .0249047
1049.632 .0249080
1050.211 .0249108
1050.791 .0249129
1051.371 .0249144
1051.950 .0249153
1052.530 .0249155
1053.109 .0249153
1053.688 .0249146
1054.268 .0249135
1054.847 .0249120
1055.426 .0249101
1056.005 .0249077
1056.583 .0249050
1057.162 .0249018
1057.741 .0248981
1058.319 .0248940
1058.898 .0248894
1059.476 .0248844
1060.055 .0248790
1060.633 .0248730
1061.211 .0248667
1061.790 .0248599
1062.368 .0248527
1062.946 .0248451
1063.524 .0248371
1064.102 .0248288
1064.680 .0248202
1065.258 .0248114
1065.836 .0248023
1066.414 .0247930
1066.992 .0247836
1067.570 .0247741
1068.148 .0247645
1068.726 .0247551
1069.304 .0247458
1069.882 .0247368
1070.460 .0247281
1071.038 .0247197
1071.616 .0247115
1072.194 .0247035
1072.772 .0246957
1073.350 .0246881
1073.928 .0246804
1074.506 .0246728
1075.084 .0246653
1075.662 .0246579
1076.240 .0246506
1076.819 .0246434
1077.397 .0246364
1077.976 .0246294
1078.554 .0246224
1079.133 .0246153
1079.711 .0246080
1080.290 .0246005
1080.869 .0245927
1081.448 .0245845
1082.027 .0245760
1082.606 .0245673
1083.185 .0245584
1083.764 .0245494
1084.343 .0245404
1084.923 .0245314
1085.502 .0245223
1086.082 .0245132
1086.662 .0245040
1087.242 .0244949
1087.822 .0244859
1088.402 .0244774
1088.983 .0244693
1089.563 .0244618
1090.144 .0244549
1090.725 .0244487
1091.306 .0244430
1091.887 .0244378
1092.469 .0244330
1093.050 .0244284
1093.632 .0244242
1094.214 .0244204
1094.796 .0244171
1095.379 .0244145
1095.961 .0244128
1096.544 .0244120
1097.127 .0244122
1097.710 .0244133
1098.294 .0244152
1098.877 .0244178
1099.461 .0244210
1100.046 .0244248
1100.630 .0244292
1101.215 .0244342
1101.800 .0244400
1102.385 .0244465
1102.970 .0244539
1103.556 .0244620
1104.142 .0244707
1104.728 .0244798
1105.315 .0244890
1105.902 .0244980
1106.489 .0245070
1107.077 .0245159
1107.664 .0245249
1108.253 .0245344
1108.841 .0245447
1109.430 .0245564
1110.019 .0245696
1110.609 .0245847
1111.198 .0246015
1111.789 .0246197
1112.379 .0246392
1112.970 .0246596
1113.561 .0246806
1114.153 .0247021
1114.745 .0247241
1115.338 .0247468
1115.931 .0247702
1116.524 .0247944
1117.117 .0248195
1117.712 .0248453
1118.306 .0248716
1118.901 .0248980
1119.496 .0249242
1120.092 .0249500
1120.689 .0249755
1121.285 .0250008
1121.882 .0250264
1122.480 .0250530
1123.078 .0250812
1123.677 .0251115
1124.276 .0251445
1124.875 .0251803
1125.476 .0252191
1126.076 .0252607
1126.677 .0253051
1127.279 .0253521
1127.881 .0254018
1128.484 .0254545
1129.087 .0254715
1129.691 .0255278
1130.295 .0255879
1130.900 .0256524
1131.505 .0257212
1132.111 .0257946
1132.718 .0258727
1133.325 .0259555
1133.933 .0260426
1134.541 .0261336
1135.150 .0262351
1135.760 .0263332
1136.370 .0264413
1136.981 .0264573
1137.592 .0265952
1138.204 .0267374
1138.817 .0268835
1139.431 .0270286
1140.045 .0271795
1140.660 .0273297
1141.275 .0274870
1141.891 .0276318
1142.508 .0277710
1143.126 .0280938
1143.744 .0280241
1144.363 .0283201
1144.983 .0280780
