Measurement Sequence started on: 15-12-46-377
Integration time: 28
Scans to Average: 2 
>>>>>Begin Spectral Data<<<<<
432.689 .0000100
433.621 .0000100
434.552 .0000100
435.482 .0000100
436.410 .0000100
437.337 .0000100
438.262 .0271855
439.187 .0576485
440.110 .0954369
441.031 .1380519
441.952 .1106358
442.871 .1155515
443.789 .1201280
444.705 .1244369
445.621 .1285261
446.535 .1324315
447.447 .1347495
448.359 .1353294
449.269 .1338031
450.178 .1299302
451.086 .1237871
451.993 .1158502
452.898 .1069046
453.803 .0978383
454.706 .0894071
455.608 .0820811
456.508 .0760161
457.408 .0719095
458.306 .0687506
459.204 .0661730
460.100 .0639971
460.995 .0621233
461.888 .0604824
462.781 .0590297
463.673 .0577322
464.563 .0565655
465.452 .0555098
466.340 .0545496
467.228 .0536729
468.114 .0528694
468.999 .0521299
469.882 .0514471
470.765 .0508156
471.647 .0502310
472.528 .0496893
473.407 .0491881
474.286 .0487255
475.163 .0483007
476.040 .0479120
476.915 .0475578
477.790 .0472360
478.663 .0469450
479.535 .0466828
480.407 .0464481
481.277 .0462400
482.147 .0460573
483.015 .0458993
483.883 .0457659
484.749 .0456567
485.615 .0455709
486.479 .0455078
487.343 .0454673
488.206 .0454487
489.067 .0454511
489.928 .0454739
490.788 .0455169
491.647 .0455804
492.505 .0456640
493.362 .0457675
494.218 .0458907
495.073 .0460327
495.928 .0463042
496.781 .0464852
497.634 .0466802
498.486 .0468887
499.337 .0471117
500.187 .0473503
501.036 .0476072
501.884 .0478858
502.731 .0481908
503.578 .0485273
504.424 .0487593
505.268 .0491643
506.113 .0496169
506.956 .0501231
507.798 .0506895
508.640 .0513245
509.480 .0520385
510.320 .0528424
511.160 .0537488
511.998 .0547738
512.836 .0559362
513.672 .0572531
514.508 .0587442
515.344 .0604302
516.178 .0623312
517.012 .0644662
517.845 .0668510
518.677 .0694978
519.508 .0724150
520.339 .0756049
521.169 .0790634
521.998 .0827670
522.826 .0866858
523.654 .0907717
524.481 .0949683
525.307 .0992086
526.133 .1034144
526.958 .1075001
527.782 .1113842
528.605 .1149866
529.428 .1182319
530.250 .1210530
531.072 .1234056
531.892 .1252529
532.712 .1265737
533.532 .1273552
534.350 .1275955
535.168 .1273011
535.986 .1264842
536.802 .1251528
537.618 .1233195
538.434 .1210006
539.249 .1182299
540.063 .1150465
540.876 .1115062
541.689 .1076726
542.501 .1036191
543.313 .0994265
544.124 .0951801
544.934 .0909575
545.744 .0868329
546.553 .0828710
547.361 .0791246
548.169 .0756253
548.976 .0723950
549.783 .0694388
550.589 .0667530
551.395 .0643224
552.200 .0621257
553.004 .0601382
553.808 .0583409
554.611 .0567154
555.414 .0552443
556.216 .0539110
557.018 .0527002
557.819 .0515974
558.619 .0505888
559.419 .0496607
560.218 .0488020
561.017 .0480025
561.815 .0472545
562.613 .0465513
563.410 .0458870
564.207 .0452573
565.003 .0446576
565.799 .0440833
566.594 .0435294
567.388 .0429924
568.182 .0424691
568.976 .0419566
569.769 .0414534
570.562 .0409588
571.354 .0404725
572.145 .0399955
572.936 .0395293
573.727 .0390748
574.517 .0386333
575.307 .0382059
576.096 .0377929
576.885 .0373947
577.673 .0370118
578.461 .0366446
579.248 .0362938
580.035 .0359604
580.821 .0356449
581.607 .0353478
582.392 .0350695
583.177 .0348098
583.962 .0345688
584.746 .0343458
585.529 .0341402
586.313 .0339510
587.095 .0337771
587.878 .0336178
588.660 .0334717
589.441 .0333379
590.222 .0332152
591.003 .0331025
591.783 .0329986
592.563 .0329025
593.342 .0328130
594.121 .0327294
594.899 .0326510
595.678 .0325771
596.455 .0325072
597.233 .0324411
598.009 .0323783
598.786 .0323187
599.562 .0322622
600.338 .0322085
601.113 .0321575
601.888 .0320905
602.663 .0320459
603.437 .0320035
604.211 .0319632
604.984 .0319248
605.757 .0318882
606.530 .0318533
607.302 .0318200
608.074 .0317882
608.845 .0317579
609.616 .0317291
610.387 .0317172
611.158 .0316903
611.928 .0316647
612.697 .0316403
613.467 .0316169
614.236 .0315944
615.004 .0315725
615.773 .0315511
616.541 .0315302
617.308 .0315096
618.076 .0314893
618.843 .0314693
619.609 .0314495
620.375 .0314297
621.141 .0314100
621.907 .0313902
622.672 .0313703
623.437 .0313500
624.202 .0313294
624.966 .0313085
625.730 .0312872
626.493 .0312655
627.257 .0312434
628.020 .0312209
628.782 .0311981
629.545 .0311748
630.307 .0311512
631.068 .0311273
631.830 .0311031
632.591 .0310787
633.352 .0310540
634.112 .0310292
634.872 .0310044
635.632 .0309796
636.392 .0309548
637.151 .0309301
637.910 .0309056
638.668 .0308813
639.427 .0308572
640.185 .0308334
640.943 .0308101
641.700 .0307872
642.457 .0307648
643.214 .0307430
643.971 .0307217
644.727 .0307010
645.483 .0306807
646.239 .0306609
646.994 .0306415
647.750 .0306223
648.505 .0306033
649.259 .0305845
650.014 .0305658
650.768 .0305471
651.521 .0305283
652.275 .0305092
653.028 .0304898
653.781 .0304700
654.534 .0304496
655.286 .0304288
656.039 .0304073
656.791 .0303855
657.542 .0303632
658.294 .0303406
659.045 .0303178
659.796 .0302947
660.546 .0302713
661.297 .0302476
662.047 .0302236
662.796 .0301992
663.546 .0301745
664.295 .0301496
665.044 .0301247
665.793 .0301000
666.542 .0300755
667.290 .0300515
668.038 .0300280
668.786 .0300052
669.533 .0299830
670.281 .0299613
671.028 .0299404
671.774 .0299201
672.521 .0299005
673.267 .0298816
674.013 .0298635
674.759 .0298462
675.505 .0298295
676.250 .0298136
676.995 .0297983
677.740 .0297835
678.484 .0297693
679.229 .0297555
679.973 .0297421
680.717 .0297290
681.460 .0297162
682.204 .0297035
682.947 .0296909
683.690 .0296784
684.433 .0296658
685.175 .0296532
685.917 .0296406
686.659 .0296281
687.401 .0296156
688.142 .0296033
688.884 .0295911
689.625 .0295790
690.365 .0295670
691.106 .0295552
691.846 .0295434
692.586 .0295317
693.326 .0295201
694.066 .0295085
694.805 .0294968
695.545 .0294851
696.284 .0294733
697.022 .0294613
697.761 .0294490
698.499 .0294364
699.237 .0294235
699.975 .0294100
700.713 .0293962
701.450 .0293818
702.187 .0293670
702.924 .0293517
703.661 .0293357
704.397 .0293191
705.133 .0293019
705.869 .0292840
706.605 .0292653
707.341 .0292460
708.076 .0292259
708.811 .0292052
709.546 .0291838
710.281 .0291619
711.015 .0291394
711.749 .0291166
712.483 .0290934
713.217 .0290699
713.950 .0290462
714.684 .0290223
715.417 .0289984
716.150 .0289743
716.882 .0289502
717.615 .0289259
718.347 .0289015
719.079 .0288771
719.811 .0288526
720.542 .0288283
721.273 .0288041
722.005 .0287802
722.735 .0287565
723.466 .0287332
724.196 .0287102
724.927 .0286876
725.656 .0286653
726.386 .0286433
727.116 .0286216
727.845 .0286003
728.574 .0285794
729.303 .0285590
730.031 .0285391
730.760 .0285199
731.488 .0285013
732.216 .0284833
732.944 .0284661
733.671 .0284495
734.398 .0284335
735.125 .0284180
735.852 .0284030
736.579 .0283883
737.305 .0283739
738.031 .0283596
738.757 .0283454
739.483 .0283313
740.208 .0283173
740.933 .0283034
741.658 .0282896
742.383 .0282758
743.108 .0282621
743.832 .0282485
744.556 .0282350
745.280 .0282216
746.004 .0282083
746.727 .0281951
747.450 .0281821
748.173 .0281693
748.896 .0281569
749.618 .0281449
750.340 .0281334
751.062 .0281225
751.784 .0281122
752.506 .0281024
753.227 .0280933
753.948 .0280848
754.669 .0280768
755.389 .0280694
756.110 .0280624
756.830 .0280558
757.550 .0280496
758.269 .0280437
758.989 .0280381
759.708 .0280327
760.427 .0280276
761.146 .0280227
761.864 .0280180
762.582 .0280136
763.300 .0280093
764.018 .0280052
764.736 .0280012
765.453 .0279973
766.170 .0279932
766.887 .0279891
767.603 .0279848
768.320 .0279803
769.036 .0279758
769.751 .0279712
770.467 .0279665
771.182 .0279618
771.897 .0279570
772.612 .0279522
773.327 .0279473
774.041 .0279423
774.755 .0279370
775.469 .0279315
776.183 .0279257
776.896 .0279196
777.609 .0279131
778.322 .0279063
779.035 .0278991
779.747 .0278915
780.459 .0278835
781.171 .0278751
781.882 .0278663
782.594 .0278572
783.305 .0278476
784.016 .0278376
784.726 .0278271
785.436 .0278160
786.147 .0277976
786.856 .0277850
787.566 .0277717
788.275 .0277577
788.984 .0277430
789.693 .0277278
790.401 .0277120
791.110 .0276958
791.818 .0276790
792.525 .0276618
793.233 .0276440
793.940 .0276258
794.647 .0276149
795.353 .0275960
796.060 .0275768
796.766 .0275573
797.472 .0275375
798.177 .0275173
798.883 .0274968
799.588 .0274759
800.292 .0274547
800.997 .0274331
801.701 .0274112
802.405 .0273890
803.109 .0273666
803.812 .0273440
804.515 .0273213
805.218 .0272985
805.921 .0272756
806.623 .0272525
807.325 .0272292
808.027 .0272057
808.728 .0271820
809.429 .0271580
810.130 .0271339
810.831 .0271097
811.531 .0270855
812.231 .0270613
812.931 .0270372
813.630 .0270131
814.330 .0269891
815.029 .0269652
815.727 .0269413
816.426 .0269175
817.124 .0268938
817.821 .0268702
818.519 .0268468
819.216 .0268238
819.913 .0268011
820.609 .0267790
821.306 .0267573
822.002 .0267362
822.697 .0267157
823.393 .0266959
824.088 .0266767
824.783 .0266581
825.477 .0266403
826.171 .0266232
826.865 .0266067
827.559 .0265909
828.252 .0265757
828.945 .0265611
829.638 .0265470
830.330 .0265334
831.023 .0265203
831.714 .0265077
832.406 .0264955
833.097 .0264839
833.788 .0264728
834.479 .0264623
835.169 .0264524
835.859 .0264432
836.548 .0264345
837.238 .0264266
837.927 .0264193
838.615 .0264127
839.304 .0264067
839.992 .0264015
840.680 .0263970
841.367 .0263933
842.054 .0263904
842.741 .0263885
843.428 .0263875
844.114 .0263874
844.800 .0263883
845.485 .0263900
846.170 .0263926
846.855 .0263959
847.540 .0263999
848.224 .0264045
848.908 .0264095
849.592 .0264149
850.275 .0264207
850.958 .0264266
851.641 .0264327
852.323 .0264390
853.005 .0264452
853.687 .0264515
854.368 .0264577
855.049 .0264637
855.730 .0264696
856.410 .0264752
857.090 .0264805
857.769 .0264855
858.449 .0264900
859.128 .0264942
859.806 .0264979
860.485 .0265012
861.163 .0265041
861.840 .0265066
862.518 .0265088
863.195 .0265107
863.871 .0265122
864.548 .0265134
865.224 .0265143
865.899 .0265148
866.574 .0265150
867.249 .0265148
867.924 .0265143
868.598 .0265135
869.272 .0265124
869.946 .0265111
870.619 .0265094
871.292 .0265074
871.964 .0265050
872.636 .0265023
873.308 .0264991
873.979 .0264956
874.651 .0264916
875.321 .0264872
875.992 .0264824
876.662 .0264772
877.331 .0264715
878.001 .0264653
878.670 .0264585
879.338 .0264513
880.007 .0264435
880.675 .0264352
881.342 .0264264
882.009 .0264172
882.676 .0264077
883.343 .0263978
884.009 .0263877
884.675 .0263774
885.340 .0263668
886.005 .0263559
886.670 .0263448
887.334 .0263334
887.998 .0263216
888.662 .0263096
889.325 .0262973
889.988 .0262847
890.650 .0262719
891.312 .0262587
891.974 .0262453
892.636 .0262315
893.297 .0262174
893.957 .0262028
894.618 .0261879
895.278 .0261725
895.937 .0261565
896.596 .0261400
897.255 .0261229
897.914 .0261051
898.572 .0260866
899.230 .0260674
899.887 .0260474
900.544 .0260266
901.201 .0260049
901.857 .0259688
902.513 .0259450
903.168 .0259204
903.823 .0258949
904.478 .0258686
905.132 .0258414
905.786 .0258135
906.440 .0257848
907.093 .0257555
907.746 .0257256
908.399 .0256954
909.051 .0256648
909.703 .0256341
910.354 .0256185
911.005 .0255881
911.656 .0255577
912.306 .0255274
912.956 .0254974
913.605 .0254675
914.254 .0254378
914.903 .0254084
915.551 .0253794
916.199 .0253507
916.847 .0253223
917.494 .0252944
918.141 .0252669
918.788 .0252397
919.434 .0252128
920.079 .0251863
920.725 .0251599
921.370 .0251337
922.014 .0251076
922.658 .0250817
923.302 .0250558
923.946 .0250301
924.589 .0250045
925.231 .0249789
925.873 .0249535
926.515 .0249280
927.157 .0249027
927.798 .0248773
928.439 .0248519
929.079 .0248267
929.719 .0248015
930.359 .0247765
930.998 .0247518
931.637 .0247273
932.275 .0247031
932.913 .0246793
933.551 .0246560
934.188 .0246330
934.825 .0246106
935.462 .0245887
936.098 .0245674
936.733 .0245468
937.369 .0245268
938.004 .0245076
938.638 .0244892
939.273 .0244716
939.907 .0244548
940.540 .0244390
941.173 .0244240
941.806 .0244098
942.438 .0243965
943.070 .0243840
943.702 .0243724
944.333 .0243614
944.964 .0243512
945.594 .0243418
946.224 .0243330
946.854 .0243248
947.483 .0243173
948.112 .0243104
948.741 .0243040
949.369 .0242983
949.996 .0242931
950.624 .0242885
951.251 .0242844
951.878 .0242808
952.504 .0242777
953.130 .0242751
953.755 .0242729
954.380 .0242712
955.005 .0242700
955.629 .0242694
956.253 .0242693
956.877 .0242698
957.500 .0242709
958.123 .0242725
958.746 .0242746
959.368 .0242773
959.990 .0242805
960.611 .0242842
961.232 .0242883
961.853 .0242930
962.473 .0242981
963.093 .0243038
963.712 .0243100
964.331 .0243167
964.950 .0243239
965.569 .0243315
966.187 .0243396
966.804 .0243480
967.422 .0243567
968.039 .0243656
968.655 .0243747
969.272 .0243841
969.887 .0243936
970.503 .0244034
971.118 .0244135
971.733 .0244236
972.347 .0244339
972.961 .0244443
973.575 .0244547
974.188 .0244650
974.801 .0244751
975.414 .0244850
976.026 .0244947
976.638 .0245043
977.250 .0245138
977.861 .0245232
978.472 .0245324
979.083 .0245416
979.693 .0245506
980.303 .0245595
980.912 .0245719
981.521 .0245805
982.130 .0245890
982.738 .0245974
983.346 .0246058
983.954 .0246142
984.562 .0246228
985.169 .0246314
985.775 .0246401
986.382 .0246490
986.988 .0246581
987.594 .0246673
988.199 .0246766
988.804 .0246860
989.409 .0246918
990.013 .0247014
990.617 .0247109
991.221 .0247205
991.824 .0247301
992.427 .0247396
993.030 .0247491
993.632 .0247586
994.234 .0247679
994.836 .0247771
995.438 .0247862
996.039 .0247950
996.640 .0248036
997.240 .0248119
997.840 .0248199
998.440 .0248276
999.040 .0248350
999.639 .0248420
1000.238 .0248486
1000.836 .0248549
1001.435 .0248607
1002.033 .0248661
1002.630 .0248709
1003.228 .0248751
1003.825 .0248786
1004.422 .0248814
1005.018 .0248835
1005.614 .0248848
1006.210 .0248854
1006.806 .0248853
1007.401 .0248846
1007.996 .0248834
1008.591 .0248818
1009.186 .0248797
1009.780 .0248773
1010.374 .0248745
1010.967 .0248713
1011.561 .0248677
1012.154 .0248637
1012.746 .0248593
1013.339 .0248546
1013.931 .0248496
1014.523 .0248442
1015.115 .0248387
1015.706 .0248329
1016.298 .0248268
1016.888 .0248206
1017.479 .0248141
1018.069 .0248074
1018.660 .0248006
1019.250 .0247936
1019.839 .0247864
1020.429 .0247791
1021.018 .0247718
1021.607 .0247645
1022.195 .0247573
1022.784 .0247501
1023.372 .0247430
1023.960 .0247360
1024.547 .0247291
1025.135 .0247223
1025.722 .0247156
1026.309 .0247087
1026.896 .0247018
1027.483 .0246946
1028.069 .0246872
1028.655 .0246795
1029.241 .0246716
1029.827 .0246633
1030.412 .0246547
1030.997 .0246458
1031.582 .0246366
1032.167 .0246270
1032.752 .0246171
1033.336 .0246068
1033.921 .0245960
1034.505 .0245847
1035.089 .0245728
1035.672 .0245604
1036.256 .0245474
1036.839 .0245338
1037.422 .0245196
1038.005 .0245049
1038.588 .0244895
1039.171 .0244736
1039.753 .0244571
1040.335 .0244401
1040.918 .0244225
1041.500 .0244045
1042.081 .0243862
1042.663 .0243676
1043.244 .0243489
1043.826 .0243301
1044.407 .0243115
1044.988 .0242930
1045.569 .0242747
1046.150 .0242566
1046.730 .0242387
1047.311 .0242211
1047.891 .0242037
1048.471 .0241865
1049.052 .0241695
1049.632 .0241527
1050.211 .0241361
1050.791 .0241198
1051.371 .0241037
1051.950 .0240877
1052.530 .0240720
1053.109 .0240565
1053.688 .0240411
1054.268 .0240260
1054.847 .0240111
1055.426 .0239966
1056.005 .0239824
1056.583 .0239686
1057.162 .0239552
1057.741 .0239420
1058.319 .0239292
1058.898 .0239167
1059.476 .0239045
1060.055 .0238926
1060.633 .0238809
1061.211 .0238694
1061.790 .0238582
1062.368 .0238474
1062.946 .0238370
1063.524 .0238270
1064.102 .0238175
1064.680 .0238084
1065.258 .0237997
1065.836 .0237913
1066.414 .0237832
1066.992 .0237754
1067.570 .0237678
1068.148 .0237602
1068.726 .0237527
1069.304 .0237453
1069.882 .0237380
1070.460 .0237308
1071.038 .0237238
1071.616 .0237169
1072.194 .0237103
1072.772 .0237038
1073.350 .0236975
1073.928 .0236913
1074.506 .0236852
1075.084 .0236791
1075.662 .0236732
1076.240 .0236675
1076.819 .0236620
1077.397 .0236568
1077.976 .0236522
1078.554 .0236480
1079.133 .0236444
1079.711 .0236413
1080.290 .0236386
1080.869 .0236365
1081.448 .0236347
1082.027 .0236333
1082.606 .0236325
1083.185 .0236323
1083.764 .0236328
1084.343 .0236343
1084.923 .0236367
1085.502 .0236402
1086.082 .0236449
1086.662 .0236508
1087.242 .0236577
1087.822 .0236657
1088.402 .0236747
1088.983 .0236846
1089.563 .0236954
1090.144 .0237070
1090.725 .0237194
1091.306 .0237325
1091.887 .0237464
1092.469 .0237610
1093.050 .0237762
1093.632 .0237921
1094.214 .0238086
1094.796 .0238256
1095.379 .0238429
1095.961 .0238606
1096.544 .0238786
1097.127 .0238971
1097.710 .0239160
1098.294 .0239354
1098.877 .0239555
1099.461 .0239765
1100.046 .0239984
1100.630 .0240212
1101.215 .0240451
1101.800 .0240700
1102.385 .0240956
1102.970 .0241220
1103.556 .0241489
1104.142 .0241765
1104.728 .0242049
1105.315 .0242344
1105.902 .0242652
1106.489 .0242974
1107.077 .0243312
1107.664 .0243667
1108.253 .0244039
1108.841 .0244426
1109.430 .0244827
1110.019 .0245240
1110.609 .0245663
1111.198 .0246096
1111.789 .0246540
1112.379 .0246997
1112.970 .0247466
1113.561 .0247948
1114.153 .0248439
1114.745 .0248938
1115.338 .0249443
1115.931 .0249951
1116.524 .0250461
1117.117 .0250971
1117.712 .0251483
1118.306 .0251997
1118.901 .0252516
1119.496 .0253045
1120.092 .0253586
1120.689 .0254140
1121.285 .0254706
1121.882 .0255283
1122.480 .0255868
1123.078 .0256460
1123.677 .0257058
1124.276 .0257662
1124.875 .0258274
1125.476 .0258895
1126.076 .0259527
1126.677 .0260173
1127.279 .0260837
1127.881 .0261519
1128.484 .0262221
1129.087 .0262528
1129.691 .0263253
1130.295 .0263995
1130.900 .0264758
1131.505 .0265546
1132.111 .0266362
1132.718 .0267213
1133.325 .0268108
1133.933 .0269049
1134.541 .0270025
1135.150 .0271054
1135.760 .0272195
1136.370 .0273407
1136.981 .0273448
1137.592 .0274537
1138.204 .0275627
1138.817 .0276795
1139.431 .0278023
1140.045 .0279335
1140.660 .0280807
1141.275 .0282460
1141.891 .0284199
1142.508 .0285604
1143.126 .0287590
1143.744 .0291259
1144.363 .0293883
1144.983 .0293550
