Measurement Sequence started on: 15-12-46-377
Integration time: 28
Scans to Average: 2 
>>>>>Begin Spectral Data<<<<<
432.689 .0000100
433.621 .0000100
434.552 .0000100
435.482 .0000100
436.410 .0000100
437.337 .0000100
438.262 .0272407
439.187 .0578665
440.110 .0959686
441.031 .1390086
441.952 .1120488
442.871 .1170992
443.789 .1218188
444.705 .1262785
445.621 .1305281
446.535 .1346045
447.447 .1371005
448.359 .1378561
449.269 .1364942
450.178 .1327674
451.086 .1267496
451.993 .1189120
452.898 .1100402
453.803 .1010288
454.706 .0926423
455.608 .0853551
456.508 .0793279
457.408 .0752621
458.306 .0721476
459.204 .0696150
460.100 .0674780
460.995 .0656303
461.888 .0640035
462.781 .0625503
463.673 .0612364
464.563 .0600385
465.452 .0589408
466.340 .0579297
467.228 .0569956
468.114 .0561314
468.999 .0553310
469.882 .0545900
470.765 .0539047
471.647 .0532718
472.528 .0526890
473.407 .0521543
474.286 .0516657
475.163 .0512224
476.040 .0508230
476.915 .0504660
477.790 .0501495
478.663 .0498725
479.535 .0496333
480.407 .0494300
481.277 .0492607
482.147 .0491230
483.015 .0490145
483.883 .0489334
484.749 .0488774
485.615 .0488447
486.479 .0488341
487.343 .0488443
488.206 .0488744
489.067 .0489237
489.928 .0489922
490.788 .0490796
491.647 .0491859
492.505 .0493108
493.362 .0494539
494.218 .0496152
495.073 .0497952
495.928 .0501338
496.781 .0503633
497.634 .0506131
498.486 .0508829
499.337 .0511741
500.187 .0514871
501.036 .0518236
501.884 .0521866
502.731 .0525794
503.578 .0530062
504.424 .0532923
505.268 .0537911
506.113 .0543418
506.956 .0549515
507.798 .0556284
508.640 .0563803
509.480 .0572179
510.320 .0581523
511.160 .0591949
511.998 .0603608
512.836 .0616672
513.672 .0631320
514.508 .0647757
515.344 .0666201
516.178 .0686885
517.012 .0710042
517.845 .0735880
518.677 .0764565
519.508 .0796257
520.339 .0831038
521.169 .0868921
521.998 .0909714
522.826 .0953087
523.654 .0998504
524.481 .1045316
525.307 .1092730
526.133 .1139769
526.958 .1185440
527.782 .1228753
528.605 .1268776
529.428 .1304686
530.250 .1335777
531.072 .1361558
531.892 .1381666
532.712 .1395887
533.532 .1404067
534.350 .1406157
535.168 .1402245
535.986 .1392399
536.802 .1376701
537.618 .1355264
538.434 .1328256
539.249 .1296023
540.063 .1259059
540.876 .1218000
541.689 .1173577
542.501 .1126654
543.313 .1078241
544.124 .1029320
544.934 .0980859
545.744 .0933732
546.553 .0888679
547.361 .0846287
548.169 .0806917
548.976 .0770763
549.783 .0737858
550.589 .0708154
551.395 .0681478
552.200 .0657539
553.004 .0636088
553.808 .0616857
554.611 .0599617
555.414 .0584147
556.216 .0570235
557.018 .0557659
557.819 .0546245
558.619 .0535837
559.419 .0526281
560.218 .0517455
561.017 .0509258
561.815 .0501592
562.613 .0494385
563.410 .0487559
564.207 .0481047
565.003 .0474792
565.799 .0468745
566.594 .0462866
567.388 .0457132
568.182 .0451527
568.976 .0446039
569.769 .0440668
570.562 .0435418
571.354 .0430286
572.145 .0425271
572.936 .0420369
573.727 .0415576
574.517 .0410894
575.307 .0406322
576.096 .0401860
576.885 .0397522
577.673 .0393319
578.461 .0389265
579.248 .0385376
580.035 .0381666
580.821 .0378142
581.607 .0374814
582.392 .0371684
583.177 .0368754
583.962 .0366018
584.746 .0363472
585.529 .0361107
586.313 .0358916
587.095 .0356887
587.878 .0355012
588.660 .0353282
589.441 .0351694
590.222 .0350238
591.003 .0348909
591.783 .0347699
592.563 .0346603
593.342 .0345608
594.121 .0344704
594.899 .0343879
595.678 .0343119
596.455 .0342413
597.233 .0341749
598.009 .0341117
598.786 .0340510
599.562 .0339923
600.338 .0339353
601.113 .0338799
601.888 .0338016
602.663 .0337507
603.437 .0337017
604.211 .0336547
604.984 .0336098
605.757 .0335668
606.530 .0335257
607.302 .0334866
608.074 .0334493
608.845 .0334139
609.616 .0333804
610.387 .0333691
611.158 .0333387
611.928 .0333104
612.697 .0332843
613.467 .0332603
614.236 .0332385
615.004 .0332187
615.773 .0332007
616.541 .0331844
617.308 .0331693
618.076 .0331550
618.843 .0331413
619.609 .0331276
620.375 .0331136
621.141 .0330991
621.907 .0330838
622.672 .0330676
623.437 .0330502
624.202 .0330317
624.966 .0330120
625.730 .0329909
626.493 .0329685
627.257 .0329446
628.020 .0329192
628.782 .0328922
629.545 .0328635
630.307 .0328333
631.068 .0328014
631.830 .0327679
632.591 .0327330
633.352 .0326969
634.112 .0326597
634.872 .0326217
635.632 .0325831
636.392 .0325440
637.151 .0325048
637.910 .0324653
638.668 .0324256
639.427 .0323859
640.185 .0323461
640.943 .0323063
641.700 .0322667
642.457 .0322272
643.214 .0321879
643.971 .0321490
644.727 .0321104
645.483 .0320723
646.239 .0320345
646.994 .0319971
647.750 .0319600
648.505 .0319233
649.259 .0318871
650.014 .0318513
650.768 .0318161
651.521 .0317815
652.275 .0317474
653.028 .0317136
653.781 .0316802
654.534 .0316471
655.286 .0316142
656.039 .0315816
656.791 .0315494
657.542 .0315177
658.294 .0314866
659.045 .0314562
659.796 .0314266
660.546 .0313978
661.297 .0313697
662.047 .0313423
662.796 .0313154
663.546 .0312889
664.295 .0312627
665.044 .0312370
665.793 .0312116
666.542 .0311867
667.290 .0311624
668.038 .0311386
668.786 .0311154
669.533 .0310929
670.281 .0310711
671.028 .0310500
671.774 .0310296
672.521 .0310099
673.267 .0309909
674.013 .0309724
674.759 .0309545
675.505 .0309371
676.250 .0309202
676.995 .0309038
677.740 .0308880
678.484 .0308727
679.229 .0308580
679.973 .0308440
680.717 .0308307
681.460 .0308179
682.204 .0308057
682.947 .0307940
683.690 .0307826
684.433 .0307714
685.175 .0307603
685.917 .0307493
686.659 .0307383
687.401 .0307272
688.142 .0307161
688.884 .0307048
689.625 .0306934
690.365 .0306817
691.106 .0306696
691.846 .0306571
692.586 .0306439
693.326 .0306301
694.066 .0306155
694.805 .0306001
695.545 .0305839
696.284 .0305669
697.022 .0305491
697.761 .0305306
698.499 .0305113
699.237 .0304913
699.975 .0304706
700.713 .0304494
701.450 .0304277
702.187 .0304055
702.924 .0303828
703.661 .0303597
704.397 .0303363
705.133 .0303126
705.869 .0302887
706.605 .0302646
707.341 .0302405
708.076 .0302163
708.811 .0301921
709.546 .0301680
710.281 .0301440
711.015 .0301199
711.749 .0300959
712.483 .0300717
713.217 .0300474
713.950 .0300229
714.684 .0299982
715.417 .0299731
716.150 .0299477
716.882 .0299219
717.615 .0298958
718.347 .0298693
719.079 .0298424
719.811 .0298150
720.542 .0297872
721.273 .0297590
722.005 .0297303
722.735 .0297013
723.466 .0296720
724.196 .0296426
724.927 .0296132
725.656 .0295839
726.386 .0295550
727.116 .0295264
727.845 .0294984
728.574 .0294709
729.303 .0294440
730.031 .0294177
730.760 .0293920
731.488 .0293670
732.216 .0293427
732.944 .0293192
733.671 .0292965
734.398 .0292747
735.125 .0292538
735.852 .0292337
736.579 .0292146
737.305 .0291964
738.031 .0291790
738.757 .0291624
739.483 .0291467
740.208 .0291318
740.933 .0291175
741.658 .0291040
742.383 .0290912
743.108 .0290789
743.832 .0290672
744.556 .0290560
745.280 .0290452
746.004 .0290349
746.727 .0290248
747.450 .0290150
748.173 .0290055
748.896 .0289962
749.618 .0289870
750.340 .0289779
751.062 .0289689
751.784 .0289600
752.506 .0289511
753.227 .0289424
753.948 .0289336
754.669 .0289249
755.389 .0289163
756.110 .0289076
756.830 .0288988
757.550 .0288899
758.269 .0288810
758.989 .0288719
759.708 .0288627
760.427 .0288534
761.146 .0288440
761.864 .0288347
762.582 .0288254
763.300 .0288163
764.018 .0288074
764.736 .0287988
765.453 .0287905
766.170 .0287824
766.887 .0287747
767.603 .0287673
768.320 .0287602
769.036 .0287536
769.751 .0287473
770.467 .0287415
771.182 .0287363
771.897 .0287317
772.612 .0287278
773.327 .0287245
774.041 .0287217
774.755 .0287195
775.469 .0287177
776.183 .0287163
776.896 .0287152
777.609 .0287144
778.322 .0287139
779.035 .0287137
779.747 .0287138
780.459 .0287143
781.171 .0287151
781.882 .0287162
782.594 .0287175
783.305 .0287189
784.016 .0287203
784.726 .0287216
785.436 .0287227
786.147 .0287229
786.856 .0287229
787.566 .0287224
788.275 .0287213
788.984 .0287195
789.693 .0287170
790.401 .0287137
791.110 .0287095
791.818 .0287045
792.525 .0286986
793.233 .0286918
793.940 .0286841
794.647 .0286775
795.353 .0286685
796.060 .0286586
796.766 .0286479
797.472 .0286363
798.177 .0286238
798.883 .0286103
799.588 .0285960
800.292 .0285809
800.997 .0285650
801.701 .0285483
802.405 .0285310
803.109 .0285130
803.812 .0284944
804.515 .0284750
805.218 .0284549
805.921 .0284341
806.623 .0284126
807.325 .0283903
808.027 .0283675
808.728 .0283441
809.429 .0283203
810.130 .0282960
810.831 .0282714
811.531 .0282465
812.231 .0282213
812.931 .0281959
813.630 .0281701
814.330 .0281442
815.029 .0281181
815.727 .0280919
816.426 .0280658
817.124 .0280398
817.821 .0280138
818.519 .0279881
819.216 .0279625
819.913 .0279371
820.609 .0279120
821.306 .0278872
822.002 .0278628
822.697 .0278388
823.393 .0278153
824.088 .0277924
824.783 .0277702
825.477 .0277486
826.171 .0277276
826.865 .0277072
827.559 .0276875
828.252 .0276683
828.945 .0276497
829.638 .0276316
830.330 .0276141
831.023 .0275971
831.714 .0275807
832.406 .0275647
833.097 .0275491
833.788 .0275339
834.479 .0275192
835.169 .0275049
835.859 .0274910
836.548 .0274775
837.238 .0274645
837.927 .0274519
838.615 .0274398
839.304 .0274281
839.992 .0274168
840.680 .0274059
841.367 .0273953
842.054 .0273850
842.741 .0273751
843.428 .0273655
844.114 .0273562
844.800 .0273472
845.485 .0273383
846.170 .0273295
846.855 .0273207
847.540 .0273119
848.224 .0273029
848.908 .0272938
849.592 .0272846
850.275 .0272752
850.958 .0272657
851.641 .0272560
852.323 .0272461
853.005 .0272360
853.687 .0272257
854.368 .0272151
855.049 .0272042
855.730 .0271932
856.410 .0271821
857.090 .0271710
857.769 .0271598
858.449 .0271488
859.128 .0271378
859.806 .0271270
860.485 .0271164
861.163 .0271060
861.840 .0270959
862.518 .0270862
863.195 .0270771
863.871 .0270686
864.548 .0270608
865.224 .0270537
865.899 .0270474
866.574 .0270418
867.249 .0270369
867.924 .0270325
868.598 .0270288
869.272 .0270256
869.946 .0270231
870.619 .0270211
871.292 .0270198
871.964 .0270191
872.636 .0270189
873.308 .0270194
873.979 .0270203
874.651 .0270217
875.321 .0270235
875.992 .0270258
876.662 .0270285
877.331 .0270315
878.001 .0270350
878.670 .0270389
879.338 .0270432
880.007 .0270479
880.675 .0270530
881.342 .0270585
882.009 .0270643
882.676 .0270706
883.343 .0270773
884.009 .0270845
884.675 .0270922
885.340 .0271004
886.005 .0271092
886.670 .0271185
887.334 .0271283
887.998 .0271386
888.662 .0271493
889.325 .0271604
889.988 .0271718
890.650 .0271835
891.312 .0271953
891.974 .0272074
892.636 .0272194
893.297 .0272314
893.957 .0272431
894.618 .0272546
895.278 .0272655
895.937 .0272757
896.596 .0272851
897.255 .0272936
897.914 .0273011
898.572 .0273074
899.230 .0273126
899.887 .0273165
900.544 .0273191
901.201 .0273204
901.857 .0273162
902.513 .0273140
903.168 .0273105
903.823 .0273056
904.478 .0272993
905.132 .0272917
905.786 .0272828
906.440 .0272727
907.093 .0272613
907.746 .0272488
908.399 .0272353
909.051 .0272209
909.703 .0272056
910.354 .0271965
911.005 .0271804
911.656 .0271636
912.306 .0271463
912.956 .0271284
913.605 .0271101
914.254 .0270913
914.903 .0270721
915.551 .0270525
916.199 .0270325
916.847 .0270122
917.494 .0269915
918.141 .0269704
918.788 .0269488
919.434 .0269269
920.079 .0269044
920.725 .0268815
921.370 .0268580
922.014 .0268340
922.658 .0268095
923.302 .0267844
923.946 .0267587
924.589 .0267325
925.231 .0267058
925.873 .0266785
926.515 .0266508
927.157 .0266225
927.798 .0265938
928.439 .0265648
929.079 .0265354
929.719 .0265057
930.359 .0264759
930.998 .0264460
931.637 .0264161
932.275 .0263864
932.913 .0263568
933.551 .0263274
934.188 .0262983
934.825 .0262696
935.462 .0262414
936.098 .0262136
936.733 .0261865
937.369 .0261599
938.004 .0261340
938.638 .0261088
939.273 .0260844
939.907 .0260608
940.540 .0260379
941.173 .0260157
941.806 .0259942
942.438 .0259733
943.070 .0259531
943.702 .0259334
944.333 .0259141
944.964 .0258953
945.594 .0258769
946.224 .0258587
946.854 .0258408
947.483 .0258230
948.112 .0258052
948.741 .0257874
949.369 .0257695
949.996 .0257514
950.624 .0257331
951.251 .0257146
951.878 .0256959
952.504 .0256769
953.130 .0256575
953.755 .0256379
954.380 .0256179
955.005 .0255975
955.629 .0255769
956.253 .0255558
956.877 .0255346
957.500 .0255131
958.123 .0254914
958.746 .0254697
959.368 .0254480
959.990 .0254263
960.611 .0254045
961.232 .0253828
961.853 .0253610
962.473 .0253393
963.093 .0253176
963.712 .0252960
964.331 .0252745
964.950 .0252532
965.569 .0252323
966.187 .0252116
966.804 .0251912
967.422 .0251711
968.039 .0251511
968.655 .0251314
969.272 .0251118
969.887 .0250924
970.503 .0250731
971.118 .0250541
971.733 .0250353
972.347 .0250167
972.961 .0249985
973.575 .0249807
974.188 .0249630
974.801 .0249457
975.414 .0249285
976.026 .0249115
976.638 .0248948
977.250 .0248784
977.861 .0248623
978.472 .0248467
979.083 .0248315
979.693 .0248168
980.303 .0248026
980.912 .0247839
981.521 .0247711
982.130 .0247588
982.738 .0247470
983.346 .0247356
983.954 .0247247
984.562 .0247143
985.169 .0247046
985.775 .0246955
986.382 .0246871
986.988 .0246794
987.594 .0246725
988.199 .0246662
988.804 .0246607
989.409 .0246595
990.013 .0246551
990.617 .0246514
991.221 .0246485
991.824 .0246464
992.427 .0246451
993.030 .0246446
993.632 .0246450
994.234 .0246461
994.836 .0246479
995.438 .0246505
996.039 .0246537
996.640 .0246575
997.240 .0246620
997.840 .0246673
998.440 .0246732
999.040 .0246799
999.639 .0246872
1000.238 .0246953
1000.836 .0247042
1001.435 .0247136
1002.033 .0247237
1002.630 .0247344
1003.228 .0247456
1003.825 .0247572
1004.422 .0247693
1005.018 .0247818
1005.614 .0247947
1006.210 .0248079
1006.806 .0248215
1007.401 .0248352
1007.996 .0248492
1008.591 .0248632
1009.186 .0248774
1009.780 .0248916
1010.374 .0249059
1010.967 .0249203
1011.561 .0249349
1012.154 .0249497
1012.746 .0249647
1013.339 .0249801
1013.931 .0249958
1014.523 .0250119
1015.115 .0250284
1015.706 .0250453
1016.298 .0250626
1016.888 .0250802
1017.479 .0250982
1018.069 .0251165
1018.660 .0251352
1019.250 .0251544
1019.839 .0251739
1020.429 .0251939
1021.018 .0252144
1021.607 .0252353
1022.195 .0252566
1022.784 .0252784
1023.372 .0253006
1023.960 .0253232
1024.547 .0253462
1025.135 .0253696
1025.722 .0253933
1026.309 .0254174
1026.896 .0254417
1027.483 .0254664
1028.069 .0254912
1028.655 .0255162
1029.241 .0255412
1029.827 .0255661
1030.412 .0255908
1030.997 .0256153
1031.582 .0256395
1032.167 .0256632
1032.752 .0256865
1033.336 .0257092
1033.921 .0257314
1034.505 .0257530
1035.089 .0257740
1035.672 .0257943
1036.256 .0258140
1036.839 .0258329
1037.422 .0258512
1038.005 .0258687
1038.588 .0258856
1039.171 .0259018
1039.753 .0259174
1040.335 .0259324
1040.918 .0259468
1041.500 .0259606
1042.081 .0259739
1042.663 .0259865
1043.244 .0259985
1043.826 .0260099
1044.407 .0260208
1044.988 .0260311
1045.569 .0260408
1046.150 .0260501
1046.730 .0260588
1047.311 .0260670
1047.891 .0260747
1048.471 .0260819
1049.052 .0260886
1049.632 .0260948
1050.211 .0261004
1050.791 .0261057
1051.371 .0261106
1051.950 .0261153
1052.530 .0261198
1053.109 .0261241
1053.688 .0261285
1054.268 .0261330
1054.847 .0261375
1055.426 .0261421
1056.005 .0261469
1056.583 .0261518
1057.162 .0261569
1057.741 .0261620
1058.319 .0261673
1058.898 .0261726
1059.476 .0261778
1060.055 .0261830
1060.633 .0261880
1061.211 .0261927
1061.790 .0261971
1062.368 .0262012
1062.946 .0262048
1063.524 .0262082
1064.102 .0262111
1064.680 .0262138
1065.258 .0262162
1065.836 .0262185
1066.414 .0262207
1066.992 .0262228
1067.570 .0262250
1068.148 .0262271
1068.726 .0262291
1069.304 .0262309
1069.882 .0262327
1070.460 .0262341
1071.038 .0262353
1071.616 .0262360
1072.194 .0262362
1072.772 .0262357
1073.350 .0262345
1073.928 .0262324
1074.506 .0262293
1075.084 .0262251
1075.662 .0262199
1076.240 .0262137
1076.819 .0262068
1077.397 .0261992
1077.976 .0261911
1078.554 .0261826
1079.133 .0261739
1079.711 .0261651
1080.290 .0261564
1080.869 .0261478
1081.448 .0261394
1082.027 .0261311
1082.606 .0261230
1083.185 .0261151
1083.764 .0261073
1084.343 .0260997
1084.923 .0260921
1085.502 .0260847
1086.082 .0260771
1086.662 .0260694
1087.242 .0260615
1087.822 .0260536
1088.402 .0260458
1088.983 .0260382
1089.563 .0260310
1090.144 .0260243
1090.725 .0260186
1091.306 .0260138
1091.887 .0260101
1092.469 .0260078
1093.050 .0260069
1093.632 .0260073
1094.214 .0260089
1094.796 .0260120
1095.379 .0260163
1095.961 .0260218
1096.544 .0260284
1097.127 .0260360
1097.710 .0260445
1098.294 .0260536
1098.877 .0260634
1099.461 .0260736
1100.046 .0260843
1100.630 .0260953
1101.215 .0261065
1101.800 .0261182
1102.385 .0261302
1102.970 .0261428
1103.556 .0261560
1104.142 .0261698
1104.728 .0261841
1105.315 .0261989
1105.902 .0262140
1106.489 .0262294
1107.077 .0262451
1107.664 .0262611
1108.253 .0262775
1108.841 .0262943
1109.430 .0263117
1110.019 .0263297
1110.609 .0263484
1111.198 .0263679
1111.789 .0263880
1112.379 .0264088
1112.970 .0264303
1113.561 .0264525
1114.153 .0264755
1114.745 .0264996
1115.338 .0265248
1115.931 .0265515
1116.524 .0265796
1117.117 .0266094
1117.712 .0266408
1118.306 .0266739
1118.901 .0267085
1119.496 .0267445
1120.092 .0267818
1120.689 .0268204
1121.285 .0268603
1121.882 .0269016
1122.480 .0269445
1123.078 .0269892
1123.677 .0270358
1124.276 .0270845
1124.875 .0271352
1125.476 .0271881
1126.076 .0272432
1126.677 .0273007
1127.279 .0273607
1127.881 .0274230
1128.484 .0274880
1129.087 .0275160
1129.691 .0275847
1130.295 .0276565
1130.900 .0277312
1131.505 .0278092
1132.111 .0278904
1132.718 .0279752
1133.325 .0280633
1133.933 .0281548
1134.541 .0282474
1135.150 .0283497
1135.760 .0284609
1136.370 .0285610
1136.981 .0285453
1137.592 .0286707
1138.204 .0288002
1138.817 .0289297
1139.431 .0290637
1140.045 .0292083
1140.660 .0293635
1141.275 .0295134
1141.891 .0296679
1142.508 .0297604
1143.126 .0300929
1143.744 .0304050
1144.363 .0301472
1144.983 .0303344
