Measurement Sequence started on: 15-12-46-377
Integration time: 28
Scans to Average: 2 
>>>>>Begin Spectral Data<<<<<
432.689 .0000100
433.621 .0000100
434.552 .0000100
435.482 .0000100
436.410 .0000100
437.337 .0000100
438.262 .0295449
439.187 .0625615
440.110 .1035757
441.031 .1497851
441.952 .1198175
442.871 .1250953
443.789 .1299983
444.705 .1346049
445.621 .1389695
446.535 .1431336
447.447 .1455730
448.359 .1461296
449.269 .1444019
450.178 .1401308
451.086 .1333994
451.993 .1247227
452.898 .1149518
453.803 .1050521
454.706 .0958428
455.608 .0878337
456.508 .0811961
457.408 .0766906
458.306 .0732196
459.204 .0703905
460.100 .0680071
460.995 .0659616
461.888 .0641784
462.781 .0626064
463.673 .0612059
464.563 .0599495
465.452 .0588145
466.340 .0577835
467.228 .0568446
468.114 .0559879
468.999 .0552059
469.882 .0544922
470.765 .0538400
471.647 .0532452
472.528 .0527032
473.407 .0522094
474.286 .0517603
475.163 .0513529
476.040 .0509835
476.915 .0506498
477.790 .0503490
478.663 .0500788
479.535 .0498372
480.407 .0496224
481.277 .0494324
482.147 .0492646
483.015 .0491178
483.883 .0489901
484.749 .0488807
485.615 .0487892
486.479 .0487150
487.343 .0486584
488.206 .0486198
489.067 .0485991
489.928 .0485968
490.788 .0486130
491.647 .0486480
492.505 .0487015
493.362 .0487736
494.218 .0488646
495.073 .0489751
495.928 .0492196
496.781 .0493878
497.634 .0495820
498.486 .0498038
499.337 .0500546
500.187 .0503366
501.036 .0506506
501.884 .0509977
502.731 .0513806
503.578 .0518021
504.424 .0520971
505.268 .0525919
506.113 .0531400
506.956 .0537481
507.798 .0544247
508.640 .0551793
509.480 .0560219
510.320 .0569650
511.160 .0580219
511.998 .0592080
512.836 .0605420
513.672 .0620430
514.508 .0637337
515.344 .0656375
516.178 .0677780
517.012 .0701817
517.845 .0728721
518.677 .0758698
519.508 .0791933
520.339 .0828509
521.169 .0868449
521.998 .0911465
522.826 .0957190
523.654 .1005052
524.481 .1054294
525.307 .1104093
526.133 .1153481
526.958 .1201463
527.782 .1247087
528.605 .1289421
529.428 .1327669
530.250 .1361080
531.072 .1389152
531.892 .1411417
532.712 .1427579
533.532 .1437488
534.350 .1441033
535.168 .1438237
535.986 .1429195
536.802 .1413959
537.618 .1392662
538.434 .1365462
539.249 .1332803
540.063 .1295199
540.876 .1253311
541.689 .1207974
542.501 .1160073
543.313 .1110599
544.124 .1060559
544.934 .1010869
545.744 .0962408
546.553 .0915885
547.361 .0871913
548.169 .0830847
548.976 .0792967
549.783 .0758359
550.589 .0726968
551.395 .0698662
552.200 .0673195
553.004 .0650275
553.808 .0629652
554.611 .0611090
555.414 .0594372
556.216 .0579281
557.018 .0565606
557.819 .0553179
558.619 .0541840
559.419 .0531438
560.218 .0521853
561.017 .0512973
561.815 .0504706
562.613 .0496976
563.410 .0489705
564.207 .0482827
565.003 .0476278
565.799 .0470003
566.594 .0463947
567.388 .0458072
568.182 .0452343
568.976 .0446731
569.769 .0441222
570.562 .0435822
571.354 .0430528
572.145 .0425354
572.936 .0420313
573.727 .0415420
574.517 .0410684
575.307 .0406116
576.096 .0401714
576.885 .0397482
577.673 .0393423
578.461 .0389540
579.248 .0385832
580.035 .0382309
580.821 .0378973
581.607 .0375829
582.392 .0372882
583.177 .0370136
583.962 .0367585
584.746 .0365225
585.529 .0363049
586.313 .0361045
587.095 .0359199
587.878 .0357496
588.660 .0355921
589.441 .0354463
590.222 .0353114
591.003 .0351864
591.783 .0350706
592.563 .0349634
593.342 .0348640
594.121 .0347716
594.899 .0346853
595.678 .0346044
596.455 .0345278
597.233 .0344550
598.009 .0343854
598.786 .0343185
599.562 .0342539
600.338 .0341915
601.113 .0341312
601.888 .0340488
602.663 .0339939
603.437 .0339412
604.211 .0338907
604.984 .0338425
605.757 .0337964
606.530 .0337526
607.302 .0337107
608.074 .0336707
608.845 .0336324
609.616 .0335959
610.387 .0335810
611.158 .0335469
611.928 .0335144
612.697 .0334836
613.467 .0334544
614.236 .0334268
615.004 .0334006
615.773 .0333757
616.541 .0333519
617.308 .0333291
618.076 .0333071
618.843 .0332857
619.609 .0332646
620.375 .0332437
621.141 .0332230
621.907 .0332022
622.672 .0331813
623.437 .0331602
624.202 .0331385
624.966 .0331163
625.730 .0330933
626.493 .0330694
627.257 .0330444
628.020 .0330182
628.782 .0329908
629.545 .0329621
630.307 .0329320
631.068 .0329006
631.830 .0328680
632.591 .0328344
633.352 .0327999
634.112 .0327647
634.872 .0327289
635.632 .0326927
636.392 .0326561
637.151 .0326194
637.910 .0325825
638.668 .0325454
639.427 .0325084
640.185 .0324714
640.943 .0324346
641.700 .0323982
642.457 .0323622
643.214 .0323269
643.971 .0322923
644.727 .0322583
645.483 .0322249
646.239 .0321920
646.994 .0321595
647.750 .0321273
648.505 .0320954
649.259 .0320636
650.014 .0320319
650.768 .0320005
651.521 .0319692
652.275 .0319381
653.028 .0319073
653.781 .0318766
654.534 .0318461
655.286 .0318157
656.039 .0317855
656.791 .0317554
657.542 .0317254
658.294 .0316956
659.045 .0316659
659.796 .0316364
660.546 .0316073
661.297 .0315785
662.047 .0315503
662.796 .0315226
663.546 .0314957
664.295 .0314696
665.044 .0314446
665.793 .0314206
666.542 .0313978
667.290 .0313761
668.038 .0313556
668.786 .0313361
669.533 .0313178
670.281 .0313004
671.028 .0312839
671.774 .0312684
672.521 .0312537
673.267 .0312398
674.013 .0312266
674.759 .0312140
675.505 .0312020
676.250 .0311906
676.995 .0311796
677.740 .0311689
678.484 .0311585
679.229 .0311483
679.973 .0311381
680.717 .0311278
681.460 .0311174
682.204 .0311066
682.947 .0310953
683.690 .0310833
684.433 .0310706
685.175 .0310572
685.917 .0310430
686.659 .0310280
687.401 .0310122
688.142 .0309958
688.884 .0309787
689.625 .0309610
690.365 .0309426
691.106 .0309234
691.846 .0309035
692.586 .0308828
693.326 .0308614
694.066 .0308393
694.805 .0308165
695.545 .0307931
696.284 .0307692
697.022 .0307448
697.761 .0307199
698.499 .0306947
699.237 .0306692
699.975 .0306433
700.713 .0306171
701.450 .0305905
702.187 .0305637
702.924 .0305365
703.661 .0305089
704.397 .0304810
705.133 .0304528
705.869 .0304245
706.605 .0303959
707.341 .0303672
708.076 .0303386
708.811 .0303100
709.546 .0302815
710.281 .0302531
711.015 .0302249
711.749 .0301967
712.483 .0301687
713.217 .0301407
713.950 .0301129
714.684 .0300851
715.417 .0300575
716.150 .0300301
716.882 .0300029
717.615 .0299759
718.347 .0299492
719.079 .0299227
719.811 .0298966
720.542 .0298706
721.273 .0298449
722.005 .0298195
722.735 .0297943
723.466 .0297695
724.196 .0297449
724.927 .0297208
725.656 .0296973
726.386 .0296743
727.116 .0296520
727.845 .0296304
728.574 .0296097
729.303 .0295897
730.031 .0295706
730.760 .0295523
731.488 .0295350
732.216 .0295187
732.944 .0295033
733.671 .0294890
734.398 .0294758
735.125 .0294636
735.852 .0294525
736.579 .0294423
737.305 .0294332
738.031 .0294250
738.757 .0294176
739.483 .0294112
740.208 .0294055
740.933 .0294005
741.658 .0293962
742.383 .0293925
743.108 .0293893
743.832 .0293865
744.556 .0293842
745.280 .0293822
746.004 .0293806
746.727 .0293793
747.450 .0293783
748.173 .0293776
748.896 .0293771
749.618 .0293767
750.340 .0293763
751.062 .0293760
751.784 .0293755
752.506 .0293749
753.227 .0293740
753.948 .0293730
754.669 .0293717
755.389 .0293702
756.110 .0293683
756.830 .0293662
757.550 .0293638
758.269 .0293611
758.989 .0293580
759.708 .0293545
760.427 .0293506
761.146 .0293464
761.864 .0293416
762.582 .0293365
763.300 .0293309
764.018 .0293249
764.736 .0293184
765.453 .0293115
766.170 .0293042
766.887 .0292964
767.603 .0292882
768.320 .0292796
769.036 .0292706
769.751 .0292613
770.467 .0292517
771.182 .0292418
771.897 .0292317
772.612 .0292212
773.327 .0292104
774.041 .0291993
774.755 .0291878
775.469 .0291760
776.183 .0291639
776.896 .0291516
777.609 .0291389
778.322 .0291260
779.035 .0291128
779.747 .0290992
780.459 .0290851
781.171 .0290705
781.882 .0290554
782.594 .0290397
783.305 .0290233
784.016 .0290063
784.726 .0289888
785.436 .0289707
786.147 .0289415
786.856 .0289220
787.566 .0289019
788.275 .0288813
788.984 .0288602
789.693 .0288386
790.401 .0288165
791.110 .0287940
791.818 .0287712
792.525 .0287482
793.233 .0287249
793.940 .0287014
794.647 .0286891
795.353 .0286656
796.060 .0286419
796.766 .0286180
797.472 .0285941
798.177 .0285700
798.883 .0285458
799.588 .0285215
800.292 .0284972
800.997 .0284728
801.701 .0284485
802.405 .0284242
803.109 .0283999
803.812 .0283757
804.515 .0283515
805.218 .0283274
805.921 .0283033
806.623 .0282794
807.325 .0282556
808.027 .0282320
808.728 .0282086
809.429 .0281854
810.130 .0281626
810.831 .0281401
811.531 .0281180
812.231 .0280964
812.931 .0280752
813.630 .0280546
814.330 .0280346
815.029 .0280154
815.727 .0279971
816.426 .0279797
817.124 .0279633
817.821 .0279480
818.519 .0279338
819.216 .0279208
819.913 .0279090
820.609 .0278983
821.306 .0278889
822.002 .0278808
822.697 .0278738
823.393 .0278682
824.088 .0278638
824.783 .0278605
825.477 .0278583
826.171 .0278571
826.865 .0278568
827.559 .0278572
828.252 .0278584
828.945 .0278603
829.638 .0278628
830.330 .0278659
831.023 .0278697
831.714 .0278740
832.406 .0278788
833.097 .0278841
833.788 .0278898
834.479 .0278958
835.169 .0279022
835.859 .0279089
836.548 .0279158
837.238 .0279231
837.927 .0279306
838.615 .0279384
839.304 .0279464
839.992 .0279546
840.680 .0279629
841.367 .0279713
842.054 .0279797
842.741 .0279880
843.428 .0279963
844.114 .0280044
844.800 .0280124
845.485 .0280201
846.170 .0280274
846.855 .0280345
847.540 .0280411
848.224 .0280472
848.908 .0280529
849.592 .0280581
850.275 .0280629
850.958 .0280671
851.641 .0280708
852.323 .0280740
853.005 .0280767
853.687 .0280787
854.368 .0280802
855.049 .0280810
855.730 .0280813
856.410 .0280810
857.090 .0280802
857.769 .0280789
858.449 .0280772
859.128 .0280751
859.806 .0280726
860.485 .0280698
861.163 .0280666
861.840 .0280630
862.518 .0280590
863.195 .0280546
863.871 .0280498
864.548 .0280445
865.224 .0280388
865.899 .0280327
866.574 .0280261
867.249 .0280190
867.924 .0280113
868.598 .0280032
869.272 .0279944
869.946 .0279850
870.619 .0279749
871.292 .0279641
871.964 .0279526
872.636 .0279403
873.308 .0279272
873.979 .0279134
874.651 .0278989
875.321 .0278837
875.992 .0278677
876.662 .0278512
877.331 .0278340
878.001 .0278162
878.670 .0277979
879.338 .0277791
880.007 .0277599
880.675 .0277403
881.342 .0277203
882.009 .0277001
882.676 .0276794
883.343 .0276584
884.009 .0276370
884.675 .0276152
885.340 .0275931
886.005 .0275707
886.670 .0275481
887.334 .0275253
887.998 .0275025
888.662 .0274796
889.325 .0274568
889.988 .0274339
890.650 .0274110
891.312 .0273880
891.974 .0273650
892.636 .0273419
893.297 .0273188
893.957 .0272957
894.618 .0272726
895.278 .0272495
895.937 .0272265
896.596 .0272035
897.255 .0271804
897.914 .0271572
898.572 .0271337
899.230 .0271099
899.887 .0270858
900.544 .0270613
901.201 .0270362
901.857 .0269965
902.513 .0269700
903.168 .0269429
903.823 .0269152
904.478 .0268870
905.132 .0268582
905.786 .0268289
906.440 .0267992
907.093 .0267691
907.746 .0267387
908.399 .0267082
909.051 .0266775
909.703 .0266467
910.354 .0266309
911.005 .0266005
911.656 .0265702
912.306 .0265401
912.956 .0265102
913.605 .0264806
914.254 .0264513
914.903 .0264226
915.551 .0263944
916.199 .0263668
916.847 .0263399
917.494 .0263136
918.141 .0262879
918.788 .0262629
919.434 .0262385
920.079 .0262146
920.725 .0261913
921.370 .0261686
922.014 .0261465
922.658 .0261248
923.302 .0261037
923.946 .0260830
924.589 .0260626
925.231 .0260425
925.873 .0260227
926.515 .0260031
927.157 .0259837
927.798 .0259645
928.439 .0259457
929.079 .0259272
929.719 .0259090
930.359 .0258912
930.998 .0258739
931.637 .0258569
932.275 .0258405
932.913 .0258247
933.551 .0258095
934.188 .0257952
934.825 .0257818
935.462 .0257694
936.098 .0257583
936.733 .0257484
937.369 .0257399
938.004 .0257326
938.638 .0257268
939.273 .0257222
939.907 .0257191
940.540 .0257173
941.173 .0257168
941.806 .0257178
942.438 .0257200
943.070 .0257235
943.702 .0257282
944.333 .0257341
944.964 .0257409
945.594 .0257485
946.224 .0257570
946.854 .0257660
947.483 .0257756
948.112 .0257856
948.741 .0257959
949.369 .0258064
949.996 .0258172
950.624 .0258279
951.251 .0258387
951.878 .0258494
952.504 .0258599
953.130 .0258703
953.755 .0258804
954.380 .0258904
955.005 .0259002
955.629 .0259098
956.253 .0259192
956.877 .0259285
957.500 .0259377
958.123 .0259466
958.746 .0259555
959.368 .0259643
959.990 .0259731
960.611 .0259818
961.232 .0259906
961.853 .0259994
962.473 .0260084
963.093 .0260175
963.712 .0260269
964.331 .0260365
964.950 .0260464
965.569 .0260567
966.187 .0260672
966.804 .0260780
967.422 .0260889
968.039 .0261000
968.655 .0261110
969.272 .0261219
969.887 .0261326
970.503 .0261430
971.118 .0261532
971.733 .0261631
972.347 .0261727
972.961 .0261818
973.575 .0261905
974.188 .0261987
974.801 .0262064
975.414 .0262135
976.026 .0262200
976.638 .0262259
977.250 .0262311
977.861 .0262358
978.472 .0262398
979.083 .0262433
979.693 .0262462
980.303 .0262485
980.912 .0262497
981.521 .0262509
982.130 .0262516
982.738 .0262517
983.346 .0262513
983.954 .0262504
984.562 .0262490
985.169 .0262473
985.775 .0262454
986.382 .0262433
986.988 .0262412
987.594 .0262391
988.199 .0262371
988.804 .0262352
989.409 .0262347
990.013 .0262330
990.617 .0262313
991.221 .0262297
991.824 .0262281
992.427 .0262265
993.030 .0262251
993.632 .0262238
994.234 .0262225
994.836 .0262213
995.438 .0262200
996.039 .0262185
996.640 .0262168
997.240 .0262147
997.840 .0262121
998.440 .0262090
999.040 .0262053
999.639 .0262011
1000.238 .0261965
1000.836 .0261915
1001.435 .0261860
1002.033 .0261802
1002.630 .0261740
1003.228 .0261674
1003.825 .0261603
1004.422 .0261526
1005.018 .0261442
1005.614 .0261351
1006.210 .0261253
1006.806 .0261149
1007.401 .0261038
1007.996 .0260923
1008.591 .0260804
1009.186 .0260681
1009.780 .0260555
1010.374 .0260425
1010.967 .0260293
1011.561 .0260157
1012.154 .0260019
1012.746 .0259878
1013.339 .0259736
1013.931 .0259594
1014.523 .0259454
1015.115 .0259315
1015.706 .0259178
1016.298 .0259044
1016.888 .0258912
1017.479 .0258781
1018.069 .0258651
1018.660 .0258521
1019.250 .0258391
1019.839 .0258262
1020.429 .0258134
1021.018 .0258007
1021.607 .0257882
1022.195 .0257760
1022.784 .0257641
1023.372 .0257525
1023.960 .0257412
1024.547 .0257300
1025.135 .0257190
1025.722 .0257080
1026.309 .0256970
1026.896 .0256859
1027.483 .0256747
1028.069 .0256635
1028.655 .0256522
1029.241 .0256407
1029.827 .0256290
1030.412 .0256171
1030.997 .0256049
1031.582 .0255922
1032.167 .0255789
1032.752 .0255650
1033.336 .0255504
1033.921 .0255351
1034.505 .0255191
1035.089 .0255025
1035.672 .0254853
1036.256 .0254675
1036.839 .0254491
1037.422 .0254301
1038.005 .0254106
1038.588 .0253906
1039.171 .0253702
1039.753 .0253493
1040.335 .0253280
1040.918 .0253064
1041.500 .0252846
1042.081 .0252627
1042.663 .0252407
1043.244 .0252188
1043.826 .0251969
1044.407 .0251753
1044.988 .0251540
1045.569 .0251329
1046.150 .0251123
1046.730 .0250921
1047.311 .0250723
1047.891 .0250529
1048.471 .0250339
1049.052 .0250153
1049.632 .0249971
1050.211 .0249794
1050.791 .0249622
1051.371 .0249456
1051.950 .0249296
1052.530 .0249142
1053.109 .0248996
1053.688 .0248856
1054.268 .0248723
1054.847 .0248595
1055.426 .0248473
1056.005 .0248356
1056.583 .0248244
1057.162 .0248137
1057.741 .0248035
1058.319 .0247939
1058.898 .0247848
1059.476 .0247764
1060.055 .0247684
1060.633 .0247608
1061.211 .0247536
1061.790 .0247467
1062.368 .0247400
1062.946 .0247335
1063.524 .0247274
1064.102 .0247217
1064.680 .0247165
1065.258 .0247119
1065.836 .0247079
1066.414 .0247047
1066.992 .0247022
1067.570 .0247005
1068.148 .0246994
1068.726 .0246989
1069.304 .0246990
1069.882 .0246998
1070.460 .0247010
1071.038 .0247029
1071.616 .0247052
1072.194 .0247081
1072.772 .0247114
1073.350 .0247150
1073.928 .0247188
1074.506 .0247227
1075.084 .0247266
1075.662 .0247305
1076.240 .0247342
1076.819 .0247380
1077.397 .0247419
1077.976 .0247460
1078.554 .0247504
1079.133 .0247553
1079.711 .0247607
1080.290 .0247665
1080.869 .0247729
1081.448 .0247798
1082.027 .0247871
1082.606 .0247950
1083.185 .0248036
1083.764 .0248128
1084.343 .0248228
1084.923 .0248338
1085.502 .0248459
1086.082 .0248592
1086.662 .0248739
1087.242 .0248899
1087.822 .0249073
1088.402 .0249261
1088.983 .0249463
1089.563 .0249679
1090.144 .0249910
1090.725 .0250155
1091.306 .0250415
1091.887 .0250689
1092.469 .0250977
1093.050 .0251279
1093.632 .0251592
1094.214 .0251914
1094.796 .0252244
1095.379 .0252578
1095.961 .0252915
1096.544 .0253252
1097.127 .0253590
1097.710 .0253926
1098.294 .0254260
1098.877 .0254593
1099.461 .0254925
1100.046 .0255255
1100.630 .0255584
1101.215 .0255912
1101.800 .0256239
1102.385 .0256564
1102.970 .0256886
1103.556 .0257207
1104.142 .0257529
1104.728 .0257851
1105.315 .0258176
1105.902 .0258506
1106.489 .0258843
1107.077 .0259185
1107.664 .0259534
1108.253 .0259889
1108.841 .0260250
1109.430 .0260617
1110.019 .0260992
1110.609 .0261376
1111.198 .0261772
1111.789 .0262182
1112.379 .0262610
1112.970 .0263058
1113.561 .0263528
1114.153 .0264020
1114.745 .0264532
1115.338 .0265066
1115.931 .0265619
1116.524 .0266192
1117.117 .0266787
1117.712 .0267406
1118.306 .0268048
1118.901 .0268718
1119.496 .0269414
1120.092 .0270136
1120.689 .0270880
1121.285 .0271643
1121.882 .0272422
1122.480 .0273211
1123.078 .0274010
1123.677 .0274817
1124.276 .0275634
1124.875 .0276464
1125.476 .0277306
1126.076 .0278162
1126.677 .0279029
1127.279 .0279906
1127.881 .0280788
1128.484 .0281670
1129.087 .0282108
1129.691 .0282991
1130.295 .0283869
1130.900 .0284742
1131.505 .0285610
1132.111 .0286477
1132.718 .0287346
1133.325 .0288222
1133.933 .0289112
1134.541 .0289995
1135.150 .0290879
1135.760 .0291744
1136.370 .0292739
1136.981 .0294297
1137.592 .0294925
1138.204 .0295571
1138.817 .0296220
1139.431 .0296903
1140.045 .0297662
1140.660 .0298483
1141.275 .0299473
1141.891 .0300609
1142.508 .0301249
1143.126 .0302180
1143.744 .0302634
1144.363 .0307329
1144.983 .0309721
