Measurement Sequence started on: 15-12-46-377
Integration time: 28
Scans to Average: 2 
>>>>>Begin Spectral Data<<<<<
432.689 .0000100
433.621 .0000100
434.552 .0000100
435.482 .0000100
436.410 .0000100
437.337 .0000100
438.262 .0263769
439.187 .0558181
440.110 .0924945
441.031 .1338071
441.952 .1069869
442.871 .1116847
443.789 .1160520
444.705 .1201597
445.621 .1240552
446.535 .1277730
447.447 .1299502
448.359 .1304451
449.269 .1288919
450.178 .1250599
451.086 .1190220
451.993 .1112402
452.898 .1024777
453.803 .0935992
454.706 .0853412
455.608 .0781624
456.508 .0722166
457.408 .0681832
458.306 .0650782
459.204 .0625510
460.100 .0604201
460.995 .0585865
461.888 .0569814
462.781 .0555600
463.673 .0542905
464.563 .0531510
465.452 .0521241
466.340 .0511977
467.228 .0503608
468.114 .0496054
468.999 .0489237
469.882 .0483074
470.765 .0477491
471.647 .0472420
472.528 .0467808
473.407 .0463601
474.286 .0459766
475.163 .0456284
476.040 .0453131
476.915 .0450296
477.790 .0447766
478.663 .0445522
479.535 .0443547
480.407 .0441819
481.277 .0440311
482.147 .0439001
483.015 .0437861
483.883 .0436873
484.749 .0436023
485.615 .0435311
486.479 .0434737
487.343 .0434306
488.206 .0434032
489.067 .0433920
489.928 .0433981
490.788 .0434225
491.647 .0434656
492.505 .0435281
493.362 .0436104
494.218 .0437125
495.073 .0438348
495.928 .0440968
496.781 .0442711
497.634 .0444660
498.486 .0446815
499.337 .0449179
500.187 .0451758
501.036 .0454563
501.884 .0457598
502.731 .0460883
503.578 .0464435
504.424 .0466711
505.268 .0470724
506.113 .0475067
506.956 .0479769
507.798 .0484876
508.640 .0490444
509.480 .0496563
510.320 .0503350
511.160 .0510952
511.998 .0519526
512.836 .0529265
513.672 .0540367
514.508 .0553067
515.344 .0567591
516.178 .0584173
517.012 .0603054
517.845 .0624469
518.677 .0648642
519.508 .0675764
520.339 .0705977
521.169 .0739366
521.998 .0775765
522.826 .0814898
523.654 .0856278
524.481 .0899291
525.307 .0943187
526.133 .0987109
526.958 .1030118
527.782 .1071260
528.605 .1109645
529.428 .1144491
530.250 .1175097
531.072 .1200993
531.892 .1221768
532.712 .1237179
533.532 .1247087
534.350 .1251452
535.168 .1250307
535.986 .1243726
536.802 .1231789
537.618 .1214549
538.434 .1192087
539.249 .1164721
540.063 .1132858
540.876 .1097094
541.689 .1058136
542.501 .1016794
543.313 .0973959
544.124 .0930574
544.934 .0887552
545.744 .0845698
546.553 .0805700
547.361 .0768104
548.169 .0733209
548.976 .0701221
549.783 .0672172
550.589 .0645990
551.395 .0622491
552.200 .0601427
553.004 .0582495
553.808 .0565426
554.611 .0550000
555.414 .0536032
556.216 .0523334
557.018 .0511743
557.819 .0501115
558.619 .0491317
559.419 .0482233
560.218 .0473765
561.017 .0465816
561.815 .0458310
562.613 .0451187
563.410 .0444385
564.207 .0437862
565.003 .0431593
565.799 .0425554
566.594 .0419724
567.388 .0414090
568.182 .0408635
568.976 .0403339
569.769 .0398204
570.562 .0393224
571.354 .0388402
572.145 .0383747
572.936 .0379267
573.727 .0374970
574.517 .0370858
575.307 .0366939
576.096 .0363209
576.885 .0359667
577.673 .0356309
578.461 .0353129
579.248 .0350122
580.035 .0347283
580.821 .0344611
581.607 .0342100
582.392 .0339749
583.177 .0337554
583.962 .0335510
584.746 .0333610
585.529 .0331848
586.313 .0330211
587.095 .0328689
587.878 .0327273
588.660 .0325953
589.441 .0324719
590.222 .0323565
591.003 .0322482
591.783 .0321464
592.563 .0320507
593.342 .0319604
594.121 .0318751
594.899 .0317944
595.678 .0317179
596.455 .0316452
597.233 .0315758
598.009 .0315093
598.786 .0314455
599.562 .0313838
600.338 .0313241
601.113 .0312662
601.888 .0311853
602.663 .0311315
603.437 .0310796
604.211 .0310295
604.984 .0309815
605.757 .0309355
606.530 .0308915
607.302 .0308495
608.074 .0308095
608.845 .0307713
609.616 .0307350
610.387 .0307213
611.158 .0306880
611.928 .0306565
612.697 .0306269
613.467 .0305992
614.236 .0305734
615.004 .0305496
615.773 .0305276
616.541 .0305074
617.308 .0304888
618.076 .0304718
618.843 .0304560
619.609 .0304415
620.375 .0304279
621.141 .0304151
621.907 .0304030
622.672 .0303914
623.437 .0303803
624.202 .0303695
624.966 .0303589
625.730 .0303484
626.493 .0303378
627.257 .0303270
628.020 .0303157
628.782 .0303038
629.545 .0302913
630.307 .0302781
631.068 .0302641
631.830 .0302493
632.591 .0302338
633.352 .0302176
634.112 .0302007
634.872 .0301833
635.632 .0301654
636.392 .0301471
637.151 .0301283
637.910 .0301090
638.668 .0300893
639.427 .0300692
640.185 .0300487
640.943 .0300277
641.700 .0300064
642.457 .0299848
643.214 .0299629
643.971 .0299409
644.727 .0299187
645.483 .0298964
646.239 .0298740
646.994 .0298515
647.750 .0298286
648.505 .0298056
649.259 .0297823
650.014 .0297587
650.768 .0297349
651.521 .0297108
652.275 .0296866
653.028 .0296622
653.781 .0296376
654.534 .0296128
655.286 .0295879
656.039 .0295628
656.791 .0295375
657.542 .0295120
658.294 .0294862
659.045 .0294602
659.796 .0294339
660.546 .0294073
661.297 .0293806
662.047 .0293536
662.796 .0293265
663.546 .0292994
664.295 .0292723
665.044 .0292454
665.793 .0292188
666.542 .0291927
667.290 .0291671
668.038 .0291421
668.786 .0291178
669.533 .0290942
670.281 .0290714
671.028 .0290495
671.774 .0290283
672.521 .0290080
673.267 .0289888
674.013 .0289705
674.759 .0289533
675.505 .0289373
676.250 .0289224
676.995 .0289086
677.740 .0288959
678.484 .0288843
679.229 .0288736
679.973 .0288639
680.717 .0288550
681.460 .0288469
682.204 .0288395
682.947 .0288328
683.690 .0288265
684.433 .0288207
685.175 .0288152
685.917 .0288100
686.659 .0288049
687.401 .0288000
688.142 .0287951
688.884 .0287903
689.625 .0287854
690.365 .0287805
691.106 .0287756
691.846 .0287704
692.586 .0287650
693.326 .0287594
694.066 .0287534
694.805 .0287472
695.545 .0287407
696.284 .0287340
697.022 .0287271
697.761 .0287199
698.499 .0287126
699.237 .0287050
699.975 .0286972
700.713 .0286889
701.450 .0286802
702.187 .0286709
702.924 .0286610
703.661 .0286505
704.397 .0286393
705.133 .0286274
705.869 .0286148
706.605 .0286015
707.341 .0285874
708.076 .0285726
708.811 .0285571
709.546 .0285409
710.281 .0285239
711.015 .0285061
711.749 .0284876
712.483 .0284683
713.217 .0284484
713.950 .0284277
714.684 .0284064
715.417 .0283844
716.150 .0283618
716.882 .0283386
717.615 .0283149
718.347 .0282907
719.079 .0282660
719.811 .0282409
720.542 .0282154
721.273 .0281896
722.005 .0281635
722.735 .0281373
723.466 .0281109
724.196 .0280846
724.927 .0280583
725.656 .0280322
726.386 .0280062
727.116 .0279806
727.845 .0279553
728.574 .0279304
729.303 .0279060
730.031 .0278820
730.760 .0278586
731.488 .0278357
732.216 .0278136
732.944 .0277920
733.671 .0277712
734.398 .0277509
735.125 .0277314
735.852 .0277125
736.579 .0276943
737.305 .0276767
738.031 .0276597
738.757 .0276433
739.483 .0276276
740.208 .0276124
740.933 .0275978
741.658 .0275838
742.383 .0275703
743.108 .0275574
743.832 .0275449
744.556 .0275330
745.280 .0275215
746.004 .0275104
746.727 .0274996
747.450 .0274892
748.173 .0274792
748.896 .0274694
749.618 .0274601
750.340 .0274512
751.062 .0274428
751.784 .0274348
752.506 .0274274
753.227 .0274203
753.948 .0274137
754.669 .0274075
755.389 .0274016
756.110 .0273960
756.830 .0273908
757.550 .0273858
758.269 .0273812
758.989 .0273770
759.708 .0273731
760.427 .0273695
761.146 .0273663
761.864 .0273634
762.582 .0273609
763.300 .0273587
764.018 .0273567
764.736 .0273550
765.453 .0273536
766.170 .0273523
766.887 .0273512
767.603 .0273503
768.320 .0273496
769.036 .0273492
769.751 .0273491
770.467 .0273494
771.182 .0273501
771.897 .0273513
772.612 .0273528
773.327 .0273546
774.041 .0273565
774.755 .0273586
775.469 .0273608
776.183 .0273629
776.896 .0273650
777.609 .0273671
778.322 .0273691
779.035 .0273711
779.747 .0273729
780.459 .0273746
781.171 .0273761
781.882 .0273773
782.594 .0273781
783.305 .0273784
784.016 .0273781
784.726 .0273771
785.436 .0273754
786.147 .0273700
786.856 .0273663
787.566 .0273619
788.275 .0273568
788.984 .0273509
789.693 .0273443
790.401 .0273370
791.110 .0273288
791.818 .0273198
792.525 .0273099
793.233 .0272989
793.940 .0272870
794.647 .0272785
795.353 .0272651
796.060 .0272508
796.766 .0272355
797.472 .0272194
798.177 .0272024
798.883 .0271844
799.588 .0271655
800.292 .0271457
800.997 .0271249
801.701 .0271034
802.405 .0270809
803.109 .0270577
803.812 .0270337
804.515 .0270089
805.218 .0269835
805.921 .0269573
806.623 .0269304
807.325 .0269029
808.027 .0268748
808.728 .0268462
809.429 .0268172
810.130 .0267878
810.831 .0267582
811.531 .0267284
812.231 .0266985
812.931 .0266686
813.630 .0266385
814.330 .0266086
815.029 .0265788
815.727 .0265494
816.426 .0265203
817.124 .0264918
817.821 .0264640
818.519 .0264370
819.216 .0264107
819.913 .0263852
820.609 .0263605
821.306 .0263367
822.002 .0263136
822.697 .0262913
823.393 .0262698
824.088 .0262491
824.783 .0262293
825.477 .0262103
826.171 .0261921
826.865 .0261746
827.559 .0261579
828.252 .0261420
828.945 .0261267
829.638 .0261122
830.330 .0260985
831.023 .0260855
831.714 .0260733
832.406 .0260619
833.097 .0260512
833.788 .0260413
834.479 .0260320
835.169 .0260233
835.859 .0260152
836.548 .0260077
837.238 .0260007
837.927 .0259944
838.615 .0259887
839.304 .0259836
839.992 .0259791
840.680 .0259753
841.367 .0259719
842.054 .0259691
842.741 .0259667
843.428 .0259647
844.114 .0259630
844.800 .0259618
845.485 .0259609
846.170 .0259604
846.855 .0259602
847.540 .0259604
848.224 .0259608
848.908 .0259614
849.592 .0259622
850.275 .0259630
850.958 .0259638
851.641 .0259647
852.323 .0259655
853.005 .0259664
853.687 .0259674
854.368 .0259684
855.049 .0259696
855.730 .0259708
856.410 .0259721
857.090 .0259735
857.769 .0259749
858.449 .0259764
859.128 .0259780
859.806 .0259798
860.485 .0259818
861.163 .0259842
861.840 .0259868
862.518 .0259898
863.195 .0259931
863.871 .0259967
864.548 .0260005
865.224 .0260045
865.899 .0260086
866.574 .0260129
867.249 .0260174
867.924 .0260220
868.598 .0260269
869.272 .0260321
869.946 .0260375
870.619 .0260432
871.292 .0260491
871.964 .0260551
872.636 .0260613
873.308 .0260675
873.979 .0260739
874.651 .0260803
875.321 .0260869
875.992 .0260936
876.662 .0261004
877.331 .0261072
878.001 .0261139
878.670 .0261206
879.338 .0261271
880.007 .0261333
880.675 .0261393
881.342 .0261450
882.009 .0261503
882.676 .0261553
883.343 .0261599
884.009 .0261640
884.675 .0261676
885.340 .0261706
886.005 .0261729
886.670 .0261744
887.334 .0261751
887.998 .0261749
888.662 .0261738
889.325 .0261719
889.988 .0261691
890.650 .0261653
891.312 .0261607
891.974 .0261551
892.636 .0261486
893.297 .0261411
893.957 .0261327
894.618 .0261233
895.278 .0261130
895.937 .0261017
896.596 .0260895
897.255 .0260763
897.914 .0260621
898.572 .0260470
899.230 .0260309
899.887 .0260139
900.544 .0259959
901.201 .0259770
901.857 .0259448
902.513 .0259233
903.168 .0259009
903.823 .0258775
904.478 .0258531
905.132 .0258278
905.786 .0258016
906.440 .0257746
907.093 .0257468
907.746 .0257183
908.399 .0256891
909.051 .0256593
909.703 .0256289
910.354 .0256122
911.005 .0255813
911.656 .0255500
912.306 .0255184
912.956 .0254865
913.605 .0254543
914.254 .0254220
914.903 .0253895
915.551 .0253569
916.199 .0253242
916.847 .0252914
917.494 .0252586
918.141 .0252256
918.788 .0251925
919.434 .0251594
920.079 .0251263
920.725 .0250932
921.370 .0250601
922.014 .0250271
922.658 .0249940
923.302 .0249611
923.946 .0249281
924.589 .0248953
925.231 .0248625
925.873 .0248299
926.515 .0247974
927.157 .0247651
927.798 .0247330
928.439 .0247010
929.079 .0246692
929.719 .0246377
930.359 .0246063
930.998 .0245753
931.637 .0245445
932.275 .0245140
932.913 .0244840
933.551 .0244545
934.188 .0244257
934.825 .0243977
935.462 .0243705
936.098 .0243442
936.733 .0243188
937.369 .0242945
938.004 .0242711
938.638 .0242487
939.273 .0242274
939.907 .0242071
940.540 .0241879
941.173 .0241698
941.806 .0241528
942.438 .0241369
943.070 .0241221
943.702 .0241082
944.333 .0240952
944.964 .0240829
945.594 .0240714
946.224 .0240605
946.854 .0240502
947.483 .0240406
948.112 .0240316
948.741 .0240232
949.369 .0240155
949.996 .0240085
950.624 .0240023
951.251 .0239966
951.878 .0239916
952.504 .0239872
953.130 .0239834
953.755 .0239802
954.380 .0239777
955.005 .0239758
955.629 .0239747
956.253 .0239742
956.877 .0239744
957.500 .0239753
958.123 .0239768
958.746 .0239788
959.368 .0239815
959.990 .0239847
960.611 .0239885
961.232 .0239930
961.853 .0239981
962.473 .0240040
963.093 .0240106
963.712 .0240179
964.331 .0240258
964.950 .0240343
965.569 .0240433
966.187 .0240527
966.804 .0240626
967.422 .0240727
968.039 .0240832
968.655 .0240937
969.272 .0241044
969.887 .0241151
970.503 .0241256
971.118 .0241360
971.733 .0241460
972.347 .0241558
972.961 .0241653
973.575 .0241745
974.188 .0241834
974.801 .0241919
975.414 .0242002
976.026 .0242082
976.638 .0242159
977.250 .0242233
977.861 .0242305
978.472 .0242376
979.083 .0242445
979.693 .0242514
980.303 .0242584
980.912 .0242691
981.521 .0242765
982.130 .0242840
982.738 .0242916
983.346 .0242993
983.954 .0243070
984.562 .0243149
985.169 .0243230
985.775 .0243314
986.382 .0243402
986.988 .0243494
987.594 .0243592
988.199 .0243696
988.804 .0243806
989.409 .0243880
990.013 .0243999
990.617 .0244125
991.221 .0244255
991.824 .0244391
992.427 .0244531
993.030 .0244676
993.632 .0244824
994.234 .0244976
994.836 .0245130
995.438 .0245286
996.039 .0245443
996.640 .0245599
997.240 .0245755
997.840 .0245909
998.440 .0246061
999.040 .0246210
999.639 .0246356
1000.238 .0246500
1000.836 .0246641
1001.435 .0246780
1002.033 .0246917
1002.630 .0247052
1003.228 .0247185
1003.825 .0247315
1004.422 .0247442
1005.018 .0247565
1005.614 .0247682
1006.210 .0247794
1006.806 .0247899
1007.401 .0247998
1007.996 .0248090
1008.591 .0248175
1009.186 .0248255
1009.780 .0248328
1010.374 .0248397
1010.967 .0248461
1011.561 .0248520
1012.154 .0248573
1012.746 .0248623
1013.339 .0248668
1013.931 .0248710
1014.523 .0248751
1015.115 .0248790
1015.706 .0248831
1016.298 .0248872
1016.888 .0248916
1017.479 .0248961
1018.069 .0249007
1018.660 .0249055
1019.250 .0249101
1019.839 .0249148
1020.429 .0249193
1021.018 .0249237
1021.607 .0249281
1022.195 .0249326
1022.784 .0249371
1023.372 .0249417
1023.960 .0249465
1024.547 .0249514
1025.135 .0249563
1025.722 .0249612
1026.309 .0249660
1026.896 .0249705
1027.483 .0249748
1028.069 .0249789
1028.655 .0249826
1029.241 .0249861
1029.827 .0249891
1030.412 .0249918
1030.997 .0249938
1031.582 .0249952
1032.167 .0249957
1032.752 .0249953
1033.336 .0249937
1033.921 .0249909
1034.505 .0249868
1035.089 .0249815
1035.672 .0249749
1036.256 .0249671
1036.839 .0249582
1037.422 .0249482
1038.005 .0249371
1038.588 .0249249
1039.171 .0249118
1039.753 .0248976
1040.335 .0248824
1040.918 .0248663
1041.500 .0248493
1042.081 .0248316
1042.663 .0248132
1043.244 .0247942
1043.826 .0247748
1044.407 .0247550
1044.988 .0247348
1045.569 .0247142
1046.150 .0246933
1046.730 .0246721
1047.311 .0246506
1047.891 .0246289
1048.471 .0246071
1049.052 .0245852
1049.632 .0245632
1050.211 .0245411
1050.791 .0245190
1051.371 .0244968
1051.950 .0244745
1052.530 .0244521
1053.109 .0244296
1053.688 .0244071
1054.268 .0243846
1054.847 .0243622
1055.426 .0243399
1056.005 .0243178
1056.583 .0242958
1057.162 .0242741
1057.741 .0242524
1058.319 .0242309
1058.898 .0242094
1059.476 .0241881
1060.055 .0241670
1060.633 .0241460
1061.211 .0241252
1061.790 .0241047
1062.368 .0240845
1062.946 .0240646
1063.524 .0240450
1064.102 .0240255
1064.680 .0240061
1065.258 .0239868
1065.836 .0239676
1066.414 .0239485
1066.992 .0239298
1067.570 .0239115
1068.148 .0238939
1068.726 .0238771
1069.304 .0238612
1069.882 .0238463
1070.460 .0238322
1071.038 .0238188
1071.616 .0238060
1072.194 .0237936
1072.772 .0237815
1073.350 .0237698
1073.928 .0237585
1074.506 .0237476
1075.084 .0237374
1075.662 .0237278
1076.240 .0237189
1076.819 .0237107
1077.397 .0237031
1077.976 .0236959
1078.554 .0236889
1079.133 .0236822
1079.711 .0236757
1080.290 .0236695
1080.869 .0236639
1081.448 .0236587
1082.027 .0236543
1082.606 .0236505
1083.185 .0236475
1083.764 .0236451
1084.343 .0236432
1084.923 .0236418
1085.502 .0236407
1086.082 .0236397
1086.662 .0236390
1087.242 .0236384
1087.822 .0236379
1088.402 .0236377
1088.983 .0236377
1089.563 .0236379
1090.144 .0236384
1090.725 .0236391
1091.306 .0236403
1091.887 .0236420
1092.469 .0236444
1093.050 .0236474
1093.632 .0236514
1094.214 .0236563
1094.796 .0236622
1095.379 .0236690
1095.961 .0236767
1096.544 .0236854
1097.127 .0236950
1097.710 .0237055
1098.294 .0237171
1098.877 .0237299
1099.461 .0237441
1100.046 .0237598
1100.630 .0237771
1101.215 .0237960
1101.800 .0238165
1102.385 .0238383
1102.970 .0238615
1103.556 .0238860
1104.142 .0239116
1104.728 .0239384
1105.315 .0239666
1105.902 .0239963
1106.489 .0240277
1107.077 .0240609
1107.664 .0240958
1108.253 .0241323
1108.841 .0241701
1109.430 .0242091
1110.019 .0242491
1110.609 .0242898
1111.198 .0243312
1111.789 .0243732
1112.379 .0244159
1112.970 .0244597
1113.561 .0245045
1114.153 .0245505
1114.745 .0245978
1115.338 .0246464
1115.931 .0246960
1116.524 .0247468
1117.117 .0247987
1117.712 .0248518
1118.306 .0249062
1118.901 .0249621
1119.496 .0250195
1120.092 .0250787
1120.689 .0251395
1121.285 .0252022
1121.882 .0252666
1122.480 .0253327
1123.078 .0254004
1123.677 .0254695
1124.276 .0255401
1124.875 .0256121
1125.476 .0256855
1126.076 .0257604
1126.677 .0258366
1127.279 .0259140
1127.881 .0259925
1128.484 .0260721
1129.087 .0261094
1129.691 .0261911
1130.295 .0262741
1130.900 .0263586
1131.505 .0264446
1132.111 .0265324
1132.718 .0266221
1133.325 .0267137
1133.933 .0268076
1134.541 .0269051
1135.150 .0270027
1135.760 .0270965
1136.370 .0271959
1136.981 .0272867
1137.592 .0273654
1138.204 .0274531
1138.817 .0275479
1139.431 .0276515
1140.045 .0277633
1140.660 .0278809
1141.275 .0280048
1141.891 .0281432
1142.508 .0283212
1143.126 .0284064
1143.744 .0283905
1144.363 .0286352
1144.983 .0291169
