Measurement Sequence started on: 15-12-46-377
Integration time: 28
Scans to Average: 2 
>>>>>Begin Spectral Data<<<<<
432.689 .0000100
433.621 .0000100
434.552 .0000100
435.482 .0000100
436.410 .0000100
437.337 .0000100
438.262 .0280947
439.187 .0596501
440.110 .0989093
441.031 .1432121
441.952 .1150720
442.871 .1201564
443.789 .1248784
444.705 .1293153
445.621 .1335209
446.535 .1375354
447.447 .1399088
448.359 .1404805
449.269 .1388628
450.178 .1348041
451.086 .1283786
451.993 .1200749
452.898 .1107059
453.803 .1011969
454.706 .0923379
455.608 .0846233
456.508 .0782246
457.408 .0738698
458.306 .0705208
459.204 .0677990
460.100 .0655130
460.995 .0635552
461.888 .0618507
462.781 .0603480
463.673 .0590092
464.563 .0578086
465.452 .0567269
466.340 .0557491
467.228 .0548643
468.114 .0540639
468.999 .0533409
469.882 .0526875
470.765 .0520971
471.647 .0515624
472.528 .0510777
473.407 .0506368
474.286 .0502352
475.163 .0498694
476.040 .0495365
476.915 .0492349
477.790 .0489631
478.663 .0487197
479.535 .0485036
480.407 .0483134
481.277 .0481476
482.147 .0480037
483.015 .0478795
483.883 .0477729
484.749 .0476821
485.615 .0476056
486.479 .0475429
487.343 .0474940
488.206 .0474603
489.067 .0474425
489.928 .0474423
490.788 .0474609
491.647 .0474998
492.505 .0475593
493.362 .0476400
494.218 .0477418
495.073 .0478651
495.928 .0481289
496.781 .0483077
497.634 .0485097
498.486 .0487363
499.337 .0489894
500.187 .0492709
501.036 .0495830
501.884 .0499282
502.731 .0503091
503.578 .0507286
504.424 .0510190
505.268 .0515081
506.113 .0520459
506.956 .0526355
507.798 .0532819
508.640 .0539915
509.480 .0547725
510.320 .0556344
511.160 .0565883
511.998 .0576475
512.836 .0588295
513.672 .0601517
514.508 .0616344
515.344 .0632989
516.178 .0651715
517.012 .0672761
517.845 .0696362
518.677 .0722747
519.508 .0752095
520.339 .0784505
521.169 .0820049
521.998 .0858497
522.826 .0899543
523.654 .0942696
524.481 .0987332
525.307 .1032684
526.133 .1077902
526.958 .1122043
527.782 .1164205
528.605 .1203538
529.428 .1239264
530.250 .1270628
531.072 .1297182
531.892 .1318508
532.712 .1334315
533.532 .1344408
534.350 .1348710
535.168 .1347232
535.986 .1340040
536.802 .1327186
537.618 .1308775
538.434 .1284926
539.249 .1256046
540.063 .1222553
540.876 .1185023
541.689 .1144174
542.501 .1100825
543.313 .1055851
544.124 .1010205
544.934 .0964767
545.744 .0920341
546.553 .0877650
547.361 .0837331
548.169 .0799696
548.976 .0765008
549.783 .0733370
550.589 .0704732
551.395 .0678928
552.200 .0655714
553.004 .0634779
553.808 .0615877
554.611 .0598778
555.414 .0583260
556.216 .0569110
557.018 .0556182
557.819 .0544336
558.619 .0533434
559.419 .0523367
560.218 .0514027
561.017 .0505316
561.815 .0497153
562.613 .0489461
563.410 .0482153
564.207 .0475170
565.003 .0468465
565.799 .0461987
566.594 .0455701
567.388 .0449589
568.182 .0443639
568.976 .0437843
569.769 .0432201
570.562 .0426718
571.354 .0421391
572.145 .0416228
572.936 .0411225
573.727 .0406382
574.517 .0401701
575.307 .0397188
576.096 .0392843
576.885 .0388677
577.673 .0384699
578.461 .0380912
579.248 .0377322
580.035 .0373933
580.821 .0370742
581.607 .0367745
582.392 .0364939
583.177 .0362317
583.962 .0359868
584.746 .0357587
585.529 .0355462
586.313 .0353487
587.095 .0351652
587.878 .0349947
588.660 .0348363
589.441 .0346893
590.222 .0345527
591.003 .0344258
591.783 .0343078
592.563 .0341979
593.342 .0340952
594.121 .0339991
594.899 .0339087
595.678 .0338234
596.455 .0337428
597.233 .0336666
598.009 .0335943
598.786 .0335256
599.562 .0334601
600.338 .0333973
601.113 .0333368
601.888 .0332517
602.663 .0331958
603.437 .0331417
604.211 .0330893
604.984 .0330386
605.757 .0329895
606.530 .0329422
607.302 .0328966
608.074 .0328527
608.845 .0328105
609.616 .0327700
610.387 .0327539
611.158 .0327159
611.928 .0326796
612.697 .0326448
613.467 .0326115
614.236 .0325798
615.004 .0325496
615.773 .0325210
616.541 .0324937
617.308 .0324678
618.076 .0324430
618.843 .0324192
619.609 .0323961
620.375 .0323736
621.141 .0323514
621.907 .0323293
622.672 .0323071
623.437 .0322846
624.202 .0322618
624.966 .0322385
625.730 .0322147
626.493 .0321903
627.257 .0321652
628.020 .0321394
628.782 .0321128
629.545 .0320854
630.307 .0320571
631.068 .0320281
631.830 .0319984
632.591 .0319681
633.352 .0319373
634.112 .0319062
634.872 .0318750
635.632 .0318438
636.392 .0318125
637.151 .0317814
637.910 .0317505
638.668 .0317198
639.427 .0316893
640.185 .0316591
640.943 .0316293
641.700 .0316000
642.457 .0315713
643.214 .0315432
643.971 .0315159
644.727 .0314892
645.483 .0314631
646.239 .0314375
646.994 .0314123
647.750 .0313874
648.505 .0313628
649.259 .0313383
650.014 .0313140
650.768 .0312897
651.521 .0312656
652.275 .0312415
653.028 .0312174
653.781 .0311933
654.534 .0311690
655.286 .0311445
656.039 .0311197
656.791 .0310946
657.542 .0310691
658.294 .0310433
659.045 .0310171
659.796 .0309907
660.546 .0309641
661.297 .0309372
662.047 .0309103
662.796 .0308833
663.546 .0308564
664.295 .0308297
665.044 .0308032
665.793 .0307770
666.542 .0307513
667.290 .0307261
668.038 .0307013
668.786 .0306771
669.533 .0306533
670.281 .0306301
671.028 .0306073
671.774 .0305849
672.521 .0305631
673.267 .0305418
674.013 .0305211
674.759 .0305010
675.505 .0304814
676.250 .0304624
676.995 .0304438
677.740 .0304255
678.484 .0304074
679.229 .0303894
679.973 .0303714
680.717 .0303534
681.460 .0303354
682.204 .0303174
682.947 .0302994
683.690 .0302814
684.433 .0302634
685.175 .0302453
685.917 .0302272
686.659 .0302089
687.401 .0301905
688.142 .0301720
688.884 .0301534
689.625 .0301347
690.365 .0301161
691.106 .0300974
691.846 .0300787
692.586 .0300599
693.326 .0300412
694.066 .0300223
694.805 .0300035
695.545 .0299847
696.284 .0299660
697.022 .0299474
697.761 .0299290
698.499 .0299110
699.237 .0298931
699.975 .0298756
700.713 .0298584
701.450 .0298414
702.187 .0298247
702.924 .0298082
703.661 .0297920
704.397 .0297760
705.133 .0297603
705.869 .0297447
706.605 .0297293
707.341 .0297141
708.076 .0296991
708.811 .0296842
709.546 .0296694
710.281 .0296547
711.015 .0296401
711.749 .0296254
712.483 .0296105
713.217 .0295955
713.950 .0295802
714.684 .0295645
715.417 .0295483
716.150 .0295317
716.882 .0295146
717.615 .0294969
718.347 .0294787
719.079 .0294599
719.811 .0294406
720.542 .0294208
721.273 .0294004
722.005 .0293795
722.735 .0293582
723.466 .0293364
724.196 .0293143
724.927 .0292920
725.656 .0292695
726.386 .0292471
727.116 .0292246
727.845 .0292024
728.574 .0291804
729.303 .0291588
730.031 .0291376
730.760 .0291170
731.488 .0290968
732.216 .0290772
732.944 .0290582
733.671 .0290397
734.398 .0290218
735.125 .0290045
735.852 .0289877
736.579 .0289714
737.305 .0289557
738.031 .0289404
738.757 .0289257
739.483 .0289115
740.208 .0288977
740.933 .0288843
741.658 .0288711
742.383 .0288581
743.108 .0288452
743.832 .0288324
744.556 .0288195
745.280 .0288065
746.004 .0287933
746.727 .0287800
747.450 .0287666
748.173 .0287531
748.896 .0287394
749.618 .0287256
750.340 .0287116
751.062 .0286974
751.784 .0286830
752.506 .0286683
753.227 .0286534
753.948 .0286381
754.669 .0286224
755.389 .0286064
756.110 .0285901
756.830 .0285734
757.550 .0285565
758.269 .0285394
758.989 .0285221
759.708 .0285048
760.427 .0284874
761.146 .0284699
761.864 .0284524
762.582 .0284350
763.300 .0284175
764.018 .0284002
764.736 .0283830
765.453 .0283660
766.170 .0283493
766.887 .0283329
767.603 .0283170
768.320 .0283016
769.036 .0282869
769.751 .0282729
770.467 .0282595
771.182 .0282470
771.897 .0282352
772.612 .0282242
773.327 .0282140
774.041 .0282045
774.755 .0281957
775.469 .0281876
776.183 .0281802
776.896 .0281736
777.609 .0281676
778.322 .0281624
779.035 .0281578
779.747 .0281538
780.459 .0281503
781.171 .0281473
781.882 .0281447
782.594 .0281423
783.305 .0281401
784.016 .0281380
784.726 .0281360
785.436 .0281340
786.147 .0281308
786.856 .0281286
787.566 .0281262
788.275 .0281238
788.984 .0281212
789.693 .0281185
790.401 .0281156
791.110 .0281126
791.818 .0281094
792.525 .0281060
793.233 .0281024
793.940 .0280986
794.647 .0280961
795.353 .0280919
796.060 .0280874
796.766 .0280827
797.472 .0280777
798.177 .0280724
798.883 .0280668
799.588 .0280608
800.292 .0280545
800.997 .0280477
801.701 .0280406
802.405 .0280330
803.109 .0280250
803.812 .0280165
804.515 .0280077
805.218 .0279983
805.921 .0279886
806.623 .0279784
807.325 .0279677
808.027 .0279565
808.728 .0279449
809.429 .0279328
810.130 .0279203
810.831 .0279074
811.531 .0278942
812.231 .0278808
812.931 .0278672
813.630 .0278534
814.330 .0278396
815.029 .0278257
815.727 .0278119
816.426 .0277982
817.124 .0277846
817.821 .0277712
818.519 .0277580
819.216 .0277452
819.913 .0277326
820.609 .0277204
821.306 .0277086
822.002 .0276971
822.697 .0276859
823.393 .0276751
824.088 .0276645
824.783 .0276543
825.477 .0276444
826.171 .0276346
826.865 .0276250
827.559 .0276155
828.252 .0276061
828.945 .0275968
829.638 .0275876
830.330 .0275784
831.023 .0275693
831.714 .0275602
832.406 .0275510
833.097 .0275417
833.788 .0275324
834.479 .0275230
835.169 .0275134
835.859 .0275038
836.548 .0274940
837.238 .0274841
837.927 .0274740
838.615 .0274638
839.304 .0274534
839.992 .0274427
840.680 .0274318
841.367 .0274206
842.054 .0274092
842.741 .0273975
843.428 .0273856
844.114 .0273734
844.800 .0273609
845.485 .0273480
846.170 .0273347
846.855 .0273208
847.540 .0273064
848.224 .0272914
848.908 .0272758
849.592 .0272595
850.275 .0272426
850.958 .0272251
851.641 .0272070
852.323 .0271882
853.005 .0271688
853.687 .0271488
854.368 .0271280
855.049 .0271067
855.730 .0270848
856.410 .0270624
857.090 .0270397
857.769 .0270166
858.449 .0269933
859.128 .0269699
859.806 .0269465
860.485 .0269230
861.163 .0268995
861.840 .0268761
862.518 .0268528
863.195 .0268298
863.871 .0268070
864.548 .0267845
865.224 .0267625
865.899 .0267409
866.574 .0267198
867.249 .0266992
867.924 .0266791
868.598 .0266594
869.272 .0266403
869.946 .0266216
870.619 .0266036
871.292 .0265861
871.964 .0265692
872.636 .0265530
873.308 .0265375
873.979 .0265227
874.651 .0265085
875.321 .0264951
875.992 .0264823
876.662 .0264702
877.331 .0264588
878.001 .0264481
878.670 .0264381
879.338 .0264288
880.007 .0264202
880.675 .0264124
881.342 .0264053
882.009 .0263990
882.676 .0263933
883.343 .0263884
884.009 .0263842
884.675 .0263807
885.340 .0263780
886.005 .0263760
886.670 .0263747
887.334 .0263741
887.998 .0263741
888.662 .0263747
889.325 .0263759
889.988 .0263774
890.650 .0263794
891.312 .0263816
891.974 .0263841
892.636 .0263868
893.297 .0263895
893.957 .0263923
894.618 .0263951
895.278 .0263978
895.937 .0264002
896.596 .0264024
897.255 .0264043
897.914 .0264056
898.572 .0264065
899.230 .0264067
899.887 .0264062
900.544 .0264050
901.201 .0264029
901.857 .0263961
902.513 .0263918
903.168 .0263868
903.823 .0263809
904.478 .0263743
905.132 .0263670
905.786 .0263589
906.440 .0263503
907.093 .0263411
907.746 .0263313
908.399 .0263212
909.051 .0263108
909.703 .0263002
910.354 .0262946
911.005 .0262842
911.656 .0262738
912.306 .0262636
912.956 .0262536
913.605 .0262439
914.254 .0262345
914.903 .0262254
915.551 .0262167
916.199 .0262084
916.847 .0262004
917.494 .0261929
918.141 .0261857
918.788 .0261788
919.434 .0261722
920.079 .0261657
920.725 .0261594
921.370 .0261532
922.014 .0261469
922.658 .0261406
923.302 .0261341
923.946 .0261275
924.589 .0261206
925.231 .0261135
925.873 .0261060
926.515 .0260983
927.157 .0260903
927.798 .0260818
928.439 .0260731
929.079 .0260639
929.719 .0260545
930.359 .0260447
930.998 .0260348
931.637 .0260247
932.275 .0260145
932.913 .0260044
933.551 .0259944
934.188 .0259846
934.825 .0259750
935.462 .0259656
936.098 .0259566
936.733 .0259479
937.369 .0259396
938.004 .0259318
938.638 .0259245
939.273 .0259178
939.907 .0259117
940.540 .0259062
941.173 .0259013
941.806 .0258970
942.438 .0258932
943.070 .0258899
943.702 .0258871
944.333 .0258846
944.964 .0258826
945.594 .0258809
946.224 .0258795
946.854 .0258783
947.483 .0258772
948.112 .0258761
948.741 .0258748
949.369 .0258734
949.996 .0258717
950.624 .0258697
951.251 .0258674
951.878 .0258648
952.504 .0258619
953.130 .0258586
953.755 .0258550
954.380 .0258510
955.005 .0258467
955.629 .0258419
956.253 .0258367
956.877 .0258310
957.500 .0258250
958.123 .0258186
958.746 .0258119
959.368 .0258050
959.990 .0257979
960.611 .0257906
961.232 .0257831
961.853 .0257753
962.473 .0257672
963.093 .0257588
963.712 .0257499
964.331 .0257407
964.950 .0257312
965.569 .0257213
966.187 .0257111
966.804 .0257006
967.422 .0256899
968.039 .0256788
968.655 .0256673
969.272 .0256555
969.887 .0256433
970.503 .0256308
971.118 .0256180
971.733 .0256049
972.347 .0255915
972.961 .0255778
973.575 .0255640
974.188 .0255498
974.801 .0255353
975.414 .0255206
976.026 .0255054
976.638 .0254899
977.250 .0254740
977.861 .0254578
978.472 .0254413
979.083 .0254244
979.693 .0254072
980.303 .0253897
980.912 .0253625
981.521 .0253444
982.130 .0253262
982.738 .0253077
983.346 .0252892
983.954 .0252706
984.562 .0252520
985.169 .0252336
985.775 .0252154
986.382 .0251974
986.988 .0251798
987.594 .0251624
988.199 .0251453
988.804 .0251285
989.409 .0251211
990.013 .0251048
990.617 .0250888
991.221 .0250732
991.824 .0250578
992.427 .0250427
993.030 .0250279
993.632 .0250133
994.234 .0249990
994.836 .0249848
995.438 .0249708
996.039 .0249570
996.640 .0249433
997.240 .0249300
997.840 .0249168
998.440 .0249039
999.040 .0248913
999.639 .0248788
1000.238 .0248666
1000.836 .0248545
1001.435 .0248425
1002.033 .0248305
1002.630 .0248186
1003.228 .0248066
1003.825 .0247947
1004.422 .0247826
1005.018 .0247705
1005.614 .0247584
1006.210 .0247462
1006.806 .0247340
1007.401 .0247218
1007.996 .0247096
1008.591 .0246975
1009.186 .0246856
1009.780 .0246740
1010.374 .0246626
1010.967 .0246516
1011.561 .0246409
1012.154 .0246308
1012.746 .0246211
1013.339 .0246119
1013.931 .0246033
1014.523 .0245952
1015.115 .0245877
1015.706 .0245809
1016.298 .0245746
1016.888 .0245690
1017.479 .0245640
1018.069 .0245596
1018.660 .0245559
1019.250 .0245527
1019.839 .0245500
1020.429 .0245478
1021.018 .0245461
1021.607 .0245449
1022.195 .0245441
1022.784 .0245439
1023.372 .0245441
1023.960 .0245448
1024.547 .0245459
1025.135 .0245473
1025.722 .0245492
1026.309 .0245513
1026.896 .0245536
1027.483 .0245562
1028.069 .0245589
1028.655 .0245618
1029.241 .0245648
1029.827 .0245680
1030.412 .0245712
1030.997 .0245745
1031.582 .0245779
1032.167 .0245813
1032.752 .0245847
1033.336 .0245882
1033.921 .0245917
1034.505 .0245953
1035.089 .0245989
1035.672 .0246025
1036.256 .0246061
1036.839 .0246096
1037.422 .0246130
1038.005 .0246163
1038.588 .0246194
1039.171 .0246223
1039.753 .0246250
1040.335 .0246275
1040.918 .0246299
1041.500 .0246321
1042.081 .0246342
1042.663 .0246362
1043.244 .0246379
1043.826 .0246395
1044.407 .0246409
1044.988 .0246420
1045.569 .0246430
1046.150 .0246437
1046.730 .0246442
1047.311 .0246445
1047.891 .0246447
1048.471 .0246447
1049.052 .0246447
1049.632 .0246445
1050.211 .0246442
1050.791 .0246439
1051.371 .0246435
1051.950 .0246430
1052.530 .0246426
1053.109 .0246423
1053.688 .0246421
1054.268 .0246420
1054.847 .0246421
1055.426 .0246424
1056.005 .0246429
1056.583 .0246437
1057.162 .0246447
1057.741 .0246461
1058.319 .0246477
1058.898 .0246497
1059.476 .0246520
1060.055 .0246546
1060.633 .0246575
1061.211 .0246605
1061.790 .0246637
1062.368 .0246671
1062.946 .0246706
1063.524 .0246744
1064.102 .0246785
1064.680 .0246829
1065.258 .0246876
1065.836 .0246926
1066.414 .0246980
1066.992 .0247036
1067.570 .0247096
1068.148 .0247159
1068.726 .0247226
1069.304 .0247296
1069.882 .0247372
1070.460 .0247454
1071.038 .0247541
1071.616 .0247633
1072.194 .0247729
1072.772 .0247829
1073.350 .0247932
1073.928 .0248037
1074.506 .0248143
1075.084 .0248251
1075.662 .0248359
1076.240 .0248469
1076.819 .0248582
1077.397 .0248698
1077.976 .0248818
1078.554 .0248941
1079.133 .0249066
1079.711 .0249195
1080.290 .0249326
1080.869 .0249460
1081.448 .0249597
1082.027 .0249739
1082.606 .0249886
1083.185 .0250038
1083.764 .0250195
1084.343 .0250358
1084.923 .0250527
1085.502 .0250699
1086.082 .0250876
1086.662 .0251058
1087.242 .0251243
1087.822 .0251434
1088.402 .0251632
1088.983 .0251836
1089.563 .0252047
1090.144 .0252263
1090.725 .0252485
1091.306 .0252711
1091.887 .0252939
1092.469 .0253171
1093.050 .0253407
1093.632 .0253647
1094.214 .0253893
1094.796 .0254146
1095.379 .0254407
1095.961 .0254677
1096.544 .0254954
1097.127 .0255237
1097.710 .0255523
1098.294 .0255811
1098.877 .0256100
1099.461 .0256388
1100.046 .0256678
1100.630 .0256970
1101.215 .0257265
1101.800 .0257566
1102.385 .0257873
1102.970 .0258186
1103.556 .0258503
1104.142 .0258823
1104.728 .0259145
1105.315 .0259467
1105.902 .0259790
1106.489 .0260114
1107.077 .0260442
1107.664 .0260777
1108.253 .0261122
1108.841 .0261479
1109.430 .0261850
1110.019 .0262233
1110.609 .0262628
1111.198 .0263034
1111.789 .0263450
1112.379 .0263872
1112.970 .0264300
1113.561 .0264733
1114.153 .0265170
1114.745 .0265611
1115.338 .0266059
1115.931 .0266512
1116.524 .0266972
1117.117 .0267438
1117.712 .0267909
1118.306 .0268383
1118.901 .0268860
1119.496 .0269340
1120.092 .0269822
1120.689 .0270306
1121.285 .0270793
1121.882 .0271284
1122.480 .0271784
1123.078 .0272299
1123.677 .0272832
1124.276 .0273389
1124.875 .0273970
1125.476 .0274575
1126.076 .0275203
1126.677 .0275849
1127.279 .0276512
1127.881 .0277190
1128.484 .0277881
1129.087 .0278158
1129.691 .0278868
1130.295 .0279599
1130.900 .0280355
1131.505 .0281139
1132.111 .0281953
1132.718 .0282798
1133.325 .0283678
1133.933 .0284594
1134.541 .0285505
1135.150 .0286452
1135.760 .0287409
1136.370 .0288593
1136.981 .0289535
1137.592 .0290547
1138.204 .0291653
1138.817 .0292811
1139.431 .0294014
1140.045 .0295252
1140.660 .0296495
1141.275 .0297909
1141.891 .0299330
1142.508 .0299647
1143.126 .0301130
1143.744 .0301937
1144.363 .0308808
1144.983 .0307885
