Measurement Sequence started on: 15-12-46-377
Integration time: 28
Scans to Average: 2 
>>>>>Begin Spectral Data<<<<<
432.689 .0000100
433.621 .0000100
434.552 .0000100
435.482 .0000100
436.410 .0000100
437.337 .0000100
438.262 .0244866
439.187 .0518131
440.110 .0858836
441.031 .1243595
441.952 .1004920
442.871 .1050447
443.789 .1092873
444.705 .1132860
445.621 .1170850
446.535 .1207212
447.447 .1229331
448.359 .1235916
449.269 .1223586
450.178 .1190149
451.086 .1136240
451.993 .1066081
452.898 .0986650
453.803 .0905906
454.706 .0830644
455.608 .0765104
456.508 .0710741
457.408 .0673900
458.306 .0645515
459.204 .0622407
460.100 .0602960
460.995 .0586267
461.888 .0571686
462.781 .0558799
463.673 .0547258
464.563 .0536820
465.452 .0527300
466.340 .0518558
467.228 .0510492
468.114 .0503037
468.999 .0496143
469.882 .0489779
470.765 .0483918
471.647 .0478535
472.528 .0473604
473.407 .0469095
474.286 .0464979
475.163 .0461236
476.040 .0457844
476.915 .0454785
477.790 .0452039
478.663 .0449592
479.535 .0447427
480.407 .0445531
481.277 .0443885
482.147 .0442470
483.015 .0441273
483.883 .0440274
484.749 .0439460
485.615 .0438820
486.479 .0438347
487.343 .0438036
488.206 .0437896
489.067 .0437933
489.928 .0438151
490.788 .0438559
491.647 .0439164
492.505 .0439969
493.362 .0440985
494.218 .0442216
495.073 .0443665
495.928 .0446666
496.781 .0448689
497.634 .0450949
498.486 .0453456
499.337 .0456219
500.187 .0459250
501.036 .0462563
501.884 .0466173
502.731 .0470102
503.578 .0474385
504.424 .0477253
505.268 .0482185
506.113 .0487571
506.956 .0493457
507.798 .0499902
508.640 .0506968
509.480 .0514733
510.320 .0523295
511.160 .0532758
511.998 .0543252
512.836 .0554926
513.672 .0567962
514.508 .0582575
515.344 .0598988
516.178 .0617417
517.012 .0638092
517.845 .0661211
518.677 .0686928
519.508 .0715340
520.339 .0746473
521.169 .0780255
521.998 .0816420
522.826 .0854584
523.654 .0894229
524.481 .0934731
525.307 .0975418
526.133 .1015504
526.958 .1054179
527.782 .1090634
528.605 .1124110
529.428 .1153933
530.250 .1179505
531.072 .1200385
531.892 .1216220
532.712 .1226788
533.532 .1231990
534.350 .1231778
535.168 .1226239
535.986 .1215507
536.802 .1199746
537.618 .1179131
538.434 .1153890
539.249 .1124430
540.063 .1091257
540.876 .1054968
541.689 .1016251
542.501 .0975818
543.313 .0934470
544.124 .0893003
544.934 .0852184
545.744 .0812709
546.553 .0775174
547.361 .0740062
548.169 .0707657
548.976 .0678119
549.783 .0651459
550.589 .0627564
551.395 .0606250
552.200 .0587230
553.004 .0570199
553.808 .0554879
554.611 .0541040
555.414 .0528487
556.216 .0517035
557.018 .0506520
557.819 .0496809
558.619 .0487788
559.419 .0479352
560.218 .0471418
561.017 .0463915
561.815 .0456790
562.613 .0450001
563.410 .0443500
564.207 .0437252
565.003 .0431231
565.799 .0425419
566.594 .0419801
567.388 .0414363
568.182 .0409095
568.976 .0403986
569.769 .0399039
570.562 .0394248
571.354 .0389619
572.145 .0385156
572.936 .0380866
573.727 .0376750
574.517 .0372813
575.307 .0369055
576.096 .0365475
576.885 .0362070
577.673 .0358839
578.461 .0355770
579.248 .0352858
580.035 .0350092
580.821 .0347465
581.607 .0344971
582.392 .0342604
583.177 .0340360
583.962 .0338237
584.746 .0336235
585.529 .0334352
586.313 .0332583
587.095 .0330927
587.878 .0329377
588.660 .0327929
589.441 .0326575
590.222 .0325308
591.003 .0324122
591.783 .0323013
592.563 .0321978
593.342 .0321014
594.121 .0320118
594.899 .0319291
595.678 .0318529
596.455 .0317832
597.233 .0317192
598.009 .0316606
598.786 .0316066
599.562 .0315567
600.338 .0315103
601.113 .0314666
601.888 .0314092
602.663 .0313707
603.437 .0313342
604.211 .0312994
604.984 .0312661
605.757 .0312343
606.530 .0312038
607.302 .0311743
608.074 .0311457
608.845 .0311175
609.616 .0310899
610.387 .0310764
611.158 .0310493
611.928 .0310224
612.697 .0309958
613.467 .0309693
614.236 .0309432
615.004 .0309174
615.773 .0308920
616.541 .0308671
617.308 .0308429
618.076 .0308193
618.843 .0307963
619.609 .0307738
620.375 .0307518
621.141 .0307302
621.907 .0307089
622.672 .0306877
623.437 .0306666
624.202 .0306455
624.966 .0306246
625.730 .0306038
626.493 .0305832
627.257 .0305627
628.020 .0305422
628.782 .0305218
629.545 .0305013
630.307 .0304806
631.068 .0304597
631.830 .0304384
632.591 .0304167
633.352 .0303945
634.112 .0303718
634.872 .0303487
635.632 .0303250
636.392 .0303010
637.151 .0302765
637.910 .0302516
638.668 .0302266
639.427 .0302013
640.185 .0301760
640.943 .0301508
641.700 .0301257
642.457 .0301007
643.214 .0300758
643.971 .0300512
644.727 .0300267
645.483 .0300023
646.239 .0299781
646.994 .0299542
647.750 .0299306
648.505 .0299074
649.259 .0298847
650.014 .0298625
650.768 .0298409
651.521 .0298197
652.275 .0297990
653.028 .0297787
653.781 .0297586
654.534 .0297388
655.286 .0297192
656.039 .0296996
656.791 .0296803
657.542 .0296612
658.294 .0296423
659.045 .0296237
659.796 .0296055
660.546 .0295876
661.297 .0295700
662.047 .0295527
662.796 .0295357
663.546 .0295189
664.295 .0295023
665.044 .0294860
665.793 .0294698
666.542 .0294538
667.290 .0294380
668.038 .0294225
668.786 .0294071
669.533 .0293921
670.281 .0293772
671.028 .0293626
671.774 .0293483
672.521 .0293343
673.267 .0293207
674.013 .0293074
674.759 .0292944
675.505 .0292817
676.250 .0292692
676.995 .0292567
677.740 .0292443
678.484 .0292318
679.229 .0292194
679.973 .0292068
680.717 .0291943
681.460 .0291817
682.204 .0291692
682.947 .0291566
683.690 .0291439
684.433 .0291311
685.175 .0291181
685.917 .0291048
686.659 .0290912
687.401 .0290772
688.142 .0290630
688.884 .0290484
689.625 .0290335
690.365 .0290182
691.106 .0290026
691.846 .0289867
692.586 .0289704
693.326 .0289539
694.066 .0289370
694.805 .0289200
695.545 .0289027
696.284 .0288853
697.022 .0288679
697.761 .0288503
698.499 .0288326
699.237 .0288149
699.975 .0287971
700.713 .0287793
701.450 .0287617
702.187 .0287442
702.924 .0287270
703.661 .0287101
704.397 .0286936
705.133 .0286774
705.869 .0286615
706.605 .0286459
707.341 .0286304
708.076 .0286150
708.811 .0285998
709.546 .0285846
710.281 .0285697
711.015 .0285548
711.749 .0285401
712.483 .0285254
713.217 .0285108
713.950 .0284961
714.684 .0284813
715.417 .0284664
716.150 .0284513
716.882 .0284359
717.615 .0284204
718.347 .0284048
719.079 .0283890
719.811 .0283730
720.542 .0283570
721.273 .0283408
722.005 .0283245
722.735 .0283082
723.466 .0282918
724.196 .0282754
724.927 .0282591
725.656 .0282428
726.386 .0282267
727.116 .0282108
727.845 .0281950
728.574 .0281794
729.303 .0281640
730.031 .0281489
730.760 .0281343
731.488 .0281200
732.216 .0281063
732.944 .0280931
733.671 .0280805
734.398 .0280684
735.125 .0280568
735.852 .0280457
736.579 .0280350
737.305 .0280247
738.031 .0280148
738.757 .0280052
739.483 .0279961
740.208 .0279873
740.933 .0279789
741.658 .0279707
742.383 .0279627
743.108 .0279548
743.832 .0279470
744.556 .0279391
745.280 .0279312
746.004 .0279231
746.727 .0279149
747.450 .0279065
748.173 .0278979
748.896 .0278890
749.618 .0278799
750.340 .0278705
751.062 .0278608
751.784 .0278509
752.506 .0278407
753.227 .0278303
753.948 .0278197
754.669 .0278088
755.389 .0277978
756.110 .0277864
756.830 .0277749
757.550 .0277631
758.269 .0277511
758.989 .0277389
759.708 .0277265
760.427 .0277140
761.146 .0277014
761.864 .0276886
762.582 .0276756
763.300 .0276624
764.018 .0276489
764.736 .0276352
765.453 .0276212
766.170 .0276070
766.887 .0275926
767.603 .0275781
768.320 .0275635
769.036 .0275490
769.751 .0275344
770.467 .0275200
771.182 .0275058
771.897 .0274918
772.612 .0274781
773.327 .0274647
774.041 .0274517
774.755 .0274391
775.469 .0274270
776.183 .0274154
776.896 .0274043
777.609 .0273938
778.322 .0273839
779.035 .0273745
779.747 .0273657
780.459 .0273573
781.171 .0273495
781.882 .0273420
782.594 .0273348
783.305 .0273277
784.016 .0273208
784.726 .0273139
785.436 .0273069
786.147 .0272952
786.856 .0272876
787.566 .0272799
788.275 .0272719
788.984 .0272638
789.693 .0272554
790.401 .0272466
791.110 .0272375
791.818 .0272279
792.525 .0272179
793.233 .0272073
793.940 .0271962
794.647 .0271898
795.353 .0271780
796.060 .0271658
796.766 .0271532
797.472 .0271403
798.177 .0271269
798.883 .0271132
799.588 .0270992
800.292 .0270849
800.997 .0270702
801.701 .0270553
802.405 .0270402
803.109 .0270248
803.812 .0270092
804.515 .0269934
805.218 .0269773
805.921 .0269610
806.623 .0269445
807.325 .0269278
808.027 .0269109
808.728 .0268940
809.429 .0268770
810.130 .0268601
810.831 .0268433
811.531 .0268266
812.231 .0268100
812.931 .0267936
813.630 .0267773
814.330 .0267611
815.029 .0267452
815.727 .0267297
816.426 .0267145
817.124 .0266997
817.821 .0266855
818.519 .0266718
819.216 .0266587
819.913 .0266461
820.609 .0266341
821.306 .0266225
822.002 .0266115
822.697 .0266010
823.393 .0265911
824.088 .0265817
824.783 .0265730
825.477 .0265649
826.171 .0265573
826.865 .0265502
827.559 .0265437
828.252 .0265377
828.945 .0265321
829.638 .0265269
830.330 .0265222
831.023 .0265179
831.714 .0265140
832.406 .0265104
833.097 .0265070
833.788 .0265038
834.479 .0265007
835.169 .0264977
835.859 .0264948
836.548 .0264918
837.238 .0264888
837.927 .0264857
838.615 .0264826
839.304 .0264793
839.992 .0264757
840.680 .0264719
841.367 .0264678
842.054 .0264633
842.741 .0264584
843.428 .0264531
844.114 .0264474
844.800 .0264414
845.485 .0264348
846.170 .0264279
846.855 .0264205
847.540 .0264126
848.224 .0264043
848.908 .0263955
849.592 .0263863
850.275 .0263767
850.958 .0263668
851.641 .0263565
852.323 .0263460
853.005 .0263351
853.687 .0263239
854.368 .0263125
855.049 .0263007
855.730 .0262887
856.410 .0262764
857.090 .0262639
857.769 .0262513
858.449 .0262385
859.128 .0262257
859.806 .0262127
860.485 .0261996
861.163 .0261865
861.840 .0261732
862.518 .0261600
863.195 .0261467
863.871 .0261336
864.548 .0261206
865.224 .0261077
865.899 .0260951
866.574 .0260828
867.249 .0260707
867.924 .0260589
868.598 .0260474
869.272 .0260362
869.946 .0260254
870.619 .0260148
871.292 .0260047
871.964 .0259950
872.636 .0259857
873.308 .0259769
873.979 .0259686
874.651 .0259607
875.321 .0259533
875.992 .0259463
876.662 .0259397
877.331 .0259334
878.001 .0259276
878.670 .0259220
879.338 .0259167
880.007 .0259117
880.675 .0259070
881.342 .0259026
882.009 .0258984
882.676 .0258944
883.343 .0258907
884.009 .0258872
884.675 .0258840
885.340 .0258809
886.005 .0258781
886.670 .0258754
887.334 .0258727
887.998 .0258701
888.662 .0258675
889.325 .0258648
889.988 .0258619
890.650 .0258590
891.312 .0258558
891.974 .0258524
892.636 .0258489
893.297 .0258451
893.957 .0258411
894.618 .0258369
895.278 .0258323
895.937 .0258274
896.596 .0258220
897.255 .0258161
897.914 .0258097
898.572 .0258028
899.230 .0257952
899.887 .0257869
900.544 .0257779
901.201 .0257682
901.857 .0257507
902.513 .0257393
903.168 .0257272
903.823 .0257146
904.478 .0257014
905.132 .0256877
905.786 .0256734
906.440 .0256587
907.093 .0256434
907.746 .0256277
908.399 .0256116
909.051 .0255950
909.703 .0255782
910.354 .0255693
911.005 .0255524
911.656 .0255354
912.306 .0255182
912.956 .0255010
913.605 .0254837
914.254 .0254664
914.903 .0254490
915.551 .0254314
916.199 .0254137
916.847 .0253959
917.494 .0253779
918.141 .0253597
918.788 .0253413
919.434 .0253227
920.079 .0253040
920.725 .0252852
921.370 .0252662
922.014 .0252470
922.658 .0252278
923.302 .0252086
923.946 .0251893
924.589 .0251701
925.231 .0251509
925.873 .0251318
926.515 .0251127
927.157 .0250936
927.798 .0250746
928.439 .0250557
929.079 .0250368
929.719 .0250180
930.359 .0249994
930.998 .0249811
931.637 .0249630
932.275 .0249454
932.913 .0249281
933.551 .0249114
934.188 .0248953
934.825 .0248798
935.462 .0248648
936.098 .0248505
936.733 .0248367
937.369 .0248235
938.004 .0248108
938.638 .0247987
939.273 .0247872
939.907 .0247762
940.540 .0247657
941.173 .0247558
941.806 .0247464
942.438 .0247374
943.070 .0247288
943.702 .0247204
944.333 .0247123
944.964 .0247043
945.594 .0246964
946.224 .0246886
946.854 .0246809
947.483 .0246734
948.112 .0246660
948.741 .0246588
949.369 .0246518
949.996 .0246450
950.624 .0246383
951.251 .0246318
951.878 .0246253
952.504 .0246189
953.130 .0246126
953.755 .0246065
954.380 .0246004
955.005 .0245946
955.629 .0245889
956.253 .0245834
956.877 .0245780
957.500 .0245728
958.123 .0245677
958.746 .0245626
959.368 .0245577
959.990 .0245529
960.611 .0245483
961.232 .0245440
961.853 .0245400
962.473 .0245363
963.093 .0245330
963.712 .0245299
964.331 .0245270
964.950 .0245244
965.569 .0245219
966.187 .0245195
966.804 .0245172
967.422 .0245149
968.039 .0245128
968.655 .0245108
969.272 .0245089
969.887 .0245070
970.503 .0245051
971.118 .0245032
971.733 .0245010
972.347 .0244986
972.961 .0244958
973.575 .0244927
974.188 .0244891
974.801 .0244852
975.414 .0244809
976.026 .0244762
976.638 .0244713
977.250 .0244660
977.861 .0244603
978.472 .0244543
979.083 .0244478
979.693 .0244409
980.303 .0244336
980.912 .0244206
981.521 .0244125
982.130 .0244040
982.738 .0243954
983.346 .0243866
983.954 .0243777
984.562 .0243687
985.169 .0243596
985.775 .0243505
986.382 .0243414
986.988 .0243323
987.594 .0243235
988.199 .0243149
988.804 .0243068
989.409 .0243043
990.013 .0242971
990.617 .0242905
991.221 .0242847
991.824 .0242797
992.427 .0242755
993.030 .0242721
993.632 .0242694
994.234 .0242675
994.836 .0242662
995.438 .0242657
996.039 .0242657
996.640 .0242664
997.240 .0242677
997.840 .0242696
998.440 .0242721
999.040 .0242751
999.639 .0242786
1000.238 .0242824
1000.836 .0242865
1001.435 .0242908
1002.033 .0242953
1002.630 .0242998
1003.228 .0243044
1003.825 .0243091
1004.422 .0243139
1005.018 .0243187
1005.614 .0243236
1006.210 .0243286
1006.806 .0243335
1007.401 .0243384
1007.996 .0243432
1008.591 .0243477
1009.186 .0243518
1009.780 .0243557
1010.374 .0243591
1010.967 .0243620
1011.561 .0243647
1012.154 .0243670
1012.746 .0243690
1013.339 .0243709
1013.931 .0243726
1014.523 .0243743
1015.115 .0243760
1015.706 .0243777
1016.298 .0243794
1016.888 .0243813
1017.479 .0243833
1018.069 .0243854
1018.660 .0243878
1019.250 .0243904
1019.839 .0243934
1020.429 .0243968
1021.018 .0244006
1021.607 .0244050
1022.195 .0244100
1022.784 .0244155
1023.372 .0244216
1023.960 .0244281
1024.547 .0244352
1025.135 .0244426
1025.722 .0244503
1026.309 .0244584
1026.896 .0244666
1027.483 .0244751
1028.069 .0244839
1028.655 .0244929
1029.241 .0245020
1029.827 .0245113
1030.412 .0245206
1030.997 .0245298
1031.582 .0245387
1032.167 .0245472
1032.752 .0245553
1033.336 .0245627
1033.921 .0245695
1034.505 .0245756
1035.089 .0245810
1035.672 .0245857
1036.256 .0245898
1036.839 .0245933
1037.422 .0245961
1038.005 .0245982
1038.588 .0245996
1039.171 .0246002
1039.753 .0246001
1040.335 .0245992
1040.918 .0245976
1041.500 .0245952
1042.081 .0245922
1042.663 .0245887
1043.244 .0245847
1043.826 .0245803
1044.407 .0245758
1044.988 .0245711
1045.569 .0245663
1046.150 .0245616
1046.730 .0245569
1047.311 .0245522
1047.891 .0245478
1048.471 .0245436
1049.052 .0245396
1049.632 .0245361
1050.211 .0245329
1050.791 .0245302
1051.371 .0245280
1051.950 .0245262
1052.530 .0245249
1053.109 .0245240
1053.688 .0245235
1054.268 .0245233
1054.847 .0245233
1055.426 .0245236
1056.005 .0245239
1056.583 .0245243
1057.162 .0245247
1057.741 .0245249
1058.319 .0245249
1058.898 .0245247
1059.476 .0245241
1060.055 .0245233
1060.633 .0245221
1061.211 .0245206
1061.790 .0245189
1062.368 .0245170
1062.946 .0245150
1063.524 .0245126
1064.102 .0245101
1064.680 .0245072
1065.258 .0245040
1065.836 .0245005
1066.414 .0244967
1066.992 .0244927
1067.570 .0244885
1068.148 .0244842
1068.726 .0244799
1069.304 .0244756
1069.882 .0244715
1070.460 .0244673
1071.038 .0244632
1071.616 .0244589
1072.194 .0244544
1072.772 .0244498
1073.350 .0244450
1073.928 .0244402
1074.506 .0244356
1075.084 .0244313
1075.662 .0244274
1076.240 .0244242
1076.819 .0244215
1077.397 .0244193
1077.976 .0244177
1078.554 .0244164
1079.133 .0244153
1079.711 .0244144
1080.290 .0244136
1080.869 .0244129
1081.448 .0244124
1082.027 .0244121
1082.606 .0244119
1083.185 .0244121
1083.764 .0244125
1084.343 .0244132
1084.923 .0244142
1085.502 .0244155
1086.082 .0244172
1086.662 .0244193
1087.242 .0244218
1087.822 .0244250
1088.402 .0244289
1088.983 .0244337
1089.563 .0244395
1090.144 .0244463
1090.725 .0244542
1091.306 .0244630
1091.887 .0244727
1092.469 .0244831
1093.050 .0244939
1093.632 .0245050
1094.214 .0245161
1094.796 .0245274
1095.379 .0245386
1095.961 .0245499
1096.544 .0245614
1097.127 .0245731
1097.710 .0245852
1098.294 .0245978
1098.877 .0246109
1099.461 .0246247
1100.046 .0246390
1100.630 .0246541
1101.215 .0246700
1101.800 .0246868
1102.385 .0247048
1102.970 .0247240
1103.556 .0247445
1104.142 .0247663
1104.728 .0247892
1105.315 .0248133
1105.902 .0248382
1106.489 .0248638
1107.077 .0248901
1107.664 .0249168
1108.253 .0249438
1108.841 .0249711
1109.430 .0249987
1110.019 .0250269
1110.609 .0250557
1111.198 .0250852
1111.789 .0251155
1112.379 .0251468
1112.970 .0251792
1113.561 .0252128
1114.153 .0252478
1114.745 .0252843
1115.338 .0253222
1115.931 .0253616
1116.524 .0254025
1117.117 .0254446
1117.712 .0254880
1118.306 .0255324
1118.901 .0255779
1119.496 .0256242
1120.092 .0256715
1120.689 .0257196
1121.285 .0257686
1121.882 .0258185
1122.480 .0258690
1123.078 .0259200
1123.677 .0259715
1124.276 .0260234
1124.875 .0260760
1125.476 .0261295
1126.076 .0261843
1126.677 .0262408
1127.279 .0262992
1127.881 .0263599
1128.484 .0264230
1129.087 .0264519
1129.691 .0265182
1130.295 .0265863
1130.900 .0266557
1131.505 .0267264
1132.111 .0267981
1132.718 .0268707
1133.325 .0269440
1133.933 .0270179
1134.541 .0270998
1135.150 .0271807
1135.760 .0272536
1136.370 .0273248
1136.981 .0274117
1137.592 .0275039
1138.204 .0275902
1138.817 .0276715
1139.431 .0277564
1140.045 .0278411
1140.660 .0279208
1141.275 .0279974
1141.891 .0280713
1142.508 .0283530
1143.126 .0283868
1143.744 .0282217
1144.363 .0282416
1144.983 .0282749
