Measurement Sequence started on: 15-12-46-377
Integration time: 28
Scans to Average: 2 
>>>>>Begin Spectral Data<<<<<
432.689 .0000100
433.621 .0000100
434.552 .0000100
435.482 .0000100
436.410 .0000100
437.337 .0000100
438.262 .0279891
439.187 .0593884
440.110 .0984665
441.031 .1425729
441.952 .1144222
442.871 .1194390
443.789 .1240859
444.705 .1284381
445.621 .1325504
446.535 .1364647
447.447 .1387383
448.359 .1392146
449.269 .1375099
450.178 .1333743
451.086 .1268842
451.993 .1185258
452.898 .1091085
453.803 .0995529
454.706 .0906460
455.608 .0828794
456.508 .0764242
457.408 .0720081
458.306 .0685964
459.204 .0658161
460.100 .0634784
460.995 .0614762
461.888 .0597368
462.781 .0582079
463.673 .0568502
464.563 .0556358
465.452 .0545439
466.340 .0535558
467.228 .0526588
468.114 .0518438
468.999 .0511025
469.882 .0504280
470.765 .0498149
471.647 .0492581
472.528 .0487530
473.407 .0482951
474.286 .0478801
475.163 .0475053
476.040 .0471678
476.915 .0468646
477.790 .0465935
478.663 .0463529
479.535 .0461411
480.407 .0459569
481.277 .0457993
482.147 .0456671
483.015 .0455594
483.883 .0454752
484.749 .0454139
485.615 .0453745
486.479 .0453568
487.343 .0453595
488.206 .0453822
489.067 .0454246
489.928 .0454860
490.788 .0455660
491.647 .0456648
492.505 .0457821
493.362 .0459184
494.218 .0460739
495.073 .0462496
495.928 .0465870
496.781 .0468192
497.634 .0470751
498.486 .0473543
499.337 .0476567
500.187 .0479820
501.036 .0483303
501.884 .0487027
502.731 .0491010
503.578 .0495283
504.424 .0498061
505.268 .0502911
506.113 .0508184
506.956 .0513920
507.798 .0520175
508.640 .0527003
509.480 .0534486
510.320 .0542720
511.160 .0551819
511.998 .0561919
512.836 .0573210
513.672 .0585862
514.508 .0600095
515.344 .0616132
516.178 .0634204
517.012 .0654537
517.845 .0677356
518.677 .0702813
519.508 .0731042
520.339 .0762142
521.169 .0796152
521.998 .0832842
522.826 .0871908
523.654 .0912847
524.481 .0955028
525.307 .0997697
526.133 .1040008
526.958 .1081033
527.782 .1119926
528.605 .1155854
529.428 .1188083
530.250 .1215969
531.072 .1239137
531.892 .1257242
532.712 .1270084
533.532 .1277555
534.350 .1279611
535.168 .1276276
535.986 .1267662
536.802 .1253841
537.618 .1234908
538.434 .1210967
539.249 .1182379
540.063 .1149568
540.876 .1113125
541.689 .1073766
542.501 .1032305
543.313 .0989626
544.124 .0946642
544.934 .0904159
545.744 .0862934
546.553 .0823597
547.361 .0786651
548.169 .0752323
548.976 .0720776
549.783 .0692021
550.589 .0665964
551.395 .0642436
552.200 .0621209
553.004 .0602013
553.808 .0584630
554.611 .0568851
555.414 .0554498
556.216 .0541395
557.018 .0529384
557.819 .0518326
558.619 .0508101
559.419 .0498596
560.218 .0489726
561.017 .0481417
561.815 .0473610
562.613 .0466258
563.410 .0459308
564.207 .0452698
565.003 .0446382
565.799 .0440312
566.594 .0434442
567.388 .0428748
568.182 .0423213
568.976 .0417824
569.769 .0412585
570.562 .0407499
571.354 .0402570
572.145 .0397801
572.936 .0393199
573.727 .0388758
574.517 .0384474
575.307 .0380346
576.096 .0376367
576.885 .0372535
577.673 .0368861
578.461 .0365348
579.248 .0362004
580.035 .0358836
580.821 .0355847
581.607 .0353043
582.392 .0350422
583.177 .0347984
583.962 .0345723
584.746 .0343634
585.529 .0341708
586.313 .0339934
587.095 .0338302
587.878 .0336801
588.660 .0335421
589.441 .0334154
590.222 .0332989
591.003 .0331917
591.783 .0330931
592.563 .0330020
593.342 .0329177
594.121 .0328393
594.899 .0327661
595.678 .0326975
596.455 .0326328
597.233 .0325715
598.009 .0325133
598.786 .0324577
599.562 .0324045
600.338 .0323532
601.113 .0323037
601.888 .0322355
602.663 .0321903
603.437 .0321467
604.211 .0321048
604.984 .0320644
605.757 .0320257
606.530 .0319885
607.302 .0319528
608.074 .0319186
608.845 .0318858
609.616 .0318542
610.387 .0318416
611.158 .0318118
611.928 .0317833
612.697 .0317559
613.467 .0317298
614.236 .0317047
615.004 .0316807
615.773 .0316575
616.541 .0316351
617.308 .0316133
618.076 .0315919
618.843 .0315708
619.609 .0315497
620.375 .0315284
621.141 .0315068
621.907 .0314848
622.672 .0314623
623.437 .0314391
624.202 .0314152
624.966 .0313905
625.730 .0313650
626.493 .0313387
627.257 .0313114
628.020 .0312833
628.782 .0312542
629.545 .0312242
630.307 .0311934
631.068 .0311618
631.830 .0311296
632.591 .0310970
633.352 .0310642
634.112 .0310314
634.872 .0309987
635.632 .0309664
636.392 .0309344
637.151 .0309029
637.910 .0308721
638.668 .0308420
639.427 .0308126
640.185 .0307840
640.943 .0307563
641.700 .0307295
642.457 .0307037
643.214 .0306789
643.971 .0306551
644.727 .0306323
645.483 .0306104
646.239 .0305893
646.994 .0305690
647.750 .0305494
648.505 .0305302
649.259 .0305114
650.014 .0304927
650.768 .0304740
651.521 .0304552
652.275 .0304360
653.028 .0304164
653.781 .0303965
654.534 .0303761
655.286 .0303552
656.039 .0303338
656.791 .0303120
657.542 .0302897
658.294 .0302670
659.045 .0302438
659.796 .0302203
660.546 .0301963
661.297 .0301719
662.047 .0301471
662.796 .0301220
663.546 .0300967
664.295 .0300712
665.044 .0300457
665.793 .0300202
666.542 .0299950
667.290 .0299701
668.038 .0299456
668.786 .0299215
669.533 .0298979
670.281 .0298748
671.028 .0298522
671.774 .0298301
672.521 .0298084
673.267 .0297874
674.013 .0297668
674.759 .0297468
675.505 .0297274
676.250 .0297085
676.995 .0296900
677.740 .0296720
678.484 .0296544
679.229 .0296371
679.973 .0296201
680.717 .0296033
681.460 .0295867
682.204 .0295702
682.947 .0295538
683.690 .0295373
684.433 .0295206
685.175 .0295038
685.917 .0294869
686.659 .0294697
687.401 .0294523
688.142 .0294347
688.884 .0294169
689.625 .0293989
690.365 .0293808
691.106 .0293624
691.846 .0293438
692.586 .0293251
693.326 .0293062
694.066 .0292873
694.805 .0292683
695.545 .0292495
696.284 .0292308
697.022 .0292124
697.761 .0291941
698.499 .0291762
699.237 .0291584
699.975 .0291410
700.713 .0291237
701.450 .0291066
702.187 .0290897
702.924 .0290731
703.661 .0290566
704.397 .0290403
705.133 .0290241
705.869 .0290080
706.605 .0289919
707.341 .0289758
708.076 .0289597
708.811 .0289436
709.546 .0289274
710.281 .0289111
711.015 .0288948
711.749 .0288784
712.483 .0288618
713.217 .0288452
713.950 .0288284
714.684 .0288116
715.417 .0287946
716.150 .0287775
716.882 .0287603
717.615 .0287431
718.347 .0287258
719.079 .0287084
719.811 .0286910
720.542 .0286734
721.273 .0286557
722.005 .0286378
722.735 .0286199
723.466 .0286019
724.196 .0285840
724.927 .0285662
725.656 .0285486
726.386 .0285313
727.116 .0285144
727.845 .0284978
728.574 .0284815
729.303 .0284656
730.031 .0284500
730.760 .0284348
731.488 .0284201
732.216 .0284058
732.944 .0283919
733.671 .0283785
734.398 .0283657
735.125 .0283532
735.852 .0283412
736.579 .0283297
737.305 .0283185
738.031 .0283077
738.757 .0282972
739.483 .0282870
740.208 .0282771
740.933 .0282673
741.658 .0282576
742.383 .0282478
743.108 .0282380
743.832 .0282279
744.556 .0282175
745.280 .0282069
746.004 .0281960
746.727 .0281847
747.450 .0281731
748.173 .0281612
748.896 .0281488
749.618 .0281359
750.340 .0281225
751.062 .0281086
751.784 .0280941
752.506 .0280792
753.227 .0280638
753.948 .0280481
754.669 .0280321
755.389 .0280158
756.110 .0279994
756.830 .0279827
757.550 .0279659
758.269 .0279489
758.989 .0279318
759.708 .0279146
760.427 .0278974
761.146 .0278802
761.864 .0278632
762.582 .0278463
763.300 .0278295
764.018 .0278129
764.736 .0277964
765.453 .0277801
766.170 .0277638
766.887 .0277477
767.603 .0277318
768.320 .0277160
769.036 .0277004
769.751 .0276852
770.467 .0276703
771.182 .0276558
771.897 .0276418
772.612 .0276282
773.327 .0276150
774.041 .0276023
774.755 .0275901
775.469 .0275782
776.183 .0275668
776.896 .0275557
777.609 .0275449
778.322 .0275346
779.035 .0275245
779.747 .0275149
780.459 .0275056
781.171 .0274967
781.882 .0274882
782.594 .0274801
783.305 .0274722
784.016 .0274646
784.726 .0274572
785.436 .0274499
786.147 .0274389
786.856 .0274315
787.566 .0274241
788.275 .0274166
788.984 .0274090
789.693 .0274013
790.401 .0273934
791.110 .0273853
791.818 .0273771
792.525 .0273684
793.233 .0273595
793.940 .0273501
794.647 .0273439
795.353 .0273338
796.060 .0273233
796.766 .0273122
797.472 .0273008
798.177 .0272889
798.883 .0272766
799.588 .0272638
800.292 .0272507
800.997 .0272373
801.701 .0272237
802.405 .0272097
803.109 .0271956
803.812 .0271812
804.515 .0271665
805.218 .0271516
805.921 .0271364
806.623 .0271209
807.325 .0271051
808.027 .0270891
808.728 .0270729
809.429 .0270565
810.130 .0270401
810.831 .0270237
811.531 .0270073
812.231 .0269909
812.931 .0269746
813.630 .0269583
814.330 .0269421
815.029 .0269261
815.727 .0269104
816.426 .0268949
817.124 .0268799
817.821 .0268653
818.519 .0268512
819.216 .0268377
819.913 .0268246
820.609 .0268121
821.306 .0268001
822.002 .0267887
822.697 .0267779
823.393 .0267677
824.088 .0267581
824.783 .0267493
825.477 .0267411
826.171 .0267335
826.865 .0267264
827.559 .0267197
828.252 .0267135
828.945 .0267075
829.638 .0267019
830.330 .0266964
831.023 .0266912
831.714 .0266861
832.406 .0266811
833.097 .0266760
833.788 .0266709
834.479 .0266657
835.169 .0266603
835.859 .0266546
836.548 .0266487
837.238 .0266427
837.927 .0266364
838.615 .0266299
839.304 .0266232
839.992 .0266163
840.680 .0266091
841.367 .0266016
842.054 .0265939
842.741 .0265859
843.428 .0265777
844.114 .0265693
844.800 .0265608
845.485 .0265523
846.170 .0265436
846.855 .0265349
847.540 .0265261
848.224 .0265171
848.908 .0265078
849.592 .0264982
850.275 .0264883
850.958 .0264781
851.641 .0264676
852.323 .0264569
853.005 .0264458
853.687 .0264344
854.368 .0264228
855.049 .0264107
855.730 .0263984
856.410 .0263857
857.090 .0263726
857.769 .0263592
858.449 .0263455
859.128 .0263316
859.806 .0263177
860.485 .0263036
861.163 .0262896
861.840 .0262757
862.518 .0262619
863.195 .0262484
863.871 .0262351
864.548 .0262223
865.224 .0262099
865.899 .0261979
866.574 .0261865
867.249 .0261755
867.924 .0261650
868.598 .0261549
869.272 .0261452
869.946 .0261360
870.619 .0261272
871.292 .0261188
871.964 .0261109
872.636 .0261035
873.308 .0260965
873.979 .0260900
874.651 .0260839
875.321 .0260782
875.992 .0260728
876.662 .0260678
877.331 .0260630
878.001 .0260585
878.670 .0260542
879.338 .0260501
880.007 .0260463
880.675 .0260425
881.342 .0260389
882.009 .0260354
882.676 .0260321
883.343 .0260288
884.009 .0260257
884.675 .0260228
885.340 .0260201
886.005 .0260176
886.670 .0260155
887.334 .0260136
887.998 .0260120
888.662 .0260108
889.325 .0260099
889.988 .0260092
890.650 .0260088
891.312 .0260087
891.974 .0260087
892.636 .0260089
893.297 .0260091
893.957 .0260094
894.618 .0260097
895.278 .0260099
895.937 .0260099
896.596 .0260096
897.255 .0260090
897.914 .0260080
898.572 .0260065
899.230 .0260045
899.887 .0260018
900.544 .0259985
901.201 .0259944
901.857 .0259849
902.513 .0259790
903.168 .0259724
903.823 .0259652
904.478 .0259573
905.132 .0259487
905.786 .0259395
906.440 .0259295
907.093 .0259188
907.746 .0259075
908.399 .0258956
909.051 .0258831
909.703 .0258701
910.354 .0258627
911.005 .0258493
911.656 .0258357
912.306 .0258218
912.956 .0258077
913.605 .0257935
914.254 .0257792
914.903 .0257648
915.551 .0257503
916.199 .0257357
916.847 .0257212
917.494 .0257066
918.141 .0256922
918.788 .0256779
919.434 .0256637
920.079 .0256496
920.725 .0256357
921.370 .0256218
922.014 .0256079
922.658 .0255938
923.302 .0255796
923.946 .0255652
924.589 .0255505
925.231 .0255355
925.873 .0255204
926.515 .0255051
927.157 .0254897
927.798 .0254741
928.439 .0254584
929.079 .0254426
929.719 .0254265
930.359 .0254102
930.998 .0253937
931.637 .0253770
932.275 .0253602
932.913 .0253433
933.551 .0253265
934.188 .0253100
934.825 .0252936
935.462 .0252776
936.098 .0252617
936.733 .0252460
937.369 .0252305
938.004 .0252151
938.638 .0251999
939.273 .0251849
939.907 .0251702
940.540 .0251561
941.173 .0251425
941.806 .0251297
942.438 .0251175
943.070 .0251059
943.702 .0250950
944.333 .0250845
944.964 .0250744
945.594 .0250645
946.224 .0250549
946.854 .0250455
947.483 .0250364
948.112 .0250274
948.741 .0250187
949.369 .0250101
949.996 .0250017
950.624 .0249932
951.251 .0249847
951.878 .0249759
952.504 .0249669
953.130 .0249576
953.755 .0249479
954.380 .0249381
955.005 .0249279
955.629 .0249176
956.253 .0249071
956.877 .0248965
957.500 .0248856
958.123 .0248746
958.746 .0248633
959.368 .0248519
959.990 .0248404
960.611 .0248287
961.232 .0248169
961.853 .0248051
962.473 .0247933
963.093 .0247814
963.712 .0247695
964.331 .0247575
964.950 .0247455
965.569 .0247334
966.187 .0247214
966.804 .0247094
967.422 .0246975
968.039 .0246857
968.655 .0246741
969.272 .0246625
969.887 .0246510
970.503 .0246396
971.118 .0246282
971.733 .0246167
972.347 .0246051
972.961 .0245934
973.575 .0245817
974.188 .0245697
974.801 .0245576
975.414 .0245451
976.026 .0245324
976.638 .0245193
977.250 .0245060
977.861 .0244924
978.472 .0244785
979.083 .0244646
979.693 .0244506
980.303 .0244367
980.912 .0244156
981.521 .0244017
982.130 .0243877
982.738 .0243736
983.346 .0243595
983.954 .0243453
984.562 .0243313
985.169 .0243174
985.775 .0243038
986.382 .0242906
986.988 .0242779
987.594 .0242657
988.199 .0242539
988.804 .0242427
989.409 .0242385
990.013 .0242280
990.617 .0242181
991.221 .0242087
991.824 .0241999
992.427 .0241917
993.030 .0241842
993.632 .0241773
994.234 .0241709
994.836 .0241651
995.438 .0241597
996.039 .0241546
996.640 .0241498
997.240 .0241453
997.840 .0241411
998.440 .0241372
999.040 .0241337
999.639 .0241305
1000.238 .0241277
1000.836 .0241252
1001.435 .0241230
1002.033 .0241211
1002.630 .0241193
1003.228 .0241176
1003.825 .0241161
1004.422 .0241146
1005.018 .0241132
1005.614 .0241118
1006.210 .0241106
1006.806 .0241093
1007.401 .0241080
1007.996 .0241067
1008.591 .0241052
1009.186 .0241036
1009.780 .0241019
1010.374 .0241000
1010.967 .0240981
1011.561 .0240962
1012.154 .0240944
1012.746 .0240926
1013.339 .0240910
1013.931 .0240897
1014.523 .0240886
1015.115 .0240878
1015.706 .0240874
1016.298 .0240875
1016.888 .0240880
1017.479 .0240890
1018.069 .0240905
1018.660 .0240925
1019.250 .0240950
1019.839 .0240979
1020.429 .0241012
1021.018 .0241048
1021.607 .0241088
1022.195 .0241131
1022.784 .0241176
1023.372 .0241224
1023.960 .0241276
1024.547 .0241330
1025.135 .0241388
1025.722 .0241448
1026.309 .0241511
1026.896 .0241575
1027.483 .0241641
1028.069 .0241709
1028.655 .0241776
1029.241 .0241844
1029.827 .0241912
1030.412 .0241980
1030.997 .0242048
1031.582 .0242115
1032.167 .0242182
1032.752 .0242248
1033.336 .0242313
1033.921 .0242376
1034.505 .0242437
1035.089 .0242496
1035.672 .0242552
1036.256 .0242604
1036.839 .0242654
1037.422 .0242700
1038.005 .0242744
1038.588 .0242785
1039.171 .0242824
1039.753 .0242861
1040.335 .0242896
1040.918 .0242930
1041.500 .0242962
1042.081 .0242992
1042.663 .0243021
1043.244 .0243049
1043.826 .0243077
1044.407 .0243104
1044.988 .0243132
1045.569 .0243161
1046.150 .0243190
1046.730 .0243221
1047.311 .0243253
1047.891 .0243285
1048.471 .0243317
1049.052 .0243347
1049.632 .0243376
1050.211 .0243401
1050.791 .0243423
1051.371 .0243442
1051.950 .0243459
1052.530 .0243473
1053.109 .0243487
1053.688 .0243501
1054.268 .0243518
1054.847 .0243535
1055.426 .0243555
1056.005 .0243576
1056.583 .0243598
1057.162 .0243621
1057.741 .0243643
1058.319 .0243666
1058.898 .0243691
1059.476 .0243717
1060.055 .0243746
1060.633 .0243777
1061.211 .0243811
1061.790 .0243846
1062.368 .0243883
1062.946 .0243919
1063.524 .0243953
1064.102 .0243984
1064.680 .0244012
1065.258 .0244038
1065.836 .0244062
1066.414 .0244087
1066.992 .0244114
1067.570 .0244143
1068.148 .0244176
1068.726 .0244214
1069.304 .0244255
1069.882 .0244301
1070.460 .0244349
1071.038 .0244400
1071.616 .0244454
1072.194 .0244511
1072.772 .0244570
1073.350 .0244632
1073.928 .0244698
1074.506 .0244767
1075.084 .0244838
1075.662 .0244913
1076.240 .0244989
1076.819 .0245066
1077.397 .0245145
1077.976 .0245225
1078.554 .0245305
1079.133 .0245387
1079.711 .0245471
1080.290 .0245557
1080.869 .0245646
1081.448 .0245739
1082.027 .0245835
1082.606 .0245934
1083.185 .0246037
1083.764 .0246143
1084.343 .0246253
1084.923 .0246365
1085.502 .0246480
1086.082 .0246596
1086.662 .0246716
1087.242 .0246838
1087.822 .0246964
1088.402 .0247094
1088.983 .0247228
1089.563 .0247368
1090.144 .0247513
1090.725 .0247665
1091.306 .0247823
1091.887 .0247989
1092.469 .0248159
1093.050 .0248336
1093.632 .0248517
1094.214 .0248703
1094.796 .0248893
1095.379 .0249087
1095.961 .0249286
1096.544 .0249488
1097.127 .0249695
1097.710 .0249905
1098.294 .0250119
1098.877 .0250335
1099.461 .0250555
1100.046 .0250776
1100.630 .0251000
1101.215 .0251225
1101.800 .0251451
1102.385 .0251679
1102.970 .0251908
1103.556 .0252137
1104.142 .0252367
1104.728 .0252596
1105.315 .0252823
1105.902 .0253047
1106.489 .0253269
1107.077 .0253488
1107.664 .0253705
1108.253 .0253922
1108.841 .0254138
1109.430 .0254358
1110.019 .0254583
1110.609 .0254817
1111.198 .0255061
1111.789 .0255317
1112.379 .0255588
1112.970 .0255873
1113.561 .0256174
1114.153 .0256491
1114.745 .0256825
1115.338 .0257177
1115.931 .0257546
1116.524 .0257931
1117.117 .0258333
1117.712 .0258752
1118.306 .0259187
1118.901 .0259637
1119.496 .0260102
1120.092 .0260580
1120.689 .0261068
1121.285 .0261566
1121.882 .0262071
1122.480 .0262584
1123.078 .0263103
1123.677 .0263631
1124.276 .0264169
1124.875 .0264720
1125.476 .0265286
1126.076 .0265872
1126.677 .0266476
1127.279 .0267098
1127.881 .0267736
1128.484 .0268387
1129.087 .0268698
1129.691 .0269360
1130.295 .0270029
1130.900 .0270707
1131.505 .0271396
1132.111 .0272095
1132.718 .0272807
1133.325 .0273530
1133.933 .0274268
1134.541 .0275082
1135.150 .0275812
1135.760 .0276592
1136.370 .0277292
1136.981 .0277938
1137.592 .0278846
1138.204 .0279741
1138.817 .0280626
1139.431 .0281593
1140.045 .0282540
1140.660 .0283556
1141.275 .0284479
1141.891 .0285580
1142.508 .0288321
1143.126 .0286605
1143.744 .0288683
1144.363 .0287100
1144.983 .0293413
