Measurement Sequence started on: 15-12-46-377
Integration time: 28
Scans to Average: 2 
>>>>>Begin Spectral Data<<<<<
432.689 .0000100
433.621 .0000100
434.552 .0000100
435.482 .0000100
436.410 .0000100
437.337 .0000100
438.262 .0276575
439.187 .0585669
440.110 .0969395
441.031 .1401533
441.952 .1120472
442.871 .1170487
443.789 .1217243
444.705 .1261432
445.621 .1303534
446.535 .1343891
447.447 .1368202
448.359 .1374947
449.269 .1360351
450.178 .1321981
451.086 .1260643
451.993 .1181152
452.898 .1091491
453.803 .1000673
454.706 .0916343
455.608 .0843218
456.508 .0782830
457.408 .0742229
458.306 .0711085
459.204 .0685670
460.100 .0664135
460.995 .0645471
461.888 .0629025
462.781 .0614351
463.673 .0601142
464.563 .0589181
465.452 .0578306
466.340 .0568390
467.228 .0559342
468.114 .0551080
468.999 .0543546
469.882 .0536675
470.765 .0530411
471.647 .0524712
472.528 .0519543
473.407 .0514867
474.286 .0510654
475.163 .0506884
476.040 .0503533
476.915 .0500577
477.790 .0497990
478.663 .0495743
479.535 .0493807
480.407 .0492153
481.277 .0490746
482.147 .0489557
483.015 .0488559
483.883 .0487729
484.749 .0487052
485.615 .0486519
486.479 .0486132
487.343 .0485892
488.206 .0485806
489.067 .0485881
489.928 .0486127
490.788 .0486547
491.647 .0487146
492.505 .0487926
493.362 .0488895
494.218 .0490058
495.073 .0491429
495.928 .0494354
496.781 .0496370
497.634 .0498669
498.486 .0501269
499.337 .0504194
500.187 .0507466
501.036 .0511104
501.884 .0515133
502.731 .0519580
503.578 .0524474
504.424 .0527891
505.268 .0533601
506.113 .0539884
506.956 .0546791
507.798 .0554387
508.640 .0562749
509.480 .0571964
510.320 .0582145
511.160 .0593420
511.998 .0605949
512.836 .0619912
513.672 .0635495
514.508 .0652906
515.344 .0672365
516.178 .0694094
517.012 .0718344
517.845 .0745341
518.677 .0775314
519.508 .0808445
520.339 .0844823
521.169 .0884511
521.998 .0927265
522.826 .0972723
523.654 .1020306
524.481 .1069294
525.307 .1118821
526.133 .1167881
526.958 .1215432
527.782 .1260458
528.605 .1302011
529.428 .1339256
530.250 .1371427
531.072 .1398054
531.892 .1418734
532.712 .1433229
533.532 .1441427
534.350 .1443308
535.168 .1438924
535.986 .1428364
536.802 .1411707
537.618 .1389104
538.434 .1360695
539.249 .1326896
540.063 .1288225
540.876 .1245370
541.689 .1199145
542.501 .1150472
543.313 .1100372
544.124 .1049897
544.934 .1000014
545.744 .0951594
546.553 .0905350
547.361 .0861893
548.169 .0821523
548.976 .0784454
549.783 .0750728
550.589 .0720260
551.395 .0692834
552.200 .0668186
553.004 .0646002
553.808 .0626008
554.611 .0607940
555.414 .0591563
556.216 .0576657
557.018 .0563010
557.819 .0550459
558.619 .0538853
559.419 .0528078
560.218 .0518047
561.017 .0508666
561.815 .0499874
562.613 .0491618
563.410 .0483845
564.207 .0476507
565.003 .0469563
565.799 .0462972
566.594 .0456684
567.388 .0450665
568.182 .0444878
568.976 .0439297
569.769 .0433903
570.562 .0428687
571.354 .0423643
572.145 .0418773
572.936 .0414079
573.727 .0409557
574.517 .0405209
575.307 .0401033
576.096 .0397019
576.885 .0393160
577.673 .0389454
578.461 .0385898
579.248 .0382491
580.035 .0379240
580.821 .0376148
581.607 .0373224
582.392 .0370471
583.177 .0367891
583.962 .0365481
584.746 .0363240
585.529 .0361158
586.313 .0359226
587.095 .0357437
587.878 .0355784
588.660 .0354258
589.441 .0352851
590.222 .0351556
591.003 .0350365
591.783 .0349267
592.563 .0348251
593.342 .0347305
594.121 .0346419
594.899 .0345582
595.678 .0344786
596.455 .0344023
597.233 .0343290
598.009 .0342581
598.786 .0341893
599.562 .0341224
600.338 .0340571
601.113 .0339933
601.888 .0339023
602.663 .0338418
603.437 .0337826
604.211 .0337246
604.984 .0336679
605.757 .0336126
606.530 .0335589
607.302 .0335067
608.074 .0334563
608.845 .0334078
609.616 .0333611
610.387 .0333416
611.158 .0332975
611.928 .0332552
612.697 .0332144
613.467 .0331753
614.236 .0331375
615.004 .0331012
615.773 .0330663
616.541 .0330328
617.308 .0330006
618.076 .0329698
618.843 .0329402
619.609 .0329116
620.375 .0328840
621.141 .0328570
621.907 .0328306
622.672 .0328047
623.437 .0327792
624.202 .0327540
624.966 .0327291
625.730 .0327044
626.493 .0326797
627.257 .0326550
628.020 .0326302
628.782 .0326053
629.545 .0325801
630.307 .0325546
631.068 .0325289
631.830 .0325029
632.591 .0324768
633.352 .0324505
634.112 .0324241
634.872 .0323976
635.632 .0323711
636.392 .0323446
637.151 .0323183
637.910 .0322923
638.668 .0322667
639.427 .0322416
640.185 .0322170
640.943 .0321930
641.700 .0321694
642.457 .0321464
643.214 .0321237
643.971 .0321015
644.727 .0320797
645.483 .0320582
646.239 .0320369
646.994 .0320159
647.750 .0319951
648.505 .0319743
649.259 .0319534
650.014 .0319322
650.768 .0319106
651.521 .0318886
652.275 .0318659
653.028 .0318426
653.781 .0318187
654.534 .0317941
655.286 .0317688
656.039 .0317426
656.791 .0317156
657.542 .0316878
658.294 .0316592
659.045 .0316299
659.796 .0315999
660.546 .0315694
661.297 .0315385
662.047 .0315073
662.796 .0314759
663.546 .0314444
664.295 .0314128
665.044 .0313812
665.793 .0313497
666.542 .0313185
667.290 .0312876
668.038 .0312572
668.786 .0312273
669.533 .0311980
670.281 .0311693
671.028 .0311410
671.774 .0311132
672.521 .0310858
673.267 .0310588
674.013 .0310320
674.759 .0310054
675.505 .0309791
676.250 .0309529
676.995 .0309268
677.740 .0309009
678.484 .0308750
679.229 .0308493
679.973 .0308237
680.717 .0307983
681.460 .0307730
682.204 .0307479
682.947 .0307228
683.690 .0306979
684.433 .0306729
685.175 .0306480
685.917 .0306230
686.659 .0305982
687.401 .0305735
688.142 .0305490
688.884 .0305249
689.625 .0305012
690.365 .0304780
691.106 .0304553
691.846 .0304332
692.586 .0304117
693.326 .0303907
694.066 .0303704
694.805 .0303507
695.545 .0303316
696.284 .0303132
697.022 .0302954
697.761 .0302784
698.499 .0302621
699.237 .0302464
699.975 .0302314
700.713 .0302171
701.450 .0302034
702.187 .0301903
702.924 .0301778
703.661 .0301656
704.397 .0301538
705.133 .0301421
705.869 .0301305
706.605 .0301189
707.341 .0301072
708.076 .0300953
708.811 .0300833
709.546 .0300711
710.281 .0300587
711.015 .0300461
711.749 .0300332
712.483 .0300200
713.217 .0300065
713.950 .0299926
714.684 .0299783
715.417 .0299636
716.150 .0299484
716.882 .0299328
717.615 .0299168
718.347 .0299005
719.079 .0298838
719.811 .0298670
720.542 .0298499
721.273 .0298327
722.005 .0298154
722.735 .0297981
723.466 .0297809
724.196 .0297638
724.927 .0297468
725.656 .0297300
726.386 .0297133
727.116 .0296969
727.845 .0296806
728.574 .0296645
729.303 .0296486
730.031 .0296329
730.760 .0296173
731.488 .0296018
732.216 .0295863
732.944 .0295710
733.671 .0295557
734.398 .0295404
735.125 .0295250
735.852 .0295097
736.579 .0294943
737.305 .0294788
738.031 .0294633
738.757 .0294477
739.483 .0294320
740.208 .0294163
740.933 .0294005
741.658 .0293846
742.383 .0293685
743.108 .0293523
743.832 .0293358
744.556 .0293191
745.280 .0293021
746.004 .0292849
746.727 .0292673
747.450 .0292494
748.173 .0292312
748.896 .0292127
749.618 .0291939
750.340 .0291747
751.062 .0291552
751.784 .0291353
752.506 .0291150
753.227 .0290943
753.948 .0290731
754.669 .0290515
755.389 .0290297
756.110 .0290075
756.830 .0289851
757.550 .0289626
758.269 .0289401
758.989 .0289176
759.708 .0288951
760.427 .0288727
761.146 .0288503
761.864 .0288280
762.582 .0288057
763.300 .0287835
764.018 .0287615
764.736 .0287396
765.453 .0287180
766.170 .0286967
766.887 .0286759
767.603 .0286556
768.320 .0286358
769.036 .0286167
769.751 .0285982
770.467 .0285804
771.182 .0285631
771.897 .0285465
772.612 .0285305
773.327 .0285152
774.041 .0285006
774.755 .0284866
775.469 .0284734
776.183 .0284610
776.896 .0284494
777.609 .0284387
778.322 .0284288
779.035 .0284198
779.747 .0284117
780.459 .0284045
781.171 .0283980
781.882 .0283923
782.594 .0283872
783.305 .0283828
784.016 .0283788
784.726 .0283754
785.436 .0283724
786.147 .0283693
786.856 .0283668
787.566 .0283646
788.275 .0283626
788.984 .0283607
789.693 .0283589
790.401 .0283571
791.110 .0283551
791.818 .0283529
792.525 .0283505
793.233 .0283478
793.940 .0283447
794.647 .0283421
795.353 .0283385
796.060 .0283346
796.766 .0283304
797.472 .0283260
798.177 .0283213
798.883 .0283162
799.588 .0283109
800.292 .0283052
800.997 .0282992
801.701 .0282928
802.405 .0282861
803.109 .0282791
803.812 .0282717
804.515 .0282641
805.218 .0282563
805.921 .0282482
806.623 .0282400
807.325 .0282316
808.027 .0282230
808.728 .0282142
809.429 .0282054
810.130 .0281963
810.831 .0281871
811.531 .0281779
812.231 .0281685
812.931 .0281591
813.630 .0281496
814.330 .0281400
815.029 .0281304
815.727 .0281209
816.426 .0281114
817.124 .0281020
817.821 .0280928
818.519 .0280837
819.216 .0280748
819.913 .0280662
820.609 .0280579
821.306 .0280499
822.002 .0280423
822.697 .0280350
823.393 .0280281
824.088 .0280215
824.783 .0280151
825.477 .0280090
826.171 .0280030
826.865 .0279971
827.559 .0279913
828.252 .0279855
828.945 .0279798
829.638 .0279741
830.330 .0279684
831.023 .0279626
831.714 .0279567
832.406 .0279507
833.097 .0279443
833.788 .0279376
834.479 .0279304
835.169 .0279229
835.859 .0279148
836.548 .0279064
837.238 .0278976
837.927 .0278883
838.615 .0278786
839.304 .0278684
839.992 .0278576
840.680 .0278461
841.367 .0278339
842.054 .0278209
842.741 .0278071
843.428 .0277926
844.114 .0277774
844.800 .0277615
845.485 .0277450
846.170 .0277278
846.855 .0277100
847.540 .0276916
848.224 .0276725
848.908 .0276527
849.592 .0276322
850.275 .0276111
850.958 .0275894
851.641 .0275672
852.323 .0275445
853.005 .0275214
853.687 .0274979
854.368 .0274741
855.049 .0274498
855.730 .0274251
856.410 .0274000
857.090 .0273745
857.769 .0273486
858.449 .0273225
859.128 .0272962
859.806 .0272698
860.485 .0272432
861.163 .0272167
861.840 .0271902
862.518 .0271637
863.195 .0271373
863.871 .0271109
864.548 .0270847
865.224 .0270586
865.899 .0270327
866.574 .0270072
867.249 .0269820
867.924 .0269573
868.598 .0269331
869.272 .0269094
869.946 .0268863
870.619 .0268637
871.292 .0268418
871.964 .0268205
872.636 .0267999
873.308 .0267801
873.979 .0267612
874.651 .0267432
875.321 .0267262
875.992 .0267101
876.662 .0266951
877.331 .0266811
878.001 .0266680
878.670 .0266559
879.338 .0266448
880.007 .0266346
880.675 .0266254
881.342 .0266172
882.009 .0266101
882.676 .0266040
883.343 .0265988
884.009 .0265946
884.675 .0265913
885.340 .0265888
886.005 .0265871
886.670 .0265861
887.334 .0265859
887.998 .0265862
888.662 .0265871
889.325 .0265885
889.988 .0265903
890.650 .0265924
891.312 .0265947
891.974 .0265971
892.636 .0265996
893.297 .0266020
893.957 .0266045
894.618 .0266069
895.278 .0266091
895.937 .0266110
896.596 .0266127
897.255 .0266139
897.914 .0266146
898.572 .0266148
899.230 .0266142
899.887 .0266131
900.544 .0266112
901.201 .0266087
901.857 .0266020
902.513 .0265981
903.168 .0265937
903.823 .0265889
904.478 .0265835
905.132 .0265777
905.786 .0265715
906.440 .0265648
907.093 .0265579
907.746 .0265506
908.399 .0265433
909.051 .0265360
909.703 .0265287
910.354 .0265256
911.005 .0265187
911.656 .0265121
912.306 .0265056
912.956 .0264993
913.605 .0264932
914.254 .0264874
914.903 .0264817
915.551 .0264763
916.199 .0264712
916.847 .0264663
917.494 .0264617
918.141 .0264573
918.788 .0264530
919.434 .0264486
920.079 .0264441
920.725 .0264393
921.370 .0264343
922.014 .0264289
922.658 .0264231
923.302 .0264170
923.946 .0264106
924.589 .0264039
925.231 .0263967
925.873 .0263893
926.515 .0263813
927.157 .0263729
927.798 .0263641
928.439 .0263547
929.079 .0263450
929.719 .0263350
930.359 .0263248
930.998 .0263146
931.637 .0263044
932.275 .0262944
932.913 .0262846
933.551 .0262751
934.188 .0262659
934.825 .0262570
935.462 .0262485
936.098 .0262403
936.733 .0262325
937.369 .0262251
938.004 .0262181
938.638 .0262117
939.273 .0262057
939.907 .0262002
940.540 .0261952
941.173 .0261907
941.806 .0261866
942.438 .0261829
943.070 .0261795
943.702 .0261764
944.333 .0261736
944.964 .0261709
945.594 .0261685
946.224 .0261662
946.854 .0261639
947.483 .0261617
948.112 .0261593
948.741 .0261567
949.369 .0261538
949.996 .0261505
950.624 .0261467
951.251 .0261424
951.878 .0261374
952.504 .0261319
953.130 .0261258
953.755 .0261192
954.380 .0261120
955.005 .0261043
955.629 .0260962
956.253 .0260874
956.877 .0260782
957.500 .0260683
958.123 .0260578
958.746 .0260468
959.368 .0260353
959.990 .0260234
960.611 .0260110
961.232 .0259982
961.853 .0259851
962.473 .0259715
963.093 .0259575
963.712 .0259429
964.331 .0259277
964.950 .0259118
965.569 .0258953
966.187 .0258782
966.804 .0258606
967.422 .0258424
968.039 .0258239
968.655 .0258049
969.272 .0257857
969.887 .0257662
970.503 .0257465
971.118 .0257265
971.733 .0257063
972.347 .0256860
972.961 .0256654
973.575 .0256447
974.188 .0256238
974.801 .0256028
975.414 .0255816
976.026 .0255603
976.638 .0255387
977.250 .0255168
977.861 .0254946
978.472 .0254720
979.083 .0254491
979.693 .0254258
980.303 .0254022
980.912 .0253658
981.521 .0253415
982.130 .0253172
982.738 .0252929
983.346 .0252686
983.954 .0252444
984.562 .0252202
985.169 .0251963
985.775 .0251725
986.382 .0251489
986.988 .0251256
987.594 .0251024
988.199 .0250796
988.804 .0250571
989.409 .0250470
990.013 .0250253
990.617 .0250039
991.221 .0249831
991.824 .0249627
992.427 .0249429
993.030 .0249237
993.632 .0249050
994.234 .0248869
994.836 .0248693
995.438 .0248522
996.039 .0248356
996.640 .0248196
997.240 .0248042
997.840 .0247894
998.440 .0247752
999.040 .0247617
999.639 .0247487
1000.238 .0247364
1000.836 .0247245
1001.435 .0247131
1002.033 .0247020
1002.630 .0246911
1003.228 .0246804
1003.825 .0246698
1004.422 .0246593
1005.018 .0246489
1005.614 .0246387
1006.210 .0246286
1006.806 .0246187
1007.401 .0246090
1007.996 .0245994
1008.591 .0245900
1009.186 .0245806
1009.780 .0245713
1010.374 .0245621
1010.967 .0245529
1011.561 .0245440
1012.154 .0245352
1012.746 .0245267
1013.339 .0245187
1013.931 .0245112
1014.523 .0245043
1015.115 .0244981
1015.706 .0244927
1016.298 .0244879
1016.888 .0244840
1017.479 .0244807
1018.069 .0244783
1018.660 .0244766
1019.250 .0244757
1019.839 .0244756
1020.429 .0244763
1021.018 .0244779
1021.607 .0244805
1022.195 .0244840
1022.784 .0244883
1023.372 .0244936
1023.960 .0244997
1024.547 .0245065
1025.135 .0245140
1025.722 .0245222
1026.309 .0245310
1026.896 .0245405
1027.483 .0245504
1028.069 .0245609
1028.655 .0245720
1029.241 .0245836
1029.827 .0245957
1030.412 .0246082
1030.997 .0246210
1031.582 .0246340
1032.167 .0246472
1032.752 .0246603
1033.336 .0246735
1033.921 .0246864
1034.505 .0246991
1035.089 .0247117
1035.672 .0247241
1036.256 .0247363
1036.839 .0247486
1037.422 .0247609
1038.005 .0247733
1038.588 .0247857
1039.171 .0247982
1039.753 .0248107
1040.335 .0248231
1040.918 .0248354
1041.500 .0248473
1042.081 .0248589
1042.663 .0248703
1043.244 .0248814
1043.826 .0248924
1044.407 .0249035
1044.988 .0249146
1045.569 .0249258
1046.150 .0249370
1046.730 .0249481
1047.311 .0249590
1047.891 .0249697
1048.471 .0249801
1049.052 .0249903
1049.632 .0250003
1050.211 .0250102
1050.791 .0250203
1051.371 .0250306
1051.950 .0250411
1052.530 .0250520
1053.109 .0250630
1053.688 .0250740
1054.268 .0250848
1054.847 .0250954
1055.426 .0251055
1056.005 .0251153
1056.583 .0251248
1057.162 .0251342
1057.741 .0251436
1058.319 .0251531
1058.898 .0251628
1059.476 .0251728
1060.055 .0251829
1060.633 .0251931
1061.211 .0252034
1061.790 .0252136
1062.368 .0252241
1062.946 .0252348
1063.524 .0252460
1064.102 .0252579
1064.680 .0252706
1065.258 .0252840
1065.836 .0252982
1066.414 .0253129
1066.992 .0253280
1067.570 .0253433
1068.148 .0253589
1068.726 .0253746
1069.304 .0253904
1069.882 .0254065
1070.460 .0254230
1071.038 .0254399
1071.616 .0254573
1072.194 .0254749
1072.772 .0254928
1073.350 .0255106
1073.928 .0255282
1074.506 .0255454
1075.084 .0255622
1075.662 .0255786
1076.240 .0255948
1076.819 .0256108
1077.397 .0256267
1077.976 .0256426
1078.554 .0256585
1079.133 .0256744
1079.711 .0256902
1080.290 .0257058
1080.869 .0257213
1081.448 .0257366
1082.027 .0257520
1082.606 .0257674
1083.185 .0257830
1083.764 .0257990
1084.343 .0258153
1084.923 .0258320
1085.502 .0258490
1086.082 .0258662
1086.662 .0258836
1087.242 .0259011
1087.822 .0259186
1088.402 .0259362
1088.983 .0259539
1089.563 .0259717
1090.144 .0259897
1090.725 .0260079
1091.306 .0260263
1091.887 .0260450
1092.469 .0260640
1093.050 .0260831
1093.632 .0261024
1094.214 .0261219
1094.796 .0261415
1095.379 .0261613
1095.961 .0261810
1096.544 .0262009
1097.127 .0262208
1097.710 .0262409
1098.294 .0262611
1098.877 .0262817
1099.461 .0263029
1100.046 .0263247
1100.630 .0263472
1101.215 .0263703
1101.800 .0263940
1102.385 .0264184
1102.970 .0264432
1103.556 .0264684
1104.142 .0264942
1104.728 .0265205
1105.315 .0265473
1105.902 .0265749
1106.489 .0266032
1107.077 .0266325
1107.664 .0266627
1108.253 .0266938
1108.841 .0267256
1109.430 .0267581
1110.019 .0267914
1110.609 .0268253
1111.198 .0268602
1111.789 .0268962
1112.379 .0269333
1112.970 .0269717
1113.561 .0270113
1114.153 .0270520
1114.745 .0270940
1115.338 .0271368
1115.931 .0271802
1116.524 .0272240
1117.117 .0272679
1117.712 .0273119
1118.306 .0273562
1118.901 .0274006
1119.496 .0274453
1120.092 .0274902
1120.689 .0275352
1121.285 .0275804
1121.882 .0276256
1122.480 .0276709
1123.078 .0277162
1123.677 .0277619
1124.276 .0278081
1124.875 .0278553
1125.476 .0279040
1126.076 .0279548
1126.677 .0280079
1127.279 .0280634
1127.881 .0281214
1128.484 .0281814
1129.087 .0282084
1129.691 .0282707
1130.295 .0283346
1130.900 .0284002
1131.505 .0284678
1132.111 .0285374
1132.718 .0286090
1133.325 .0286830
1133.933 .0287600
1134.541 .0288465
1135.150 .0289279
1135.760 .0290069
1136.370 .0290878
1136.981 .0291240
1137.592 .0292241
1138.204 .0293231
1138.817 .0294243
1139.431 .0295347
1140.045 .0296476
1140.660 .0297624
1141.275 .0298790
1141.891 .0300176
1142.508 .0303372
1143.126 .0302438
1143.744 .0302337
1144.363 .0303397
1144.983 .0311022
