Measurement Sequence started on: 15-12-46-377
Integration time: 28
Scans to Average: 2 
>>>>>Begin Spectral Data<<<<<
432.689 .0000100
433.621 .0000100
434.552 .0000100
435.482 .0000100
436.410 .0000100
437.337 .0000100
438.262 .0277714
439.187 .0588049
440.110 .0973522
441.031 .1408431
441.952 .1125556
442.871 .1175104
443.789 .1221208
444.705 .1264605
445.621 .1305775
446.535 .1345104
447.447 .1368253
448.359 .1373715
449.269 .1357708
450.178 .1317764
451.086 .1254687
451.993 .1173337
452.898 .1081717
453.803 .0988910
454.706 .0902643
455.608 .0827715
456.508 .0765719
457.408 .0723783
458.306 .0691562
459.204 .0665332
460.100 .0643241
460.995 .0624236
461.888 .0607607
462.781 .0592900
463.673 .0579762
464.563 .0567946
465.452 .0557275
466.340 .0547603
467.228 .0538823
468.114 .0530847
468.999 .0523603
469.882 .0517019
470.765 .0511028
471.647 .0505569
472.528 .0500588
473.407 .0496040
474.286 .0491891
475.163 .0488118
476.040 .0484707
476.915 .0481645
477.790 .0478909
478.663 .0476481
479.535 .0474342
480.407 .0472467
481.277 .0470834
482.147 .0469416
483.015 .0468194
483.883 .0467157
484.749 .0466301
485.615 .0465622
486.479 .0465130
487.343 .0464830
488.206 .0464729
489.067 .0464823
489.928 .0465118
490.788 .0465611
491.647 .0466304
492.505 .0467196
493.362 .0468292
494.218 .0469596
495.073 .0471112
495.928 .0474142
496.781 .0476176
497.634 .0478408
498.486 .0480834
499.337 .0483465
500.187 .0486303
501.036 .0489374
501.884 .0492708
502.731 .0496341
503.578 .0500322
504.424 .0503019
505.268 .0507674
506.113 .0512792
506.956 .0518408
507.798 .0524567
508.640 .0531324
509.480 .0538768
510.320 .0546994
511.160 .0556135
511.998 .0566353
512.836 .0577831
513.672 .0590761
514.508 .0605373
515.344 .0621865
516.178 .0640452
517.012 .0661330
517.845 .0684678
518.677 .0710638
519.508 .0739335
520.339 .0770786
521.169 .0804975
521.998 .0841719
522.826 .0880717
523.654 .0921456
524.481 .0963356
525.307 .1005708
526.133 .1047700
526.958 .1088477
527.782 .1127200
528.605 .1163055
529.428 .1195335
530.250 .1223391
531.072 .1246771
531.892 .1265094
532.712 .1278173
533.532 .1285872
534.350 .1288161
535.168 .1285097
535.986 .1276769
536.802 .1263267
537.618 .1244756
538.434 .1221385
539.249 .1193459
540.063 .1161369
540.876 .1125692
541.689 .1087073
542.501 .1046273
543.313 .1004134
544.124 .0961506
544.934 .0919204
545.744 .0877972
546.553 .0838415
547.361 .0801060
548.169 .0766213
548.976 .0734074
549.783 .0704676
550.589 .0677975
551.395 .0653817
552.200 .0631978
553.004 .0612219
553.808 .0594309
554.611 .0578026
555.414 .0563185
556.216 .0549622
557.018 .0537199
557.819 .0525796
558.619 .0515309
559.419 .0505638
560.218 .0496699
561.017 .0488401
561.815 .0480667
562.613 .0473422
563.410 .0466598
564.207 .0460131
565.003 .0453965
565.799 .0448050
566.594 .0442342
567.388 .0436809
568.182 .0431427
568.976 .0426184
569.769 .0421062
570.562 .0416050
571.354 .0411149
572.145 .0406366
572.936 .0401706
573.727 .0397176
574.517 .0392784
575.307 .0388535
576.096 .0384432
576.885 .0380477
577.673 .0376672
578.461 .0373022
579.248 .0369532
580.035 .0366208
580.821 .0363050
581.607 .0360066
582.392 .0357256
583.177 .0354622
583.962 .0352161
584.746 .0349862
585.529 .0347716
586.313 .0345711
587.095 .0343838
587.878 .0342088
588.660 .0340453
589.441 .0338928
590.222 .0337510
591.003 .0336192
591.783 .0334969
592.563 .0333831
593.342 .0332772
594.121 .0331782
594.899 .0330855
595.678 .0329982
596.455 .0329158
597.233 .0328380
598.009 .0327646
598.786 .0326952
599.562 .0326298
600.338 .0325682
601.113 .0325102
601.888 .0324359
602.663 .0323859
603.437 .0323389
604.211 .0322946
604.984 .0322529
605.757 .0322134
606.530 .0321757
607.302 .0321397
608.074 .0321051
608.845 .0320718
609.616 .0320397
610.387 .0320252
611.158 .0319950
611.928 .0319662
612.697 .0319386
613.467 .0319123
614.236 .0318873
615.004 .0318634
615.773 .0318406
616.541 .0318188
617.308 .0317979
618.076 .0317778
618.843 .0317584
619.609 .0317398
620.375 .0317218
621.141 .0317045
621.907 .0316877
622.672 .0316713
623.437 .0316553
624.202 .0316397
624.966 .0316243
625.730 .0316089
626.493 .0315934
627.257 .0315775
628.020 .0315610
628.782 .0315438
629.545 .0315255
630.307 .0315061
631.068 .0314856
631.830 .0314641
632.591 .0314416
633.352 .0314182
634.112 .0313942
634.872 .0313696
635.632 .0313443
636.392 .0313186
637.151 .0312922
637.910 .0312655
638.668 .0312384
639.427 .0312111
640.185 .0311838
640.943 .0311566
641.700 .0311297
642.457 .0311032
643.214 .0310771
643.971 .0310515
644.727 .0310263
645.483 .0310016
646.239 .0309771
646.994 .0309529
647.750 .0309289
648.505 .0309050
649.259 .0308813
650.014 .0308574
650.768 .0308334
651.521 .0308091
652.275 .0307844
653.028 .0307592
653.781 .0307336
654.534 .0307074
655.286 .0306807
656.039 .0306535
656.791 .0306257
657.542 .0305975
658.294 .0305687
659.045 .0305396
659.796 .0305100
660.546 .0304801
661.297 .0304500
662.047 .0304198
662.796 .0303896
663.546 .0303595
664.295 .0303296
665.044 .0303001
665.793 .0302710
666.542 .0302424
667.290 .0302142
668.038 .0301866
668.786 .0301594
669.533 .0301328
670.281 .0301067
671.028 .0300811
671.774 .0300561
672.521 .0300314
673.267 .0300072
674.013 .0299834
674.759 .0299600
675.505 .0299369
676.250 .0299142
676.995 .0298918
677.740 .0298699
678.484 .0298483
679.229 .0298271
679.973 .0298063
680.717 .0297857
681.460 .0297656
682.204 .0297457
682.947 .0297261
683.690 .0297068
684.433 .0296880
685.175 .0296696
685.917 .0296517
686.659 .0296342
687.401 .0296172
688.142 .0296006
688.884 .0295843
689.625 .0295681
690.365 .0295521
691.106 .0295362
691.846 .0295203
692.586 .0295044
693.326 .0294885
694.066 .0294726
694.805 .0294567
695.545 .0294408
696.284 .0294250
697.022 .0294091
697.761 .0293932
698.499 .0293772
699.237 .0293613
699.975 .0293454
700.713 .0293297
701.450 .0293141
702.187 .0292987
702.924 .0292836
703.661 .0292687
704.397 .0292542
705.133 .0292402
705.869 .0292267
706.605 .0292136
707.341 .0292011
708.076 .0291892
708.811 .0291777
709.546 .0291665
710.281 .0291556
711.015 .0291449
711.749 .0291342
712.483 .0291236
713.217 .0291130
713.950 .0291022
714.684 .0290914
715.417 .0290804
716.150 .0290692
716.882 .0290578
717.615 .0290459
718.347 .0290335
719.079 .0290205
719.811 .0290070
720.542 .0289929
721.273 .0289783
722.005 .0289634
722.735 .0289483
723.466 .0289331
724.196 .0289179
724.927 .0289028
725.656 .0288880
726.386 .0288735
727.116 .0288592
727.845 .0288454
728.574 .0288320
729.303 .0288192
730.031 .0288069
730.760 .0287952
731.488 .0287842
732.216 .0287738
732.944 .0287640
733.671 .0287548
734.398 .0287460
735.125 .0287376
735.852 .0287295
736.579 .0287216
737.305 .0287140
738.031 .0287064
738.757 .0286988
739.483 .0286911
740.208 .0286831
740.933 .0286748
741.658 .0286661
742.383 .0286569
743.108 .0286471
743.832 .0286369
744.556 .0286261
745.280 .0286148
746.004 .0286029
746.727 .0285905
747.450 .0285775
748.173 .0285637
748.896 .0285492
749.618 .0285339
750.340 .0285179
751.062 .0285011
751.784 .0284837
752.506 .0284656
753.227 .0284469
753.948 .0284277
754.669 .0284080
755.389 .0283878
756.110 .0283672
756.830 .0283461
757.550 .0283247
758.269 .0283030
758.989 .0282811
759.708 .0282590
760.427 .0282367
761.146 .0282144
761.864 .0281921
762.582 .0281697
763.300 .0281475
764.018 .0281253
764.736 .0281034
765.453 .0280818
766.170 .0280605
766.887 .0280396
767.603 .0280191
768.320 .0279991
769.036 .0279796
769.751 .0279605
770.467 .0279419
771.182 .0279237
771.897 .0279061
772.612 .0278891
773.327 .0278726
774.041 .0278566
774.755 .0278411
775.469 .0278260
776.183 .0278112
776.896 .0277967
777.609 .0277825
778.322 .0277685
779.035 .0277547
779.747 .0277410
780.459 .0277274
781.171 .0277140
781.882 .0277007
782.594 .0276875
783.305 .0276744
784.016 .0276614
784.726 .0276484
785.436 .0276356
786.147 .0276167
786.856 .0276042
787.566 .0275920
788.275 .0275800
788.984 .0275684
789.693 .0275570
790.401 .0275460
791.110 .0275353
791.818 .0275249
792.525 .0275149
793.233 .0275052
793.940 .0274958
794.647 .0274919
795.353 .0274828
796.060 .0274738
796.766 .0274650
797.472 .0274563
798.177 .0274476
798.883 .0274389
799.588 .0274303
800.292 .0274218
800.997 .0274133
801.701 .0274048
802.405 .0273964
803.109 .0273879
803.812 .0273794
804.515 .0273707
805.218 .0273617
805.921 .0273525
806.623 .0273429
807.325 .0273329
808.027 .0273227
808.728 .0273121
809.429 .0273013
810.130 .0272904
810.831 .0272793
811.531 .0272681
812.231 .0272569
812.931 .0272456
813.630 .0272344
814.330 .0272233
815.029 .0272122
815.727 .0272014
816.426 .0271909
817.124 .0271808
817.821 .0271712
818.519 .0271622
819.216 .0271538
819.913 .0271461
820.609 .0271392
821.306 .0271331
822.002 .0271279
822.697 .0271236
823.393 .0271201
824.088 .0271175
824.783 .0271157
825.477 .0271148
826.171 .0271146
826.865 .0271151
827.559 .0271163
828.252 .0271182
828.945 .0271206
829.638 .0271236
830.330 .0271271
831.023 .0271312
831.714 .0271357
832.406 .0271406
833.097 .0271458
833.788 .0271512
834.479 .0271567
835.169 .0271623
835.859 .0271678
836.548 .0271731
837.238 .0271782
837.927 .0271831
838.615 .0271877
839.304 .0271920
839.992 .0271959
840.680 .0271995
841.367 .0272027
842.054 .0272054
842.741 .0272077
843.428 .0272094
844.114 .0272105
844.800 .0272111
845.485 .0272111
846.170 .0272106
846.855 .0272095
847.540 .0272079
848.224 .0272058
848.908 .0272032
849.592 .0272001
850.275 .0271965
850.958 .0271923
851.641 .0271876
852.323 .0271825
853.005 .0271768
853.687 .0271706
854.368 .0271639
855.049 .0271567
855.730 .0271490
856.410 .0271408
857.090 .0271320
857.769 .0271228
858.449 .0271130
859.128 .0271028
859.806 .0270922
860.485 .0270811
861.163 .0270697
861.840 .0270579
862.518 .0270458
863.195 .0270333
863.871 .0270205
864.548 .0270075
865.224 .0269942
865.899 .0269807
866.574 .0269670
867.249 .0269532
867.924 .0269393
868.598 .0269254
869.272 .0269116
869.946 .0268977
870.619 .0268838
871.292 .0268699
871.964 .0268560
872.636 .0268420
873.308 .0268281
873.979 .0268142
874.651 .0268005
875.321 .0267870
875.992 .0267737
876.662 .0267606
877.331 .0267477
878.001 .0267350
878.670 .0267224
879.338 .0267098
880.007 .0266973
880.675 .0266849
881.342 .0266724
882.009 .0266601
882.676 .0266479
883.343 .0266358
884.009 .0266238
884.675 .0266120
885.340 .0266004
886.005 .0265888
886.670 .0265773
887.334 .0265660
887.998 .0265547
888.662 .0265436
889.325 .0265326
889.988 .0265218
890.650 .0265110
891.312 .0265002
891.974 .0264894
892.636 .0264786
893.297 .0264676
893.957 .0264564
894.618 .0264450
895.278 .0264335
895.937 .0264218
896.596 .0264098
897.255 .0263976
897.914 .0263850
898.572 .0263720
899.230 .0263585
899.887 .0263443
900.544 .0263294
901.201 .0263138
901.857 .0262868
902.513 .0262692
903.168 .0262509
903.823 .0262317
904.478 .0262119
905.132 .0261914
905.786 .0261702
906.440 .0261483
907.093 .0261258
907.746 .0261027
908.399 .0260791
909.051 .0260550
909.703 .0260306
910.354 .0260177
911.005 .0259931
911.656 .0259683
912.306 .0259435
912.956 .0259188
913.605 .0258942
914.254 .0258697
914.903 .0258455
915.551 .0258216
916.199 .0257979
916.847 .0257744
917.494 .0257511
918.141 .0257280
918.788 .0257050
919.434 .0256822
920.079 .0256595
920.725 .0256369
921.370 .0256144
922.014 .0255920
922.658 .0255695
923.302 .0255470
923.946 .0255244
924.589 .0255016
925.231 .0254787
925.873 .0254557
926.515 .0254325
927.157 .0254093
927.798 .0253860
928.439 .0253626
929.079 .0253393
929.719 .0253159
930.359 .0252926
930.998 .0252694
931.637 .0252462
932.275 .0252232
932.913 .0252004
933.551 .0251781
934.188 .0251562
934.825 .0251349
935.462 .0251143
936.098 .0250944
936.733 .0250753
937.369 .0250569
938.004 .0250394
938.638 .0250227
939.273 .0250069
939.907 .0249919
940.540 .0249780
941.173 .0249650
941.806 .0249531
942.438 .0249421
943.070 .0249321
943.702 .0249231
944.333 .0249149
944.964 .0249076
945.594 .0249011
946.224 .0248953
946.854 .0248901
947.483 .0248855
948.112 .0248814
948.741 .0248777
949.369 .0248743
949.996 .0248712
950.624 .0248683
951.251 .0248654
951.878 .0248627
952.504 .0248600
953.130 .0248573
953.755 .0248546
954.380 .0248518
955.005 .0248490
955.629 .0248461
956.253 .0248432
956.877 .0248401
957.500 .0248370
958.123 .0248339
958.746 .0248307
959.368 .0248276
959.990 .0248246
960.611 .0248217
961.232 .0248190
961.853 .0248166
962.473 .0248143
963.093 .0248123
963.712 .0248105
964.331 .0248088
964.950 .0248075
965.569 .0248063
966.187 .0248052
966.804 .0248044
967.422 .0248036
968.039 .0248030
968.655 .0248024
969.272 .0248018
969.887 .0248013
970.503 .0248009
971.118 .0248005
971.733 .0248001
972.347 .0247997
972.961 .0247994
973.575 .0247990
974.188 .0247985
974.801 .0247979
975.414 .0247971
976.026 .0247962
976.638 .0247951
977.250 .0247937
977.861 .0247922
978.472 .0247904
979.083 .0247885
979.693 .0247863
980.303 .0247841
980.912 .0247805
981.521 .0247785
982.130 .0247766
982.738 .0247749
983.346 .0247735
983.954 .0247724
984.562 .0247718
985.169 .0247716
985.775 .0247719
986.382 .0247728
986.988 .0247743
987.594 .0247763
988.199 .0247790
988.804 .0247824
989.409 .0247866
990.013 .0247910
990.617 .0247961
991.221 .0248019
991.824 .0248083
992.427 .0248153
993.030 .0248230
993.632 .0248311
994.234 .0248397
994.836 .0248487
995.438 .0248580
996.039 .0248676
996.640 .0248775
997.240 .0248876
997.840 .0248980
998.440 .0249086
999.040 .0249194
999.639 .0249303
1000.238 .0249412
1000.836 .0249523
1001.435 .0249633
1002.033 .0249743
1002.630 .0249851
1003.228 .0249959
1003.825 .0250064
1004.422 .0250169
1005.018 .0250271
1005.614 .0250373
1006.210 .0250474
1006.806 .0250573
1007.401 .0250672
1007.996 .0250771
1008.591 .0250869
1009.186 .0250967
1009.780 .0251064
1010.374 .0251160
1010.967 .0251255
1011.561 .0251351
1012.154 .0251447
1012.746 .0251543
1013.339 .0251642
1013.931 .0251742
1014.523 .0251845
1015.115 .0251951
1015.706 .0252058
1016.298 .0252169
1016.888 .0252282
1017.479 .0252398
1018.069 .0252516
1018.660 .0252636
1019.250 .0252759
1019.839 .0252886
1020.429 .0253014
1021.018 .0253146
1021.607 .0253279
1022.195 .0253414
1022.784 .0253551
1023.372 .0253688
1023.960 .0253827
1024.547 .0253967
1025.135 .0254107
1025.722 .0254247
1026.309 .0254389
1026.896 .0254530
1027.483 .0254672
1028.069 .0254813
1028.655 .0254954
1029.241 .0255093
1029.827 .0255231
1030.412 .0255366
1030.997 .0255499
1031.582 .0255630
1032.167 .0255756
1032.752 .0255879
1033.336 .0255997
1033.921 .0256109
1034.505 .0256215
1035.089 .0256314
1035.672 .0256407
1036.256 .0256493
1036.839 .0256573
1037.422 .0256647
1038.005 .0256717
1038.588 .0256781
1039.171 .0256841
1039.753 .0256897
1040.335 .0256947
1040.918 .0256993
1041.500 .0257032
1042.081 .0257066
1042.663 .0257094
1043.244 .0257117
1043.826 .0257134
1044.407 .0257148
1044.988 .0257159
1045.569 .0257166
1046.150 .0257170
1046.730 .0257171
1047.311 .0257167
1047.891 .0257157
1048.471 .0257142
1049.052 .0257121
1049.632 .0257094
1050.211 .0257062
1050.791 .0257025
1051.371 .0256984
1051.950 .0256939
1052.530 .0256890
1053.109 .0256837
1053.688 .0256780
1054.268 .0256718
1054.847 .0256652
1055.426 .0256582
1056.005 .0256507
1056.583 .0256429
1057.162 .0256348
1057.741 .0256265
1058.319 .0256180
1058.898 .0256093
1059.476 .0256005
1060.055 .0255916
1060.633 .0255827
1061.211 .0255737
1061.790 .0255646
1062.368 .0255555
1062.946 .0255466
1063.524 .0255379
1064.102 .0255296
1064.680 .0255216
1065.258 .0255141
1065.836 .0255071
1066.414 .0255005
1066.992 .0254944
1067.570 .0254886
1068.148 .0254831
1068.726 .0254777
1069.304 .0254725
1069.882 .0254674
1070.460 .0254623
1071.038 .0254573
1071.616 .0254524
1072.194 .0254473
1072.772 .0254420
1073.350 .0254364
1073.928 .0254304
1074.506 .0254238
1075.084 .0254166
1075.662 .0254087
1076.240 .0254002
1076.819 .0253912
1077.397 .0253819
1077.976 .0253723
1078.554 .0253627
1079.133 .0253532
1079.711 .0253440
1080.290 .0253350
1080.869 .0253266
1081.448 .0253186
1082.027 .0253112
1082.606 .0253045
1083.185 .0252986
1083.764 .0252934
1084.343 .0252889
1084.923 .0252851
1085.502 .0252819
1086.082 .0252793
1086.662 .0252771
1087.242 .0252754
1087.822 .0252742
1088.402 .0252734
1088.983 .0252731
1089.563 .0252733
1090.144 .0252740
1090.725 .0252750
1091.306 .0252763
1091.887 .0252779
1092.469 .0252796
1093.050 .0252815
1093.632 .0252836
1094.214 .0252861
1094.796 .0252890
1095.379 .0252925
1095.961 .0252966
1096.544 .0253013
1097.127 .0253066
1097.710 .0253123
1098.294 .0253180
1098.877 .0253236
1099.461 .0253289
1100.046 .0253338
1100.630 .0253384
1101.215 .0253428
1101.800 .0253471
1102.385 .0253516
1102.970 .0253564
1103.556 .0253617
1104.142 .0253675
1104.728 .0253737
1105.315 .0253801
1105.902 .0253868
1106.489 .0253939
1107.077 .0254016
1107.664 .0254100
1108.253 .0254196
1108.841 .0254308
1109.430 .0254438
1110.019 .0254590
1110.609 .0254761
1111.198 .0254955
1111.789 .0255168
1112.379 .0255398
1112.970 .0255643
1113.561 .0255898
1114.153 .0256164
1114.745 .0256437
1115.338 .0256720
1115.931 .0257011
1116.524 .0257312
1117.117 .0257626
1117.712 .0257953
1118.306 .0258296
1118.901 .0258654
1119.496 .0259029
1120.092 .0259419
1120.689 .0259822
1121.285 .0260235
1121.882 .0260659
1122.480 .0261092
1123.078 .0261534
1123.677 .0261986
1124.276 .0262448
1124.875 .0262922
1125.476 .0263407
1126.076 .0263903
1126.677 .0264408
1127.279 .0264920
1127.881 .0265441
1128.484 .0265969
1129.087 .0266228
1129.691 .0266762
1130.295 .0267309
1130.900 .0267872
1131.505 .0268458
1132.111 .0269073
1132.718 .0269724
1133.325 .0270423
1133.933 .0271180
1134.541 .0271928
1135.150 .0272776
1135.760 .0273691
1136.370 .0274787
1136.981 .0273418
1137.592 .0274280
1138.204 .0275228
1138.817 .0276277
1139.431 .0277449
1140.045 .0278778
1140.660 .0280264
1141.275 .0282014
1141.891 .0284073
1142.508 .0284286
1143.126 .0287632
1143.744 .0290040
1144.363 .0295720
1144.983 .0299952
