Measurement Sequence started on: 15-12-46-377
Integration time: 28
Scans to Average: 2 
>>>>>Begin Spectral Data<<<<<
432.689 .0000100
433.621 .0000100
434.552 .0000100
435.482 .0000100
436.410 .0000100
437.337 .0000100
438.262 .0286607
439.187 .0607239
440.110 .1005889
441.031 .1455602
441.952 .1167621
442.871 .1219518
443.789 .1267823
444.705 .1313292
445.621 .1356443
446.535 .1397669
447.447 .1422180
448.359 .1428417
449.269 .1412466
450.178 .1371779
451.086 .1307143
451.993 .1223548
452.898 .1129251
453.803 .1033615
454.706 .0944605
455.608 .0867171
456.508 .0802983
457.408 .0759419
458.306 .0725831
459.204 .0698403
460.100 .0675232
460.995 .0655258
461.888 .0637758
462.781 .0622246
463.673 .0608367
464.563 .0595860
465.452 .0584521
466.340 .0574185
467.228 .0564736
468.114 .0556091
468.999 .0548181
469.882 .0540941
470.765 .0534322
471.647 .0528283
472.528 .0522787
473.407 .0517799
474.286 .0513294
475.163 .0509254
476.040 .0505652
476.915 .0502461
477.790 .0499656
478.663 .0497209
479.535 .0495091
480.407 .0493271
481.277 .0491721
482.147 .0490413
483.015 .0489322
483.883 .0488427
484.749 .0487716
485.615 .0487176
486.479 .0486802
487.343 .0486583
488.206 .0486510
489.067 .0486575
489.928 .0486762
490.788 .0487063
491.647 .0487468
492.505 .0487973
493.362 .0488575
494.218 .0489278
495.073 .0490097
495.928 .0491808
496.781 .0493042
497.634 .0494474
498.486 .0496133
499.337 .0498045
500.187 .0500241
501.036 .0502754
501.884 .0505627
502.731 .0508902
503.578 .0512630
504.424 .0515567
505.268 .0520186
506.113 .0525397
506.956 .0531252
507.798 .0537809
508.640 .0545125
509.480 .0553283
510.320 .0562377
511.160 .0572524
511.998 .0583854
512.836 .0596534
513.672 .0610733
514.508 .0626655
515.344 .0644526
516.178 .0664560
517.012 .0686998
517.845 .0712054
518.677 .0739939
519.508 .0770846
520.339 .0804895
521.169 .0842188
521.998 .0882501
522.826 .0925556
523.654 .0970820
524.481 .1017630
525.307 .1065187
526.133 .1112575
526.958 .1158799
527.782 .1202854
528.605 .1243807
529.428 .1280849
530.250 .1313231
531.072 .1340491
531.892 .1362191
532.712 .1378075
533.532 .1387994
534.350 .1391895
535.168 .1389815
535.986 .1381855
536.802 .1368071
537.618 .1348539
538.434 .1323324
539.249 .1292815
540.063 .1257442
540.876 .1217852
541.689 .1174823
542.501 .1129229
543.313 .1082031
544.124 .1034240
544.934 .0986826
545.744 .0940651
546.553 .0896430
547.361 .0854774
548.169 .0815983
548.976 .0780309
549.783 .0747797
550.589 .0718394
551.395 .0691924
552.200 .0668136
553.004 .0646698
553.808 .0627330
554.611 .0609794
555.414 .0593873
556.216 .0579345
557.018 .0566010
557.819 .0553697
558.619 .0542252
559.419 .0531548
560.218 .0521492
561.017 .0511995
561.815 .0503010
562.613 .0494490
563.410 .0486398
564.207 .0478697
565.003 .0471363
565.799 .0464367
566.594 .0457676
567.388 .0451255
568.182 .0445073
568.976 .0439103
569.769 .0433338
570.562 .0427772
571.354 .0422411
572.145 .0417261
572.936 .0412332
573.727 .0407630
574.517 .0403158
575.307 .0398917
576.096 .0394895
576.885 .0391086
577.673 .0387479
578.461 .0384062
579.248 .0380821
580.035 .0377751
580.821 .0374843
581.607 .0372092
582.392 .0369490
583.177 .0367035
583.962 .0364725
584.746 .0362556
585.529 .0360522
586.313 .0358619
587.095 .0356838
587.878 .0355168
588.660 .0353602
589.441 .0352130
590.222 .0350744
591.003 .0349436
591.783 .0348200
592.563 .0347033
593.342 .0345932
594.121 .0344891
594.899 .0343908
595.678 .0342979
596.455 .0342098
597.233 .0341262
598.009 .0340466
598.786 .0339706
599.562 .0338979
600.338 .0338281
601.113 .0337609
601.888 .0336679
602.663 .0336061
603.437 .0335464
604.211 .0334886
604.984 .0334327
605.757 .0333786
606.530 .0333263
607.302 .0332758
608.074 .0332272
608.845 .0331806
609.616 .0331359
610.387 .0331179
611.158 .0330763
611.928 .0330367
612.697 .0329989
613.467 .0329632
614.236 .0329293
615.004 .0328974
615.773 .0328674
616.541 .0328391
617.308 .0328126
618.076 .0327877
618.843 .0327644
619.609 .0327424
620.375 .0327217
621.141 .0327021
621.907 .0326835
622.672 .0326656
623.437 .0326485
624.202 .0326318
624.966 .0326154
625.730 .0325992
626.493 .0325829
627.257 .0325663
628.020 .0325495
628.782 .0325323
629.545 .0325148
630.307 .0324968
631.068 .0324784
631.830 .0324596
632.591 .0324403
633.352 .0324207
634.112 .0324006
634.872 .0323799
635.632 .0323587
636.392 .0323370
637.151 .0323148
637.910 .0322923
638.668 .0322695
639.427 .0322465
640.185 .0322234
640.943 .0322002
641.700 .0321771
642.457 .0321540
643.214 .0321309
643.971 .0321078
644.727 .0320844
645.483 .0320609
646.239 .0320369
646.994 .0320125
647.750 .0319875
648.505 .0319618
649.259 .0319355
650.014 .0319085
650.768 .0318808
651.521 .0318523
652.275 .0318231
653.028 .0317932
653.781 .0317625
654.534 .0317310
655.286 .0316985
656.039 .0316651
656.791 .0316307
657.542 .0315955
658.294 .0315595
659.045 .0315227
659.796 .0314854
660.546 .0314476
661.297 .0314095
662.047 .0313714
662.796 .0313332
663.546 .0312951
664.295 .0312573
665.044 .0312198
665.793 .0311827
666.542 .0311462
667.290 .0311102
668.038 .0310748
668.786 .0310402
669.533 .0310063
670.281 .0309731
671.028 .0309407
671.774 .0309091
672.521 .0308783
673.267 .0308483
674.013 .0308190
674.759 .0307905
675.505 .0307627
676.250 .0307355
676.995 .0307089
677.740 .0306830
678.484 .0306576
679.229 .0306328
679.973 .0306087
680.717 .0305850
681.460 .0305620
682.204 .0305396
682.947 .0305177
683.690 .0304963
684.433 .0304755
685.175 .0304552
685.917 .0304355
686.659 .0304163
687.401 .0303976
688.142 .0303795
688.884 .0303619
689.625 .0303447
690.365 .0303280
691.106 .0303117
691.846 .0302958
692.586 .0302803
693.326 .0302651
694.066 .0302504
694.805 .0302360
695.545 .0302221
696.284 .0302085
697.022 .0301954
697.761 .0301827
698.499 .0301703
699.237 .0301583
699.975 .0301464
700.713 .0301349
701.450 .0301234
702.187 .0301121
702.924 .0301008
703.661 .0300896
704.397 .0300785
705.133 .0300674
705.869 .0300564
706.605 .0300455
707.341 .0300347
708.076 .0300240
708.811 .0300133
709.546 .0300026
710.281 .0299919
711.015 .0299812
711.749 .0299704
712.483 .0299594
713.217 .0299483
713.950 .0299369
714.684 .0299253
715.417 .0299133
716.150 .0299009
716.882 .0298881
717.615 .0298749
718.347 .0298611
719.079 .0298469
719.811 .0298323
720.542 .0298172
721.273 .0298017
722.005 .0297858
722.735 .0297697
723.466 .0297534
724.196 .0297368
724.927 .0297202
725.656 .0297035
726.386 .0296868
727.116 .0296701
727.845 .0296534
728.574 .0296368
729.303 .0296201
730.031 .0296035
730.760 .0295869
731.488 .0295704
732.216 .0295539
732.944 .0295374
733.671 .0295208
734.398 .0295042
735.125 .0294875
735.852 .0294707
736.579 .0294538
737.305 .0294368
738.031 .0294197
738.757 .0294024
739.483 .0293850
740.208 .0293675
740.933 .0293499
741.658 .0293320
742.383 .0293140
743.108 .0292956
743.832 .0292770
744.556 .0292581
745.280 .0292389
746.004 .0292193
746.727 .0291994
747.450 .0291792
748.173 .0291587
748.896 .0291378
749.618 .0291165
750.340 .0290950
751.062 .0290732
751.784 .0290510
752.506 .0290286
753.227 .0290059
753.948 .0289829
754.669 .0289596
755.389 .0289360
756.110 .0289121
756.830 .0288879
757.550 .0288633
758.269 .0288385
758.989 .0288135
759.708 .0287882
760.427 .0287629
761.146 .0287374
761.864 .0287120
762.582 .0286865
763.300 .0286610
764.018 .0286357
764.736 .0286105
765.453 .0285856
766.170 .0285609
766.887 .0285367
767.603 .0285129
768.320 .0284897
769.036 .0284671
769.751 .0284452
770.467 .0284238
771.182 .0284032
771.897 .0283832
772.612 .0283639
773.327 .0283454
774.041 .0283277
774.755 .0283107
775.469 .0282947
776.183 .0282795
776.896 .0282652
777.609 .0282517
778.322 .0282392
779.035 .0282275
779.747 .0282166
780.459 .0282067
781.171 .0281976
781.882 .0281895
782.594 .0281823
783.305 .0281761
784.016 .0281707
784.726 .0281661
785.436 .0281622
786.147 .0281591
786.856 .0281565
787.566 .0281543
788.275 .0281526
788.984 .0281512
789.693 .0281503
790.401 .0281497
791.110 .0281495
791.818 .0281495
792.525 .0281498
793.233 .0281502
793.940 .0281508
794.647 .0281508
795.353 .0281514
796.060 .0281520
796.766 .0281525
797.472 .0281530
798.177 .0281534
798.883 .0281537
799.588 .0281538
800.292 .0281538
800.997 .0281534
801.701 .0281529
802.405 .0281520
803.109 .0281509
803.812 .0281494
804.515 .0281476
805.218 .0281454
805.921 .0281429
806.623 .0281401
807.325 .0281369
808.027 .0281334
808.728 .0281296
809.429 .0281254
810.130 .0281210
810.831 .0281163
811.531 .0281114
812.231 .0281064
812.931 .0281013
813.630 .0280961
814.330 .0280910
815.029 .0280860
815.727 .0280810
816.426 .0280762
817.124 .0280714
817.821 .0280669
818.519 .0280625
819.216 .0280584
819.913 .0280546
820.609 .0280513
821.306 .0280484
822.002 .0280461
822.697 .0280444
823.393 .0280431
824.088 .0280423
824.783 .0280419
825.477 .0280418
826.171 .0280419
826.865 .0280422
827.559 .0280425
828.252 .0280430
828.945 .0280435
829.638 .0280441
830.330 .0280447
831.023 .0280452
831.714 .0280455
832.406 .0280454
833.097 .0280449
833.788 .0280439
834.479 .0280424
835.169 .0280403
835.859 .0280376
836.548 .0280343
837.238 .0280305
837.927 .0280260
838.615 .0280208
839.304 .0280150
839.992 .0280084
840.680 .0280010
841.367 .0279928
842.054 .0279838
842.741 .0279741
843.428 .0279637
844.114 .0279527
844.800 .0279410
845.485 .0279286
846.170 .0279155
846.855 .0279016
847.540 .0278868
848.224 .0278713
848.908 .0278550
849.592 .0278378
850.275 .0278199
850.958 .0278013
851.641 .0277820
852.323 .0277621
853.005 .0277414
853.687 .0277201
854.368 .0276981
855.049 .0276754
855.730 .0276521
856.410 .0276283
857.090 .0276039
857.769 .0275791
858.449 .0275540
859.128 .0275284
859.806 .0275026
860.485 .0274765
861.163 .0274500
861.840 .0274232
862.518 .0273962
863.195 .0273689
863.871 .0273414
864.548 .0273138
865.224 .0272860
865.899 .0272582
866.574 .0272303
867.249 .0272023
867.924 .0271744
868.598 .0271464
869.272 .0271184
869.946 .0270904
870.619 .0270626
871.292 .0270349
871.964 .0270075
872.636 .0269803
873.308 .0269535
873.979 .0269270
874.651 .0269009
875.321 .0268752
875.992 .0268500
876.662 .0268253
877.331 .0268012
878.001 .0267777
878.670 .0267547
879.338 .0267325
880.007 .0267109
880.675 .0266901
881.342 .0266699
882.009 .0266505
882.676 .0266317
883.343 .0266138
884.009 .0265966
884.675 .0265802
885.340 .0265647
886.005 .0265500
886.670 .0265362
887.334 .0265231
887.998 .0265108
888.662 .0264992
889.325 .0264882
889.988 .0264778
890.650 .0264680
891.312 .0264587
891.974 .0264500
892.636 .0264417
893.297 .0264339
893.957 .0264265
894.618 .0264194
895.278 .0264124
895.937 .0264055
896.596 .0263986
897.255 .0263915
897.914 .0263843
898.572 .0263767
899.230 .0263688
899.887 .0263606
900.544 .0263520
901.201 .0263429
901.857 .0263267
902.513 .0263162
903.168 .0263051
903.823 .0262935
904.478 .0262813
905.132 .0262685
905.786 .0262553
906.440 .0262417
907.093 .0262277
907.746 .0262135
908.399 .0261990
909.051 .0261845
909.703 .0261699
910.354 .0261628
911.005 .0261485
911.656 .0261344
912.306 .0261204
912.956 .0261066
913.605 .0260930
914.254 .0260798
914.903 .0260670
915.551 .0260546
916.199 .0260427
916.847 .0260313
917.494 .0260203
918.141 .0260097
918.788 .0259996
919.434 .0259898
920.079 .0259805
920.725 .0259715
921.370 .0259628
922.014 .0259545
922.658 .0259465
923.302 .0259387
923.946 .0259311
924.589 .0259237
925.231 .0259164
925.873 .0259093
926.515 .0259022
927.157 .0258953
927.798 .0258884
928.439 .0258817
929.079 .0258752
929.719 .0258688
930.359 .0258627
930.998 .0258569
931.637 .0258514
932.275 .0258464
932.913 .0258418
933.551 .0258377
934.188 .0258343
934.825 .0258316
935.462 .0258296
936.098 .0258284
936.733 .0258280
937.369 .0258283
938.004 .0258295
938.638 .0258314
939.273 .0258341
939.907 .0258376
940.540 .0258418
941.173 .0258469
941.806 .0258527
942.438 .0258592
943.070 .0258664
943.702 .0258742
944.333 .0258824
944.964 .0258911
945.594 .0259001
946.224 .0259094
946.854 .0259188
947.483 .0259284
948.112 .0259380
948.741 .0259477
949.369 .0259574
949.996 .0259670
950.624 .0259766
951.251 .0259860
951.878 .0259951
952.504 .0260040
953.130 .0260126
953.755 .0260209
954.380 .0260289
955.005 .0260366
955.629 .0260440
956.253 .0260511
956.877 .0260579
957.500 .0260645
958.123 .0260707
958.746 .0260766
959.368 .0260821
959.990 .0260873
960.611 .0260921
961.232 .0260967
961.853 .0261012
962.473 .0261054
963.093 .0261095
963.712 .0261134
964.331 .0261170
964.950 .0261203
965.569 .0261233
966.187 .0261259
966.804 .0261280
967.422 .0261297
968.039 .0261310
968.655 .0261319
969.272 .0261324
969.887 .0261326
970.503 .0261323
971.118 .0261316
971.733 .0261303
972.347 .0261284
972.961 .0261259
973.575 .0261227
974.188 .0261189
974.801 .0261144
975.414 .0261093
976.026 .0261035
976.638 .0260971
977.250 .0260901
977.861 .0260824
978.472 .0260740
979.083 .0260648
979.693 .0260550
980.303 .0260446
980.912 .0260263
981.521 .0260144
982.130 .0260020
982.738 .0259892
983.346 .0259759
983.954 .0259624
984.562 .0259485
985.169 .0259344
985.775 .0259200
986.382 .0259056
986.988 .0258910
987.594 .0258763
988.199 .0258617
988.804 .0258471
989.409 .0258401
990.013 .0258256
990.617 .0258111
991.221 .0257967
991.824 .0257825
992.427 .0257684
993.030 .0257544
993.632 .0257404
994.234 .0257265
994.836 .0257125
995.438 .0256985
996.039 .0256845
996.640 .0256705
997.240 .0256566
997.840 .0256428
998.440 .0256292
999.040 .0256159
999.639 .0256028
1000.238 .0255900
1000.836 .0255775
1001.435 .0255650
1002.033 .0255526
1002.630 .0255400
1003.228 .0255273
1003.825 .0255144
1004.422 .0255012
1005.018 .0254879
1005.614 .0254745
1006.210 .0254610
1006.806 .0254473
1007.401 .0254336
1007.996 .0254197
1008.591 .0254057
1009.186 .0253914
1009.780 .0253770
1010.374 .0253624
1010.967 .0253477
1011.561 .0253331
1012.154 .0253188
1012.746 .0253049
1013.339 .0252915
1013.931 .0252787
1014.523 .0252664
1015.115 .0252547
1015.706 .0252433
1016.298 .0252323
1016.888 .0252216
1017.479 .0252112
1018.069 .0252011
1018.660 .0251913
1019.250 .0251820
1019.839 .0251730
1020.429 .0251646
1021.018 .0251566
1021.607 .0251491
1022.195 .0251418
1022.784 .0251348
1023.372 .0251280
1023.960 .0251215
1024.547 .0251151
1025.135 .0251090
1025.722 .0251032
1026.309 .0250976
1026.896 .0250923
1027.483 .0250871
1028.069 .0250820
1028.655 .0250769
1029.241 .0250717
1029.827 .0250662
1030.412 .0250604
1030.997 .0250543
1031.582 .0250479
1032.167 .0250413
1032.752 .0250345
1033.336 .0250275
1033.921 .0250203
1034.505 .0250129
1035.089 .0250053
1035.672 .0249974
1036.256 .0249894
1036.839 .0249810
1037.422 .0249724
1038.005 .0249635
1038.588 .0249544
1039.171 .0249451
1039.753 .0249355
1040.335 .0249258
1040.918 .0249159
1041.500 .0249058
1042.081 .0248955
1042.663 .0248851
1043.244 .0248745
1043.826 .0248637
1044.407 .0248528
1044.988 .0248416
1045.569 .0248303
1046.150 .0248188
1046.730 .0248071
1047.311 .0247954
1047.891 .0247836
1048.471 .0247718
1049.052 .0247600
1049.632 .0247482
1050.211 .0247364
1050.791 .0247245
1051.371 .0247126
1051.950 .0247005
1052.530 .0246883
1053.109 .0246759
1053.688 .0246636
1054.268 .0246512
1054.847 .0246391
1055.426 .0246273
1056.005 .0246158
1056.583 .0246048
1057.162 .0245941
1057.741 .0245837
1058.319 .0245735
1058.898 .0245635
1059.476 .0245537
1060.055 .0245439
1060.633 .0245344
1061.211 .0245250
1061.790 .0245158
1062.368 .0245070
1062.946 .0244985
1063.524 .0244901
1064.102 .0244820
1064.680 .0244741
1065.258 .0244665
1065.836 .0244591
1066.414 .0244521
1066.992 .0244455
1067.570 .0244395
1068.148 .0244342
1068.726 .0244298
1069.304 .0244262
1069.882 .0244237
1070.460 .0244222
1071.038 .0244216
1071.616 .0244220
1072.194 .0244234
1072.772 .0244255
1073.350 .0244284
1073.928 .0244320
1074.506 .0244361
1075.084 .0244408
1075.662 .0244460
1076.240 .0244518
1076.819 .0244582
1077.397 .0244652
1077.976 .0244729
1078.554 .0244815
1079.133 .0244909
1079.711 .0245011
1080.290 .0245121
1080.869 .0245237
1081.448 .0245357
1082.027 .0245481
1082.606 .0245609
1083.185 .0245739
1083.764 .0245873
1084.343 .0246011
1084.923 .0246154
1085.502 .0246301
1086.082 .0246454
1086.662 .0246613
1087.242 .0246775
1087.822 .0246941
1088.402 .0247109
1088.983 .0247279
1089.563 .0247451
1090.144 .0247627
1090.725 .0247808
1091.306 .0247996
1091.887 .0248192
1092.469 .0248398
1093.050 .0248615
1093.632 .0248843
1094.214 .0249080
1094.796 .0249326
1095.379 .0249579
1095.961 .0249837
1096.544 .0250099
1097.127 .0250364
1097.710 .0250633
1098.294 .0250906
1098.877 .0251182
1099.461 .0251463
1100.046 .0251749
1100.630 .0252040
1101.215 .0252336
1101.800 .0252639
1102.385 .0252947
1102.970 .0253261
1103.556 .0253581
1104.142 .0253907
1104.728 .0254240
1105.315 .0254580
1105.902 .0254928
1106.489 .0255283
1107.077 .0255648
1107.664 .0256023
1108.253 .0256407
1108.841 .0256803
1109.430 .0257208
1110.019 .0257621
1110.609 .0258042
1111.198 .0258470
1111.789 .0258904
1112.379 .0259345
1112.970 .0259793
1113.561 .0260251
1114.153 .0260719
1114.745 .0261201
1115.338 .0261697
1115.931 .0262209
1116.524 .0262736
1117.117 .0263277
1117.712 .0263831
1118.306 .0264395
1118.901 .0264966
1119.496 .0265546
1120.092 .0266136
1120.689 .0266735
1121.285 .0267347
1121.882 .0267974
1122.480 .0268616
1123.078 .0269275
1123.677 .0269947
1124.276 .0270632
1124.875 .0271328
1125.476 .0272030
1126.076 .0272739
1126.677 .0273454
1127.279 .0274179
1127.881 .0274915
1128.484 .0275667
1129.087 .0276011
1129.691 .0276793
1130.295 .0277598
1130.900 .0278423
1131.505 .0279269
1132.111 .0280133
1132.718 .0281014
1133.325 .0281915
1133.933 .0282835
1134.541 .0283739
1135.150 .0284715
1135.760 .0285696
1136.370 .0286753
1136.981 .0287343
1137.592 .0288462
1138.204 .0289603
1138.817 .0290729
1139.431 .0291848
1140.045 .0292971
1140.660 .0294099
1141.275 .0295281
1141.891 .0296511
1142.508 .0296748
1143.126 .0299434
1143.744 .0300268
1144.363 .0303054
1144.983 .0304198
