Measurement Sequence started on: 15-12-46-377
Integration time: 28
Scans to Average: 2 
>>>>>Begin Spectral Data<<<<<
432.689 .0000100
433.621 .0000100
434.552 .0000100
435.482 .0000100
436.410 .0000100
437.337 .0000100
438.262 .0293634
439.187 .0621486
440.110 .1029319
441.031 .1487591
441.952 .1177865
442.871 .1228011
443.789 .1274477
444.705 .1318064
445.621 .1359330
446.535 .1398706
447.447 .1421047
448.359 .1424788
449.269 .1405908
450.178 .1361896
451.086 .1293618
451.993 .1206239
452.898 .1108287
453.803 .1009406
454.706 .0917779
455.608 .0838475
456.508 .0773155
457.408 .0729323
458.306 .0695973
459.204 .0669138
460.100 .0646741
460.995 .0627651
461.888 .0611084
462.781 .0596501
463.673 .0583501
464.563 .0571810
465.452 .0561214
466.340 .0551556
467.228 .0542723
468.114 .0534635
468.999 .0527226
469.882 .0520428
470.765 .0514185
471.647 .0508449
472.528 .0503168
473.407 .0498303
474.286 .0493827
475.163 .0489727
476.040 .0485989
476.915 .0482610
477.790 .0479580
478.663 .0476893
479.535 .0474539
480.407 .0472491
481.277 .0470730
482.147 .0469227
483.015 .0467950
483.883 .0466875
484.749 .0465978
485.615 .0465244
486.479 .0464664
487.343 .0464235
488.206 .0463961
489.067 .0463840
489.928 .0463882
490.788 .0464087
491.647 .0464458
492.505 .0465000
493.362 .0465713
494.218 .0466601
495.073 .0467672
495.928 .0469998
496.781 .0471606
497.634 .0473448
498.486 .0475544
499.337 .0477923
500.187 .0480609
501.036 .0483634
501.884 .0487025
502.731 .0490813
503.578 .0495014
504.424 .0498020
505.268 .0502917
506.113 .0508286
506.956 .0514146
507.798 .0520542
508.640 .0527538
509.480 .0535217
510.320 .0543684
511.160 .0553058
511.998 .0563466
512.836 .0575061
513.672 .0587976
514.508 .0602373
515.344 .0618411
516.178 .0636272
517.012 .0656166
517.845 .0678334
518.677 .0702996
519.508 .0730361
520.339 .0760537
521.169 .0793600
521.998 .0829328
522.826 .0867391
523.654 .0907266
524.481 .0948283
525.307 .0989688
526.133 .1030636
526.958 .1070264
527.782 .1107769
528.605 .1142384
529.428 .1173461
530.250 .1200402
531.072 .1222828
531.892 .1240386
532.712 .1252849
533.532 .1260096
534.350 .1262045
535.168 .1258660
535.986 .1249975
536.802 .1236018
537.618 .1216903
538.434 .1192757
539.249 .1163969
540.063 .1131042
540.876 .1094620
541.689 .1055474
542.501 .1014418
543.313 .0972308
544.124 .0929992
544.934 .0888220
545.744 .0847691
546.553 .0808973
547.361 .0772556
548.169 .0738711
548.976 .0707666
549.783 .0679505
550.589 .0654176
551.395 .0631552
552.200 .0611419
553.004 .0593502
553.808 .0577533
554.611 .0563261
555.414 .0550455
556.216 .0538915
557.018 .0528440
557.819 .0518873
558.619 .0510076
559.419 .0501933
560.218 .0494352
561.017 .0487248
561.815 .0480559
562.613 .0474220
563.410 .0468164
564.207 .0462337
565.003 .0456692
565.799 .0451180
566.594 .0445767
567.388 .0440433
568.182 .0435165
568.976 .0429957
569.769 .0424815
570.562 .0419751
571.354 .0414780
572.145 .0409912
572.936 .0405161
573.727 .0400530
574.517 .0396028
575.307 .0391659
576.096 .0387430
576.885 .0383350
577.673 .0379430
578.461 .0375676
579.248 .0372099
580.035 .0368705
580.821 .0365500
581.607 .0362488
582.392 .0359670
583.177 .0357040
583.962 .0354593
584.746 .0352318
585.529 .0350205
586.313 .0348240
587.095 .0346414
587.878 .0344712
588.660 .0343128
589.441 .0341653
590.222 .0340278
591.003 .0338998
591.783 .0337807
592.563 .0336699
593.342 .0335666
594.121 .0334699
594.899 .0333790
595.678 .0332931
596.455 .0332116
597.233 .0331340
598.009 .0330598
598.786 .0329888
599.562 .0329207
600.338 .0328553
601.113 .0327925
601.888 .0327064
602.663 .0326495
603.437 .0325948
604.211 .0325422
604.984 .0324916
605.757 .0324430
606.530 .0323963
607.302 .0323515
608.074 .0323086
608.845 .0322674
609.616 .0322281
610.387 .0322129
611.158 .0321763
611.928 .0321415
612.697 .0321085
613.467 .0320773
614.236 .0320479
615.004 .0320202
615.773 .0319938
616.541 .0319686
617.308 .0319446
618.076 .0319213
618.843 .0318989
619.609 .0318770
620.375 .0318556
621.141 .0318346
621.907 .0318140
622.672 .0317937
623.437 .0317736
624.202 .0317535
624.966 .0317332
625.730 .0317127
626.493 .0316919
627.257 .0316709
628.020 .0316495
628.782 .0316278
629.545 .0316059
630.307 .0315836
631.068 .0315613
631.830 .0315387
632.591 .0315160
633.352 .0314933
634.112 .0314705
634.872 .0314476
635.632 .0314249
636.392 .0314022
637.151 .0313798
637.910 .0313575
638.668 .0313355
639.427 .0313137
640.185 .0312923
640.943 .0312712
641.700 .0312506
642.457 .0312305
643.214 .0312109
643.971 .0311919
644.727 .0311733
645.483 .0311552
646.239 .0311375
646.994 .0311202
647.750 .0311030
648.505 .0310861
649.259 .0310692
650.014 .0310523
650.768 .0310353
651.521 .0310181
652.275 .0310007
653.028 .0309830
653.781 .0309648
654.534 .0309461
655.286 .0309268
656.039 .0309070
656.791 .0308864
657.542 .0308651
658.294 .0308431
659.045 .0308203
659.796 .0307968
660.546 .0307726
661.297 .0307477
662.047 .0307221
662.796 .0306959
663.546 .0306690
664.295 .0306415
665.044 .0306136
665.793 .0305854
666.542 .0305569
667.290 .0305284
668.038 .0305000
668.786 .0304717
669.533 .0304436
670.281 .0304160
671.028 .0303887
671.774 .0303618
672.521 .0303354
673.267 .0303095
674.013 .0302840
674.759 .0302589
675.505 .0302342
676.250 .0302100
676.995 .0301860
677.740 .0301624
678.484 .0301391
679.229 .0301162
679.973 .0300935
680.717 .0300711
681.460 .0300491
682.204 .0300273
682.947 .0300058
683.690 .0299845
684.433 .0299634
685.175 .0299423
685.917 .0299214
686.659 .0299006
687.401 .0298799
688.142 .0298595
688.884 .0298392
689.625 .0298192
690.365 .0297995
691.106 .0297801
691.846 .0297610
692.586 .0297420
693.326 .0297232
694.066 .0297045
694.805 .0296860
695.545 .0296675
696.284 .0296492
697.022 .0296310
697.761 .0296129
698.499 .0295950
699.237 .0295772
699.975 .0295594
700.713 .0295419
701.450 .0295244
702.187 .0295072
702.924 .0294902
703.661 .0294733
704.397 .0294566
705.133 .0294401
705.869 .0294237
706.605 .0294073
707.341 .0293908
708.076 .0293744
708.811 .0293581
709.546 .0293419
710.281 .0293258
711.015 .0293100
711.749 .0292945
712.483 .0292792
713.217 .0292641
713.950 .0292492
714.684 .0292344
715.417 .0292197
716.150 .0292050
716.882 .0291903
717.615 .0291756
718.347 .0291611
719.079 .0291467
719.811 .0291324
720.542 .0291183
721.273 .0291044
722.005 .0290908
722.735 .0290774
723.466 .0290642
724.196 .0290515
724.927 .0290391
725.656 .0290272
726.386 .0290157
727.116 .0290047
727.845 .0289943
728.574 .0289844
729.303 .0289751
730.031 .0289664
730.760 .0289583
731.488 .0289508
732.216 .0289438
732.944 .0289373
733.671 .0289313
734.398 .0289257
735.125 .0289203
735.852 .0289152
736.579 .0289101
737.305 .0289051
738.031 .0289001
738.757 .0288950
739.483 .0288899
740.208 .0288847
740.933 .0288793
741.658 .0288736
742.383 .0288677
743.108 .0288613
743.832 .0288545
744.556 .0288471
745.280 .0288393
746.004 .0288308
746.727 .0288219
747.450 .0288125
748.173 .0288026
748.896 .0287924
749.618 .0287817
750.340 .0287706
751.062 .0287591
751.784 .0287472
752.506 .0287348
753.227 .0287219
753.948 .0287087
754.669 .0286950
755.389 .0286810
756.110 .0286667
756.830 .0286520
757.550 .0286372
758.269 .0286220
758.989 .0286067
759.708 .0285911
760.427 .0285753
761.146 .0285593
761.864 .0285430
762.582 .0285263
763.300 .0285094
764.018 .0284923
764.736 .0284748
765.453 .0284572
766.170 .0284394
766.887 .0284214
767.603 .0284034
768.320 .0283855
769.036 .0283676
769.751 .0283499
770.467 .0283324
771.182 .0283150
771.897 .0282979
772.612 .0282809
773.327 .0282642
774.041 .0282478
774.755 .0282316
775.469 .0282158
776.183 .0282003
776.896 .0281853
777.609 .0281708
778.322 .0281567
779.035 .0281432
779.747 .0281300
780.459 .0281171
781.171 .0281045
781.882 .0280921
782.594 .0280797
783.305 .0280674
784.016 .0280551
784.726 .0280427
785.436 .0280301
786.147 .0280105
786.856 .0279974
787.566 .0279842
788.275 .0279707
788.984 .0279570
789.693 .0279431
790.401 .0279289
791.110 .0279144
791.818 .0278997
792.525 .0278846
793.233 .0278691
793.940 .0278533
794.647 .0278447
795.353 .0278286
796.060 .0278123
796.766 .0277958
797.472 .0277791
798.177 .0277622
798.883 .0277451
799.588 .0277278
800.292 .0277103
800.997 .0276925
801.701 .0276745
802.405 .0276563
803.109 .0276380
803.812 .0276195
804.515 .0276010
805.218 .0275825
805.921 .0275639
806.623 .0275454
807.325 .0275268
808.027 .0275083
808.728 .0274898
809.429 .0274714
810.130 .0274531
810.831 .0274350
811.531 .0274172
812.231 .0273997
812.931 .0273825
813.630 .0273656
814.330 .0273490
815.029 .0273329
815.727 .0273172
816.426 .0273021
817.124 .0272876
817.821 .0272737
818.519 .0272606
819.216 .0272484
819.913 .0272369
820.609 .0272262
821.306 .0272164
822.002 .0272073
822.697 .0271991
823.393 .0271916
824.088 .0271850
824.783 .0271793
825.477 .0271744
826.171 .0271702
826.865 .0271668
827.559 .0271642
828.252 .0271621
828.945 .0271607
829.638 .0271598
830.330 .0271595
831.023 .0271597
831.714 .0271604
832.406 .0271615
833.097 .0271630
833.788 .0271649
834.479 .0271670
835.169 .0271695
835.859 .0271722
836.548 .0271751
837.238 .0271783
837.927 .0271817
838.615 .0271854
839.304 .0271892
839.992 .0271929
840.680 .0271966
841.367 .0272001
842.054 .0272032
842.741 .0272059
843.428 .0272082
844.114 .0272102
844.800 .0272118
845.485 .0272131
846.170 .0272140
846.855 .0272146
847.540 .0272146
848.224 .0272141
848.908 .0272130
849.592 .0272112
850.275 .0272088
850.958 .0272058
851.641 .0272023
852.323 .0271984
853.005 .0271942
853.687 .0271898
854.368 .0271851
855.049 .0271801
855.730 .0271748
856.410 .0271693
857.090 .0271636
857.769 .0271578
858.449 .0271519
859.128 .0271460
859.806 .0271403
860.485 .0271348
861.163 .0271295
861.840 .0271243
862.518 .0271192
863.195 .0271143
863.871 .0271093
864.548 .0271045
865.224 .0270997
865.899 .0270952
866.574 .0270908
867.249 .0270867
867.924 .0270828
868.598 .0270792
869.272 .0270756
869.946 .0270722
870.619 .0270687
871.292 .0270652
871.964 .0270616
872.636 .0270580
873.308 .0270544
873.979 .0270508
874.651 .0270471
875.321 .0270433
875.992 .0270395
876.662 .0270356
877.331 .0270316
878.001 .0270274
878.670 .0270229
879.338 .0270184
880.007 .0270136
880.675 .0270088
881.342 .0270039
882.009 .0269990
882.676 .0269941
883.343 .0269893
884.009 .0269846
884.675 .0269800
885.340 .0269755
886.005 .0269710
886.670 .0269667
887.334 .0269624
887.998 .0269582
888.662 .0269541
889.325 .0269500
889.988 .0269460
890.650 .0269421
891.312 .0269382
891.974 .0269343
892.636 .0269303
893.297 .0269263
893.957 .0269220
894.618 .0269175
895.278 .0269127
895.937 .0269075
896.596 .0269018
897.255 .0268956
897.914 .0268888
898.572 .0268813
899.230 .0268731
899.887 .0268641
900.544 .0268542
901.201 .0268433
901.857 .0268218
902.513 .0268080
903.168 .0267929
903.823 .0267766
904.478 .0267592
905.132 .0267406
905.786 .0267209
906.440 .0267001
907.093 .0266783
907.746 .0266556
908.399 .0266320
909.051 .0266077
909.703 .0265826
910.354 .0265688
911.005 .0265432
911.656 .0265173
912.306 .0264912
912.956 .0264649
913.605 .0264386
914.254 .0264123
914.903 .0263861
915.551 .0263599
916.199 .0263337
916.847 .0263076
917.494 .0262815
918.141 .0262554
918.788 .0262293
919.434 .0262032
920.079 .0261772
920.725 .0261511
921.370 .0261250
922.014 .0260989
922.658 .0260726
923.302 .0260462
923.946 .0260197
924.589 .0259929
925.231 .0259660
925.873 .0259389
926.515 .0259116
927.157 .0258842
927.798 .0258567
928.439 .0258292
929.079 .0258018
929.719 .0257744
930.359 .0257471
930.998 .0257199
931.637 .0256928
932.275 .0256658
932.913 .0256391
933.551 .0256127
934.188 .0255866
934.825 .0255609
935.462 .0255357
936.098 .0255111
936.733 .0254871
937.369 .0254637
938.004 .0254410
938.638 .0254190
939.273 .0253976
939.907 .0253771
940.540 .0253573
941.173 .0253382
941.806 .0253200
942.438 .0253025
943.070 .0252857
943.702 .0252696
944.333 .0252540
944.964 .0252390
945.594 .0252243
946.224 .0252100
946.854 .0251959
947.483 .0251821
948.112 .0251683
948.741 .0251547
949.369 .0251412
949.996 .0251277
950.624 .0251144
951.251 .0251010
951.878 .0250877
952.504 .0250745
953.130 .0250613
953.755 .0250481
954.380 .0250351
955.005 .0250222
955.629 .0250095
956.253 .0249969
956.877 .0249845
957.500 .0249723
958.123 .0249603
958.746 .0249485
959.368 .0249370
959.990 .0249257
960.611 .0249148
961.232 .0249041
961.853 .0248938
962.473 .0248839
963.093 .0248742
963.712 .0248649
964.331 .0248558
964.950 .0248470
965.569 .0248385
966.187 .0248303
966.804 .0248223
967.422 .0248146
968.039 .0248072
968.655 .0248000
969.272 .0247930
969.887 .0247863
970.503 .0247797
971.118 .0247732
971.733 .0247668
972.347 .0247604
972.961 .0247540
973.575 .0247476
974.188 .0247413
974.801 .0247348
975.414 .0247284
976.026 .0247219
976.638 .0247154
977.250 .0247088
977.861 .0247021
978.472 .0246953
979.083 .0246884
979.693 .0246814
980.303 .0246743
980.912 .0246634
981.521 .0246562
982.130 .0246489
982.738 .0246417
983.346 .0246347
983.954 .0246279
984.562 .0246213
985.169 .0246150
985.775 .0246091
986.382 .0246037
986.988 .0245987
987.594 .0245944
988.199 .0245908
988.804 .0245879
989.409 .0245886
990.013 .0245870
990.617 .0245863
991.221 .0245863
991.824 .0245872
992.427 .0245888
993.030 .0245911
993.632 .0245941
994.234 .0245978
994.836 .0246021
995.438 .0246071
996.039 .0246127
996.640 .0246191
997.240 .0246262
997.840 .0246341
998.440 .0246429
999.040 .0246523
999.639 .0246625
1000.238 .0246734
1000.836 .0246850
1001.435 .0246970
1002.033 .0247096
1002.630 .0247226
1003.228 .0247360
1003.825 .0247496
1004.422 .0247635
1005.018 .0247775
1005.614 .0247915
1006.210 .0248055
1006.806 .0248194
1007.401 .0248331
1007.996 .0248466
1008.591 .0248600
1009.186 .0248731
1009.780 .0248861
1010.374 .0248989
1010.967 .0249117
1011.561 .0249244
1012.154 .0249372
1012.746 .0249502
1013.339 .0249634
1013.931 .0249769
1014.523 .0249907
1015.115 .0250048
1015.706 .0250192
1016.298 .0250338
1016.888 .0250486
1017.479 .0250637
1018.069 .0250790
1018.660 .0250946
1019.250 .0251104
1019.839 .0251266
1020.429 .0251432
1021.018 .0251602
1021.607 .0251776
1022.195 .0251954
1022.784 .0252136
1023.372 .0252321
1023.960 .0252510
1024.547 .0252703
1025.135 .0252900
1025.722 .0253101
1026.309 .0253306
1026.896 .0253514
1027.483 .0253725
1028.069 .0253938
1028.655 .0254150
1029.241 .0254362
1029.827 .0254571
1030.412 .0254776
1030.997 .0254977
1031.582 .0255173
1032.167 .0255363
1032.752 .0255549
1033.336 .0255730
1033.921 .0255907
1034.505 .0256079
1035.089 .0256245
1035.672 .0256407
1036.256 .0256561
1036.839 .0256709
1037.422 .0256849
1038.005 .0256981
1038.588 .0257106
1039.171 .0257222
1039.753 .0257331
1040.335 .0257433
1040.918 .0257528
1041.500 .0257616
1042.081 .0257698
1042.663 .0257773
1043.244 .0257843
1043.826 .0257909
1044.407 .0257972
1044.988 .0258033
1045.569 .0258094
1046.150 .0258155
1046.730 .0258216
1047.311 .0258279
1047.891 .0258344
1048.471 .0258409
1049.052 .0258475
1049.632 .0258542
1050.211 .0258608
1050.791 .0258674
1051.371 .0258738
1051.950 .0258801
1052.530 .0258860
1053.109 .0258916
1053.688 .0258966
1054.268 .0259010
1054.847 .0259049
1055.426 .0259082
1056.005 .0259110
1056.583 .0259134
1057.162 .0259154
1057.741 .0259172
1058.319 .0259189
1058.898 .0259205
1059.476 .0259220
1060.055 .0259234
1060.633 .0259246
1061.211 .0259257
1061.790 .0259265
1062.368 .0259270
1062.946 .0259273
1063.524 .0259273
1064.102 .0259271
1064.680 .0259267
1065.258 .0259260
1065.836 .0259251
1066.414 .0259239
1066.992 .0259224
1067.570 .0259206
1068.148 .0259183
1068.726 .0259157
1069.304 .0259131
1069.882 .0259104
1070.460 .0259081
1071.038 .0259063
1071.616 .0259050
1072.194 .0259043
1072.772 .0259043
1073.350 .0259048
1073.928 .0259056
1074.506 .0259066
1075.084 .0259076
1075.662 .0259084
1076.240 .0259091
1076.819 .0259096
1077.397 .0259100
1077.976 .0259104
1078.554 .0259109
1079.133 .0259113
1079.711 .0259117
1080.290 .0259120
1080.869 .0259121
1081.448 .0259119
1082.027 .0259115
1082.606 .0259108
1083.185 .0259102
1083.764 .0259098
1084.343 .0259098
1084.923 .0259106
1085.502 .0259125
1086.082 .0259154
1086.662 .0259195
1087.242 .0259246
1087.822 .0259307
1088.402 .0259374
1088.983 .0259446
1089.563 .0259521
1090.144 .0259598
1090.725 .0259677
1091.306 .0259758
1091.887 .0259843
1092.469 .0259932
1093.050 .0260027
1093.632 .0260125
1094.214 .0260228
1094.796 .0260332
1095.379 .0260436
1095.961 .0260540
1096.544 .0260643
1097.127 .0260743
1097.710 .0260842
1098.294 .0260940
1098.877 .0261037
1099.461 .0261133
1100.046 .0261227
1100.630 .0261320
1101.215 .0261408
1101.800 .0261491
1102.385 .0261567
1102.970 .0261635
1103.556 .0261695
1104.142 .0261748
1104.728 .0261794
1105.315 .0261836
1105.902 .0261877
1106.489 .0261919
1107.077 .0261966
1107.664 .0262020
1108.253 .0262083
1108.841 .0262156
1109.430 .0262243
1110.019 .0262345
1110.609 .0262463
1111.198 .0262600
1111.789 .0262756
1112.379 .0262936
1112.970 .0263139
1113.561 .0263367
1114.153 .0263622
1114.745 .0263904
1115.338 .0264214
1115.931 .0264552
1116.524 .0264917
1117.117 .0265310
1117.712 .0265729
1118.306 .0266173
1118.901 .0266637
1119.496 .0267119
1120.092 .0267614
1120.689 .0268119
1121.285 .0268634
1121.882 .0269155
1122.480 .0269681
1123.078 .0270212
1123.677 .0270749
1124.276 .0271289
1124.875 .0271833
1125.476 .0272381
1126.076 .0272932
1126.677 .0273488
1127.279 .0274048
1127.881 .0274614
1128.484 .0275194
1129.087 .0275501
1129.691 .0276092
1130.295 .0276703
1130.900 .0277339
1131.505 .0278005
1132.111 .0278704
1132.718 .0279438
1133.325 .0280212
1133.933 .0281029
1134.541 .0281890
1135.150 .0282787
1135.760 .0283725
1136.370 .0284773
1136.981 .0282724
1137.592 .0283850
1138.204 .0285114
1138.817 .0286521
1139.431 .0288087
1140.045 .0289762
1140.660 .0291515
1141.275 .0293383
1141.891 .0295346
1142.508 .0297351
1143.126 .0299118
1143.744 .0300962
1144.363 .0304651
1144.983 .0306840
