Measurement Sequence started on: 15-12-46-377
Integration time: 28
Scans to Average: 2 
>>>>>Begin Spectral Data<<<<<
432.689 .0000100
433.621 .0000100
434.552 .0000100
435.482 .0000100
436.410 .0000100
437.337 .0000100
438.262 .0255179
439.187 .0541467
440.110 .0898301
441.031 .1301374
441.952 .1053741
442.871 .1101810
443.789 .1146686
444.705 .1189026
445.621 .1229291
446.535 .1267828
447.447 .1291474
448.359 .1298783
449.269 .1286223
450.178 .1251491
451.086 .1195257
451.993 .1121920
452.898 .1038813
453.803 .0954278
454.706 .0875444
455.608 .0806753
456.508 .0749732
457.408 .0710987
458.306 .0681092
459.204 .0656672
460.100 .0636024
460.995 .0618207
461.888 .0602595
462.781 .0588755
463.673 .0576366
464.563 .0565191
465.452 .0555053
466.340 .0545791
467.228 .0537296
468.114 .0529483
468.999 .0522287
469.882 .0515657
470.765 .0509551
471.647 .0503942
472.528 .0498808
473.407 .0494130
474.286 .0489889
475.163 .0486071
476.040 .0482658
476.915 .0479623
477.790 .0476940
478.663 .0474585
479.535 .0472533
480.407 .0470765
481.277 .0469258
482.147 .0467989
483.015 .0466941
483.883 .0466094
484.749 .0465432
485.615 .0464944
486.479 .0464617
487.343 .0464444
488.206 .0464424
489.067 .0464553
489.928 .0464833
490.788 .0465262
491.647 .0465847
492.505 .0466594
493.362 .0467507
494.218 .0468599
495.073 .0469886
495.928 .0472647
496.781 .0474558
497.634 .0476737
498.486 .0479194
499.337 .0481947
500.187 .0485003
501.036 .0488371
501.884 .0492063
502.731 .0496099
503.578 .0500499
504.424 .0503490
505.268 .0508527
506.113 .0514014
506.956 .0519993
507.798 .0526511
508.640 .0533627
509.480 .0541422
510.320 .0550002
511.160 .0559483
511.998 .0570010
512.836 .0581748
513.672 .0594876
514.508 .0609606
515.344 .0626155
516.178 .0644746
517.012 .0665616
517.845 .0689004
518.677 .0715126
519.508 .0744176
520.339 .0776276
521.169 .0811488
521.998 .0849620
522.826 .0890358
523.654 .0933187
524.481 .0977430
525.307 .1022322
526.133 .1066966
526.958 .1110421
527.782 .1151801
528.605 .1190276
529.428 .1225121
530.250 .1255678
531.072 .1281507
531.892 .1302202
532.712 .1317493
533.532 .1327207
534.350 .1331232
535.168 .1329549
535.986 .1322190
536.802 .1309181
537.618 .1290605
538.434 .1266586
539.249 .1237486
540.063 .1203774
540.876 .1166087
541.689 .1125202
542.501 .1081973
543.313 .1037337
544.124 .0992255
544.934 .0947580
545.744 .0904077
546.553 .0862367
547.361 .0822969
548.169 .0786164
548.976 .0752167
549.783 .0721051
550.589 .0692781
551.395 .0667240
552.200 .0644221
553.004 .0623474
553.808 .0604770
554.611 .0587883
555.414 .0572602
556.216 .0558712
557.018 .0546024
557.819 .0534371
558.619 .0523607
559.419 .0513602
560.218 .0504252
561.017 .0495459
561.815 .0487154
562.613 .0479283
563.410 .0471797
564.207 .0464657
565.003 .0457831
565.799 .0451281
566.594 .0444978
567.388 .0438898
568.182 .0433026
568.976 .0427348
569.769 .0421858
570.562 .0416555
571.354 .0411442
572.145 .0406520
572.936 .0401794
573.727 .0397265
574.517 .0392935
575.307 .0388802
576.096 .0384854
576.885 .0381086
577.673 .0377493
578.461 .0374067
579.248 .0370801
580.035 .0367691
580.821 .0364731
581.607 .0361920
582.392 .0359256
583.177 .0356742
583.962 .0354379
584.746 .0352164
585.529 .0350095
586.313 .0348166
587.095 .0346371
587.878 .0344706
588.660 .0343163
589.441 .0341737
590.222 .0340422
591.003 .0339211
591.783 .0338098
592.563 .0337077
593.342 .0336142
594.121 .0335287
594.899 .0334505
595.678 .0333790
596.455 .0333132
597.233 .0332524
598.009 .0331959
598.786 .0331428
599.562 .0330927
600.338 .0330447
601.113 .0329984
601.888 .0329327
602.663 .0328894
603.437 .0328473
604.211 .0328062
604.984 .0327662
605.757 .0327272
606.530 .0326891
607.302 .0326518
608.074 .0326154
608.845 .0325798
609.616 .0325450
610.387 .0325297
611.158 .0324962
611.928 .0324636
612.697 .0324319
613.467 .0324012
614.236 .0323714
615.004 .0323426
615.773 .0323147
616.541 .0322877
617.308 .0322615
618.076 .0322359
618.843 .0322109
619.609 .0321863
620.375 .0321620
621.141 .0321377
621.907 .0321133
622.672 .0320888
623.437 .0320641
624.202 .0320391
624.966 .0320139
625.730 .0319885
626.493 .0319628
627.257 .0319369
628.020 .0319106
628.782 .0318839
629.545 .0318568
630.307 .0318293
631.068 .0318014
631.830 .0317734
632.591 .0317451
633.352 .0317170
634.112 .0316889
634.872 .0316609
635.632 .0316331
636.392 .0316055
637.151 .0315780
637.910 .0315507
638.668 .0315237
639.427 .0314972
640.185 .0314712
640.943 .0314460
641.700 .0314217
642.457 .0313981
643.214 .0313755
643.971 .0313535
644.727 .0313322
645.483 .0313114
646.239 .0312911
646.994 .0312712
647.750 .0312517
648.505 .0312326
649.259 .0312139
650.014 .0311954
650.768 .0311771
651.521 .0311589
652.275 .0311406
653.028 .0311222
653.781 .0311036
654.534 .0310849
655.286 .0310660
656.039 .0310469
656.791 .0310276
657.542 .0310082
658.294 .0309885
659.045 .0309687
659.796 .0309487
660.546 .0309284
661.297 .0309081
662.047 .0308876
662.796 .0308672
663.546 .0308467
664.295 .0308263
665.044 .0308059
665.793 .0307855
666.542 .0307651
667.290 .0307447
668.038 .0307244
668.786 .0307041
669.533 .0306839
670.281 .0306639
671.028 .0306441
671.774 .0306245
672.521 .0306050
673.267 .0305858
674.013 .0305667
674.759 .0305476
675.505 .0305286
676.250 .0305096
676.995 .0304906
677.740 .0304715
678.484 .0304524
679.229 .0304333
679.973 .0304142
680.717 .0303952
681.460 .0303761
682.204 .0303570
682.947 .0303379
683.690 .0303187
684.433 .0302995
685.175 .0302802
685.917 .0302610
686.659 .0302419
687.401 .0302230
688.142 .0302042
688.884 .0301857
689.625 .0301674
690.365 .0301493
691.106 .0301314
691.846 .0301135
692.586 .0300955
693.326 .0300775
694.066 .0300594
694.805 .0300412
695.545 .0300230
696.284 .0300047
697.022 .0299864
697.761 .0299682
698.499 .0299499
699.237 .0299316
699.975 .0299134
700.713 .0298951
701.450 .0298767
702.187 .0298583
702.924 .0298400
703.661 .0298216
704.397 .0298033
705.133 .0297851
705.869 .0297670
706.605 .0297492
707.341 .0297317
708.076 .0297145
708.811 .0296975
709.546 .0296810
710.281 .0296647
711.015 .0296488
711.749 .0296332
712.483 .0296178
713.217 .0296027
713.950 .0295878
714.684 .0295731
715.417 .0295585
716.150 .0295441
716.882 .0295297
717.615 .0295153
718.347 .0295009
719.079 .0294865
719.811 .0294720
720.542 .0294573
721.273 .0294426
722.005 .0294277
722.735 .0294127
723.466 .0293977
724.196 .0293826
724.927 .0293675
725.656 .0293525
726.386 .0293377
727.116 .0293233
727.845 .0293093
728.574 .0292958
729.303 .0292828
730.031 .0292704
730.760 .0292586
731.488 .0292474
732.216 .0292367
732.944 .0292267
733.671 .0292173
734.398 .0292084
735.125 .0292001
735.852 .0291924
736.579 .0291852
737.305 .0291784
738.031 .0291721
738.757 .0291660
739.483 .0291603
740.208 .0291546
740.933 .0291490
741.658 .0291435
742.383 .0291378
743.108 .0291321
743.832 .0291261
744.556 .0291198
745.280 .0291132
746.004 .0291062
746.727 .0290987
747.450 .0290907
748.173 .0290821
748.896 .0290729
749.618 .0290632
750.340 .0290530
751.062 .0290422
751.784 .0290308
752.506 .0290190
753.227 .0290065
753.948 .0289935
754.669 .0289799
755.389 .0289657
756.110 .0289510
756.830 .0289357
757.550 .0289200
758.269 .0289039
758.989 .0288875
759.708 .0288707
760.427 .0288537
761.146 .0288362
761.864 .0288185
762.582 .0288004
763.300 .0287821
764.018 .0287635
764.736 .0287446
765.453 .0287256
766.170 .0287064
766.887 .0286872
767.603 .0286680
768.320 .0286488
769.036 .0286298
769.751 .0286110
770.467 .0285926
771.182 .0285746
771.897 .0285570
772.612 .0285400
773.327 .0285234
774.041 .0285073
774.755 .0284917
775.469 .0284766
776.183 .0284619
776.896 .0284478
777.609 .0284344
778.322 .0284215
779.035 .0284094
779.747 .0283979
780.459 .0283870
781.171 .0283767
781.882 .0283669
782.594 .0283575
783.305 .0283486
784.016 .0283401
784.726 .0283318
785.436 .0283238
786.147 .0283123
786.856 .0283045
787.566 .0282968
788.275 .0282892
788.984 .0282817
789.693 .0282742
790.401 .0282667
791.110 .0282593
791.818 .0282518
792.525 .0282444
793.233 .0282368
793.940 .0282291
794.647 .0282250
795.353 .0282171
796.060 .0282091
796.766 .0282009
797.472 .0281926
798.177 .0281841
798.883 .0281754
799.588 .0281666
800.292 .0281576
800.997 .0281483
801.701 .0281388
802.405 .0281291
803.109 .0281191
803.812 .0281089
804.515 .0280985
805.218 .0280879
805.921 .0280770
806.623 .0280660
807.325 .0280547
808.027 .0280431
808.728 .0280314
809.429 .0280194
810.130 .0280073
810.831 .0279951
811.531 .0279828
812.231 .0279704
812.931 .0279581
813.630 .0279459
814.330 .0279338
815.029 .0279219
815.727 .0279102
816.426 .0278988
817.124 .0278878
817.821 .0278772
818.519 .0278672
819.216 .0278576
819.913 .0278487
820.609 .0278403
821.306 .0278325
822.002 .0278254
822.697 .0278189
823.393 .0278130
824.088 .0278079
824.783 .0278033
825.477 .0277994
826.171 .0277959
826.865 .0277930
827.559 .0277905
828.252 .0277883
828.945 .0277865
829.638 .0277849
830.330 .0277836
831.023 .0277826
831.714 .0277817
832.406 .0277810
833.097 .0277804
833.788 .0277799
834.479 .0277793
835.169 .0277788
835.859 .0277781
836.548 .0277773
837.238 .0277764
837.927 .0277752
838.615 .0277739
839.304 .0277722
839.992 .0277701
840.680 .0277677
841.367 .0277649
842.054 .0277616
842.741 .0277578
843.428 .0277535
844.114 .0277487
844.800 .0277433
845.485 .0277373
846.170 .0277307
846.855 .0277234
847.540 .0277153
848.224 .0277065
848.908 .0276969
849.592 .0276865
850.275 .0276754
850.958 .0276634
851.641 .0276507
852.323 .0276373
853.005 .0276231
853.687 .0276082
854.368 .0275927
855.049 .0275765
855.730 .0275598
856.410 .0275425
857.090 .0275249
857.769 .0275069
858.449 .0274885
859.128 .0274699
859.806 .0274512
860.485 .0274323
861.163 .0274133
861.840 .0273942
862.518 .0273752
863.195 .0273563
863.871 .0273376
864.548 .0273191
865.224 .0273009
865.899 .0272829
866.574 .0272653
867.249 .0272479
867.924 .0272309
868.598 .0272143
869.272 .0271981
869.946 .0271824
870.619 .0271670
871.292 .0271521
871.964 .0271376
872.636 .0271235
873.308 .0271097
873.979 .0270964
874.651 .0270834
875.321 .0270708
875.992 .0270585
876.662 .0270466
877.331 .0270349
878.001 .0270235
878.670 .0270124
879.338 .0270014
880.007 .0269906
880.675 .0269800
881.342 .0269696
882.009 .0269594
882.676 .0269496
883.343 .0269400
884.009 .0269308
884.675 .0269219
885.340 .0269134
886.005 .0269052
886.670 .0268972
887.334 .0268896
887.998 .0268822
888.662 .0268752
889.325 .0268685
889.988 .0268622
890.650 .0268561
891.312 .0268502
891.974 .0268446
892.636 .0268392
893.297 .0268338
893.957 .0268286
894.618 .0268235
895.278 .0268185
895.937 .0268135
896.596 .0268087
897.255 .0268039
897.914 .0267991
898.572 .0267942
899.230 .0267890
899.887 .0267836
900.544 .0267778
901.201 .0267716
901.857 .0267605
902.513 .0267532
903.168 .0267455
903.823 .0267374
904.478 .0267289
905.132 .0267199
905.786 .0267104
906.440 .0267006
907.093 .0266902
907.746 .0266795
908.399 .0266685
909.051 .0266571
909.703 .0266456
910.354 .0266393
911.005 .0266277
911.656 .0266160
912.306 .0266043
912.956 .0265925
913.605 .0265806
914.254 .0265688
914.903 .0265568
915.551 .0265449
916.199 .0265329
916.847 .0265209
917.494 .0265088
918.141 .0264966
918.788 .0264844
919.434 .0264720
920.079 .0264595
920.725 .0264469
921.370 .0264341
922.014 .0264212
922.658 .0264081
923.302 .0263948
923.946 .0263814
924.589 .0263678
925.231 .0263540
925.873 .0263401
926.515 .0263261
927.157 .0263121
927.798 .0262981
928.439 .0262842
929.079 .0262705
929.719 .0262570
930.359 .0262439
930.998 .0262312
931.637 .0262189
932.275 .0262070
932.913 .0261956
933.551 .0261847
934.188 .0261745
934.825 .0261649
935.462 .0261561
936.098 .0261481
936.733 .0261410
937.369 .0261346
938.004 .0261289
938.638 .0261240
939.273 .0261195
939.907 .0261156
940.540 .0261121
941.173 .0261090
941.806 .0261063
942.438 .0261039
943.070 .0261017
943.702 .0260998
944.333 .0260980
944.964 .0260962
945.594 .0260943
946.224 .0260922
946.854 .0260897
947.483 .0260868
948.112 .0260835
948.741 .0260798
949.369 .0260757
949.996 .0260712
950.624 .0260662
951.251 .0260608
951.878 .0260549
952.504 .0260486
953.130 .0260417
953.755 .0260344
954.380 .0260267
955.005 .0260189
955.629 .0260109
956.253 .0260030
956.877 .0259951
957.500 .0259874
958.123 .0259799
958.746 .0259725
959.368 .0259653
959.990 .0259583
960.611 .0259516
961.232 .0259452
961.853 .0259390
962.473 .0259332
963.093 .0259276
963.712 .0259223
964.331 .0259173
964.950 .0259123
965.569 .0259074
966.187 .0259025
966.804 .0258974
967.422 .0258922
968.039 .0258868
968.655 .0258811
969.272 .0258751
969.887 .0258688
970.503 .0258621
971.118 .0258549
971.733 .0258472
972.347 .0258390
972.961 .0258300
973.575 .0258205
974.188 .0258102
974.801 .0257993
975.414 .0257878
976.026 .0257756
976.638 .0257628
977.250 .0257494
977.861 .0257354
978.472 .0257207
979.083 .0257054
979.693 .0256895
980.303 .0256730
980.912 .0256465
981.521 .0256290
982.130 .0256111
982.738 .0255931
983.346 .0255751
983.954 .0255571
984.562 .0255393
985.169 .0255217
985.775 .0255043
986.382 .0254872
986.988 .0254705
987.594 .0254543
988.199 .0254385
988.804 .0254233
989.409 .0254175
990.013 .0254035
990.617 .0253902
991.221 .0253776
991.824 .0253658
992.427 .0253547
993.030 .0253443
993.632 .0253344
994.234 .0253249
994.836 .0253159
995.438 .0253073
996.039 .0252990
996.640 .0252912
997.240 .0252838
997.840 .0252768
998.440 .0252702
999.040 .0252640
999.639 .0252580
1000.238 .0252524
1000.836 .0252469
1001.435 .0252417
1002.033 .0252366
1002.630 .0252317
1003.228 .0252271
1003.825 .0252227
1004.422 .0252185
1005.018 .0252144
1005.614 .0252105
1006.210 .0252066
1006.806 .0252028
1007.401 .0251989
1007.996 .0251951
1008.591 .0251913
1009.186 .0251876
1009.780 .0251840
1010.374 .0251807
1010.967 .0251775
1011.561 .0251747
1012.154 .0251721
1012.746 .0251698
1013.339 .0251679
1013.931 .0251663
1014.523 .0251652
1015.115 .0251645
1015.706 .0251644
1016.298 .0251650
1016.888 .0251661
1017.479 .0251680
1018.069 .0251704
1018.660 .0251733
1019.250 .0251768
1019.839 .0251808
1020.429 .0251851
1021.018 .0251898
1021.607 .0251949
1022.195 .0252003
1022.784 .0252061
1023.372 .0252122
1023.960 .0252186
1024.547 .0252253
1025.135 .0252322
1025.722 .0252391
1026.309 .0252462
1026.896 .0252533
1027.483 .0252603
1028.069 .0252672
1028.655 .0252739
1029.241 .0252805
1029.827 .0252870
1030.412 .0252932
1030.997 .0252993
1031.582 .0253052
1032.167 .0253110
1032.752 .0253165
1033.336 .0253220
1033.921 .0253273
1034.505 .0253324
1035.089 .0253374
1035.672 .0253423
1036.256 .0253469
1036.839 .0253514
1037.422 .0253556
1038.005 .0253598
1038.588 .0253638
1039.171 .0253677
1039.753 .0253716
1040.335 .0253754
1040.918 .0253793
1041.500 .0253830
1042.081 .0253867
1042.663 .0253901
1043.244 .0253933
1043.826 .0253962
1044.407 .0253990
1044.988 .0254016
1045.569 .0254043
1046.150 .0254069
1046.730 .0254097
1047.311 .0254127
1047.891 .0254159
1048.471 .0254193
1049.052 .0254228
1049.632 .0254264
1050.211 .0254301
1050.791 .0254339
1051.371 .0254377
1051.950 .0254417
1052.530 .0254458
1053.109 .0254500
1053.688 .0254543
1054.268 .0254587
1054.847 .0254632
1055.426 .0254679
1056.005 .0254728
1056.583 .0254778
1057.162 .0254831
1057.741 .0254885
1058.319 .0254943
1058.898 .0255002
1059.476 .0255064
1060.055 .0255129
1060.633 .0255194
1061.211 .0255262
1061.790 .0255330
1062.368 .0255400
1062.946 .0255472
1063.524 .0255546
1064.102 .0255623
1064.680 .0255702
1065.258 .0255782
1065.836 .0255865
1066.414 .0255948
1066.992 .0256030
1067.570 .0256109
1068.148 .0256186
1068.726 .0256260
1069.304 .0256329
1069.882 .0256395
1070.460 .0256459
1071.038 .0256522
1071.616 .0256584
1072.194 .0256645
1072.772 .0256704
1073.350 .0256760
1073.928 .0256812
1074.506 .0256859
1075.084 .0256899
1075.662 .0256933
1076.240 .0256962
1076.819 .0256986
1077.397 .0257009
1077.976 .0257031
1078.554 .0257054
1079.133 .0257081
1079.711 .0257110
1080.290 .0257142
1080.869 .0257176
1081.448 .0257212
1082.027 .0257248
1082.606 .0257284
1083.185 .0257320
1083.764 .0257357
1084.343 .0257396
1084.923 .0257438
1085.502 .0257485
1086.082 .0257538
1086.662 .0257598
1087.242 .0257667
1087.822 .0257745
1088.402 .0257833
1088.983 .0257930
1089.563 .0258037
1090.144 .0258153
1090.725 .0258279
1091.306 .0258414
1091.887 .0258559
1092.469 .0258715
1093.050 .0258881
1093.632 .0259059
1094.214 .0259248
1094.796 .0259449
1095.379 .0259660
1095.961 .0259878
1096.544 .0260104
1097.127 .0260334
1097.710 .0260567
1098.294 .0260803
1098.877 .0261040
1099.461 .0261279
1100.046 .0261523
1100.630 .0261771
1101.215 .0262027
1101.800 .0262291
1102.385 .0262563
1102.970 .0262844
1103.556 .0263132
1104.142 .0263424
1104.728 .0263717
1105.315 .0264009
1105.902 .0264298
1106.489 .0264585
1107.077 .0264869
1107.664 .0265153
1108.253 .0265438
1108.841 .0265727
1109.430 .0266023
1110.019 .0266324
1110.609 .0266632
1111.198 .0266947
1111.789 .0267267
1112.379 .0267592
1112.970 .0267922
1113.561 .0268256
1114.153 .0268597
1114.745 .0268948
1115.338 .0269309
1115.931 .0269683
1116.524 .0270071
1117.117 .0270472
1117.712 .0270884
1118.306 .0271305
1118.901 .0271731
1119.496 .0272159
1120.092 .0272587
1120.689 .0273015
1121.285 .0273446
1121.882 .0273884
1122.480 .0274332
1123.078 .0274799
1123.677 .0275288
1124.276 .0275804
1124.875 .0276349
1125.476 .0276924
1126.076 .0277530
1126.677 .0278163
1127.279 .0278821
1127.881 .0279504
1128.484 .0280211
1129.087 .0280501
1129.691 .0281242
1130.295 .0282010
1130.900 .0282805
1131.505 .0283628
1132.111 .0284475
1132.718 .0285345
1133.325 .0286235
1133.933 .0287146
1134.541 .0288105
1135.150 .0289013
1135.760 .0289952
1136.370 .0290909
1136.981 .0292159
1137.592 .0293364
1138.204 .0294604
1138.817 .0295818
1139.431 .0297091
1140.045 .0298301
1140.660 .0299464
1141.275 .0300542
1141.891 .0301720
1142.508 .0303654
1143.126 .0302751
1143.744 .0304164
1144.363 .0305171
1144.983 .0310820
