Measurement Sequence started on: 15-12-46-377
Integration time: 28
Scans to Average: 2 
>>>>>Begin Spectral Data<<<<<
432.689 .0000100
433.621 .0000100
434.552 .0000100
435.482 .0000100
436.410 .0000100
437.337 .0000100
438.262 .0278162
439.187 .0589315
440.110 .0976218
441.031 .1412079
441.952 .1127606
442.871 .1177411
443.789 .1223914
444.705 .1267823
445.621 .1309628
446.535 .1349698
447.447 .1373647
448.359 .1379925
449.269 .1364709
450.178 .1325564
451.086 .1263294
451.993 .1182752
452.898 .1091977
453.803 .1000085
454.706 .0914817
455.608 .0840950
456.508 .0780046
457.408 .0739209
458.306 .0708042
459.204 .0682786
460.100 .0661529
460.995 .0643216
461.888 .0627167
462.781 .0612922
463.673 .0600141
464.563 .0588601
465.452 .0578128
466.340 .0568578
467.228 .0559830
468.114 .0551800
468.999 .0544421
469.882 .0537630
470.765 .0531386
471.647 .0525642
472.528 .0520366
473.407 .0515528
474.286 .0511104
475.163 .0507078
476.040 .0503426
476.915 .0500131
477.790 .0497167
478.663 .0494517
479.535 .0492159
480.407 .0490070
481.277 .0488230
482.147 .0486626
483.015 .0485244
483.883 .0484081
484.749 .0483132
485.615 .0482404
486.479 .0481899
487.343 .0481616
488.206 .0481558
489.067 .0481711
489.928 .0482064
490.788 .0482602
491.647 .0483313
492.505 .0484189
493.362 .0485226
494.218 .0486433
495.073 .0487824
495.928 .0490621
496.781 .0492579
497.634 .0494779
498.486 .0497232
499.337 .0499946
500.187 .0502926
501.036 .0506184
501.884 .0509732
502.731 .0513602
503.578 .0517821
504.424 .0520757
505.268 .0525650
506.113 .0531008
506.956 .0536891
507.798 .0543366
508.640 .0550513
509.480 .0558435
510.320 .0567246
511.160 .0577062
511.998 .0588022
512.836 .0600294
513.672 .0614031
514.508 .0629433
515.344 .0646710
516.178 .0666079
517.012 .0687778
517.845 .0712067
518.677 .0739162
519.508 .0769247
520.339 .0802419
521.169 .0838678
521.998 .0877758
522.826 .0919280
523.654 .0962627
524.481 .1007068
525.307 .1051783
526.133 .1095840
526.958 .1138270
527.782 .1178209
528.605 .1214860
529.428 .1247544
530.250 .1275684
531.072 .1298944
531.892 .1317003
532.712 .1329696
533.532 .1336918
534.350 .1338614
535.168 .1334769
535.986 .1325409
536.802 .1310540
537.618 .1290245
538.434 .1264683
539.249 .1234268
540.063 .1199522
540.876 .1161176
541.689 .1120046
542.501 .1076994
543.313 .1032949
544.124 .0988845
544.934 .0945469
545.744 .0903521
546.553 .0863560
547.361 .0826015
548.169 .0791090
548.976 .0758934
549.783 .0729543
550.589 .0702829
551.395 .0678629
552.200 .0656712
553.004 .0636827
553.808 .0618768
554.611 .0602320
555.414 .0587293
556.216 .0573496
557.018 .0560756
557.819 .0548916
558.619 .0537846
559.419 .0527451
560.218 .0517663
561.017 .0508419
561.815 .0499682
562.613 .0491420
563.410 .0483596
564.207 .0476176
565.003 .0469121
565.799 .0462389
566.594 .0455934
567.388 .0449722
568.182 .0443724
568.976 .0437914
569.769 .0432282
570.562 .0426823
571.354 .0421536
572.145 .0416427
572.936 .0411496
573.727 .0406739
574.517 .0402157
575.307 .0397750
576.096 .0393511
576.885 .0389441
577.673 .0385539
578.461 .0381807
579.248 .0378246
580.035 .0374860
580.821 .0371647
581.607 .0368608
582.392 .0365744
583.177 .0363052
583.962 .0360533
584.746 .0358185
585.529 .0356005
586.313 .0353990
587.095 .0352137
587.878 .0350438
588.660 .0348886
589.441 .0347475
590.222 .0346195
591.003 .0345037
591.783 .0343988
592.563 .0343040
593.342 .0342181
594.121 .0341403
594.899 .0340695
595.678 .0340048
596.455 .0339454
597.233 .0338905
598.009 .0338394
598.786 .0337916
599.562 .0337463
600.338 .0337032
601.113 .0336619
601.888 .0336032
602.663 .0335643
603.437 .0335262
604.211 .0334885
604.984 .0334514
605.757 .0334149
606.530 .0333789
607.302 .0333435
608.074 .0333089
608.845 .0332751
609.616 .0332420
610.387 .0332271
611.158 .0331952
611.928 .0331639
612.697 .0331333
613.467 .0331033
614.236 .0330737
615.004 .0330447
615.773 .0330160
616.541 .0329877
617.308 .0329596
618.076 .0329315
618.843 .0329033
619.609 .0328749
620.375 .0328461
621.141 .0328169
621.907 .0327871
622.672 .0327567
623.437 .0327255
624.202 .0326935
624.966 .0326605
625.730 .0326263
626.493 .0325910
627.257 .0325544
628.020 .0325167
628.782 .0324778
629.545 .0324379
630.307 .0323973
631.068 .0323559
631.830 .0323141
632.591 .0322718
633.352 .0322293
634.112 .0321867
634.872 .0321440
635.632 .0321014
636.392 .0320591
637.151 .0320172
637.910 .0319761
638.668 .0319359
639.427 .0318967
640.185 .0318587
640.943 .0318221
641.700 .0317869
642.457 .0317532
643.214 .0317210
643.971 .0316904
644.727 .0316612
645.483 .0316334
646.239 .0316069
646.994 .0315816
647.750 .0315573
648.505 .0315339
649.259 .0315113
650.014 .0314892
650.768 .0314677
651.521 .0314467
652.275 .0314261
653.028 .0314059
653.781 .0313861
654.534 .0313665
655.286 .0313470
656.039 .0313276
656.791 .0313081
657.542 .0312885
658.294 .0312688
659.045 .0312489
659.796 .0312289
660.546 .0312089
661.297 .0311890
662.047 .0311692
662.796 .0311496
663.546 .0311302
664.295 .0311110
665.044 .0310922
665.793 .0310736
666.542 .0310555
667.290 .0310379
668.038 .0310209
668.786 .0310045
669.533 .0309887
670.281 .0309737
671.028 .0309593
671.774 .0309456
672.521 .0309324
673.267 .0309196
674.013 .0309073
674.759 .0308953
675.505 .0308836
676.250 .0308721
676.995 .0308607
677.740 .0308492
678.484 .0308376
679.229 .0308256
679.973 .0308133
680.717 .0308006
681.460 .0307874
682.204 .0307736
682.947 .0307592
683.690 .0307440
684.433 .0307282
685.175 .0307115
685.917 .0306940
686.659 .0306757
687.401 .0306566
688.142 .0306367
688.884 .0306162
689.625 .0305950
690.365 .0305732
691.106 .0305507
691.846 .0305276
692.586 .0305038
693.326 .0304794
694.066 .0304543
694.805 .0304288
695.545 .0304028
696.284 .0303765
697.022 .0303499
697.761 .0303233
698.499 .0302966
699.237 .0302698
699.975 .0302432
700.713 .0302165
701.450 .0301899
702.187 .0301634
702.924 .0301370
703.661 .0301106
704.397 .0300844
705.133 .0300583
705.869 .0300323
706.605 .0300064
707.341 .0299807
708.076 .0299551
708.811 .0299296
709.546 .0299042
710.281 .0298788
711.015 .0298536
711.749 .0298284
712.483 .0298031
713.217 .0297778
713.950 .0297523
714.684 .0297266
715.417 .0297008
716.150 .0296748
716.882 .0296485
717.615 .0296221
718.347 .0295955
719.079 .0295689
719.811 .0295421
720.542 .0295152
721.273 .0294882
722.005 .0294612
722.735 .0294341
723.466 .0294070
724.196 .0293800
724.927 .0293533
725.656 .0293268
726.386 .0293008
727.116 .0292753
727.845 .0292506
728.574 .0292266
729.303 .0292035
730.031 .0291814
730.760 .0291602
731.488 .0291400
732.216 .0291208
732.944 .0291026
733.671 .0290856
734.398 .0290697
735.125 .0290548
735.852 .0290411
736.579 .0290285
737.305 .0290170
738.031 .0290066
738.757 .0289971
739.483 .0289886
740.208 .0289809
740.933 .0289740
741.658 .0289678
742.383 .0289622
743.108 .0289572
743.832 .0289526
744.556 .0289483
745.280 .0289444
746.004 .0289407
746.727 .0289371
747.450 .0289337
748.173 .0289305
748.896 .0289273
749.618 .0289241
750.340 .0289209
751.062 .0289177
751.784 .0289145
752.506 .0289111
753.227 .0289076
753.948 .0289039
754.669 .0288999
755.389 .0288956
756.110 .0288910
756.830 .0288862
757.550 .0288810
758.269 .0288756
758.989 .0288698
759.708 .0288638
760.427 .0288574
761.146 .0288507
761.864 .0288437
762.582 .0288362
763.300 .0288284
764.018 .0288203
764.736 .0288118
765.453 .0288031
766.170 .0287941
766.887 .0287850
767.603 .0287757
768.320 .0287663
769.036 .0287569
769.751 .0287476
770.467 .0287383
771.182 .0287291
771.897 .0287200
772.612 .0287111
773.327 .0287023
774.041 .0286936
774.755 .0286851
775.469 .0286767
776.183 .0286684
776.896 .0286602
777.609 .0286522
778.322 .0286442
779.035 .0286362
779.747 .0286283
780.459 .0286204
781.171 .0286123
781.882 .0286040
782.594 .0285955
783.305 .0285866
784.016 .0285773
784.726 .0285676
785.436 .0285574
786.147 .0285398
786.856 .0285282
787.566 .0285159
788.275 .0285030
788.984 .0284894
789.693 .0284752
790.401 .0284603
791.110 .0284447
791.818 .0284284
792.525 .0284114
793.233 .0283936
793.940 .0283751
794.647 .0283641
795.353 .0283445
796.060 .0283242
796.766 .0283032
797.472 .0282815
798.177 .0282593
798.883 .0282364
799.588 .0282130
800.292 .0281891
800.997 .0281646
801.701 .0281397
802.405 .0281142
803.109 .0280883
803.812 .0280619
804.515 .0280352
805.218 .0280080
805.921 .0279805
806.623 .0279527
807.325 .0279247
808.027 .0278966
808.728 .0278684
809.429 .0278401
810.130 .0278119
810.831 .0277838
811.531 .0277559
812.231 .0277283
812.931 .0277009
813.630 .0276739
814.330 .0276474
815.029 .0276215
815.727 .0275962
816.426 .0275716
817.124 .0275479
817.821 .0275249
818.519 .0275028
819.216 .0274814
819.913 .0274609
820.609 .0274412
821.306 .0274223
822.002 .0274043
822.697 .0273872
823.393 .0273711
824.088 .0273559
824.783 .0273417
825.477 .0273284
826.171 .0273159
826.865 .0273042
827.559 .0272932
828.252 .0272828
828.945 .0272731
829.638 .0272641
830.330 .0272557
831.023 .0272478
831.714 .0272406
832.406 .0272338
833.097 .0272275
833.788 .0272216
834.479 .0272161
835.169 .0272109
835.859 .0272060
836.548 .0272014
837.238 .0271972
837.927 .0271934
838.615 .0271899
839.304 .0271867
839.992 .0271839
840.680 .0271813
841.367 .0271790
842.054 .0271769
842.741 .0271751
843.428 .0271734
844.114 .0271719
844.800 .0271706
845.485 .0271695
846.170 .0271685
846.855 .0271675
847.540 .0271666
848.224 .0271656
848.908 .0271645
849.592 .0271632
850.275 .0271618
850.958 .0271601
851.641 .0271581
852.323 .0271557
853.005 .0271530
853.687 .0271500
854.368 .0271465
855.049 .0271428
855.730 .0271387
856.410 .0271343
857.090 .0271297
857.769 .0271248
858.449 .0271197
859.128 .0271144
859.806 .0271090
860.485 .0271035
861.163 .0270980
861.840 .0270926
862.518 .0270874
863.195 .0270825
863.871 .0270778
864.548 .0270734
865.224 .0270694
865.899 .0270657
866.574 .0270623
867.249 .0270592
867.924 .0270565
868.598 .0270541
869.272 .0270520
869.946 .0270503
870.619 .0270489
871.292 .0270477
871.964 .0270468
872.636 .0270461
873.308 .0270456
873.979 .0270451
874.651 .0270448
875.321 .0270445
875.992 .0270444
876.662 .0270443
877.331 .0270444
878.001 .0270446
878.670 .0270450
879.338 .0270455
880.007 .0270463
880.675 .0270472
881.342 .0270483
882.009 .0270496
882.676 .0270511
883.343 .0270527
884.009 .0270545
884.675 .0270565
885.340 .0270587
886.005 .0270611
886.670 .0270638
887.334 .0270667
887.998 .0270698
888.662 .0270730
889.325 .0270764
889.988 .0270799
890.650 .0270832
891.312 .0270865
891.974 .0270896
892.636 .0270925
893.297 .0270949
893.957 .0270970
894.618 .0270985
895.278 .0270993
895.937 .0270994
896.596 .0270984
897.255 .0270963
897.914 .0270931
898.572 .0270886
899.230 .0270828
899.887 .0270757
900.544 .0270674
901.201 .0270578
901.857 .0270376
902.513 .0270247
903.168 .0270104
903.823 .0269946
904.478 .0269774
905.132 .0269588
905.786 .0269388
906.440 .0269177
907.093 .0268954
907.746 .0268721
908.399 .0268480
909.051 .0268230
909.703 .0267972
910.354 .0267825
911.005 .0267557
911.656 .0267281
912.306 .0266998
912.956 .0266709
913.605 .0266415
914.254 .0266118
914.903 .0265818
915.551 .0265518
916.199 .0265216
916.847 .0264914
917.494 .0264612
918.141 .0264308
918.788 .0264003
919.434 .0263697
920.079 .0263389
920.725 .0263081
921.370 .0262771
922.014 .0262460
922.658 .0262149
923.302 .0261837
923.946 .0261524
924.589 .0261210
925.231 .0260893
925.873 .0260574
926.515 .0260254
927.157 .0259931
927.798 .0259608
928.439 .0259285
929.079 .0258962
929.719 .0258640
930.359 .0258321
930.998 .0258004
931.637 .0257689
932.275 .0257377
932.913 .0257068
933.551 .0256763
934.188 .0256462
934.825 .0256165
935.462 .0255873
936.098 .0255587
936.733 .0255308
937.369 .0255035
938.004 .0254769
938.638 .0254511
939.273 .0254260
939.907 .0254017
940.540 .0253782
941.173 .0253555
941.806 .0253337
942.438 .0253126
943.070 .0252923
943.702 .0252728
944.333 .0252540
944.964 .0252358
945.594 .0252183
946.224 .0252014
946.854 .0251850
947.483 .0251691
948.112 .0251536
948.741 .0251384
949.369 .0251236
949.996 .0251089
950.624 .0250944
951.251 .0250799
951.878 .0250655
952.504 .0250511
953.130 .0250366
953.755 .0250222
954.380 .0250078
955.005 .0249935
955.629 .0249793
956.253 .0249652
956.877 .0249511
957.500 .0249371
958.123 .0249233
958.746 .0249095
959.368 .0248960
959.990 .0248828
960.611 .0248699
961.232 .0248577
961.853 .0248459
962.473 .0248348
963.093 .0248243
963.712 .0248143
964.331 .0248049
964.950 .0247961
965.569 .0247877
966.187 .0247799
966.804 .0247727
967.422 .0247660
968.039 .0247598
968.655 .0247542
969.272 .0247490
969.887 .0247443
970.503 .0247399
971.118 .0247360
971.733 .0247322
972.347 .0247288
972.961 .0247256
973.575 .0247227
974.188 .0247200
974.801 .0247174
975.414 .0247150
976.026 .0247127
976.638 .0247104
977.250 .0247080
977.861 .0247055
978.472 .0247029
979.083 .0247003
979.693 .0246975
980.303 .0246948
980.912 .0246907
981.521 .0246884
982.130 .0246862
982.738 .0246843
983.346 .0246826
983.954 .0246812
984.562 .0246803
985.169 .0246799
985.775 .0246800
986.382 .0246807
986.988 .0246821
987.594 .0246842
988.199 .0246871
988.804 .0246906
989.409 .0246949
990.013 .0246994
990.617 .0247046
991.221 .0247104
991.824 .0247167
992.427 .0247236
993.030 .0247309
993.632 .0247388
994.234 .0247471
994.836 .0247559
995.438 .0247651
996.039 .0247748
996.640 .0247850
997.240 .0247957
997.840 .0248070
998.440 .0248188
999.040 .0248311
999.639 .0248439
1000.238 .0248572
1000.836 .0248708
1001.435 .0248848
1002.033 .0248990
1002.630 .0249136
1003.228 .0249284
1003.825 .0249433
1004.422 .0249585
1005.018 .0249739
1005.614 .0249893
1006.210 .0250049
1006.806 .0250205
1007.401 .0250362
1007.996 .0250519
1008.591 .0250676
1009.186 .0250834
1009.780 .0250993
1010.374 .0251152
1010.967 .0251311
1011.561 .0251470
1012.154 .0251630
1012.746 .0251790
1013.339 .0251949
1013.931 .0252107
1014.523 .0252265
1015.115 .0252421
1015.706 .0252577
1016.298 .0252731
1016.888 .0252884
1017.479 .0253036
1018.069 .0253186
1018.660 .0253335
1019.250 .0253483
1019.839 .0253630
1020.429 .0253777
1021.018 .0253925
1021.607 .0254073
1022.195 .0254223
1022.784 .0254374
1023.372 .0254527
1023.960 .0254681
1024.547 .0254836
1025.135 .0254991
1025.722 .0255148
1026.309 .0255305
1026.896 .0255462
1027.483 .0255619
1028.069 .0255776
1028.655 .0255933
1029.241 .0256089
1029.827 .0256243
1030.412 .0256394
1030.997 .0256541
1031.582 .0256685
1032.167 .0256823
1032.752 .0256956
1033.336 .0257083
1033.921 .0257204
1034.505 .0257320
1035.089 .0257430
1035.672 .0257534
1036.256 .0257632
1036.839 .0257722
1037.422 .0257805
1038.005 .0257880
1038.588 .0257946
1039.171 .0258004
1039.753 .0258053
1040.335 .0258094
1040.918 .0258127
1041.500 .0258154
1042.081 .0258175
1042.663 .0258192
1043.244 .0258203
1043.826 .0258211
1044.407 .0258214
1044.988 .0258215
1045.569 .0258212
1046.150 .0258206
1046.730 .0258198
1047.311 .0258187
1047.891 .0258174
1048.471 .0258160
1049.052 .0258146
1049.632 .0258131
1050.211 .0258118
1050.791 .0258106
1051.371 .0258096
1051.950 .0258087
1052.530 .0258081
1053.109 .0258075
1053.688 .0258070
1054.268 .0258064
1054.847 .0258058
1055.426 .0258051
1056.005 .0258042
1056.583 .0258033
1057.162 .0258023
1057.741 .0258013
1058.319 .0258002
1058.898 .0257990
1059.476 .0257977
1060.055 .0257960
1060.633 .0257938
1061.211 .0257911
1061.790 .0257879
1062.368 .0257840
1062.946 .0257794
1063.524 .0257742
1064.102 .0257684
1064.680 .0257619
1065.258 .0257548
1065.836 .0257470
1066.414 .0257384
1066.992 .0257290
1067.570 .0257187
1068.148 .0257075
1068.726 .0256956
1069.304 .0256829
1069.882 .0256697
1070.460 .0256561
1071.038 .0256419
1071.616 .0256275
1072.194 .0256128
1072.772 .0255979
1073.350 .0255827
1073.928 .0255674
1074.506 .0255521
1075.084 .0255366
1075.662 .0255213
1076.240 .0255061
1076.819 .0254911
1077.397 .0254766
1077.976 .0254625
1078.554 .0254487
1079.133 .0254354
1079.711 .0254226
1080.290 .0254104
1080.869 .0253987
1081.448 .0253876
1082.027 .0253771
1082.606 .0253672
1083.185 .0253580
1083.764 .0253496
1084.343 .0253421
1084.923 .0253354
1085.502 .0253296
1086.082 .0253247
1086.662 .0253204
1087.242 .0253168
1087.822 .0253138
1088.402 .0253113
1088.983 .0253093
1089.563 .0253075
1090.144 .0253058
1090.725 .0253041
1091.306 .0253024
1091.887 .0253007
1092.469 .0252990
1093.050 .0252971
1093.632 .0252952
1094.214 .0252932
1094.796 .0252912
1095.379 .0252892
1095.961 .0252872
1096.544 .0252853
1097.127 .0252834
1097.710 .0252815
1098.294 .0252798
1098.877 .0252785
1099.461 .0252777
1100.046 .0252777
1100.630 .0252785
1101.215 .0252800
1101.800 .0252821
1102.385 .0252847
1102.970 .0252876
1103.556 .0252908
1104.142 .0252943
1104.728 .0252980
1105.315 .0253021
1105.902 .0253068
1106.489 .0253124
1107.077 .0253192
1107.664 .0253273
1108.253 .0253367
1108.841 .0253471
1109.430 .0253586
1110.019 .0253708
1110.609 .0253838
1111.198 .0253978
1111.789 .0254130
1112.379 .0254298
1112.970 .0254485
1113.561 .0254694
1114.153 .0254928
1114.745 .0255186
1115.338 .0255467
1115.931 .0255770
1116.524 .0256090
1117.117 .0256422
1117.712 .0256764
1118.306 .0257114
1118.901 .0257474
1119.496 .0257843
1120.092 .0258226
1120.689 .0258622
1121.285 .0259032
1121.882 .0259455
1122.480 .0259888
1123.078 .0260330
1123.677 .0260779
1124.276 .0261232
1124.875 .0261690
1125.476 .0262154
1126.076 .0262629
1126.677 .0263120
1127.279 .0263634
1127.881 .0264175
1128.484 .0264746
1129.087 .0265021
1129.691 .0265628
1130.295 .0266261
1130.900 .0266917
1131.505 .0267596
1132.111 .0268297
1132.718 .0269021
1133.325 .0269763
1133.933 .0270518
1134.541 .0271334
1135.150 .0272211
1135.760 .0273036
1136.370 .0273817
1136.981 .0273270
1137.592 .0274431
1138.204 .0275653
1138.817 .0276889
1139.431 .0278165
1140.045 .0279489
1140.660 .0280778
1141.275 .0281990
1141.891 .0282966
1142.508 .0285221
1143.126 .0287470
1143.744 .0286507
1144.363 .0285780
1144.983 .0282406
