Measurement Sequence started on: 15-12-46-377
Integration time: 28
Scans to Average: 2 
>>>>>Begin Spectral Data<<<<<
432.689 .0000100
433.621 .0000100
434.552 .0000100
435.482 .0000100
436.410 .0000100
437.337 .0000100
438.262 .0284731
439.187 .0604880
440.110 .1002761
441.031 .1451942
441.952 .1165194
442.871 .1216473
443.789 .1264044
444.705 .1308662
445.621 .1350871
446.535 .1391079
447.447 .1414611
448.359 .1419845
449.269 .1402906
450.178 .1361253
451.086 .1295676
451.993 .1211133
452.898 .1115870
453.803 .1019251
454.706 .0929265
455.608 .0850899
456.508 .0785870
457.408 .0741544
458.306 .0707409
459.204 .0679628
460.100 .0656289
460.995 .0636313
461.888 .0618971
462.781 .0603737
463.673 .0590221
464.563 .0578134
465.452 .0567253
466.340 .0557388
467.228 .0548409
468.114 .0540223
468.999 .0532756
469.882 .0525952
470.765 .0519764
471.647 .0514147
472.528 .0509068
473.407 .0504476
474.286 .0500335
475.163 .0496609
476.040 .0493262
476.915 .0490273
477.790 .0487622
478.663 .0485300
479.535 .0483300
480.407 .0481613
481.277 .0480226
482.147 .0479117
483.015 .0478259
483.883 .0477622
484.749 .0477181
485.615 .0476914
486.479 .0476807
487.343 .0476851
488.206 .0477056
489.067 .0477428
489.928 .0477985
490.788 .0478743
491.647 .0479711
492.505 .0480891
493.362 .0482280
494.218 .0483871
495.073 .0485654
495.928 .0489078
496.781 .0491382
497.634 .0493915
498.486 .0496697
499.337 .0499754
500.187 .0503116
501.036 .0506805
501.884 .0510834
502.731 .0515223
503.578 .0519989
504.424 .0523144
505.268 .0528534
506.113 .0534372
506.956 .0540704
507.798 .0547589
508.640 .0555111
509.480 .0563362
510.320 .0572460
511.160 .0582534
511.998 .0593729
512.836 .0606214
513.672 .0620175
514.508 .0635820
515.344 .0653371
516.178 .0673071
517.012 .0695177
517.845 .0719920
518.677 .0747516
519.508 .0778133
520.339 .0811898
521.169 .0848846
521.998 .0888805
522.826 .0931466
523.654 .0976322
524.481 .1022689
525.307 .1069755
526.133 .1116552
526.958 .1162059
527.782 .1205269
528.605 .1245236
529.428 .1281142
530.250 .1312307
531.072 .1338272
531.892 .1358677
532.712 .1373326
533.532 .1382095
534.350 .1384918
535.168 .1381825
535.986 .1372859
536.802 .1358079
537.618 .1337566
538.434 .1311450
539.249 .1280087
540.063 .1243947
540.876 .1203674
541.689 .1160048
542.501 .1113975
543.313 .1066450
544.124 .1018500
544.934 .0971091
545.744 .0925102
546.553 .0881246
547.361 .0840067
548.169 .0801860
548.976 .0766797
549.783 .0734872
550.589 .0705969
551.395 .0679905
552.200 .0656422
553.004 .0635254
553.808 .0616173
554.611 .0598954
555.414 .0583416
556.216 .0569353
557.018 .0556571
557.819 .0544884
558.619 .0534131
559.419 .0524152
560.218 .0514828
561.017 .0506058
561.815 .0497766
562.613 .0489894
563.410 .0482405
564.207 .0475259
565.003 .0468428
565.799 .0461880
566.594 .0455577
567.388 .0449491
568.182 .0443602
568.976 .0437885
569.769 .0432330
570.562 .0426933
571.354 .0421696
572.145 .0416622
572.936 .0411718
573.727 .0406985
574.517 .0402424
575.307 .0398041
576.096 .0393830
576.885 .0389790
577.673 .0385924
578.461 .0382230
579.248 .0378706
580.035 .0375355
580.821 .0372173
581.607 .0369164
582.392 .0366328
583.177 .0363666
583.962 .0361179
584.746 .0358861
585.529 .0356709
586.313 .0354714
587.095 .0352868
587.878 .0351159
588.660 .0349574
589.441 .0348105
590.222 .0346743
591.003 .0345482
591.783 .0344315
592.563 .0343239
593.342 .0342245
594.121 .0341326
594.899 .0340473
595.678 .0339675
596.455 .0338924
597.233 .0338211
598.009 .0337529
598.786 .0336873
599.562 .0336238
600.338 .0335622
601.113 .0335025
601.888 .0334184
602.663 .0333628
603.437 .0333090
604.211 .0332569
604.984 .0332064
605.757 .0331575
606.530 .0331102
607.302 .0330642
608.074 .0330195
608.845 .0329761
609.616 .0329341
610.387 .0329170
611.158 .0328776
611.928 .0328399
612.697 .0328040
613.467 .0327700
614.236 .0327379
615.004 .0327078
615.773 .0326795
616.541 .0326529
617.308 .0326279
618.076 .0326041
618.843 .0325815
619.609 .0325599
620.375 .0325392
621.141 .0325193
621.907 .0325000
622.672 .0324812
623.437 .0324627
624.202 .0324443
624.966 .0324258
625.730 .0324071
626.493 .0323879
627.257 .0323682
628.020 .0323480
628.782 .0323271
629.545 .0323055
630.307 .0322831
631.068 .0322599
631.830 .0322360
632.591 .0322114
633.352 .0321862
634.112 .0321605
634.872 .0321344
635.632 .0321080
636.392 .0320814
637.151 .0320547
637.910 .0320279
638.668 .0320010
639.427 .0319739
640.185 .0319467
640.943 .0319194
641.700 .0318922
642.457 .0318650
643.214 .0318379
643.971 .0318111
644.727 .0317843
645.483 .0317577
646.239 .0317312
646.994 .0317047
647.750 .0316781
648.505 .0316516
649.259 .0316250
650.014 .0315985
650.768 .0315720
651.521 .0315457
652.275 .0315195
653.028 .0314933
653.781 .0314669
654.534 .0314404
655.286 .0314134
656.039 .0313861
656.791 .0313583
657.542 .0313301
658.294 .0313015
659.045 .0312727
659.796 .0312437
660.546 .0312146
661.297 .0311854
662.047 .0311560
662.796 .0311265
663.546 .0310969
664.295 .0310672
665.044 .0310374
665.793 .0310076
666.542 .0309779
667.290 .0309485
668.038 .0309193
668.786 .0308904
669.533 .0308619
670.281 .0308339
671.028 .0308064
671.774 .0307794
672.521 .0307530
673.267 .0307272
674.013 .0307020
674.759 .0306776
675.505 .0306538
676.250 .0306305
676.995 .0306079
677.740 .0305857
678.484 .0305639
679.229 .0305427
679.973 .0305219
680.717 .0305016
681.460 .0304819
682.204 .0304626
682.947 .0304435
683.690 .0304247
684.433 .0304059
685.175 .0303870
685.917 .0303679
686.659 .0303486
687.401 .0303291
688.142 .0303093
688.884 .0302894
689.625 .0302695
690.365 .0302495
691.106 .0302296
691.846 .0302098
692.586 .0301899
693.326 .0301702
694.066 .0301507
694.805 .0301313
695.545 .0301122
696.284 .0300935
697.022 .0300751
697.761 .0300572
698.499 .0300398
699.237 .0300229
699.975 .0300066
700.713 .0299909
701.450 .0299756
702.187 .0299609
702.924 .0299466
703.661 .0299328
704.397 .0299193
705.133 .0299062
705.869 .0298933
706.605 .0298807
707.341 .0298682
708.076 .0298558
708.811 .0298434
709.546 .0298310
710.281 .0298185
711.015 .0298060
711.749 .0297933
712.483 .0297804
713.217 .0297673
713.950 .0297538
714.684 .0297399
715.417 .0297256
716.150 .0297109
716.882 .0296956
717.615 .0296800
718.347 .0296638
719.079 .0296473
719.811 .0296304
720.542 .0296132
721.273 .0295958
722.005 .0295780
722.735 .0295600
723.466 .0295419
724.196 .0295235
724.927 .0295051
725.656 .0294866
726.386 .0294680
727.116 .0294494
727.845 .0294309
728.574 .0294123
729.303 .0293939
730.031 .0293754
730.760 .0293570
731.488 .0293387
732.216 .0293203
732.944 .0293019
733.671 .0292835
734.398 .0292651
735.125 .0292467
735.852 .0292283
736.579 .0292098
737.305 .0291913
738.031 .0291728
738.757 .0291542
739.483 .0291356
740.208 .0291170
740.933 .0290983
741.658 .0290795
742.383 .0290607
743.108 .0290417
743.832 .0290226
744.556 .0290033
745.280 .0289838
746.004 .0289640
746.727 .0289440
747.450 .0289237
748.173 .0289032
748.896 .0288824
749.618 .0288612
750.340 .0288399
751.062 .0288183
751.784 .0287965
752.506 .0287746
753.227 .0287524
753.948 .0287302
754.669 .0287078
755.389 .0286852
756.110 .0286625
756.830 .0286396
757.550 .0286166
758.269 .0285936
758.989 .0285706
759.708 .0285476
760.427 .0285247
761.146 .0285020
761.864 .0284795
762.582 .0284572
763.300 .0284351
764.018 .0284132
764.736 .0283917
765.453 .0283706
766.170 .0283499
766.887 .0283298
767.603 .0283102
768.320 .0282914
769.036 .0282732
769.751 .0282560
770.467 .0282396
771.182 .0282243
771.897 .0282100
772.612 .0281968
773.327 .0281848
774.041 .0281739
774.755 .0281641
775.469 .0281555
776.183 .0281481
776.896 .0281417
777.609 .0281363
778.322 .0281320
779.035 .0281287
779.747 .0281264
780.459 .0281250
781.171 .0281246
781.882 .0281251
782.594 .0281263
783.305 .0281282
784.016 .0281306
784.726 .0281334
785.436 .0281364
786.147 .0281410
786.856 .0281438
787.566 .0281465
788.275 .0281491
788.984 .0281516
789.693 .0281538
790.401 .0281557
791.110 .0281574
791.818 .0281587
792.525 .0281595
793.233 .0281600
793.940 .0281599
794.647 .0281586
795.353 .0281578
796.060 .0281566
796.766 .0281549
797.472 .0281529
798.177 .0281505
798.883 .0281478
799.588 .0281446
800.292 .0281410
800.997 .0281371
801.701 .0281326
802.405 .0281278
803.109 .0281226
803.812 .0281171
804.515 .0281111
805.218 .0281048
805.921 .0280980
806.623 .0280906
807.325 .0280827
808.027 .0280742
808.728 .0280652
809.429 .0280556
810.130 .0280455
810.831 .0280350
811.531 .0280241
812.231 .0280131
812.931 .0280018
813.630 .0279902
814.330 .0279785
815.029 .0279664
815.727 .0279541
816.426 .0279416
817.124 .0279288
817.821 .0279159
818.519 .0279030
819.216 .0278900
819.913 .0278771
820.609 .0278643
821.306 .0278517
822.002 .0278393
822.697 .0278271
823.393 .0278151
824.088 .0278034
824.783 .0277920
825.477 .0277807
826.171 .0277698
826.865 .0277591
827.559 .0277486
828.252 .0277382
828.945 .0277280
829.638 .0277179
830.330 .0277078
831.023 .0276977
831.714 .0276875
832.406 .0276772
833.097 .0276666
833.788 .0276558
834.479 .0276447
835.169 .0276333
835.859 .0276215
836.548 .0276093
837.238 .0275967
837.927 .0275837
838.615 .0275701
839.304 .0275559
839.992 .0275412
840.680 .0275259
841.367 .0275099
842.054 .0274934
842.741 .0274764
843.428 .0274588
844.114 .0274408
844.800 .0274224
845.485 .0274035
846.170 .0273840
846.855 .0273641
847.540 .0273434
848.224 .0273221
848.908 .0273001
849.592 .0272774
850.275 .0272539
850.958 .0272299
851.641 .0272053
852.323 .0271803
853.005 .0271548
853.687 .0271291
854.368 .0271030
855.049 .0270767
855.730 .0270502
856.410 .0270234
857.090 .0269965
857.769 .0269695
858.449 .0269425
859.128 .0269155
859.806 .0268885
860.485 .0268617
861.163 .0268351
861.840 .0268088
862.518 .0267827
863.195 .0267570
863.871 .0267317
864.548 .0267068
865.224 .0266825
865.899 .0266588
866.574 .0266358
867.249 .0266135
867.924 .0265919
868.598 .0265711
869.272 .0265509
869.946 .0265316
870.619 .0265130
871.292 .0264952
871.964 .0264783
872.636 .0264623
873.308 .0264472
873.979 .0264331
874.651 .0264201
875.321 .0264080
875.992 .0263969
876.662 .0263868
877.331 .0263774
878.001 .0263688
878.670 .0263609
879.338 .0263537
880.007 .0263473
880.675 .0263416
881.342 .0263367
882.009 .0263327
882.676 .0263297
883.343 .0263276
884.009 .0263265
884.675 .0263262
885.340 .0263268
886.005 .0263281
886.670 .0263301
887.334 .0263328
887.998 .0263360
888.662 .0263399
889.325 .0263443
889.988 .0263493
890.650 .0263549
891.312 .0263610
891.974 .0263676
892.636 .0263745
893.297 .0263817
893.957 .0263893
894.618 .0263969
895.278 .0264048
895.937 .0264127
896.596 .0264206
897.255 .0264285
897.914 .0264363
898.572 .0264440
899.230 .0264515
899.887 .0264586
900.544 .0264653
901.201 .0264716
901.857 .0264787
902.513 .0264837
903.168 .0264882
903.823 .0264921
904.478 .0264955
905.132 .0264982
905.786 .0265003
906.440 .0265015
907.093 .0265020
907.746 .0265016
908.399 .0265005
909.051 .0264988
909.703 .0264964
910.354 .0264938
911.005 .0264909
911.656 .0264876
912.306 .0264839
912.956 .0264799
913.605 .0264756
914.254 .0264710
914.903 .0264661
915.551 .0264610
916.199 .0264557
916.847 .0264503
917.494 .0264447
918.141 .0264390
918.788 .0264331
919.434 .0264271
920.079 .0264209
920.725 .0264145
921.370 .0264079
922.014 .0264010
922.658 .0263938
923.302 .0263864
923.946 .0263787
924.589 .0263708
925.231 .0263626
925.873 .0263541
926.515 .0263454
927.157 .0263364
927.798 .0263272
928.439 .0263177
929.079 .0263081
929.719 .0262984
930.359 .0262885
930.998 .0262784
931.637 .0262682
932.275 .0262579
932.913 .0262474
933.551 .0262367
934.188 .0262258
934.825 .0262149
935.462 .0262038
936.098 .0261927
936.733 .0261816
937.369 .0261704
938.004 .0261592
938.638 .0261481
939.273 .0261370
939.907 .0261259
940.540 .0261150
941.173 .0261042
941.806 .0260936
942.438 .0260832
943.070 .0260729
943.702 .0260628
944.333 .0260529
944.964 .0260429
945.594 .0260329
946.224 .0260228
946.854 .0260125
947.483 .0260020
948.112 .0259912
948.741 .0259800
949.369 .0259685
949.996 .0259566
950.624 .0259441
951.251 .0259312
951.878 .0259178
952.504 .0259038
953.130 .0258892
953.755 .0258742
954.380 .0258586
955.005 .0258427
955.629 .0258263
956.253 .0258095
956.877 .0257924
957.500 .0257749
958.123 .0257571
958.746 .0257389
959.368 .0257204
959.990 .0257017
960.611 .0256827
961.232 .0256635
961.853 .0256441
962.473 .0256246
963.093 .0256048
963.712 .0255850
964.331 .0255649
964.950 .0255448
965.569 .0255246
966.187 .0255043
966.804 .0254839
967.422 .0254635
968.039 .0254430
968.655 .0254224
969.272 .0254017
969.887 .0253808
970.503 .0253597
971.118 .0253384
971.733 .0253169
972.347 .0252950
972.961 .0252728
973.575 .0252503
974.188 .0252273
974.801 .0252039
975.414 .0251801
976.026 .0251560
976.638 .0251314
977.250 .0251066
977.861 .0250815
978.472 .0250561
979.083 .0250307
979.693 .0250050
980.303 .0249793
980.912 .0249408
981.521 .0249153
982.130 .0248898
982.738 .0248645
983.346 .0248394
983.954 .0248145
984.562 .0247899
985.169 .0247658
985.775 .0247420
986.382 .0247187
986.988 .0246959
987.594 .0246736
988.199 .0246519
988.804 .0246307
989.409 .0246220
990.013 .0246017
990.617 .0245821
991.221 .0245631
991.824 .0245448
992.427 .0245272
993.030 .0245104
993.632 .0244943
994.234 .0244788
994.836 .0244639
995.438 .0244495
996.039 .0244357
996.640 .0244223
997.240 .0244094
997.840 .0243970
998.440 .0243850
999.040 .0243736
999.639 .0243627
1000.238 .0243523
1000.836 .0243426
1001.435 .0243335
1002.033 .0243250
1002.630 .0243171
1003.228 .0243099
1003.825 .0243031
1004.422 .0242969
1005.018 .0242912
1005.614 .0242860
1006.210 .0242814
1006.806 .0242773
1007.401 .0242738
1007.996 .0242709
1008.591 .0242686
1009.186 .0242669
1009.780 .0242657
1010.374 .0242651
1010.967 .0242649
1011.561 .0242650
1012.154 .0242655
1012.746 .0242664
1013.339 .0242677
1013.931 .0242694
1014.523 .0242716
1015.115 .0242744
1015.706 .0242778
1016.298 .0242817
1016.888 .0242862
1017.479 .0242910
1018.069 .0242960
1018.660 .0243014
1019.250 .0243069
1019.839 .0243127
1020.429 .0243187
1021.018 .0243252
1021.607 .0243321
1022.195 .0243397
1022.784 .0243480
1023.372 .0243571
1023.960 .0243669
1024.547 .0243773
1025.135 .0243885
1025.722 .0244002
1026.309 .0244125
1026.896 .0244254
1027.483 .0244387
1028.069 .0244525
1028.655 .0244669
1029.241 .0244818
1029.827 .0244971
1030.412 .0245128
1030.997 .0245287
1031.582 .0245447
1032.167 .0245607
1032.752 .0245765
1033.336 .0245921
1033.921 .0246075
1034.505 .0246227
1035.089 .0246377
1035.672 .0246527
1036.256 .0246676
1036.839 .0246825
1037.422 .0246975
1038.005 .0247124
1038.588 .0247274
1039.171 .0247422
1039.753 .0247569
1040.335 .0247714
1040.918 .0247858
1041.500 .0248000
1042.081 .0248140
1042.663 .0248280
1043.244 .0248418
1043.826 .0248557
1044.407 .0248694
1044.988 .0248831
1045.569 .0248968
1046.150 .0249104
1046.730 .0249239
1047.311 .0249374
1047.891 .0249509
1048.471 .0249645
1049.052 .0249784
1049.632 .0249926
1050.211 .0250072
1050.791 .0250222
1051.371 .0250377
1051.950 .0250536
1052.530 .0250699
1053.109 .0250865
1053.688 .0251032
1054.268 .0251201
1054.847 .0251370
1055.426 .0251540
1056.005 .0251711
1056.583 .0251882
1057.162 .0252053
1057.741 .0252225
1058.319 .0252395
1058.898 .0252564
1059.476 .0252731
1060.055 .0252896
1060.633 .0253056
1061.211 .0253213
1061.790 .0253367
1062.368 .0253519
1062.946 .0253668
1063.524 .0253816
1064.102 .0253963
1064.680 .0254108
1065.258 .0254250
1065.836 .0254390
1066.414 .0254526
1066.992 .0254658
1067.570 .0254786
1068.148 .0254911
1068.726 .0255032
1069.304 .0255149
1069.882 .0255265
1070.460 .0255378
1071.038 .0255489
1071.616 .0255599
1072.194 .0255708
1072.772 .0255816
1073.350 .0255922
1073.928 .0256028
1074.506 .0256133
1075.084 .0256237
1075.662 .0256340
1076.240 .0256442
1076.819 .0256544
1077.397 .0256646
1077.976 .0256749
1078.554 .0256853
1079.133 .0256958
1079.711 .0257065
1080.290 .0257173
1080.869 .0257283
1081.448 .0257394
1082.027 .0257506
1082.606 .0257619
1083.185 .0257734
1083.764 .0257850
1084.343 .0257970
1084.923 .0258093
1085.502 .0258219
1086.082 .0258349
1086.662 .0258483
1087.242 .0258620
1087.822 .0258760
1088.402 .0258902
1088.983 .0259045
1089.563 .0259190
1090.144 .0259337
1090.725 .0259484
1091.306 .0259633
1091.887 .0259784
1092.469 .0259935
1093.050 .0260088
1093.632 .0260242
1094.214 .0260397
1094.796 .0260553
1095.379 .0260710
1095.961 .0260867
1096.544 .0261027
1097.127 .0261188
1097.710 .0261351
1098.294 .0261515
1098.877 .0261681
1099.461 .0261849
1100.046 .0262018
1100.630 .0262188
1101.215 .0262359
1101.800 .0262531
1102.385 .0262705
1102.970 .0262879
1103.556 .0263055
1104.142 .0263233
1104.728 .0263412
1105.315 .0263593
1105.902 .0263777
1106.489 .0263963
1107.077 .0264152
1107.664 .0264344
1108.253 .0264539
1108.841 .0264740
1109.430 .0264945
1110.019 .0265157
1110.609 .0265376
1111.198 .0265603
1111.789 .0265839
1112.379 .0266084
1112.970 .0266338
1113.561 .0266600
1114.153 .0266870
1114.745 .0267147
1115.338 .0267429
1115.931 .0267717
1116.524 .0268011
1117.117 .0268309
1117.712 .0268614
1118.306 .0268926
1118.901 .0269246
1119.496 .0269575
1120.092 .0269914
1120.689 .0270266
1121.285 .0270631
1121.882 .0271008
1122.480 .0271400
1123.078 .0271808
1123.677 .0272233
1124.276 .0272677
1124.875 .0273143
1125.476 .0273635
1126.076 .0274153
1126.677 .0274700
1127.279 .0275279
1127.881 .0275893
1128.484 .0276541
1129.087 .0276785
1129.691 .0277476
1130.295 .0278201
1130.900 .0278959
1131.505 .0279751
1132.111 .0280581
1132.718 .0281451
1133.325 .0282368
1133.933 .0283340
1134.541 .0284310
1135.150 .0285385
1135.760 .0286538
1136.370 .0287841
1136.981 .0288086
1137.592 .0289457
1138.204 .0290855
1138.817 .0292228
1139.431 .0293586
1140.045 .0294992
1140.660 .0296459
1141.275 .0298127
1141.891 .0299958
1142.508 .0300186
1143.126 .0303442
1143.744 .0306006
1144.363 .0310655
1144.983 .0311955
