Measurement Sequence started on: 15-12-46-377
Integration time: 28
Scans to Average: 2 
>>>>>Begin Spectral Data<<<<<
432.689 .0000100
433.621 .0000100
434.552 .0000100
435.482 .0000100
436.410 .0000100
437.337 .0000100
438.262 .0259819
439.187 .0552720
440.110 .0917426
441.031 .1329364
441.952 .1079507
442.871 .1129217
443.789 .1175697
444.705 .1219611
445.621 .1261416
446.535 .1301458
447.447 .1326305
448.359 .1334405
449.269 .1322135
450.178 .1287116
451.086 .1229999
451.993 .1155256
452.898 .1070359
453.803 .0983845
454.706 .0903000
455.608 .0832393
456.508 .0773618
457.408 .0733415
458.306 .0702234
459.204 .0676601
460.100 .0654768
460.995 .0635785
461.888 .0619007
462.781 .0604005
463.673 .0590455
464.563 .0578152
465.452 .0566932
466.340 .0556672
467.228 .0547294
468.114 .0538736
468.999 .0530932
469.882 .0523823
470.765 .0517351
471.647 .0511459
472.528 .0506099
473.407 .0501225
474.286 .0496802
475.163 .0492806
476.040 .0489204
476.915 .0485977
477.790 .0483102
478.663 .0480567
479.535 .0478359
480.407 .0476462
481.277 .0474859
482.147 .0473526
483.015 .0472439
483.883 .0471573
484.749 .0470907
485.615 .0470423
486.479 .0470105
487.343 .0469946
488.206 .0469941
489.067 .0470088
489.928 .0470389
490.788 .0470852
491.647 .0471484
492.505 .0472293
493.362 .0473282
494.218 .0474448
495.073 .0475795
495.928 .0478424
496.781 .0480197
497.634 .0482141
498.486 .0484263
499.337 .0486582
500.187 .0489122
501.036 .0491906
501.884 .0494976
502.731 .0498374
503.578 .0502143
504.424 .0504819
505.268 .0509334
506.113 .0514364
506.956 .0519960
507.798 .0526189
508.640 .0533118
509.480 .0540844
510.320 .0549486
511.160 .0559172
511.998 .0570041
512.836 .0582253
513.672 .0595969
514.508 .0611373
515.344 .0628649
516.178 .0647980
517.012 .0669544
517.845 .0693528
518.677 .0720106
519.508 .0749416
520.339 .0781557
521.169 .0816595
521.998 .0854348
522.826 .0894552
523.654 .0936729
524.481 .0980246
525.307 .1024372
526.133 .1068243
526.958 .1110911
527.782 .1151462
528.605 .1189050
529.428 .1222935
530.250 .1252465
531.072 .1277226
531.892 .1296835
532.712 .1311073
533.532 .1319806
534.350 .1322946
535.168 .1320503
535.986 .1312518
536.802 .1299032
537.618 .1280132
538.434 .1255923
539.249 .1226749
540.063 .1193029
540.876 .1155371
541.689 .1114508
542.501 .1071258
543.313 .1026540
544.124 .0981309
544.934 .0936441
545.744 .0892732
546.553 .0850841
547.361 .0811313
548.169 .0774446
548.976 .0740477
549.783 .0709471
550.589 .0681394
551.395 .0656151
552.200 .0633538
553.004 .0613310
553.808 .0595251
554.611 .0579131
555.414 .0564724
556.216 .0551806
557.018 .0540161
557.819 .0529596
558.619 .0519947
559.419 .0511051
560.218 .0502784
561.017 .0495038
561.815 .0487731
562.613 .0480787
563.410 .0474145
564.207 .0467758
565.003 .0461581
565.799 .0455576
566.594 .0449710
567.388 .0443962
568.182 .0438319
568.976 .0432773
569.769 .0427331
570.562 .0422002
571.354 .0416801
572.145 .0411744
572.936 .0406848
573.727 .0402127
574.517 .0397591
575.307 .0393247
576.096 .0389096
576.885 .0385137
577.673 .0381366
578.461 .0377779
579.248 .0374374
580.035 .0371151
580.821 .0368106
581.607 .0365239
582.392 .0362548
583.177 .0360027
583.962 .0357670
584.746 .0355470
585.529 .0353418
586.313 .0351504
587.095 .0349717
587.878 .0348046
588.660 .0346479
589.441 .0345008
590.222 .0343624
591.003 .0342320
591.783 .0341090
592.563 .0339931
593.342 .0338837
594.121 .0337805
594.899 .0336830
595.678 .0335908
596.455 .0335033
597.233 .0334201
598.009 .0333407
598.786 .0332646
599.562 .0331917
600.338 .0331219
601.113 .0330550
601.888 .0329662
602.663 .0329070
603.437 .0328508
604.211 .0327977
604.984 .0327474
605.757 .0326998
606.530 .0326548
607.302 .0326123
608.074 .0325720
608.845 .0325341
609.616 .0324982
610.387 .0324850
611.158 .0324521
611.928 .0324210
612.697 .0323917
613.467 .0323641
614.236 .0323382
615.004 .0323137
615.773 .0322907
616.541 .0322691
617.308 .0322486
618.076 .0322293
618.843 .0322107
619.609 .0321928
620.375 .0321754
621.141 .0321582
621.907 .0321412
622.672 .0321242
623.437 .0321071
624.202 .0320900
624.966 .0320725
625.730 .0320548
626.493 .0320366
627.257 .0320180
628.020 .0319988
628.782 .0319790
629.545 .0319587
630.307 .0319379
631.068 .0319165
631.830 .0318945
632.591 .0318719
633.352 .0318487
634.112 .0318248
634.872 .0318004
635.632 .0317754
636.392 .0317498
637.151 .0317239
637.910 .0316977
638.668 .0316713
639.427 .0316447
640.185 .0316179
640.943 .0315909
641.700 .0315637
642.457 .0315362
643.214 .0315085
643.971 .0314807
644.727 .0314528
645.483 .0314248
646.239 .0313968
646.994 .0313687
647.750 .0313405
648.505 .0313123
649.259 .0312839
650.014 .0312553
650.768 .0312266
651.521 .0311976
652.275 .0311684
653.028 .0311390
653.781 .0311093
654.534 .0310793
655.286 .0310492
656.039 .0310188
656.791 .0309884
657.542 .0309579
658.294 .0309276
659.045 .0308974
659.796 .0308676
660.546 .0308380
661.297 .0308087
662.047 .0307796
662.796 .0307508
663.546 .0307223
664.295 .0306941
665.044 .0306663
665.793 .0306390
666.542 .0306123
667.290 .0305863
668.038 .0305610
668.786 .0305366
669.533 .0305129
670.281 .0304900
671.028 .0304679
671.774 .0304466
672.521 .0304261
673.267 .0304063
674.013 .0303873
674.759 .0303691
675.505 .0303515
676.250 .0303347
676.995 .0303185
677.740 .0303030
678.484 .0302882
679.229 .0302741
679.973 .0302606
680.717 .0302477
681.460 .0302353
682.204 .0302234
682.947 .0302119
683.690 .0302006
684.433 .0301895
685.175 .0301786
685.917 .0301677
686.659 .0301569
687.401 .0301462
688.142 .0301356
688.884 .0301250
689.625 .0301144
690.365 .0301038
691.106 .0300931
691.846 .0300821
692.586 .0300709
693.326 .0300593
694.066 .0300474
694.805 .0300351
695.545 .0300225
696.284 .0300096
697.022 .0299964
697.761 .0299829
698.499 .0299691
699.237 .0299550
699.975 .0299407
700.713 .0299262
701.450 .0299114
702.187 .0298964
702.924 .0298812
703.661 .0298657
704.397 .0298500
705.133 .0298339
705.869 .0298174
706.605 .0298005
707.341 .0297831
708.076 .0297652
708.811 .0297467
709.546 .0297277
710.281 .0297081
711.015 .0296880
711.749 .0296672
712.483 .0296459
713.217 .0296239
713.950 .0296012
714.684 .0295779
715.417 .0295539
716.150 .0295292
716.882 .0295039
717.615 .0294780
718.347 .0294515
719.079 .0294244
719.811 .0293968
720.542 .0293687
721.273 .0293403
722.005 .0293116
722.735 .0292828
723.466 .0292540
724.196 .0292253
724.927 .0291969
725.656 .0291689
726.386 .0291412
727.116 .0291141
727.845 .0290874
728.574 .0290612
729.303 .0290356
730.031 .0290106
730.760 .0289862
731.488 .0289624
732.216 .0289392
732.944 .0289166
733.671 .0288948
734.398 .0288736
735.125 .0288530
735.852 .0288331
736.579 .0288138
737.305 .0287951
738.031 .0287768
738.757 .0287591
739.483 .0287417
740.208 .0287247
740.933 .0287081
741.658 .0286919
742.383 .0286760
743.108 .0286605
743.832 .0286456
744.556 .0286311
745.280 .0286171
746.004 .0286037
746.727 .0285908
747.450 .0285784
748.173 .0285665
748.896 .0285551
749.618 .0285443
750.340 .0285340
751.062 .0285242
751.784 .0285149
752.506 .0285061
753.227 .0284978
753.948 .0284900
754.669 .0284828
755.389 .0284760
756.110 .0284697
756.830 .0284641
757.550 .0284591
758.269 .0284547
758.989 .0284509
759.708 .0284477
760.427 .0284449
761.146 .0284424
761.864 .0284403
762.582 .0284384
763.300 .0284366
764.018 .0284351
764.736 .0284338
765.453 .0284328
766.170 .0284321
766.887 .0284317
767.603 .0284316
768.320 .0284319
769.036 .0284324
769.751 .0284331
770.467 .0284340
771.182 .0284350
771.897 .0284361
772.612 .0284373
773.327 .0284385
774.041 .0284397
774.755 .0284409
775.469 .0284422
776.183 .0284434
776.896 .0284448
777.609 .0284461
778.322 .0284475
779.035 .0284488
779.747 .0284500
780.459 .0284510
781.171 .0284518
781.882 .0284521
782.594 .0284519
783.305 .0284512
784.016 .0284498
784.726 .0284478
785.436 .0284451
786.147 .0284382
786.856 .0284334
787.566 .0284279
788.275 .0284215
788.984 .0284141
789.693 .0284058
790.401 .0283964
791.110 .0283858
791.818 .0283741
792.525 .0283612
793.233 .0283471
793.940 .0283319
794.647 .0283213
795.353 .0283046
796.060 .0282870
796.766 .0282686
797.472 .0282494
798.177 .0282295
798.883 .0282088
799.588 .0281874
800.292 .0281653
800.997 .0281426
801.701 .0281192
802.405 .0280953
803.109 .0280709
803.812 .0280460
804.515 .0280208
805.218 .0279952
805.921 .0279693
806.623 .0279430
807.325 .0279165
808.027 .0278897
808.728 .0278626
809.429 .0278353
810.130 .0278079
810.831 .0277805
811.531 .0277530
812.231 .0277255
812.931 .0276981
813.630 .0276707
814.330 .0276433
815.029 .0276161
815.727 .0275889
816.426 .0275620
817.124 .0275354
817.821 .0275090
818.519 .0274830
819.216 .0274575
819.913 .0274325
820.609 .0274079
821.306 .0273839
822.002 .0273604
822.697 .0273375
823.393 .0273151
824.088 .0272933
824.783 .0272722
825.477 .0272518
826.171 .0272322
826.865 .0272134
827.559 .0271954
828.252 .0271782
828.945 .0271618
829.638 .0271462
830.330 .0271314
831.023 .0271174
831.714 .0271042
832.406 .0270917
833.097 .0270800
833.788 .0270690
834.479 .0270588
835.169 .0270494
835.859 .0270408
836.548 .0270330
837.238 .0270259
837.927 .0270196
838.615 .0270141
839.304 .0270093
839.992 .0270053
840.680 .0270020
841.367 .0269995
842.054 .0269977
842.741 .0269966
843.428 .0269961
844.114 .0269961
844.800 .0269967
845.485 .0269978
846.170 .0269992
846.855 .0270011
847.540 .0270032
848.224 .0270056
848.908 .0270084
849.592 .0270114
850.275 .0270147
850.958 .0270181
851.641 .0270218
852.323 .0270256
853.005 .0270295
853.687 .0270336
854.368 .0270377
855.049 .0270421
855.730 .0270466
856.410 .0270513
857.090 .0270564
857.769 .0270617
858.449 .0270674
859.128 .0270733
859.806 .0270796
860.485 .0270861
861.163 .0270929
861.840 .0270999
862.518 .0271073
863.195 .0271150
863.871 .0271230
864.548 .0271313
865.224 .0271397
865.899 .0271483
866.574 .0271568
867.249 .0271653
867.924 .0271738
868.598 .0271821
869.272 .0271903
869.946 .0271983
870.619 .0272060
871.292 .0272136
871.964 .0272208
872.636 .0272275
873.308 .0272338
873.979 .0272394
874.651 .0272444
875.321 .0272487
875.992 .0272523
876.662 .0272553
877.331 .0272577
878.001 .0272594
878.670 .0272606
879.338 .0272612
880.007 .0272611
880.675 .0272605
881.342 .0272592
882.009 .0272572
882.676 .0272547
883.343 .0272515
884.009 .0272479
884.675 .0272437
885.340 .0272391
886.005 .0272341
886.670 .0272286
887.334 .0272227
887.998 .0272163
888.662 .0272095
889.325 .0272023
889.988 .0271946
890.650 .0271865
891.312 .0271780
891.974 .0271690
892.636 .0271595
893.297 .0271496
893.957 .0271390
894.618 .0271277
895.278 .0271158
895.937 .0271032
896.596 .0270898
897.255 .0270756
897.914 .0270606
898.572 .0270449
899.230 .0270283
899.887 .0270109
900.544 .0269927
901.201 .0269735
901.857 .0269405
902.513 .0269187
903.168 .0268959
903.823 .0268720
904.478 .0268470
905.132 .0268211
905.786 .0267942
906.440 .0267664
907.093 .0267377
907.746 .0267082
908.399 .0266780
909.051 .0266470
909.703 .0266154
910.354 .0265978
911.005 .0265653
911.656 .0265323
912.306 .0264989
912.956 .0264650
913.605 .0264308
914.254 .0263963
914.903 .0263616
915.551 .0263268
916.199 .0262917
916.847 .0262566
917.494 .0262214
918.141 .0261861
918.788 .0261508
919.434 .0261156
920.079 .0260805
920.725 .0260455
921.370 .0260105
922.014 .0259757
922.658 .0259410
923.302 .0259063
923.946 .0258718
924.589 .0258374
925.231 .0258032
925.873 .0257691
926.515 .0257353
927.157 .0257018
927.798 .0256686
928.439 .0256357
929.079 .0256032
929.719 .0255712
930.359 .0255395
930.998 .0255083
931.637 .0254775
932.275 .0254473
932.913 .0254176
933.551 .0253885
934.188 .0253600
934.825 .0253323
935.462 .0253055
936.098 .0252795
936.733 .0252544
937.369 .0252303
938.004 .0252072
938.638 .0251853
939.273 .0251644
939.907 .0251446
940.540 .0251260
941.173 .0251086
941.806 .0250923
942.438 .0250772
943.070 .0250632
943.702 .0250502
944.333 .0250383
944.964 .0250274
945.594 .0250175
946.224 .0250084
946.854 .0250001
947.483 .0249926
948.112 .0249858
948.741 .0249796
949.369 .0249740
949.996 .0249689
950.624 .0249643
951.251 .0249602
951.878 .0249565
952.504 .0249533
953.130 .0249504
953.755 .0249480
954.380 .0249461
955.005 .0249446
955.629 .0249435
956.253 .0249429
956.877 .0249427
957.500 .0249430
958.123 .0249438
958.746 .0249450
959.368 .0249467
959.990 .0249490
960.611 .0249519
961.232 .0249555
961.853 .0249597
962.473 .0249645
963.093 .0249699
963.712 .0249760
964.331 .0249827
964.950 .0249900
965.569 .0249981
966.187 .0250067
966.804 .0250161
967.422 .0250260
968.039 .0250366
968.655 .0250476
969.272 .0250592
969.887 .0250710
970.503 .0250832
971.118 .0250955
971.733 .0251079
972.347 .0251204
972.961 .0251328
973.575 .0251452
974.188 .0251576
974.801 .0251697
975.414 .0251818
976.026 .0251936
976.638 .0252051
977.250 .0252164
977.861 .0252274
978.472 .0252380
979.083 .0252484
979.693 .0252586
980.303 .0252685
980.912 .0252826
981.521 .0252923
982.130 .0253019
982.738 .0253115
983.346 .0253211
983.954 .0253306
984.562 .0253402
985.169 .0253498
985.775 .0253596
986.382 .0253696
986.988 .0253799
987.594 .0253905
988.199 .0254015
988.804 .0254128
989.409 .0254199
990.013 .0254319
990.617 .0254443
991.221 .0254571
991.824 .0254701
992.427 .0254835
993.030 .0254971
993.632 .0255110
994.234 .0255251
994.836 .0255394
995.438 .0255539
996.039 .0255685
996.640 .0255831
997.240 .0255978
997.840 .0256124
998.440 .0256269
999.040 .0256413
999.639 .0256554
1000.238 .0256691
1000.836 .0256825
1001.435 .0256954
1002.033 .0257078
1002.630 .0257197
1003.228 .0257310
1003.825 .0257416
1004.422 .0257515
1005.018 .0257608
1005.614 .0257693
1006.210 .0257771
1006.806 .0257841
1007.401 .0257904
1007.996 .0257959
1008.591 .0258006
1009.186 .0258047
1009.780 .0258081
1010.374 .0258110
1010.967 .0258133
1011.561 .0258151
1012.154 .0258166
1012.746 .0258178
1013.339 .0258187
1013.931 .0258193
1014.523 .0258196
1015.115 .0258197
1015.706 .0258196
1016.298 .0258191
1016.888 .0258185
1017.479 .0258177
1018.069 .0258170
1018.660 .0258162
1019.250 .0258155
1019.839 .0258149
1020.429 .0258142
1021.018 .0258135
1021.607 .0258126
1022.195 .0258114
1022.784 .0258098
1023.372 .0258079
1023.960 .0258056
1024.547 .0258030
1025.135 .0258002
1025.722 .0257972
1026.309 .0257941
1026.896 .0257908
1027.483 .0257871
1028.069 .0257830
1028.655 .0257785
1029.241 .0257735
1029.827 .0257679
1030.412 .0257619
1030.997 .0257556
1031.582 .0257491
1032.167 .0257425
1032.752 .0257359
1033.336 .0257292
1033.921 .0257224
1034.505 .0257152
1035.089 .0257075
1035.672 .0256991
1036.256 .0256900
1036.839 .0256801
1037.422 .0256693
1038.005 .0256578
1038.588 .0256457
1039.171 .0256329
1039.753 .0256195
1040.335 .0256055
1040.918 .0255908
1041.500 .0255753
1042.081 .0255589
1042.663 .0255416
1043.244 .0255234
1043.826 .0255045
1044.407 .0254849
1044.988 .0254648
1045.569 .0254442
1046.150 .0254233
1046.730 .0254021
1047.311 .0253805
1047.891 .0253585
1048.471 .0253361
1049.052 .0253131
1049.632 .0252895
1050.211 .0252654
1050.791 .0252410
1051.371 .0252162
1051.950 .0251912
1052.530 .0251661
1053.109 .0251411
1053.688 .0251164
1054.268 .0250919
1054.847 .0250679
1055.426 .0250445
1056.005 .0250217
1056.583 .0249996
1057.162 .0249782
1057.741 .0249577
1058.319 .0249381
1058.898 .0249193
1059.476 .0249015
1060.055 .0248845
1060.633 .0248684
1061.211 .0248531
1061.790 .0248386
1062.368 .0248247
1062.946 .0248113
1063.524 .0247983
1064.102 .0247855
1064.680 .0247726
1065.258 .0247597
1065.836 .0247465
1066.414 .0247329
1066.992 .0247190
1067.570 .0247046
1068.148 .0246898
1068.726 .0246747
1069.304 .0246593
1069.882 .0246436
1070.460 .0246278
1071.038 .0246119
1071.616 .0245960
1072.194 .0245801
1072.772 .0245642
1073.350 .0245485
1073.928 .0245330
1074.506 .0245178
1075.084 .0245030
1075.662 .0244888
1076.240 .0244751
1076.819 .0244623
1077.397 .0244503
1077.976 .0244392
1078.554 .0244289
1079.133 .0244196
1079.711 .0244110
1080.290 .0244032
1080.869 .0243962
1081.448 .0243899
1082.027 .0243845
1082.606 .0243800
1083.185 .0243765
1083.764 .0243741
1084.343 .0243729
1084.923 .0243731
1085.502 .0243746
1086.082 .0243774
1086.662 .0243815
1087.242 .0243867
1087.822 .0243930
1088.402 .0244003
1088.983 .0244085
1089.563 .0244176
1090.144 .0244277
1090.725 .0244387
1091.306 .0244506
1091.887 .0244635
1092.469 .0244771
1093.050 .0244915
1093.632 .0245063
1094.214 .0245215
1094.796 .0245367
1095.379 .0245519
1095.961 .0245671
1096.544 .0245826
1097.127 .0245984
1097.710 .0246148
1098.294 .0246320
1098.877 .0246502
1099.461 .0246694
1100.046 .0246896
1100.630 .0247108
1101.215 .0247331
1101.800 .0247564
1102.385 .0247805
1102.970 .0248056
1103.556 .0248316
1104.142 .0248588
1104.728 .0248869
1105.315 .0249162
1105.902 .0249465
1106.489 .0249777
1107.077 .0250100
1107.664 .0250431
1108.253 .0250771
1108.841 .0251122
1109.430 .0251484
1110.019 .0251859
1110.609 .0252247
1111.198 .0252651
1111.789 .0253070
1112.379 .0253506
1112.970 .0253956
1113.561 .0254421
1114.153 .0254898
1114.745 .0255389
1115.338 .0255892
1115.931 .0256408
1116.524 .0256936
1117.117 .0257476
1117.712 .0258026
1118.306 .0258582
1118.901 .0259144
1119.496 .0259710
1120.092 .0260280
1120.689 .0260855
1121.285 .0261437
1121.882 .0262029
1122.480 .0262635
1123.078 .0263258
1123.677 .0263901
1124.276 .0264561
1124.875 .0265239
1125.476 .0265930
1126.076 .0266630
1126.677 .0267338
1127.279 .0268053
1127.881 .0268777
1128.484 .0269513
1129.087 .0269848
1129.691 .0270602
1130.295 .0271373
1130.900 .0272164
1131.505 .0272973
1132.111 .0273797
1132.718 .0274638
1133.325 .0275505
1133.933 .0276401
1134.541 .0277242
1135.150 .0278137
1135.760 .0279166
1136.370 .0280447
1136.981 .0280824
1137.592 .0281930
1138.204 .0283051
1138.817 .0284200
1139.431 .0285324
1140.045 .0286388
1140.660 .0287504
1141.275 .0288897
1141.891 .0290394
1142.508 .0289517
1143.126 .0291675
1143.744 .0295958
1144.363 .0303532
1144.983 .0301494
