Measurement Sequence started on: 15-12-46-377
Integration time: 28
Scans to Average: 2 
>>>>>Begin Spectral Data<<<<<
432.689 .0000100
433.621 .0000100
434.552 .0000100
435.482 .0000100
436.410 .0000100
437.337 .0000100
438.262 .0283768
439.187 .0601681
440.110 .0997151
441.031 .1443195
441.952 .1157502
442.871 .1208849
443.789 .1256655
444.705 .1301668
445.621 .1344409
446.535 .1385257
447.447 .1409565
448.359 .1415750
449.269 .1399910
450.178 .1359520
451.086 .1295354
451.993 .1212344
452.898 .1118684
453.803 .1023659
454.706 .0935191
455.608 .0858211
456.508 .0794385
457.408 .0751032
458.306 .0717618
459.204 .0690349
460.100 .0667314
460.995 .0647452
461.888 .0630048
462.781 .0614608
463.673 .0600786
464.563 .0588325
465.452 .0577033
466.340 .0566759
467.228 .0557390
468.114 .0548849
468.999 .0541068
469.882 .0533987
470.765 .0527551
471.647 .0521711
472.528 .0516425
473.407 .0511645
474.286 .0507331
475.163 .0503450
476.040 .0499966
476.915 .0496846
477.790 .0494057
478.663 .0491573
479.535 .0489371
480.407 .0487428
481.277 .0485724
482.147 .0484239
483.015 .0482956
483.883 .0481864
484.749 .0480955
485.615 .0480226
486.479 .0479678
487.343 .0479310
488.206 .0479126
489.067 .0479122
489.928 .0479299
490.788 .0479660
491.647 .0480204
492.505 .0480933
493.362 .0481854
494.218 .0482968
495.073 .0484283
495.928 .0487009
496.781 .0488868
497.634 .0490956
498.486 .0493283
499.337 .0495856
500.187 .0498688
501.036 .0501789
501.884 .0505180
502.731 .0508886
503.578 .0512932
504.424 .0515688
505.268 .0520352
506.113 .0525451
506.956 .0531023
507.798 .0537125
508.640 .0543827
509.480 .0551217
510.320 .0559389
511.160 .0568451
511.998 .0578544
512.836 .0589824
513.672 .0602467
514.508 .0616668
515.344 .0632659
516.178 .0650670
517.012 .0670967
517.845 .0693797
518.677 .0719395
519.508 .0747965
520.339 .0779614
521.169 .0814408
521.998 .0852159
522.826 .0892563
523.654 .0935094
524.481 .0979085
525.307 .1023747
526.133 .1068140
526.958 .1111300
527.782 .1152291
528.605 .1190242
529.428 .1224388
530.250 .1254065
531.072 .1278863
531.892 .1298446
532.712 .1312608
533.532 .1321234
534.350 .1324279
535.168 .1321759
535.986 .1313712
536.802 .1300152
537.618 .1281160
538.434 .1256840
539.249 .1227532
540.063 .1193669
540.876 .1155882
541.689 .1114945
542.501 .1071717
543.313 .1027167
544.124 .0982267
544.934 .0937915
545.744 .0894921
546.553 .0853948
547.361 .0815532
548.169 .0779922
548.976 .0747295
549.783 .0717649
550.589 .0690884
551.395 .0666796
552.200 .0645125
553.004 .0625598
553.808 .0607980
554.611 .0592052
555.414 .0577607
556.216 .0564461
557.018 .0552439
557.819 .0541382
558.619 .0531137
559.419 .0521575
560.218 .0512602
561.017 .0504121
561.815 .0496082
562.613 .0488433
563.410 .0481137
564.207 .0474159
565.003 .0467480
565.799 .0461058
566.594 .0454859
567.388 .0448854
568.182 .0443011
568.976 .0437306
569.769 .0431727
570.562 .0426267
571.354 .0420929
572.145 .0415726
572.936 .0410672
573.727 .0405778
574.517 .0401058
575.307 .0396525
576.096 .0392179
576.885 .0388024
577.673 .0384060
578.461 .0380281
579.248 .0376688
580.035 .0373279
580.821 .0370052
581.607 .0367004
582.392 .0364134
583.177 .0361442
583.962 .0358926
584.746 .0356588
585.529 .0354425
586.313 .0352432
587.095 .0350606
587.878 .0348936
588.660 .0347414
589.441 .0346026
590.222 .0344759
591.003 .0343600
591.783 .0342537
592.563 .0341557
593.342 .0340648
594.121 .0339801
594.899 .0339007
595.678 .0338257
596.455 .0337544
597.233 .0336863
598.009 .0336207
598.786 .0335575
599.562 .0334961
600.338 .0334363
601.113 .0333779
601.888 .0332948
602.663 .0332398
603.437 .0331859
604.211 .0331332
604.984 .0330817
605.757 .0330314
606.530 .0329823
607.302 .0329346
608.074 .0328882
608.845 .0328433
609.616 .0327997
610.387 .0327810
611.158 .0327396
611.928 .0326997
612.697 .0326612
613.467 .0326241
614.236 .0325884
615.004 .0325539
615.773 .0325207
616.541 .0324889
617.308 .0324584
618.076 .0324292
618.843 .0324014
619.609 .0323748
620.375 .0323496
621.141 .0323255
621.907 .0323025
622.672 .0322804
623.437 .0322591
624.202 .0322385
624.966 .0322184
625.730 .0321989
626.493 .0321797
627.257 .0321607
628.020 .0321420
628.782 .0321233
629.545 .0321045
630.307 .0320857
631.068 .0320665
631.830 .0320471
632.591 .0320272
633.352 .0320067
634.112 .0319857
634.872 .0319641
635.632 .0319419
636.392 .0319189
637.151 .0318953
637.910 .0318711
638.668 .0318462
639.427 .0318209
640.185 .0317952
640.943 .0317693
641.700 .0317433
642.457 .0317173
643.214 .0316914
643.971 .0316656
644.727 .0316399
645.483 .0316143
646.239 .0315888
646.994 .0315632
647.750 .0315377
648.505 .0315122
649.259 .0314868
650.014 .0314614
650.768 .0314361
651.521 .0314109
652.275 .0313857
653.028 .0313604
653.781 .0313351
654.534 .0313095
655.286 .0312835
656.039 .0312572
656.791 .0312305
657.542 .0312033
658.294 .0311758
659.045 .0311478
659.796 .0311194
660.546 .0310907
661.297 .0310616
662.047 .0310322
662.796 .0310026
663.546 .0309729
664.295 .0309430
665.044 .0309130
665.793 .0308830
666.542 .0308530
667.290 .0308230
668.038 .0307931
668.786 .0307632
669.533 .0307334
670.281 .0307037
671.028 .0306741
671.774 .0306448
672.521 .0306157
673.267 .0305870
674.013 .0305588
674.759 .0305310
675.505 .0305037
676.250 .0304771
676.995 .0304511
677.740 .0304257
678.484 .0304009
679.229 .0303768
679.973 .0303534
680.717 .0303306
681.460 .0303085
682.204 .0302871
682.947 .0302664
683.690 .0302463
684.433 .0302269
685.175 .0302082
685.917 .0301900
686.659 .0301723
687.401 .0301550
688.142 .0301379
688.884 .0301211
689.625 .0301043
690.365 .0300876
691.106 .0300708
691.846 .0300539
692.586 .0300369
693.326 .0300197
694.066 .0300023
694.805 .0299849
695.545 .0299672
696.284 .0299495
697.022 .0299317
697.761 .0299138
698.499 .0298960
699.237 .0298782
699.975 .0298606
700.713 .0298433
701.450 .0298263
702.187 .0298098
702.924 .0297938
703.661 .0297783
704.397 .0297634
705.133 .0297491
705.869 .0297355
706.605 .0297224
707.341 .0297098
708.076 .0296977
708.811 .0296859
709.546 .0296745
710.281 .0296633
711.015 .0296523
711.749 .0296414
712.483 .0296305
713.217 .0296196
713.950 .0296086
714.684 .0295974
715.417 .0295859
716.150 .0295741
716.882 .0295619
717.615 .0295493
718.347 .0295360
719.079 .0295223
719.811 .0295079
720.542 .0294930
721.273 .0294777
722.005 .0294619
722.735 .0294460
723.466 .0294298
724.196 .0294135
724.927 .0293972
725.656 .0293810
726.386 .0293649
727.116 .0293490
727.845 .0293333
728.574 .0293178
729.303 .0293025
730.031 .0292875
730.760 .0292729
731.488 .0292586
732.216 .0292446
732.944 .0292311
733.671 .0292178
734.398 .0292049
735.125 .0291922
735.852 .0291797
736.579 .0291674
737.305 .0291551
738.031 .0291427
738.757 .0291303
739.483 .0291176
740.208 .0291047
740.933 .0290916
741.658 .0290781
742.383 .0290643
743.108 .0290502
743.832 .0290358
744.556 .0290210
745.280 .0290058
746.004 .0289902
746.727 .0289742
747.450 .0289578
748.173 .0289408
748.896 .0289234
749.618 .0289056
750.340 .0288873
751.062 .0288687
751.784 .0288498
752.506 .0288305
753.227 .0288109
753.948 .0287910
754.669 .0287709
755.389 .0287506
756.110 .0287301
756.830 .0287096
757.550 .0286890
758.269 .0286684
758.989 .0286477
759.708 .0286270
760.427 .0286062
761.146 .0285854
761.864 .0285644
762.582 .0285435
763.300 .0285225
764.018 .0285014
764.736 .0284805
765.453 .0284595
766.170 .0284386
766.887 .0284177
767.603 .0283969
768.320 .0283761
769.036 .0283555
769.751 .0283351
770.467 .0283150
771.182 .0282954
771.897 .0282763
772.612 .0282578
773.327 .0282399
774.041 .0282226
774.755 .0282060
775.469 .0281900
776.183 .0281745
776.896 .0281597
777.609 .0281455
778.322 .0281319
779.035 .0281190
779.747 .0281068
780.459 .0280952
781.171 .0280843
781.882 .0280741
782.594 .0280644
783.305 .0280554
784.016 .0280469
784.726 .0280389
785.436 .0280313
786.147 .0280212
786.856 .0280144
787.566 .0280079
788.275 .0280017
788.984 .0279957
789.693 .0279898
790.401 .0279840
791.110 .0279783
791.818 .0279727
792.525 .0279670
793.233 .0279613
793.940 .0279556
794.647 .0279525
795.353 .0279465
796.060 .0279405
796.766 .0279344
797.472 .0279282
798.177 .0279219
798.883 .0279156
799.588 .0279093
800.292 .0279029
800.997 .0278965
801.701 .0278902
802.405 .0278839
803.109 .0278777
803.812 .0278716
804.515 .0278656
805.218 .0278596
805.921 .0278536
806.623 .0278476
807.325 .0278415
808.027 .0278353
808.728 .0278290
809.429 .0278227
810.130 .0278164
810.831 .0278102
811.531 .0278041
812.231 .0277982
812.931 .0277924
813.630 .0277869
814.330 .0277814
815.029 .0277762
815.727 .0277711
816.426 .0277663
817.124 .0277618
817.821 .0277576
818.519 .0277539
819.216 .0277506
819.913 .0277477
820.609 .0277453
821.306 .0277433
822.002 .0277417
822.697 .0277405
823.393 .0277397
824.088 .0277393
824.783 .0277394
825.477 .0277398
826.171 .0277406
826.865 .0277417
827.559 .0277430
828.252 .0277446
828.945 .0277463
829.638 .0277482
830.330 .0277501
831.023 .0277520
831.714 .0277539
832.406 .0277556
833.097 .0277572
833.788 .0277586
834.479 .0277596
835.169 .0277602
835.859 .0277603
836.548 .0277600
837.238 .0277593
837.927 .0277580
838.615 .0277561
839.304 .0277537
839.992 .0277506
840.680 .0277468
841.367 .0277423
842.054 .0277371
842.741 .0277312
843.428 .0277246
844.114 .0277173
844.800 .0277093
845.485 .0277007
846.170 .0276913
846.855 .0276813
847.540 .0276706
848.224 .0276591
848.908 .0276469
849.592 .0276340
850.275 .0276204
850.958 .0276060
851.641 .0275909
852.323 .0275750
853.005 .0275583
853.687 .0275409
854.368 .0275226
855.049 .0275035
855.730 .0274835
856.410 .0274628
857.090 .0274414
857.769 .0274194
858.449 .0273969
859.128 .0273738
859.806 .0273505
860.485 .0273268
861.163 .0273028
861.840 .0272786
862.518 .0272543
863.195 .0272297
863.871 .0272050
864.548 .0271803
865.224 .0271554
865.899 .0271305
866.574 .0271057
867.249 .0270810
867.924 .0270564
868.598 .0270320
869.272 .0270077
869.946 .0269835
870.619 .0269595
871.292 .0269356
871.964 .0269118
872.636 .0268882
873.308 .0268649
873.979 .0268417
874.651 .0268189
875.321 .0267964
875.992 .0267742
876.662 .0267523
877.331 .0267307
878.001 .0267093
878.670 .0266882
879.338 .0266674
880.007 .0266467
880.675 .0266264
881.342 .0266065
882.009 .0265870
882.676 .0265679
883.343 .0265493
884.009 .0265312
884.675 .0265137
885.340 .0264968
886.005 .0264805
886.670 .0264647
887.334 .0264497
887.998 .0264353
888.662 .0264218
889.325 .0264090
889.988 .0263971
890.650 .0263860
891.312 .0263757
891.974 .0263659
892.636 .0263567
893.297 .0263479
893.957 .0263395
894.618 .0263314
895.278 .0263235
895.937 .0263158
896.596 .0263082
897.255 .0263006
897.914 .0262930
898.572 .0262853
899.230 .0262773
899.887 .0262689
900.544 .0262600
901.201 .0262506
901.857 .0262334
902.513 .0262223
903.168 .0262106
903.823 .0261984
904.478 .0261856
905.132 .0261722
905.786 .0261582
906.440 .0261436
907.093 .0261283
907.746 .0261125
908.399 .0260962
909.051 .0260795
909.703 .0260625
910.354 .0260537
911.005 .0260368
911.656 .0260200
912.306 .0260033
912.956 .0259868
913.605 .0259706
914.254 .0259547
914.903 .0259391
915.551 .0259240
916.199 .0259093
916.847 .0258951
917.494 .0258814
918.141 .0258681
918.788 .0258554
919.434 .0258432
920.079 .0258315
920.725 .0258203
921.370 .0258095
922.014 .0257990
922.658 .0257888
923.302 .0257789
923.946 .0257693
924.589 .0257599
925.231 .0257507
925.873 .0257419
926.515 .0257333
927.157 .0257250
927.798 .0257169
928.439 .0257090
929.079 .0257014
929.719 .0256940
930.359 .0256869
930.998 .0256801
931.637 .0256736
932.275 .0256676
932.913 .0256621
933.551 .0256571
934.188 .0256528
934.825 .0256492
935.462 .0256463
936.098 .0256442
936.733 .0256428
937.369 .0256422
938.004 .0256424
938.638 .0256434
939.273 .0256453
939.907 .0256480
940.540 .0256517
941.173 .0256561
941.806 .0256614
942.438 .0256673
943.070 .0256740
943.702 .0256812
944.333 .0256888
944.964 .0256969
945.594 .0257053
946.224 .0257139
946.854 .0257226
947.483 .0257314
948.112 .0257401
948.741 .0257487
949.369 .0257571
949.996 .0257653
950.624 .0257732
951.251 .0257807
951.878 .0257879
952.504 .0257946
953.130 .0258008
953.755 .0258065
954.380 .0258117
955.005 .0258163
955.629 .0258205
956.253 .0258243
956.877 .0258276
957.500 .0258306
958.123 .0258333
958.746 .0258357
959.368 .0258380
959.990 .0258400
960.611 .0258419
961.232 .0258436
961.853 .0258453
962.473 .0258470
963.093 .0258487
963.712 .0258505
964.331 .0258525
964.950 .0258547
965.569 .0258570
966.187 .0258595
966.804 .0258619
967.422 .0258642
968.039 .0258664
968.655 .0258683
969.272 .0258700
969.887 .0258714
970.503 .0258724
971.118 .0258731
971.733 .0258735
972.347 .0258734
972.961 .0258728
973.575 .0258716
974.188 .0258697
974.801 .0258671
975.414 .0258637
976.026 .0258596
976.638 .0258547
977.250 .0258490
977.861 .0258426
978.472 .0258355
979.083 .0258277
979.693 .0258193
980.303 .0258103
980.912 .0257944
981.521 .0257843
982.130 .0257738
982.738 .0257628
983.346 .0257515
983.954 .0257399
984.562 .0257280
985.169 .0257159
985.775 .0257038
986.382 .0256916
986.988 .0256794
987.594 .0256674
988.199 .0256555
988.804 .0256439
989.409 .0256391
990.013 .0256280
990.617 .0256173
991.221 .0256070
991.824 .0255972
992.427 .0255877
993.030 .0255786
993.632 .0255699
994.234 .0255615
994.836 .0255534
995.438 .0255454
996.039 .0255377
996.640 .0255300
997.240 .0255224
997.840 .0255146
998.440 .0255068
999.040 .0254987
999.639 .0254904
1000.238 .0254817
1000.836 .0254726
1001.435 .0254632
1002.033 .0254536
1002.630 .0254437
1003.228 .0254337
1003.825 .0254236
1004.422 .0254135
1005.018 .0254033
1005.614 .0253932
1006.210 .0253830
1006.806 .0253727
1007.401 .0253623
1007.996 .0253518
1008.591 .0253410
1009.186 .0253300
1009.780 .0253190
1010.374 .0253078
1010.967 .0252967
1011.561 .0252855
1012.154 .0252744
1012.746 .0252633
1013.339 .0252523
1013.931 .0252412
1014.523 .0252301
1015.115 .0252191
1015.706 .0252082
1016.298 .0251975
1016.888 .0251871
1017.479 .0251772
1018.069 .0251679
1018.660 .0251593
1019.250 .0251513
1019.839 .0251438
1020.429 .0251370
1021.018 .0251305
1021.607 .0251244
1022.195 .0251186
1022.784 .0251129
1023.372 .0251076
1023.960 .0251025
1024.547 .0250977
1025.135 .0250932
1025.722 .0250889
1026.309 .0250848
1026.896 .0250808
1027.483 .0250767
1028.069 .0250727
1028.655 .0250685
1029.241 .0250643
1029.827 .0250599
1030.412 .0250554
1030.997 .0250508
1031.582 .0250463
1032.167 .0250416
1032.752 .0250369
1033.336 .0250320
1033.921 .0250267
1034.505 .0250211
1035.089 .0250152
1035.672 .0250089
1036.256 .0250022
1036.839 .0249953
1037.422 .0249882
1038.005 .0249810
1038.588 .0249736
1039.171 .0249660
1039.753 .0249582
1040.335 .0249501
1040.918 .0249415
1041.500 .0249324
1042.081 .0249229
1042.663 .0249130
1043.244 .0249027
1043.826 .0248921
1044.407 .0248814
1044.988 .0248704
1045.569 .0248593
1046.150 .0248479
1046.730 .0248361
1047.311 .0248239
1047.891 .0248113
1048.471 .0247983
1049.052 .0247850
1049.632 .0247716
1050.211 .0247584
1050.791 .0247454
1051.371 .0247328
1051.950 .0247205
1052.530 .0247086
1053.109 .0246969
1053.688 .0246854
1054.268 .0246740
1054.847 .0246626
1055.426 .0246514
1056.005 .0246406
1056.583 .0246302
1057.162 .0246205
1057.741 .0246116
1058.319 .0246035
1058.898 .0245961
1059.476 .0245893
1060.055 .0245830
1060.633 .0245770
1061.211 .0245713
1061.790 .0245658
1062.368 .0245605
1062.946 .0245556
1063.524 .0245512
1064.102 .0245472
1064.680 .0245438
1065.258 .0245408
1065.836 .0245381
1066.414 .0245353
1066.992 .0245324
1067.570 .0245290
1068.148 .0245252
1068.726 .0245207
1069.304 .0245158
1069.882 .0245105
1070.460 .0245049
1071.038 .0244990
1071.616 .0244930
1072.194 .0244869
1072.772 .0244806
1073.350 .0244743
1073.928 .0244679
1074.506 .0244615
1075.084 .0244553
1075.662 .0244496
1076.240 .0244446
1076.819 .0244405
1077.397 .0244374
1077.976 .0244356
1078.554 .0244349
1079.133 .0244354
1079.711 .0244371
1080.290 .0244400
1080.869 .0244442
1081.448 .0244497
1082.027 .0244565
1082.606 .0244647
1083.185 .0244742
1083.764 .0244850
1084.343 .0244969
1084.923 .0245098
1085.502 .0245237
1086.082 .0245385
1086.662 .0245542
1087.242 .0245708
1087.822 .0245885
1088.402 .0246071
1088.983 .0246268
1089.563 .0246476
1090.144 .0246693
1090.725 .0246920
1091.306 .0247154
1091.887 .0247395
1092.469 .0247643
1093.050 .0247897
1093.632 .0248158
1094.214 .0248426
1094.796 .0248701
1095.379 .0248982
1095.961 .0249268
1096.544 .0249559
1097.127 .0249851
1097.710 .0250143
1098.294 .0250434
1098.877 .0250723
1099.461 .0251011
1100.046 .0251299
1100.630 .0251589
1101.215 .0251881
1101.800 .0252178
1102.385 .0252480
1102.970 .0252787
1103.556 .0253098
1104.142 .0253411
1104.728 .0253726
1105.315 .0254041
1105.902 .0254357
1106.489 .0254675
1107.077 .0254995
1107.664 .0255319
1108.253 .0255646
1108.841 .0255977
1109.430 .0256310
1110.019 .0256644
1110.609 .0256977
1111.198 .0257310
1111.789 .0257641
1112.379 .0257970
1112.970 .0258299
1113.561 .0258629
1114.153 .0258963
1114.745 .0259303
1115.338 .0259651
1115.931 .0260009
1116.524 .0260377
1117.117 .0260759
1117.712 .0261154
1118.306 .0261563
1118.901 .0261987
1119.496 .0262425
1120.092 .0262878
1120.689 .0263346
1121.285 .0263829
1121.882 .0264332
1122.480 .0264855
1123.078 .0265401
1123.677 .0265974
1124.276 .0266576
1124.875 .0267211
1125.476 .0267880
1126.076 .0268582
1126.677 .0269316
1127.279 .0270083
1127.881 .0270880
1128.484 .0271706
1129.087 .0272030
1129.691 .0272904
1130.295 .0273809
1130.900 .0274748
1131.505 .0275722
1132.111 .0276730
1132.718 .0277770
1133.325 .0278840
1133.933 .0279939
1134.541 .0281113
1135.150 .0282228
1135.760 .0283354
1136.370 .0284548
1136.981 .0286180
1137.592 .0287499
1138.204 .0288809
1138.817 .0290150
1139.431 .0291586
1140.045 .0292987
1140.660 .0294368
1141.275 .0295741
1141.891 .0297106
1142.508 .0299789
1143.126 .0298797
1143.744 .0299745
1144.363 .0302288
1144.983 .0304833
