Measurement Sequence started on: 15-12-46-377
Integration time: 28
Scans to Average: 2 
>>>>>Begin Spectral Data<<<<<
432.689 .0000100
433.621 .0000100
434.552 .0000100
435.482 .0000100
436.410 .0000100
437.337 .0000100
438.262 .0269683
439.187 .0571723
440.110 .0947325
441.031 .1370814
441.952 .1098168
442.871 .1146954
443.789 .1192406
444.705 .1235192
445.621 .1275778
446.535 .1314498
447.447 .1337419
448.359 .1343039
449.269 .1327675
450.178 .1288953
451.086 .1227656
451.993 .1148507
452.898 .1059323
453.803 .0968946
454.706 .0884902
455.608 .0811847
456.508 .0751336
457.408 .0710297
458.306 .0678687
459.204 .0652896
460.100 .0631109
460.995 .0612331
461.888 .0595919
462.781 .0581427
463.673 .0568543
464.563 .0557035
465.452 .0546719
466.340 .0537427
467.228 .0529028
468.114 .0521420
468.999 .0514507
469.882 .0508202
470.765 .0502427
471.647 .0497117
472.528 .0492223
473.407 .0487705
474.286 .0483526
475.163 .0479674
476.040 .0476126
476.915 .0472867
477.790 .0469878
478.663 .0467144
479.535 .0464646
480.407 .0462368
481.277 .0460297
482.147 .0458414
483.015 .0456712
483.883 .0455187
484.749 .0453845
485.615 .0452694
486.479 .0451746
487.343 .0451013
488.206 .0450503
489.067 .0450223
489.928 .0450170
490.788 .0450345
491.647 .0450752
492.505 .0451392
493.362 .0452275
494.218 .0453407
495.073 .0454800
495.928 .0457871
496.781 .0459944
497.634 .0462275
498.486 .0464859
499.337 .0467696
500.187 .0470786
501.036 .0474138
501.884 .0477771
502.731 .0481715
503.578 .0486002
504.424 .0488849
505.268 .0493789
506.113 .0499187
506.956 .0505082
507.798 .0511533
508.640 .0518615
509.480 .0526417
510.320 .0535043
511.160 .0544616
511.998 .0555278
512.836 .0567196
513.672 .0580537
514.508 .0595507
515.344 .0612321
516.178 .0631202
517.012 .0652374
517.845 .0676048
518.677 .0702413
519.508 .0731609
520.339 .0763685
521.169 .0798654
521.998 .0836275
522.826 .0876203
523.654 .0917940
524.481 .0960892
525.307 .1004358
526.133 .1047515
526.958 .1089492
527.782 .1129454
528.605 .1166585
529.428 .1200158
530.250 .1229487
531.072 .1254125
531.892 .1273685
532.712 .1287901
533.532 .1296629
534.350 .1299827
535.168 .1297535
535.986 .1289831
536.802 .1276777
537.618 .1258490
538.434 .1235098
539.249 .1206976
540.063 .1174584
540.876 .1138497
541.689 .1099387
542.501 .1058007
543.313 .1015193
544.124 .0971818
544.934 .0928669
545.744 .0886491
546.553 .0845920
547.361 .0807511
548.169 .0771583
548.976 .0738361
549.783 .0707943
550.589 .0680288
551.395 .0655238
552.200 .0632557
553.004 .0611973
553.808 .0593269
554.611 .0576246
555.414 .0560730
556.216 .0546552
557.018 .0533558
557.819 .0521621
558.619 .0510623
559.419 .0500461
560.218 .0491035
561.017 .0482256
561.815 .0474056
562.613 .0466376
563.410 .0459154
564.207 .0452351
565.003 .0445924
565.799 .0439835
566.594 .0434043
567.388 .0428509
568.182 .0423205
568.976 .0418105
569.769 .0413191
570.562 .0408444
571.354 .0403855
572.145 .0399418
572.936 .0395128
573.727 .0390984
574.517 .0386987
575.307 .0383138
576.096 .0379427
576.885 .0375853
577.673 .0372408
578.461 .0369089
579.248 .0365898
580.035 .0362830
580.821 .0359888
581.607 .0357068
582.392 .0354373
583.177 .0351804
583.962 .0349367
584.746 .0347063
585.529 .0344893
586.313 .0342857
587.095 .0340952
587.878 .0339173
588.660 .0337516
589.441 .0335974
590.222 .0334542
591.003 .0333213
591.783 .0331981
592.563 .0330840
593.342 .0329787
594.121 .0328816
594.899 .0327921
595.678 .0327096
596.455 .0326335
597.233 .0325627
598.009 .0324966
598.786 .0324345
599.562 .0323756
600.338 .0323193
601.113 .0322654
601.888 .0321909
602.663 .0321418
603.437 .0320945
604.211 .0320491
604.984 .0320054
605.757 .0319634
606.530 .0319232
607.302 .0318846
608.074 .0318476
608.845 .0318121
609.616 .0317781
610.387 .0317651
611.158 .0317337
611.928 .0317038
612.697 .0316755
613.467 .0316489
614.236 .0316240
615.004 .0316009
615.773 .0315795
616.541 .0315596
617.308 .0315411
618.076 .0315238
618.843 .0315074
619.609 .0314918
620.375 .0314767
621.141 .0314620
621.907 .0314475
622.672 .0314332
623.437 .0314189
624.202 .0314044
624.966 .0313895
625.730 .0313741
626.493 .0313578
627.257 .0313406
628.020 .0313222
628.782 .0313026
629.545 .0312817
630.307 .0312597
631.068 .0312365
631.830 .0312123
632.591 .0311872
633.352 .0311611
634.112 .0311343
634.872 .0311066
635.632 .0310782
636.392 .0310492
637.151 .0310197
637.910 .0309899
638.668 .0309598
639.427 .0309297
640.185 .0308998
640.943 .0308702
641.700 .0308409
642.457 .0308122
643.214 .0307840
643.971 .0307564
644.727 .0307294
645.483 .0307031
646.239 .0306773
646.994 .0306521
647.750 .0306274
648.505 .0306029
649.259 .0305786
650.014 .0305544
650.768 .0305303
651.521 .0305060
652.275 .0304817
653.028 .0304574
653.781 .0304329
654.534 .0304082
655.286 .0303834
656.039 .0303582
656.791 .0303327
657.542 .0303069
658.294 .0302806
659.045 .0302541
659.796 .0302274
660.546 .0302007
661.297 .0301741
662.047 .0301477
662.796 .0301217
663.546 .0300962
664.295 .0300712
665.044 .0300468
665.793 .0300231
666.542 .0300002
667.290 .0299781
668.038 .0299569
668.786 .0299367
669.533 .0299174
670.281 .0298991
671.028 .0298816
671.774 .0298651
672.521 .0298493
673.267 .0298343
674.013 .0298200
674.759 .0298065
675.505 .0297935
676.250 .0297812
676.995 .0297692
677.740 .0297577
678.484 .0297463
679.229 .0297351
679.973 .0297240
680.717 .0297128
681.460 .0297017
682.204 .0296904
682.947 .0296789
683.690 .0296672
684.433 .0296551
685.175 .0296428
685.917 .0296300
686.659 .0296168
687.401 .0296031
688.142 .0295891
688.884 .0295746
689.625 .0295597
690.365 .0295445
691.106 .0295290
691.846 .0295130
692.586 .0294967
693.326 .0294799
694.066 .0294627
694.805 .0294452
695.545 .0294272
696.284 .0294090
697.022 .0293904
697.761 .0293716
698.499 .0293526
699.237 .0293334
699.975 .0293141
700.713 .0292947
701.450 .0292753
702.187 .0292558
702.924 .0292364
703.661 .0292170
704.397 .0291976
705.133 .0291784
705.869 .0291592
706.605 .0291401
707.341 .0291212
708.076 .0291023
708.811 .0290835
709.546 .0290648
710.281 .0290463
711.015 .0290279
711.749 .0290096
712.483 .0289914
713.217 .0289733
713.950 .0289553
714.684 .0289375
715.417 .0289197
716.150 .0289020
716.882 .0288843
717.615 .0288665
718.347 .0288487
719.079 .0288307
719.811 .0288127
720.542 .0287946
721.273 .0287766
722.005 .0287586
722.735 .0287407
723.466 .0287231
724.196 .0287057
724.927 .0286885
725.656 .0286717
726.386 .0286552
727.116 .0286390
727.845 .0286231
728.574 .0286075
729.303 .0285922
730.031 .0285774
730.760 .0285629
731.488 .0285489
732.216 .0285352
732.944 .0285219
733.671 .0285091
734.398 .0284965
735.125 .0284843
735.852 .0284724
736.579 .0284607
737.305 .0284491
738.031 .0284376
738.757 .0284261
739.483 .0284145
740.208 .0284027
740.933 .0283908
741.658 .0283788
742.383 .0283666
743.108 .0283544
743.832 .0283422
744.556 .0283300
745.280 .0283178
746.004 .0283055
746.727 .0282931
747.450 .0282805
748.173 .0282677
748.896 .0282547
749.618 .0282415
750.340 .0282282
751.062 .0282149
751.784 .0282016
752.506 .0281885
753.227 .0281754
753.948 .0281626
754.669 .0281498
755.389 .0281370
756.110 .0281243
756.830 .0281115
757.550 .0280986
758.269 .0280857
758.989 .0280727
759.708 .0280596
760.427 .0280464
761.146 .0280332
761.864 .0280199
762.582 .0280064
763.300 .0279929
764.018 .0279793
764.736 .0279656
765.453 .0279518
766.170 .0279380
766.887 .0279241
767.603 .0279102
768.320 .0278963
769.036 .0278825
769.751 .0278689
770.467 .0278554
771.182 .0278423
771.897 .0278294
772.612 .0278170
773.327 .0278050
774.041 .0277934
774.755 .0277823
775.469 .0277715
776.183 .0277612
776.896 .0277511
777.609 .0277414
778.322 .0277320
779.035 .0277229
779.747 .0277140
780.459 .0277055
781.171 .0276972
781.882 .0276891
782.594 .0276811
783.305 .0276732
784.016 .0276652
784.726 .0276572
785.436 .0276489
786.147 .0276357
786.856 .0276269
787.566 .0276180
788.275 .0276089
788.984 .0275997
789.693 .0275903
790.401 .0275808
791.110 .0275711
791.818 .0275612
792.525 .0275511
793.233 .0275408
793.940 .0275301
794.647 .0275243
795.353 .0275134
796.060 .0275023
796.766 .0274908
797.472 .0274792
798.177 .0274673
798.883 .0274552
799.588 .0274429
800.292 .0274303
800.997 .0274176
801.701 .0274046
802.405 .0273916
803.109 .0273784
803.812 .0273652
804.515 .0273518
805.218 .0273384
805.921 .0273250
806.623 .0273114
807.325 .0272977
808.027 .0272839
808.728 .0272701
809.429 .0272562
810.130 .0272423
810.831 .0272283
811.531 .0272144
812.231 .0272006
812.931 .0271867
813.630 .0271730
814.330 .0271594
815.029 .0271461
815.727 .0271330
816.426 .0271203
817.124 .0271080
817.821 .0270962
818.519 .0270848
819.216 .0270739
819.913 .0270636
820.609 .0270537
821.306 .0270443
822.002 .0270354
822.697 .0270270
823.393 .0270190
824.088 .0270116
824.783 .0270047
825.477 .0269984
826.171 .0269924
826.865 .0269869
827.559 .0269817
828.252 .0269768
828.945 .0269722
829.638 .0269679
830.330 .0269639
831.023 .0269602
831.714 .0269567
832.406 .0269536
833.097 .0269507
833.788 .0269480
834.479 .0269456
835.169 .0269433
835.859 .0269410
836.548 .0269389
837.238 .0269367
837.927 .0269346
838.615 .0269323
839.304 .0269300
839.992 .0269274
840.680 .0269247
841.367 .0269218
842.054 .0269186
842.741 .0269151
843.428 .0269113
844.114 .0269073
844.800 .0269030
845.485 .0268983
846.170 .0268934
846.855 .0268880
847.540 .0268823
848.224 .0268761
848.908 .0268694
849.592 .0268622
850.275 .0268546
850.958 .0268464
851.641 .0268378
852.323 .0268287
853.005 .0268192
853.687 .0268092
854.368 .0267989
855.049 .0267881
855.730 .0267770
856.410 .0267656
857.090 .0267537
857.769 .0267416
858.449 .0267292
859.128 .0267165
859.806 .0267035
860.485 .0266903
861.163 .0266769
861.840 .0266634
862.518 .0266497
863.195 .0266360
863.871 .0266221
864.548 .0266083
865.224 .0265944
865.899 .0265803
866.574 .0265661
867.249 .0265518
867.924 .0265373
868.598 .0265227
869.272 .0265079
869.946 .0264931
870.619 .0264783
871.292 .0264635
871.964 .0264487
872.636 .0264341
873.308 .0264196
873.979 .0264052
874.651 .0263910
875.321 .0263769
875.992 .0263630
876.662 .0263492
877.331 .0263357
878.001 .0263224
878.670 .0263093
879.338 .0262965
880.007 .0262840
880.675 .0262718
881.342 .0262599
882.009 .0262484
882.676 .0262372
883.343 .0262265
884.009 .0262162
884.675 .0262063
885.340 .0261969
886.005 .0261878
886.670 .0261791
887.334 .0261708
887.998 .0261627
888.662 .0261549
889.325 .0261473
889.988 .0261399
890.650 .0261325
891.312 .0261254
891.974 .0261183
892.636 .0261113
893.297 .0261043
893.957 .0260972
894.618 .0260901
895.278 .0260827
895.937 .0260752
896.596 .0260674
897.255 .0260592
897.914 .0260508
898.572 .0260419
899.230 .0260328
899.887 .0260232
900.544 .0260133
901.201 .0260030
901.857 .0259854
902.513 .0259739
903.168 .0259618
903.823 .0259492
904.478 .0259360
905.132 .0259222
905.786 .0259079
906.440 .0258931
907.093 .0258778
907.746 .0258621
908.399 .0258461
909.051 .0258297
909.703 .0258132
910.354 .0258044
911.005 .0257879
911.656 .0257715
912.306 .0257551
912.956 .0257390
913.605 .0257230
914.254 .0257074
914.903 .0256920
915.551 .0256768
916.199 .0256618
916.847 .0256470
917.494 .0256323
918.141 .0256177
918.788 .0256032
919.434 .0255888
920.079 .0255745
920.725 .0255604
921.370 .0255463
922.014 .0255324
922.658 .0255185
923.302 .0255046
923.946 .0254906
924.589 .0254767
925.231 .0254628
925.873 .0254490
926.515 .0254353
927.157 .0254217
927.798 .0254083
928.439 .0253952
929.079 .0253822
929.719 .0253695
930.359 .0253568
930.998 .0253443
931.637 .0253319
932.275 .0253197
932.913 .0253077
933.551 .0252960
934.188 .0252848
934.825 .0252741
935.462 .0252640
936.098 .0252544
936.733 .0252454
937.369 .0252370
938.004 .0252292
938.638 .0252219
939.273 .0252152
939.907 .0252092
940.540 .0252040
941.173 .0251995
941.806 .0251959
942.438 .0251930
943.070 .0251908
943.702 .0251891
944.333 .0251880
944.964 .0251871
945.594 .0251865
946.224 .0251860
946.854 .0251857
947.483 .0251856
948.112 .0251857
948.741 .0251859
949.369 .0251863
949.996 .0251867
950.624 .0251871
951.251 .0251875
951.878 .0251877
952.504 .0251878
953.130 .0251876
953.755 .0251873
954.380 .0251869
955.005 .0251863
955.629 .0251856
956.253 .0251848
956.877 .0251837
957.500 .0251824
958.123 .0251808
958.746 .0251788
959.368 .0251765
959.990 .0251737
960.611 .0251707
961.232 .0251674
961.853 .0251637
962.473 .0251599
963.093 .0251559
963.712 .0251516
964.331 .0251472
964.950 .0251427
965.569 .0251381
966.187 .0251334
966.804 .0251288
967.422 .0251242
968.039 .0251196
968.655 .0251150
969.272 .0251104
969.887 .0251058
970.503 .0251011
971.118 .0250962
971.733 .0250913
972.347 .0250862
972.961 .0250811
973.575 .0250759
974.188 .0250705
974.801 .0250650
975.414 .0250592
976.026 .0250531
976.638 .0250466
977.250 .0250397
977.861 .0250324
978.472 .0250246
979.083 .0250165
979.693 .0250080
980.303 .0249994
980.912 .0249845
981.521 .0249754
982.130 .0249661
982.738 .0249565
983.346 .0249465
983.954 .0249363
984.562 .0249259
985.169 .0249154
985.775 .0249048
986.382 .0248945
986.988 .0248844
987.594 .0248746
988.199 .0248651
988.804 .0248559
989.409 .0248530
990.013 .0248444
990.617 .0248360
991.221 .0248278
991.824 .0248198
992.427 .0248121
993.030 .0248048
993.632 .0247978
994.234 .0247913
994.836 .0247850
995.438 .0247791
996.039 .0247734
996.640 .0247678
997.240 .0247623
997.840 .0247568
998.440 .0247513
999.040 .0247457
999.639 .0247400
1000.238 .0247344
1000.836 .0247287
1001.435 .0247230
1002.033 .0247174
1002.630 .0247116
1003.228 .0247057
1003.825 .0246997
1004.422 .0246934
1005.018 .0246869
1005.614 .0246801
1006.210 .0246731
1006.806 .0246658
1007.401 .0246584
1007.996 .0246508
1008.591 .0246431
1009.186 .0246352
1009.780 .0246272
1010.374 .0246191
1010.967 .0246108
1011.561 .0246025
1012.154 .0245941
1012.746 .0245857
1013.339 .0245775
1013.931 .0245693
1014.523 .0245614
1015.115 .0245536
1015.706 .0245460
1016.298 .0245386
1016.888 .0245315
1017.479 .0245246
1018.069 .0245179
1018.660 .0245115
1019.250 .0245055
1019.839 .0244997
1020.429 .0244942
1021.018 .0244890
1021.607 .0244839
1022.195 .0244791
1022.784 .0244744
1023.372 .0244699
1023.960 .0244656
1024.547 .0244615
1025.135 .0244578
1025.722 .0244545
1026.309 .0244515
1026.896 .0244490
1027.483 .0244469
1028.069 .0244453
1028.655 .0244439
1029.241 .0244428
1029.827 .0244419
1030.412 .0244413
1030.997 .0244407
1031.582 .0244404
1032.167 .0244402
1032.752 .0244401
1033.336 .0244402
1033.921 .0244403
1034.505 .0244405
1035.089 .0244405
1035.672 .0244405
1036.256 .0244402
1036.839 .0244396
1037.422 .0244388
1038.005 .0244378
1038.588 .0244367
1039.171 .0244354
1039.753 .0244341
1040.335 .0244327
1040.918 .0244313
1041.500 .0244298
1042.081 .0244281
1042.663 .0244264
1043.244 .0244245
1043.826 .0244225
1044.407 .0244205
1044.988 .0244186
1045.569 .0244168
1046.150 .0244151
1046.730 .0244137
1047.311 .0244125
1047.891 .0244114
1048.471 .0244104
1049.052 .0244096
1049.632 .0244089
1050.211 .0244082
1050.791 .0244077
1051.371 .0244074
1051.950 .0244073
1052.530 .0244073
1053.109 .0244075
1053.688 .0244077
1054.268 .0244079
1054.847 .0244081
1055.426 .0244082
1056.005 .0244082
1056.583 .0244081
1057.162 .0244080
1057.741 .0244079
1058.319 .0244079
1058.898 .0244080
1059.476 .0244082
1060.055 .0244086
1060.633 .0244089
1061.211 .0244093
1061.790 .0244098
1062.368 .0244104
1062.946 .0244112
1063.524 .0244123
1064.102 .0244138
1064.680 .0244157
1065.258 .0244181
1065.836 .0244208
1066.414 .0244239
1066.992 .0244273
1067.570 .0244309
1068.148 .0244348
1068.726 .0244390
1069.304 .0244437
1069.882 .0244491
1070.460 .0244552
1071.038 .0244623
1071.616 .0244703
1072.194 .0244793
1072.772 .0244891
1073.350 .0244996
1073.928 .0245106
1074.506 .0245220
1075.084 .0245338
1075.662 .0245458
1076.240 .0245580
1076.819 .0245704
1077.397 .0245831
1077.976 .0245961
1078.554 .0246092
1079.133 .0246225
1079.711 .0246357
1080.290 .0246487
1080.869 .0246615
1081.448 .0246740
1082.027 .0246863
1082.606 .0246984
1083.185 .0247105
1083.764 .0247227
1084.343 .0247352
1084.923 .0247482
1085.502 .0247618
1086.082 .0247760
1086.662 .0247909
1087.242 .0248064
1087.822 .0248227
1088.402 .0248397
1088.983 .0248574
1089.563 .0248758
1090.144 .0248948
1090.725 .0249144
1091.306 .0249345
1091.887 .0249552
1092.469 .0249765
1093.050 .0249984
1093.632 .0250209
1094.214 .0250440
1094.796 .0250678
1095.379 .0250921
1095.961 .0251168
1096.544 .0251419
1097.127 .0251672
1097.710 .0251926
1098.294 .0252181
1098.877 .0252437
1099.461 .0252694
1100.046 .0252956
1100.630 .0253222
1101.215 .0253496
1101.800 .0253777
1102.385 .0254064
1102.970 .0254357
1103.556 .0254652
1104.142 .0254949
1104.728 .0255244
1105.315 .0255537
1105.902 .0255828
1106.489 .0256118
1107.077 .0256408
1107.664 .0256702
1108.253 .0257000
1108.841 .0257305
1109.430 .0257615
1110.019 .0257931
1110.609 .0258249
1111.198 .0258570
1111.789 .0258893
1112.379 .0259217
1112.970 .0259543
1113.561 .0259874
1114.153 .0260214
1114.745 .0260564
1115.338 .0260928
1115.931 .0261304
1116.524 .0261693
1117.117 .0262094
1117.712 .0262505
1118.306 .0262924
1118.901 .0263350
1119.496 .0263783
1120.092 .0264225
1120.689 .0264677
1121.285 .0265140
1121.882 .0265617
1122.480 .0266111
1123.078 .0266622
1123.677 .0267151
1124.276 .0267699
1124.875 .0268268
1125.476 .0268858
1126.076 .0269471
1126.677 .0270106
1127.279 .0270764
1127.881 .0271445
1128.484 .0272149
1129.087 .0272439
1129.691 .0273181
1130.295 .0273947
1130.900 .0274736
1131.505 .0275549
1132.111 .0276382
1132.718 .0277235
1133.325 .0278112
1133.933 .0279020
1134.541 .0279927
1135.150 .0280840
1135.760 .0281756
1136.370 .0282849
1136.981 .0284125
1137.592 .0285109
1138.204 .0286068
1138.817 .0287065
1139.431 .0288080
1140.045 .0289094
1140.660 .0290119
1141.275 .0291281
1141.891 .0292672
1142.508 .0293207
1143.126 .0293979
1143.744 .0294651
1144.363 .0300278
1144.983 .0305486
