Measurement Sequence started on: 15-12-46-377
Integration time: 28
Scans to Average: 2 
>>>>>Begin Spectral Data<<<<<
432.689 .0000100
433.621 .0000100
434.552 .0000100
435.482 .0000100
436.410 .0000100
437.337 .0000100
438.262 .0263421
439.187 .0557727
440.110 .0923284
441.031 .1335262
441.952 .1065399
442.871 .1112097
443.789 .1155567
444.705 .1196524
445.621 .1235470
446.535 .1272774
447.447 .1294845
448.359 .1300276
449.269 .1285493
450.178 .1248183
451.086 .1189095
451.993 .1112827
452.898 .1026976
453.803 .0940151
454.706 .0859649
455.608 .0789997
456.508 .0732685
457.408 .0694460
458.306 .0665472
459.204 .0642169
460.100 .0622755
460.995 .0606219
461.888 .0591867
462.781 .0579216
463.673 .0567915
464.563 .0557721
465.452 .0548435
466.340 .0539915
467.228 .0532058
468.114 .0524797
468.999 .0518081
469.882 .0511875
470.765 .0506145
471.647 .0500866
472.528 .0496017
473.407 .0491574
474.286 .0487510
475.163 .0483811
476.040 .0480457
476.915 .0477435
477.790 .0474735
478.663 .0472345
479.535 .0470252
480.407 .0468439
481.277 .0466885
482.147 .0465563
483.015 .0464443
483.883 .0463503
484.749 .0462723
485.615 .0462092
486.479 .0461607
487.343 .0461272
488.206 .0461095
489.067 .0461088
489.928 .0461264
490.788 .0461633
491.647 .0462205
492.505 .0462986
493.362 .0463984
494.218 .0465207
495.073 .0466670
495.928 .0469840
496.781 .0471992
497.634 .0474431
498.486 .0477161
499.337 .0480199
500.187 .0483548
501.036 .0487212
501.884 .0491201
502.731 .0495543
503.578 .0500251
504.424 .0503362
505.268 .0508754
506.113 .0514639
506.956 .0521057
507.798 .0528070
508.640 .0535733
509.480 .0544133
510.320 .0553361
511.160 .0563531
511.998 .0574765
512.836 .0587232
513.672 .0601086
514.508 .0616535
515.344 .0633819
516.178 .0653179
517.012 .0674856
517.845 .0699103
518.677 .0726127
519.508 .0756083
520.339 .0789046
521.169 .0825021
521.998 .0863737
522.826 .0904844
523.654 .0947797
524.481 .0991922
525.307 .1036454
526.133 .1080546
526.958 .1123267
527.782 .1163745
528.605 .1201149
529.428 .1234714
530.250 .1263774
531.072 .1287897
531.892 .1306691
532.712 .1319899
533.532 .1327386
534.350 .1329114
535.168 .1325108
535.986 .1315478
536.802 .1300329
537.618 .1279805
538.434 .1254102
539.249 .1223627
540.063 .1188851
540.876 .1150399
541.689 .1109016
542.501 .1065507
543.313 .1020743
544.124 .0975642
544.934 .0931040
545.744 .0887704
546.553 .0846310
547.361 .0807388
548.169 .0771231
548.976 .0738049
549.783 .0707880
550.589 .0680645
551.395 .0656153
552.200 .0634144
553.004 .0614312
553.808 .0596394
554.611 .0580144
555.414 .0565344
556.216 .0551813
557.018 .0539384
557.819 .0527928
558.619 .0517326
559.419 .0507476
560.218 .0498296
561.017 .0489710
561.815 .0481657
562.613 .0474088
563.410 .0466953
564.207 .0460211
565.003 .0453832
565.799 .0447779
566.594 .0442021
567.388 .0436526
568.182 .0431267
568.976 .0426215
569.769 .0421344
570.562 .0416641
571.354 .0412093
572.145 .0407691
572.936 .0403430
573.727 .0399303
574.517 .0395307
575.307 .0391440
576.096 .0387697
576.885 .0384076
577.673 .0380579
578.461 .0377206
579.248 .0373957
580.035 .0370831
580.821 .0367829
581.607 .0364953
582.392 .0362205
583.177 .0359589
583.962 .0357108
584.746 .0354765
585.529 .0352565
586.313 .0350511
587.095 .0348606
587.878 .0346846
588.660 .0345228
589.441 .0343745
590.222 .0342388
591.003 .0341146
591.783 .0340008
592.563 .0338966
593.342 .0338010
594.121 .0337130
594.899 .0336320
595.678 .0335571
596.455 .0334875
597.233 .0334226
598.009 .0333616
598.786 .0333038
599.562 .0332487
600.338 .0331957
601.113 .0331445
601.888 .0330716
602.663 .0330233
603.437 .0329763
604.211 .0329304
604.984 .0328857
605.757 .0328422
606.530 .0328000
607.302 .0327591
608.074 .0327198
608.845 .0326821
609.616 .0326460
610.387 .0326316
611.158 .0325983
611.928 .0325668
612.697 .0325370
613.467 .0325089
614.236 .0324825
615.004 .0324575
615.773 .0324339
616.541 .0324114
617.308 .0323899
618.076 .0323693
618.843 .0323493
619.609 .0323299
620.375 .0323107
621.141 .0322916
621.907 .0322725
622.672 .0322531
623.437 .0322333
624.202 .0322130
624.966 .0321919
625.730 .0321699
626.493 .0321471
627.257 .0321234
628.020 .0320988
628.782 .0320734
629.545 .0320471
630.307 .0320201
631.068 .0319924
631.830 .0319639
632.591 .0319348
633.352 .0319054
634.112 .0318757
634.872 .0318458
635.632 .0318159
636.392 .0317862
637.151 .0317567
637.910 .0317276
638.668 .0316989
639.427 .0316707
640.185 .0316431
640.943 .0316161
641.700 .0315898
642.457 .0315642
643.214 .0315395
643.971 .0315156
644.727 .0314926
645.483 .0314705
646.239 .0314490
646.994 .0314281
647.750 .0314077
648.505 .0313877
649.259 .0313681
650.014 .0313486
650.768 .0313294
651.521 .0313103
652.275 .0312913
653.028 .0312723
653.781 .0312532
654.534 .0312341
655.286 .0312147
656.039 .0311952
656.791 .0311755
657.542 .0311555
658.294 .0311353
659.045 .0311150
659.796 .0310945
660.546 .0310738
661.297 .0310530
662.047 .0310320
662.796 .0310109
663.546 .0309895
664.295 .0309680
665.044 .0309464
665.793 .0309247
666.542 .0309031
667.290 .0308817
668.038 .0308606
668.786 .0308398
669.533 .0308194
670.281 .0307995
671.028 .0307800
671.774 .0307609
672.521 .0307423
673.267 .0307241
674.013 .0307063
674.759 .0306890
675.505 .0306721
676.250 .0306556
676.995 .0306394
677.740 .0306236
678.484 .0306080
679.229 .0305926
679.973 .0305774
680.717 .0305623
681.460 .0305473
682.204 .0305322
682.947 .0305171
683.690 .0305021
684.433 .0304869
685.175 .0304718
685.917 .0304566
686.659 .0304414
687.401 .0304261
688.142 .0304107
688.884 .0303952
689.625 .0303796
690.365 .0303637
691.106 .0303476
691.846 .0303311
692.586 .0303144
693.326 .0302974
694.066 .0302801
694.805 .0302627
695.545 .0302450
696.284 .0302272
697.022 .0302092
697.761 .0301911
698.499 .0301727
699.237 .0301542
699.975 .0301355
700.713 .0301166
701.450 .0300975
702.187 .0300784
702.924 .0300591
703.661 .0300398
704.397 .0300204
705.133 .0300010
705.869 .0299817
706.605 .0299624
707.341 .0299433
708.076 .0299242
708.811 .0299053
709.546 .0298864
710.281 .0298676
711.015 .0298489
711.749 .0298303
712.483 .0298117
713.217 .0297933
713.950 .0297751
714.684 .0297571
715.417 .0297392
716.150 .0297216
716.882 .0297042
717.615 .0296869
718.347 .0296698
719.079 .0296527
719.811 .0296356
720.542 .0296186
721.273 .0296017
722.005 .0295848
722.735 .0295681
723.466 .0295514
724.196 .0295350
724.927 .0295187
725.656 .0295028
726.386 .0294871
727.116 .0294718
727.845 .0294570
728.574 .0294426
729.303 .0294287
730.031 .0294152
730.760 .0294021
731.488 .0293895
732.216 .0293772
732.944 .0293653
733.671 .0293537
734.398 .0293425
735.125 .0293316
735.852 .0293210
736.579 .0293106
737.305 .0293006
738.031 .0292907
738.757 .0292810
739.483 .0292714
740.208 .0292619
740.933 .0292525
741.658 .0292430
742.383 .0292336
743.108 .0292241
743.832 .0292144
744.556 .0292046
745.280 .0291944
746.004 .0291840
746.727 .0291732
747.450 .0291619
748.173 .0291502
748.896 .0291381
749.618 .0291257
750.340 .0291128
751.062 .0290996
751.784 .0290862
752.506 .0290725
753.227 .0290586
753.948 .0290446
754.669 .0290305
755.389 .0290163
756.110 .0290021
756.830 .0289879
757.550 .0289740
758.269 .0289601
758.989 .0289465
759.708 .0289332
760.427 .0289200
761.146 .0289070
761.864 .0288941
762.582 .0288812
763.300 .0288684
764.018 .0288556
764.736 .0288428
765.453 .0288300
766.170 .0288172
766.887 .0288044
767.603 .0287917
768.320 .0287791
769.036 .0287666
769.751 .0287543
770.467 .0287420
771.182 .0287300
771.897 .0287181
772.612 .0287065
773.327 .0286951
774.041 .0286840
774.755 .0286732
775.469 .0286628
776.183 .0286527
776.896 .0286429
777.609 .0286335
778.322 .0286245
779.035 .0286159
779.747 .0286076
780.459 .0285997
781.171 .0285921
781.882 .0285848
782.594 .0285776
783.305 .0285704
784.016 .0285633
784.726 .0285560
785.436 .0285487
786.147 .0285366
786.856 .0285284
787.566 .0285200
788.275 .0285113
788.984 .0285023
789.693 .0284929
790.401 .0284832
791.110 .0284731
791.818 .0284626
792.525 .0284518
793.233 .0284407
793.940 .0284292
794.647 .0284228
795.353 .0284112
796.060 .0283995
796.766 .0283876
797.472 .0283756
798.177 .0283635
798.883 .0283514
799.588 .0283392
800.292 .0283269
800.997 .0283146
801.701 .0283022
802.405 .0282898
803.109 .0282773
803.812 .0282647
804.515 .0282520
805.218 .0282391
805.921 .0282262
806.623 .0282130
807.325 .0281997
808.027 .0281862
808.728 .0281725
809.429 .0281588
810.130 .0281449
810.831 .0281310
811.531 .0281170
812.231 .0281030
812.931 .0280890
813.630 .0280751
814.330 .0280612
815.029 .0280475
815.727 .0280340
816.426 .0280209
817.124 .0280081
817.821 .0279958
818.519 .0279840
819.216 .0279729
819.913 .0279623
820.609 .0279524
821.306 .0279432
822.002 .0279348
822.697 .0279272
823.393 .0279205
824.088 .0279146
824.783 .0279096
825.477 .0279053
826.171 .0279018
826.865 .0278990
827.559 .0278967
828.252 .0278951
828.945 .0278939
829.638 .0278931
830.330 .0278927
831.023 .0278925
831.714 .0278925
832.406 .0278926
833.097 .0278927
833.788 .0278926
834.479 .0278922
835.169 .0278916
835.859 .0278906
836.548 .0278891
837.238 .0278873
837.927 .0278851
838.615 .0278825
839.304 .0278794
839.992 .0278759
840.680 .0278719
841.367 .0278674
842.054 .0278624
842.741 .0278569
843.428 .0278508
844.114 .0278443
844.800 .0278372
845.485 .0278297
846.170 .0278217
846.855 .0278132
847.540 .0278043
848.224 .0277948
848.908 .0277849
849.592 .0277746
850.275 .0277638
850.958 .0277526
851.641 .0277411
852.323 .0277292
853.005 .0277169
853.687 .0277042
854.368 .0276910
855.049 .0276773
855.730 .0276631
856.410 .0276484
857.090 .0276332
857.769 .0276177
858.449 .0276017
859.128 .0275854
859.806 .0275689
860.485 .0275521
861.163 .0275350
861.840 .0275177
862.518 .0275003
863.195 .0274826
863.871 .0274647
864.548 .0274468
865.224 .0274288
865.899 .0274107
866.574 .0273927
867.249 .0273748
867.924 .0273570
868.598 .0273394
869.272 .0273221
869.946 .0273050
870.619 .0272883
871.292 .0272720
871.964 .0272560
872.636 .0272405
873.308 .0272254
873.979 .0272108
874.651 .0271966
875.321 .0271828
875.992 .0271693
876.662 .0271562
877.331 .0271436
878.001 .0271313
878.670 .0271195
879.338 .0271082
880.007 .0270974
880.675 .0270872
881.342 .0270775
882.009 .0270682
882.676 .0270594
883.343 .0270510
884.009 .0270430
884.675 .0270352
885.340 .0270278
886.005 .0270207
886.670 .0270139
887.334 .0270075
887.998 .0270014
888.662 .0269955
889.325 .0269901
889.988 .0269849
890.650 .0269800
891.312 .0269753
891.974 .0269707
892.636 .0269664
893.297 .0269621
893.957 .0269577
894.618 .0269533
895.278 .0269487
895.937 .0269438
896.596 .0269386
897.255 .0269330
897.914 .0269270
898.572 .0269207
899.230 .0269141
899.887 .0269071
900.544 .0268997
901.201 .0268920
901.857 .0268785
902.513 .0268695
903.168 .0268600
903.823 .0268500
904.478 .0268395
905.132 .0268285
905.786 .0268170
906.440 .0268052
907.093 .0267929
907.746 .0267803
908.399 .0267674
909.051 .0267542
909.703 .0267407
910.354 .0267334
911.005 .0267198
911.656 .0267059
912.306 .0266920
912.956 .0266780
913.605 .0266640
914.254 .0266499
914.903 .0266358
915.551 .0266216
916.199 .0266074
916.847 .0265931
917.494 .0265788
918.141 .0265644
918.788 .0265501
919.434 .0265360
920.079 .0265219
920.725 .0265080
921.370 .0264943
922.014 .0264807
922.658 .0264671
923.302 .0264537
923.946 .0264402
924.589 .0264267
925.231 .0264133
925.873 .0263998
926.515 .0263864
927.157 .0263731
927.798 .0263599
928.439 .0263469
929.079 .0263342
929.719 .0263217
930.359 .0263096
930.998 .0262977
931.637 .0262862
932.275 .0262751
932.913 .0262644
933.551 .0262542
934.188 .0262446
934.825 .0262356
935.462 .0262272
936.098 .0262195
936.733 .0262124
937.369 .0262059
938.004 .0261999
938.638 .0261943
939.273 .0261892
939.907 .0261845
940.540 .0261802
941.173 .0261762
941.806 .0261726
942.438 .0261694
943.070 .0261665
943.702 .0261637
944.333 .0261612
944.964 .0261587
945.594 .0261563
946.224 .0261539
946.854 .0261515
947.483 .0261490
948.112 .0261465
948.741 .0261441
949.369 .0261416
949.996 .0261391
950.624 .0261366
951.251 .0261340
951.878 .0261313
952.504 .0261285
953.130 .0261256
953.755 .0261225
954.380 .0261194
955.005 .0261162
955.629 .0261130
956.253 .0261097
956.877 .0261064
957.500 .0261030
958.123 .0260995
958.746 .0260960
959.368 .0260924
959.990 .0260887
960.611 .0260850
961.232 .0260813
961.853 .0260776
962.473 .0260738
963.093 .0260698
963.712 .0260657
964.331 .0260614
964.950 .0260569
965.569 .0260520
966.187 .0260469
966.804 .0260415
967.422 .0260357
968.039 .0260296
968.655 .0260231
969.272 .0260160
969.887 .0260084
970.503 .0260003
971.118 .0259916
971.733 .0259823
972.347 .0259726
972.961 .0259623
973.575 .0259517
974.188 .0259407
974.801 .0259292
975.414 .0259173
976.026 .0259049
976.638 .0258919
977.250 .0258784
977.861 .0258643
978.472 .0258498
979.083 .0258348
979.693 .0258195
980.303 .0258040
980.912 .0257790
981.521 .0257628
982.130 .0257463
982.738 .0257294
983.346 .0257123
983.954 .0256950
984.562 .0256775
985.169 .0256600
985.775 .0256426
986.382 .0256255
986.988 .0256086
987.594 .0255922
988.199 .0255761
988.804 .0255603
989.409 .0255539
990.013 .0255387
990.617 .0255239
991.221 .0255095
991.824 .0254954
992.427 .0254818
993.030 .0254688
993.632 .0254563
994.234 .0254444
994.836 .0254329
995.438 .0254219
996.039 .0254111
996.640 .0254006
997.240 .0253903
997.840 .0253802
998.440 .0253704
999.040 .0253608
999.639 .0253517
1000.238 .0253430
1000.836 .0253347
1001.435 .0253268
1002.033 .0253192
1002.630 .0253119
1003.228 .0253046
1003.825 .0252974
1004.422 .0252901
1005.018 .0252827
1005.614 .0252753
1006.210 .0252679
1006.806 .0252606
1007.401 .0252535
1007.996 .0252466
1008.591 .0252400
1009.186 .0252335
1009.780 .0252273
1010.374 .0252213
1010.967 .0252155
1011.561 .0252099
1012.154 .0252047
1012.746 .0251999
1013.339 .0251957
1013.931 .0251922
1014.523 .0251894
1015.115 .0251874
1015.706 .0251862
1016.298 .0251856
1016.888 .0251857
1017.479 .0251863
1018.069 .0251874
1018.660 .0251889
1019.250 .0251908
1019.839 .0251932
1020.429 .0251961
1021.018 .0251996
1021.607 .0252036
1022.195 .0252083
1022.784 .0252134
1023.372 .0252189
1023.960 .0252248
1024.547 .0252309
1025.135 .0252372
1025.722 .0252435
1026.309 .0252500
1026.896 .0252567
1027.483 .0252635
1028.069 .0252705
1028.655 .0252777
1029.241 .0252851
1029.827 .0252924
1030.412 .0252997
1030.997 .0253068
1031.582 .0253135
1032.167 .0253198
1032.752 .0253257
1033.336 .0253311
1033.921 .0253361
1034.505 .0253408
1035.089 .0253452
1035.672 .0253493
1036.256 .0253532
1036.839 .0253569
1037.422 .0253604
1038.005 .0253635
1038.588 .0253664
1039.171 .0253689
1039.753 .0253712
1040.335 .0253732
1040.918 .0253750
1041.500 .0253767
1042.081 .0253783
1042.663 .0253799
1043.244 .0253815
1043.826 .0253831
1044.407 .0253848
1044.988 .0253865
1045.569 .0253883
1046.150 .0253902
1046.730 .0253921
1047.311 .0253942
1047.891 .0253962
1048.471 .0253984
1049.052 .0254005
1049.632 .0254027
1050.211 .0254049
1050.791 .0254071
1051.371 .0254094
1051.950 .0254118
1052.530 .0254144
1053.109 .0254170
1053.688 .0254199
1054.268 .0254229
1054.847 .0254262
1055.426 .0254297
1056.005 .0254335
1056.583 .0254377
1057.162 .0254423
1057.741 .0254472
1058.319 .0254525
1058.898 .0254581
1059.476 .0254639
1060.055 .0254700
1060.633 .0254762
1061.211 .0254825
1061.790 .0254889
1062.368 .0254954
1062.946 .0255020
1063.524 .0255085
1064.102 .0255151
1064.680 .0255217
1065.258 .0255283
1065.836 .0255348
1066.414 .0255414
1066.992 .0255482
1067.570 .0255551
1068.148 .0255624
1068.726 .0255700
1069.304 .0255780
1069.882 .0255864
1070.460 .0255952
1071.038 .0256043
1071.616 .0256136
1072.194 .0256230
1072.772 .0256322
1073.350 .0256414
1073.928 .0256502
1074.506 .0256588
1075.084 .0256671
1075.662 .0256750
1076.240 .0256826
1076.819 .0256899
1077.397 .0256970
1077.976 .0257038
1078.554 .0257104
1079.133 .0257169
1079.711 .0257233
1080.290 .0257298
1080.869 .0257363
1081.448 .0257432
1082.027 .0257505
1082.606 .0257584
1083.185 .0257667
1083.764 .0257756
1084.343 .0257848
1084.923 .0257945
1085.502 .0258045
1086.082 .0258148
1086.662 .0258256
1087.242 .0258369
1087.822 .0258488
1088.402 .0258614
1088.983 .0258748
1089.563 .0258892
1090.144 .0259047
1090.725 .0259212
1091.306 .0259387
1091.887 .0259574
1092.469 .0259772
1093.050 .0259982
1093.632 .0260205
1094.214 .0260439
1094.796 .0260685
1095.379 .0260940
1095.961 .0261204
1096.544 .0261476
1097.127 .0261753
1097.710 .0262036
1098.294 .0262323
1098.877 .0262615
1099.461 .0262911
1100.046 .0263212
1100.630 .0263520
1101.215 .0263834
1101.800 .0264155
1102.385 .0264481
1102.970 .0264811
1103.556 .0265145
1104.142 .0265481
1104.728 .0265820
1105.315 .0266162
1105.902 .0266507
1106.489 .0266855
1107.077 .0267206
1107.664 .0267561
1108.253 .0267918
1108.841 .0268277
1109.430 .0268639
1110.019 .0269000
1110.609 .0269361
1111.198 .0269720
1111.789 .0270079
1112.379 .0270440
1112.970 .0270803
1113.561 .0271170
1114.153 .0271543
1114.745 .0271923
1115.338 .0272310
1115.931 .0272705
1116.524 .0273108
1117.117 .0273519
1117.712 .0273936
1118.306 .0274362
1118.901 .0274795
1119.496 .0275238
1120.092 .0275693
1120.689 .0276159
1121.285 .0276638
1121.882 .0277130
1122.480 .0277633
1123.078 .0278148
1123.677 .0278677
1124.276 .0279222
1124.875 .0279785
1125.476 .0280369
1126.076 .0280976
1126.677 .0281607
1127.279 .0282266
1127.881 .0282951
1128.484 .0283664
1129.087 .0283957
1129.691 .0284709
1130.295 .0285488
1130.900 .0286293
1131.505 .0287126
1132.111 .0287988
1132.718 .0288883
1133.325 .0289818
1133.933 .0290793
1134.541 .0291816
1135.150 .0292835
1135.760 .0293911
1136.370 .0295206
1136.981 .0295759
1137.592 .0296882
1138.204 .0298008
1138.817 .0299156
1139.431 .0300359
1140.045 .0301623
1140.660 .0302980
1141.275 .0304591
1141.891 .0306190
1142.508 .0308052
1143.126 .0308530
1143.744 .0310710
1144.363 .0317462
1144.983 .0313883
