Measurement Sequence started on: 15-12-46-377
Integration time: 28
Scans to Average: 2 
>>>>>Begin Spectral Data<<<<<
432.689 .0000100
433.621 .0000100
434.552 .0000100
435.482 .0000100
436.410 .0000100
437.337 .0000100
438.262 .0278287
439.187 .0590576
440.110 .0979444
441.031 .1418957
441.952 .1143558
442.871 .1194349
443.789 .1241523
444.705 .1285848
445.621 .1327867
446.535 .1367981
447.447 .1391825
448.359 .1397834
449.269 .1382165
450.178 .1342299
451.086 .1278969
451.993 .1196993
452.898 .1104409
453.803 .1010375
454.706 .0922720
455.608 .0846351
456.508 .0782970
457.408 .0739800
458.306 .0706552
459.204 .0679493
460.100 .0656718
460.995 .0637137
461.888 .0619996
462.781 .0604778
463.673 .0591107
464.563 .0578739
465.452 .0567481
466.340 .0557183
467.228 .0547730
468.114 .0539024
468.999 .0530992
469.882 .0523565
470.765 .0516685
471.647 .0510296
472.528 .0504362
473.407 .0498859
474.286 .0493770
475.163 .0489098
476.040 .0484847
476.915 .0481026
477.790 .0477638
478.663 .0474680
479.535 .0472139
480.407 .0469986
481.277 .0468188
482.147 .0466706
483.015 .0465498
483.883 .0464528
484.749 .0463775
485.615 .0463224
486.479 .0462872
487.343 .0462722
488.206 .0462781
489.067 .0463051
489.928 .0463538
490.788 .0464238
491.647 .0465143
492.505 .0466238
493.362 .0467517
494.218 .0468966
495.073 .0470586
495.928 .0473730
496.781 .0475844
497.634 .0478177
498.486 .0480752
499.337 .0483596
500.187 .0486732
501.036 .0490182
501.884 .0493968
502.731 .0498114
503.578 .0502625
504.424 .0505636
505.268 .0510751
506.113 .0516275
506.956 .0522222
507.798 .0528626
508.640 .0535553
509.480 .0543092
510.320 .0551353
511.160 .0560475
511.998 .0570627
512.836 .0581997
513.672 .0594779
514.508 .0609193
515.344 .0625478
516.178 .0643880
517.012 .0664652
517.845 .0688080
518.677 .0714449
519.508 .0744016
520.339 .0776945
521.169 .0813386
521.998 .0853209
522.826 .0896129
523.654 .0941619
524.481 .0988978
525.307 .1037374
526.133 .1085778
526.958 .1133094
527.782 .1178268
528.605 .1220323
529.428 .1258393
530.250 .1291698
531.072 .1319752
531.892 .1342145
532.712 .1358604
533.532 .1368974
534.350 .1373182
535.168 .1371243
535.986 .1363168
536.802 .1348976
537.618 .1328759
538.434 .1302617
539.249 .1270907
540.063 .1234118
540.876 .1192928
541.689 .1148173
542.501 .1100769
543.313 .1051777
544.124 .1002286
544.934 .0953306
545.744 .0905734
546.553 .0860318
547.361 .0817700
548.169 .0778211
548.976 .0742070
549.783 .0709344
550.589 .0679957
551.395 .0653737
552.200 .0630388
553.004 .0609601
553.808 .0591082
554.611 .0574554
555.414 .0559748
556.216 .0546410
557.018 .0534309
557.819 .0523260
558.619 .0513098
559.419 .0503696
560.218 .0494953
561.017 .0486789
561.815 .0479138
562.613 .0471949
563.410 .0465164
564.207 .0458729
565.003 .0452597
565.799 .0446724
566.594 .0441064
567.388 .0435583
568.182 .0430258
568.976 .0425073
569.769 .0420025
570.562 .0415113
571.354 .0410333
572.145 .0405693
572.936 .0401197
573.727 .0396850
574.517 .0392652
575.307 .0388608
576.096 .0384715
576.885 .0380979
577.673 .0377396
578.461 .0373964
579.248 .0370685
580.035 .0367560
580.821 .0364589
581.607 .0361772
582.392 .0359113
583.177 .0356609
583.962 .0354258
584.746 .0352059
585.529 .0350004
586.313 .0348087
587.095 .0346300
587.878 .0344637
588.660 .0343090
589.441 .0341654
590.222 .0340323
591.003 .0339093
591.783 .0337959
592.563 .0336911
593.342 .0335942
594.121 .0335039
594.899 .0334194
595.678 .0333395
596.455 .0332634
597.233 .0331903
598.009 .0331200
598.786 .0330521
599.562 .0329865
600.338 .0329232
601.113 .0328621
601.888 .0327773
602.663 .0327216
603.437 .0326680
604.211 .0326163
604.984 .0325664
605.757 .0325184
606.530 .0324720
607.302 .0324274
608.074 .0323845
608.845 .0323434
609.616 .0323040
610.387 .0322884
611.158 .0322512
611.928 .0322154
612.697 .0321812
613.467 .0321483
614.236 .0321167
615.004 .0320863
615.773 .0320569
616.541 .0320284
617.308 .0320008
618.076 .0319737
618.843 .0319471
619.609 .0319208
620.375 .0318947
621.141 .0318686
621.907 .0318425
622.672 .0318163
623.437 .0317902
624.202 .0317640
624.966 .0317380
625.730 .0317121
626.493 .0316863
627.257 .0316606
628.020 .0316351
628.782 .0316096
629.545 .0315841
630.307 .0315587
631.068 .0315333
631.830 .0315080
632.591 .0314828
633.352 .0314579
634.112 .0314333
634.872 .0314091
635.632 .0313852
636.392 .0313617
637.151 .0313387
637.910 .0313160
638.668 .0312939
639.427 .0312722
640.185 .0312511
640.943 .0312306
641.700 .0312106
642.457 .0311912
643.214 .0311723
643.971 .0311539
644.727 .0311360
645.483 .0311185
646.239 .0311013
646.994 .0310845
647.750 .0310681
648.505 .0310519
649.259 .0310358
650.014 .0310199
650.768 .0310039
651.521 .0309878
652.275 .0309715
653.028 .0309549
653.781 .0309381
654.534 .0309209
655.286 .0309032
656.039 .0308851
656.791 .0308664
657.542 .0308470
658.294 .0308271
659.045 .0308065
659.796 .0307853
660.546 .0307636
661.297 .0307414
662.047 .0307188
662.796 .0306959
663.546 .0306728
664.295 .0306494
665.044 .0306259
665.793 .0306023
666.542 .0305786
667.290 .0305548
668.038 .0305311
668.786 .0305075
669.533 .0304841
670.281 .0304610
671.028 .0304383
671.774 .0304160
672.521 .0303941
673.267 .0303726
674.013 .0303515
674.759 .0303307
675.505 .0303100
676.250 .0302894
676.995 .0302687
677.740 .0302479
678.484 .0302270
679.229 .0302058
679.973 .0301845
680.717 .0301630
681.460 .0301414
682.204 .0301195
682.947 .0300976
683.690 .0300754
684.433 .0300530
685.175 .0300304
685.917 .0300075
686.659 .0299842
687.401 .0299606
688.142 .0299367
688.884 .0299125
689.625 .0298880
690.365 .0298634
691.106 .0298387
691.846 .0298140
692.586 .0297893
693.326 .0297647
694.066 .0297402
694.805 .0297159
695.545 .0296917
696.284 .0296676
697.022 .0296437
697.761 .0296199
698.499 .0295964
699.237 .0295731
699.975 .0295502
700.713 .0295276
701.450 .0295055
702.187 .0294838
702.924 .0294626
703.661 .0294418
704.397 .0294213
705.133 .0294013
705.869 .0293815
706.605 .0293619
707.341 .0293427
708.076 .0293236
708.811 .0293048
709.546 .0292861
710.281 .0292677
711.015 .0292494
711.749 .0292312
712.483 .0292132
713.217 .0291955
713.950 .0291779
714.684 .0291605
715.417 .0291432
716.150 .0291260
716.882 .0291087
717.615 .0290915
718.347 .0290742
719.079 .0290569
719.811 .0290396
720.542 .0290224
721.273 .0290053
722.005 .0289884
722.735 .0289718
723.466 .0289554
724.196 .0289393
724.927 .0289236
725.656 .0289083
726.386 .0288934
727.116 .0288790
727.845 .0288652
728.574 .0288522
729.303 .0288398
730.031 .0288282
730.760 .0288175
731.488 .0288075
732.216 .0287984
732.944 .0287900
733.671 .0287824
734.398 .0287754
735.125 .0287692
735.852 .0287638
736.579 .0287591
737.305 .0287551
738.031 .0287517
738.757 .0287489
739.483 .0287465
740.208 .0287445
740.933 .0287427
741.658 .0287411
742.383 .0287395
743.108 .0287379
743.832 .0287360
744.556 .0287338
745.280 .0287313
746.004 .0287283
746.727 .0287248
747.450 .0287207
748.173 .0287159
748.896 .0287105
749.618 .0287045
750.340 .0286979
751.062 .0286907
751.784 .0286831
752.506 .0286749
753.227 .0286663
753.948 .0286573
754.669 .0286477
755.389 .0286377
756.110 .0286272
756.830 .0286164
757.550 .0286051
758.269 .0285935
758.989 .0285818
759.708 .0285699
760.427 .0285579
761.146 .0285459
761.864 .0285337
762.582 .0285214
763.300 .0285090
764.018 .0284964
764.736 .0284835
765.453 .0284704
766.170 .0284571
766.887 .0284435
767.603 .0284298
768.320 .0284159
769.036 .0284018
769.751 .0283877
770.467 .0283735
771.182 .0283593
771.897 .0283451
772.612 .0283310
773.327 .0283170
774.041 .0283031
774.755 .0282893
775.469 .0282758
776.183 .0282624
776.896 .0282493
777.609 .0282363
778.322 .0282236
779.035 .0282112
779.747 .0281990
780.459 .0281870
781.171 .0281753
781.882 .0281638
782.594 .0281525
783.305 .0281412
784.016 .0281298
784.726 .0281183
785.436 .0281065
786.147 .0280871
786.856 .0280741
787.566 .0280608
788.275 .0280469
788.984 .0280325
789.693 .0280176
790.401 .0280023
791.110 .0279865
791.818 .0279703
792.525 .0279537
793.233 .0279366
793.940 .0279192
794.647 .0279097
795.353 .0278920
796.060 .0278740
796.766 .0278556
797.472 .0278371
798.177 .0278183
798.883 .0277992
799.588 .0277801
800.292 .0277607
800.997 .0277413
801.701 .0277216
802.405 .0277018
803.109 .0276819
803.812 .0276617
804.515 .0276415
805.218 .0276211
805.921 .0276007
806.623 .0275803
807.325 .0275598
808.027 .0275394
808.728 .0275189
809.429 .0274985
810.130 .0274780
810.831 .0274574
811.531 .0274369
812.231 .0274163
812.931 .0273958
813.630 .0273754
814.330 .0273553
815.029 .0273355
815.727 .0273162
816.426 .0272973
817.124 .0272790
817.821 .0272611
818.519 .0272438
819.216 .0272270
819.913 .0272108
820.609 .0271952
821.306 .0271802
822.002 .0271659
822.697 .0271524
823.393 .0271396
824.088 .0271276
824.783 .0271163
825.477 .0271057
826.171 .0270958
826.865 .0270865
827.559 .0270778
828.252 .0270697
828.945 .0270621
829.638 .0270551
830.330 .0270486
831.023 .0270427
831.714 .0270371
832.406 .0270320
833.097 .0270273
833.788 .0270228
834.479 .0270187
835.169 .0270148
835.859 .0270113
836.548 .0270081
837.238 .0270054
837.927 .0270030
838.615 .0270010
839.304 .0269992
839.992 .0269977
840.680 .0269964
841.367 .0269951
842.054 .0269940
842.741 .0269929
843.428 .0269919
844.114 .0269910
844.800 .0269901
845.485 .0269893
846.170 .0269885
846.855 .0269876
847.540 .0269865
848.224 .0269851
848.908 .0269834
849.592 .0269814
850.275 .0269791
850.958 .0269765
851.641 .0269735
852.323 .0269702
853.005 .0269666
853.687 .0269626
854.368 .0269583
855.049 .0269536
855.730 .0269485
856.410 .0269431
857.090 .0269374
857.769 .0269315
858.449 .0269256
859.128 .0269195
859.806 .0269135
860.485 .0269075
861.163 .0269015
861.840 .0268957
862.518 .0268902
863.195 .0268849
863.871 .0268799
864.548 .0268753
865.224 .0268711
865.899 .0268674
866.574 .0268642
867.249 .0268613
867.924 .0268590
868.598 .0268572
869.272 .0268558
869.946 .0268548
870.619 .0268544
871.292 .0268544
871.964 .0268548
872.636 .0268555
873.308 .0268566
873.979 .0268579
874.651 .0268593
875.321 .0268608
875.992 .0268624
876.662 .0268641
877.331 .0268657
878.001 .0268673
878.670 .0268690
879.338 .0268705
880.007 .0268720
880.675 .0268734
881.342 .0268747
882.009 .0268760
882.676 .0268772
883.343 .0268783
884.009 .0268794
884.675 .0268805
885.340 .0268817
886.005 .0268828
886.670 .0268840
887.334 .0268852
887.998 .0268864
888.662 .0268877
889.325 .0268891
889.988 .0268906
890.650 .0268922
891.312 .0268938
891.974 .0268954
892.636 .0268970
893.297 .0268984
893.957 .0268996
894.618 .0269006
895.278 .0269012
895.937 .0269013
896.596 .0269011
897.255 .0269003
897.914 .0268989
898.572 .0268968
899.230 .0268938
899.887 .0268900
900.544 .0268852
901.201 .0268793
901.857 .0268655
902.513 .0268567
903.168 .0268468
903.823 .0268358
904.478 .0268237
905.132 .0268105
905.786 .0267963
906.440 .0267810
907.093 .0267649
907.746 .0267478
908.399 .0267300
909.051 .0267114
909.703 .0266922
910.354 .0266810
911.005 .0266612
911.656 .0266409
912.306 .0266201
912.956 .0265989
913.605 .0265773
914.254 .0265552
914.903 .0265328
915.551 .0265102
916.199 .0264872
916.847 .0264639
917.494 .0264403
918.141 .0264165
918.788 .0263923
919.434 .0263677
920.079 .0263428
920.725 .0263175
921.370 .0262919
922.014 .0262659
922.658 .0262396
923.302 .0262130
923.946 .0261861
924.589 .0261590
925.231 .0261316
925.873 .0261039
926.515 .0260760
927.157 .0260478
927.798 .0260195
928.439 .0259909
929.079 .0259623
929.719 .0259337
930.359 .0259052
930.998 .0258767
931.637 .0258484
932.275 .0258204
932.913 .0257925
933.551 .0257649
934.188 .0257378
934.825 .0257111
935.462 .0256850
936.098 .0256596
936.733 .0256351
937.369 .0256113
938.004 .0255884
938.638 .0255663
939.273 .0255451
939.907 .0255246
940.540 .0255048
941.173 .0254857
941.806 .0254672
942.438 .0254493
943.070 .0254320
943.702 .0254152
944.333 .0253987
944.964 .0253826
945.594 .0253667
946.224 .0253508
946.854 .0253350
947.483 .0253190
948.112 .0253028
948.741 .0252865
949.369 .0252700
949.996 .0252534
950.624 .0252366
951.251 .0252196
951.878 .0252025
952.504 .0251852
953.130 .0251676
953.755 .0251497
954.380 .0251316
955.005 .0251131
955.629 .0250943
956.253 .0250753
956.877 .0250560
957.500 .0250365
958.123 .0250168
958.746 .0249970
959.368 .0249772
959.990 .0249574
960.611 .0249377
961.232 .0249180
961.853 .0248987
962.473 .0248796
963.093 .0248610
963.712 .0248428
964.331 .0248251
964.950 .0248080
965.569 .0247915
966.187 .0247755
966.804 .0247601
967.422 .0247452
968.039 .0247308
968.655 .0247168
969.272 .0247033
969.887 .0246901
970.503 .0246774
971.118 .0246650
971.733 .0246529
972.347 .0246411
972.961 .0246295
973.575 .0246181
974.188 .0246067
974.801 .0245953
975.414 .0245839
976.026 .0245725
976.638 .0245611
977.250 .0245496
977.861 .0245383
978.472 .0245269
979.083 .0245156
979.693 .0245042
980.303 .0244929
980.912 .0244755
981.521 .0244643
982.130 .0244531
982.738 .0244420
983.346 .0244311
983.954 .0244205
984.562 .0244103
985.169 .0244007
985.775 .0243916
986.382 .0243831
986.988 .0243752
987.594 .0243680
988.199 .0243614
988.804 .0243556
989.409 .0243554
990.013 .0243507
990.617 .0243469
991.221 .0243439
991.824 .0243417
992.427 .0243404
993.030 .0243399
993.632 .0243403
994.234 .0243413
994.836 .0243431
995.438 .0243455
996.039 .0243485
996.640 .0243522
997.240 .0243565
997.840 .0243615
998.440 .0243671
999.040 .0243732
999.639 .0243799
1000.238 .0243870
1000.836 .0243944
1001.435 .0244020
1002.033 .0244098
1002.630 .0244177
1003.228 .0244257
1003.825 .0244338
1004.422 .0244420
1005.018 .0244503
1005.614 .0244587
1006.210 .0244673
1006.806 .0244760
1007.401 .0244850
1007.996 .0244941
1008.591 .0245035
1009.186 .0245131
1009.780 .0245230
1010.374 .0245331
1010.967 .0245435
1011.561 .0245541
1012.154 .0245650
1012.746 .0245762
1013.339 .0245877
1013.931 .0245996
1014.523 .0246118
1015.115 .0246243
1015.706 .0246372
1016.298 .0246505
1016.888 .0246642
1017.479 .0246784
1018.069 .0246930
1018.660 .0247082
1019.250 .0247239
1019.839 .0247403
1020.429 .0247573
1021.018 .0247750
1021.607 .0247932
1022.195 .0248119
1022.784 .0248309
1023.372 .0248503
1023.960 .0248698
1024.547 .0248894
1025.135 .0249090
1025.722 .0249287
1026.309 .0249483
1026.896 .0249680
1027.483 .0249877
1028.069 .0250073
1028.655 .0250269
1029.241 .0250463
1029.827 .0250654
1030.412 .0250843
1030.997 .0251029
1031.582 .0251213
1032.167 .0251395
1032.752 .0251576
1033.336 .0251756
1033.921 .0251936
1034.505 .0252116
1035.089 .0252295
1035.672 .0252473
1036.256 .0252648
1036.839 .0252820
1037.422 .0252987
1038.005 .0253149
1038.588 .0253306
1039.171 .0253458
1039.753 .0253606
1040.335 .0253751
1040.918 .0253892
1041.500 .0254031
1042.081 .0254167
1042.663 .0254302
1043.244 .0254434
1043.826 .0254565
1044.407 .0254693
1044.988 .0254818
1045.569 .0254941
1046.150 .0255060
1046.730 .0255175
1047.311 .0255285
1047.891 .0255392
1048.471 .0255493
1049.052 .0255591
1049.632 .0255684
1050.211 .0255774
1050.791 .0255860
1051.371 .0255944
1051.950 .0256023
1052.530 .0256099
1053.109 .0256171
1053.688 .0256240
1054.268 .0256306
1054.847 .0256370
1055.426 .0256434
1056.005 .0256498
1056.583 .0256565
1057.162 .0256634
1057.741 .0256706
1058.319 .0256780
1058.898 .0256855
1059.476 .0256929
1060.055 .0257000
1060.633 .0257069
1061.211 .0257135
1061.790 .0257200
1062.368 .0257263
1062.946 .0257328
1063.524 .0257394
1064.102 .0257464
1064.680 .0257535
1065.258 .0257609
1065.836 .0257682
1066.414 .0257755
1066.992 .0257826
1067.570 .0257895
1068.148 .0257963
1068.726 .0258031
1069.304 .0258099
1069.882 .0258170
1070.460 .0258243
1071.038 .0258318
1071.616 .0258392
1072.194 .0258465
1072.772 .0258535
1073.350 .0258598
1073.928 .0258653
1074.506 .0258701
1075.084 .0258742
1075.662 .0258778
1076.240 .0258810
1076.819 .0258842
1077.397 .0258873
1077.976 .0258907
1078.554 .0258942
1079.133 .0258977
1079.711 .0259013
1080.290 .0259048
1080.869 .0259082
1081.448 .0259116
1082.027 .0259151
1082.606 .0259189
1083.185 .0259230
1083.764 .0259278
1084.343 .0259331
1084.923 .0259391
1085.502 .0259455
1086.082 .0259522
1086.662 .0259590
1087.242 .0259656
1087.822 .0259721
1088.402 .0259785
1088.983 .0259849
1089.563 .0259916
1090.144 .0259988
1090.725 .0260067
1091.306 .0260155
1091.887 .0260252
1092.469 .0260355
1093.050 .0260464
1093.632 .0260576
1094.214 .0260688
1094.796 .0260798
1095.379 .0260907
1095.961 .0261014
1096.544 .0261121
1097.127 .0261230
1097.710 .0261341
1098.294 .0261456
1098.877 .0261573
1099.461 .0261691
1100.046 .0261808
1100.630 .0261921
1101.215 .0262031
1101.800 .0262135
1102.385 .0262236
1102.970 .0262337
1103.556 .0262442
1104.142 .0262556
1104.728 .0262683
1105.315 .0262825
1105.902 .0262986
1106.489 .0263165
1107.077 .0263361
1107.664 .0263572
1108.253 .0263794
1108.841 .0264026
1109.430 .0264267
1110.019 .0264517
1110.609 .0264778
1111.198 .0265052
1111.789 .0265340
1112.379 .0265645
1112.970 .0265965
1113.561 .0266299
1114.153 .0266646
1114.745 .0267003
1115.338 .0267365
1115.931 .0267732
1116.524 .0268101
1117.117 .0268473
1117.712 .0268852
1118.306 .0269239
1118.901 .0269639
1119.496 .0270053
1120.092 .0270486
1120.689 .0270935
1121.285 .0271401
1121.882 .0271882
1122.480 .0272373
1123.078 .0272870
1123.677 .0273372
1124.276 .0273877
1124.875 .0274387
1125.476 .0274905
1126.076 .0275435
1126.677 .0275980
1127.279 .0276545
1127.881 .0277131
1128.484 .0277743
1129.087 .0277992
1129.691 .0278635
1130.295 .0279307
1130.900 .0280007
1131.505 .0280740
1132.111 .0281510
1132.718 .0282327
1133.325 .0283201
1133.933 .0284150
1134.541 .0285119
1135.150 .0286196
1135.760 .0287353
1136.370 .0288678
1136.981 .0288097
1137.592 .0289272
1138.204 .0290518
1138.817 .0291788
1139.431 .0293125
1140.045 .0294569
1140.660 .0296164
1141.275 .0298027
1141.891 .0300327
1142.508 .0301095
1143.126 .0304384
1143.744 .0306980
1144.363 .0312150
1144.983 .0319716
