Measurement Sequence started on: 15-12-46-377
Integration time: 28
Scans to Average: 2 
>>>>>Begin Spectral Data<<<<<
432.689 .0000100
433.621 .0000100
434.552 .0000100
435.482 .0000100
436.410 .0000100
437.337 .0000100
438.262 .0272817
439.187 .0576943
440.110 .0955871
441.031 .1383170
441.952 .1108124
442.871 .1157114
443.789 .1202663
444.705 .1245481
445.621 .1286043
446.535 .1324719
447.447 .1347420
448.359 .1352713
449.269 .1336841
450.178 .1297400
451.086 .1235162
451.993 .1154882
452.898 .1064406
453.803 .0972653
454.706 .0887206
455.608 .0812787
456.508 .0750999
457.408 .0708884
458.306 .0676297
459.204 .0649675
460.100 .0627196
460.995 .0607863
461.888 .0590996
462.781 .0576143
463.673 .0562958
464.563 .0551195
465.452 .0540654
466.340 .0531179
467.228 .0522650
468.114 .0514979
468.999 .0508093
469.882 .0501936
470.765 .0496448
471.647 .0491575
472.528 .0487270
473.407 .0483466
474.286 .0480103
475.163 .0477130
476.040 .0474489
476.915 .0472146
477.790 .0470070
478.663 .0468237
479.535 .0466636
480.407 .0465253
481.277 .0464077
482.147 .0463086
483.015 .0462265
483.883 .0461595
484.749 .0461059
485.615 .0460650
486.479 .0460358
487.343 .0460181
488.206 .0460126
489.067 .0460196
489.928 .0460400
490.788 .0460749
491.647 .0461249
492.505 .0461909
493.362 .0462737
494.218 .0463745
495.073 .0464944
495.928 .0467484
496.781 .0469261
497.634 .0471277
498.486 .0473545
499.337 .0476070
500.187 .0478859
501.036 .0481927
501.884 .0485291
502.731 .0488982
503.578 .0493032
504.424 .0495856
505.268 .0500586
506.113 .0505791
506.956 .0511524
507.798 .0517844
508.640 .0524821
509.480 .0532555
510.320 .0541162
511.160 .0550763
511.998 .0561513
512.836 .0573591
513.672 .0587188
514.508 .0602525
515.344 .0619859
516.178 .0639456
517.012 .0661592
517.845 .0686555
518.677 .0714602
519.508 .0745931
520.339 .0780661
521.169 .0818817
521.998 .0860132
522.826 .0904216
523.654 .0950447
524.481 .0998057
525.307 .1046173
526.133 .1093834
526.958 .1140029
527.782 .1183783
528.605 .1224242
529.428 .1260638
530.250 .1292299
531.072 .1318793
531.892 .1339713
532.712 .1354797
533.532 .1363866
534.350 .1366823
535.168 .1363633
535.986 .1354326
536.802 .1338974
537.618 .1317674
538.434 .1290603
539.249 .1258210
540.063 .1221039
540.876 .1179839
541.689 .1135481
542.501 .1088906
543.313 .1041104
544.124 .0993072
544.934 .0945735
545.744 .0899875
546.553 .0856153
547.361 .0815100
548.169 .0776990
548.976 .0742033
549.783 .0710268
550.589 .0681626
551.395 .0655950
552.200 .0632991
553.004 .0612454
553.808 .0594044
554.611 .0577505
555.414 .0562597
556.216 .0549089
557.018 .0536774
557.819 .0525484
558.619 .0515065
559.419 .0505395
560.218 .0496377
561.017 .0487926
561.815 .0479974
562.613 .0472462
563.410 .0465333
564.207 .0458532
565.003 .0452014
565.799 .0445735
566.594 .0439660
567.388 .0433768
568.182 .0428037
568.976 .0422456
569.769 .0417028
570.562 .0411760
571.354 .0406658
572.145 .0401736
572.936 .0396999
573.727 .0392453
574.517 .0388096
575.307 .0383928
576.096 .0379942
576.885 .0376136
577.673 .0372508
578.461 .0369055
579.248 .0365776
580.035 .0362670
580.821 .0359736
581.607 .0356973
582.392 .0354380
583.177 .0351953
583.962 .0349685
584.746 .0347567
585.529 .0345592
586.313 .0343751
587.095 .0342033
587.878 .0340433
588.660 .0338940
589.441 .0337551
590.222 .0336257
591.003 .0335055
591.783 .0333939
592.563 .0332903
593.342 .0331939
594.121 .0331040
594.899 .0330197
595.678 .0329404
596.455 .0328651
597.233 .0327936
598.009 .0327252
598.786 .0326597
599.562 .0325968
600.338 .0325365
601.113 .0324788
601.888 .0324020
602.663 .0323509
603.437 .0323023
604.211 .0322558
604.984 .0322115
605.757 .0321689
606.530 .0321280
607.302 .0320887
608.074 .0320508
608.845 .0320143
609.616 .0319792
610.387 .0319648
611.158 .0319316
611.928 .0318997
612.697 .0318689
613.467 .0318391
614.236 .0318101
615.004 .0317817
615.773 .0317538
616.541 .0317263
617.308 .0316991
618.076 .0316720
618.843 .0316452
619.609 .0316185
620.375 .0315921
621.141 .0315661
621.907 .0315405
622.672 .0315153
623.437 .0314905
624.202 .0314660
624.966 .0314418
625.730 .0314179
626.493 .0313941
627.257 .0313706
628.020 .0313474
628.782 .0313246
629.545 .0313022
630.307 .0312802
631.068 .0312588
631.830 .0312377
632.591 .0312171
633.352 .0311967
634.112 .0311764
634.872 .0311563
635.632 .0311362
636.392 .0311161
637.151 .0310960
637.910 .0310761
638.668 .0310563
639.427 .0310368
640.185 .0310175
640.943 .0309985
641.700 .0309797
642.457 .0309611
643.214 .0309426
643.971 .0309242
644.727 .0309057
645.483 .0308871
646.239 .0308683
646.994 .0308493
647.750 .0308300
648.505 .0308105
649.259 .0307905
650.014 .0307702
650.768 .0307495
651.521 .0307283
652.275 .0307066
653.028 .0306844
653.781 .0306615
654.534 .0306378
655.286 .0306133
656.039 .0305880
656.791 .0305619
657.542 .0305351
658.294 .0305077
659.045 .0304798
659.796 .0304517
660.546 .0304234
661.297 .0303951
662.047 .0303669
662.796 .0303389
663.546 .0303112
664.295 .0302839
665.044 .0302571
665.793 .0302309
666.542 .0302056
667.290 .0301812
668.038 .0301578
668.786 .0301354
669.533 .0301140
670.281 .0300935
671.028 .0300739
671.774 .0300550
672.521 .0300368
673.267 .0300192
674.013 .0300022
674.759 .0299855
675.505 .0299690
676.250 .0299527
676.995 .0299364
677.740 .0299199
678.484 .0299032
679.229 .0298861
679.973 .0298686
680.717 .0298507
681.460 .0298324
682.204 .0298138
682.947 .0297949
683.690 .0297758
684.433 .0297563
685.175 .0297366
685.917 .0297167
686.659 .0296965
687.401 .0296763
688.142 .0296560
688.884 .0296356
689.625 .0296153
690.365 .0295951
691.106 .0295749
691.846 .0295549
692.586 .0295350
693.326 .0295154
694.066 .0294959
694.805 .0294767
695.545 .0294577
696.284 .0294389
697.022 .0294203
697.761 .0294017
698.499 .0293832
699.237 .0293645
699.975 .0293458
700.713 .0293269
701.450 .0293080
702.187 .0292891
702.924 .0292702
703.661 .0292513
704.397 .0292325
705.133 .0292138
705.869 .0291951
706.605 .0291763
707.341 .0291575
708.076 .0291385
708.811 .0291195
709.546 .0291005
710.281 .0290814
711.015 .0290624
711.749 .0290435
712.483 .0290248
713.217 .0290062
713.950 .0289878
714.684 .0289696
715.417 .0289516
716.150 .0289336
716.882 .0289158
717.615 .0288980
718.347 .0288802
719.079 .0288623
719.811 .0288444
720.542 .0288264
721.273 .0288084
722.005 .0287904
722.735 .0287727
723.466 .0287551
724.196 .0287377
724.927 .0287206
725.656 .0287038
726.386 .0286871
727.116 .0286706
727.845 .0286543
728.574 .0286381
729.303 .0286220
730.031 .0286062
730.760 .0285907
731.488 .0285756
732.216 .0285610
732.944 .0285469
733.671 .0285334
734.398 .0285203
735.125 .0285077
735.852 .0284954
736.579 .0284835
737.305 .0284720
738.031 .0284607
738.757 .0284497
739.483 .0284389
740.208 .0284284
740.933 .0284181
741.658 .0284079
742.383 .0283979
743.108 .0283879
743.832 .0283779
744.556 .0283678
745.280 .0283575
746.004 .0283469
746.727 .0283360
747.450 .0283248
748.173 .0283131
748.896 .0283010
749.618 .0282885
750.340 .0282755
751.062 .0282621
751.784 .0282484
752.506 .0282343
753.227 .0282198
753.948 .0282050
754.669 .0281898
755.389 .0281742
756.110 .0281582
756.830 .0281417
757.550 .0281248
758.269 .0281076
758.989 .0280901
759.708 .0280725
760.427 .0280548
761.146 .0280371
761.864 .0280194
762.582 .0280019
763.300 .0279845
764.018 .0279672
764.736 .0279500
765.453 .0279329
766.170 .0279159
766.887 .0278990
767.603 .0278824
768.320 .0278661
769.036 .0278502
769.751 .0278347
770.467 .0278197
771.182 .0278054
771.897 .0277916
772.612 .0277784
773.327 .0277658
774.041 .0277538
774.755 .0277423
775.469 .0277314
776.183 .0277210
776.896 .0277111
777.609 .0277018
778.322 .0276930
779.035 .0276848
779.747 .0276771
780.459 .0276700
781.171 .0276633
781.882 .0276569
782.594 .0276508
783.305 .0276449
784.016 .0276390
784.726 .0276330
785.436 .0276268
786.147 .0276165
786.856 .0276095
787.566 .0276022
788.275 .0275945
788.984 .0275865
789.693 .0275781
790.401 .0275693
791.110 .0275601
791.818 .0275505
792.525 .0275405
793.233 .0275302
793.940 .0275196
794.647 .0275131
795.353 .0275023
796.060 .0274913
796.766 .0274800
797.472 .0274684
798.177 .0274565
798.883 .0274444
799.588 .0274320
800.292 .0274194
800.997 .0274067
801.701 .0273939
802.405 .0273810
803.109 .0273681
803.812 .0273551
804.515 .0273420
805.218 .0273287
805.921 .0273152
806.623 .0273015
807.325 .0272876
808.027 .0272734
808.728 .0272590
809.429 .0272445
810.130 .0272297
810.831 .0272148
811.531 .0271998
812.231 .0271846
812.931 .0271693
813.630 .0271539
814.330 .0271385
815.029 .0271232
815.727 .0271080
816.426 .0270930
817.124 .0270784
817.821 .0270642
818.519 .0270504
819.216 .0270371
819.913 .0270243
820.609 .0270122
821.306 .0270008
822.002 .0269900
822.697 .0269801
823.393 .0269710
824.088 .0269628
824.783 .0269554
825.477 .0269488
826.171 .0269430
826.865 .0269378
827.559 .0269333
828.252 .0269292
828.945 .0269257
829.638 .0269225
830.330 .0269196
831.023 .0269170
831.714 .0269145
832.406 .0269122
833.097 .0269099
833.788 .0269075
834.479 .0269052
835.169 .0269027
835.859 .0269000
836.548 .0268973
837.238 .0268944
837.927 .0268913
838.615 .0268880
839.304 .0268845
839.992 .0268807
840.680 .0268765
841.367 .0268720
842.054 .0268671
842.741 .0268618
843.428 .0268562
844.114 .0268502
844.800 .0268439
845.485 .0268372
846.170 .0268301
846.855 .0268224
847.540 .0268143
848.224 .0268056
848.908 .0267963
849.592 .0267864
850.275 .0267759
850.958 .0267649
851.641 .0267535
852.323 .0267416
853.005 .0267295
853.687 .0267171
854.368 .0267044
855.049 .0266914
855.730 .0266782
856.410 .0266648
857.090 .0266513
857.769 .0266377
858.449 .0266240
859.128 .0266104
859.806 .0265969
860.485 .0265835
861.163 .0265702
861.840 .0265572
862.518 .0265443
863.195 .0265317
863.871 .0265194
864.548 .0265075
865.224 .0264959
865.899 .0264847
866.574 .0264739
867.249 .0264634
867.924 .0264533
868.598 .0264434
869.272 .0264338
869.946 .0264242
870.619 .0264147
871.292 .0264053
871.964 .0263959
872.636 .0263866
873.308 .0263774
873.979 .0263682
874.651 .0263591
875.321 .0263501
875.992 .0263411
876.662 .0263323
877.331 .0263235
878.001 .0263149
878.670 .0263063
879.338 .0262980
880.007 .0262899
880.675 .0262821
881.342 .0262746
882.009 .0262674
882.676 .0262606
883.343 .0262541
884.009 .0262480
884.675 .0262422
885.340 .0262369
886.005 .0262319
886.670 .0262272
887.334 .0262229
887.998 .0262189
888.662 .0262152
889.325 .0262117
889.988 .0262084
890.650 .0262053
891.312 .0262023
891.974 .0261995
892.636 .0261968
893.297 .0261941
893.957 .0261914
894.618 .0261887
895.278 .0261858
895.937 .0261826
896.596 .0261790
897.255 .0261749
897.914 .0261703
898.572 .0261650
899.230 .0261591
899.887 .0261524
900.544 .0261451
901.201 .0261371
901.857 .0261218
902.513 .0261120
903.168 .0261015
903.823 .0260902
904.478 .0260782
905.132 .0260654
905.786 .0260519
906.440 .0260377
907.093 .0260229
907.746 .0260075
908.399 .0259916
909.051 .0259752
909.703 .0259584
910.354 .0259492
911.005 .0259320
911.656 .0259145
912.306 .0258967
912.956 .0258787
913.605 .0258605
914.254 .0258423
914.903 .0258240
915.551 .0258058
916.199 .0257876
916.847 .0257694
917.494 .0257513
918.141 .0257333
918.788 .0257153
919.434 .0256974
920.079 .0256795
920.725 .0256617
921.370 .0256439
922.014 .0256262
922.658 .0256086
923.302 .0255910
923.946 .0255735
924.589 .0255560
925.231 .0255384
925.873 .0255208
926.515 .0255031
927.157 .0254855
927.798 .0254678
928.439 .0254501
929.079 .0254325
929.719 .0254150
930.359 .0253975
930.998 .0253802
931.637 .0253629
932.275 .0253457
932.913 .0253286
933.551 .0253116
934.188 .0252948
934.825 .0252782
935.462 .0252618
936.098 .0252458
936.733 .0252302
937.369 .0252149
938.004 .0252000
938.638 .0251856
939.273 .0251716
939.907 .0251580
940.540 .0251449
941.173 .0251323
941.806 .0251202
942.438 .0251087
943.070 .0250977
943.702 .0250872
944.333 .0250772
944.964 .0250675
945.594 .0250581
946.224 .0250488
946.854 .0250397
947.483 .0250308
948.112 .0250219
948.741 .0250131
949.369 .0250043
949.996 .0249957
950.624 .0249872
951.251 .0249786
951.878 .0249700
952.504 .0249614
953.130 .0249526
953.755 .0249437
954.380 .0249347
955.005 .0249257
955.629 .0249166
956.253 .0249075
956.877 .0248983
957.500 .0248891
958.123 .0248799
958.746 .0248706
959.368 .0248612
959.990 .0248517
960.611 .0248422
961.232 .0248328
961.853 .0248234
962.473 .0248141
963.093 .0248049
963.712 .0247959
964.331 .0247869
964.950 .0247780
965.569 .0247691
966.187 .0247604
966.804 .0247517
967.422 .0247431
968.039 .0247347
968.655 .0247265
969.272 .0247184
969.887 .0247104
970.503 .0247025
971.118 .0246947
971.733 .0246867
972.347 .0246787
972.961 .0246706
973.575 .0246623
974.188 .0246539
974.801 .0246454
975.414 .0246368
976.026 .0246281
976.638 .0246193
977.250 .0246104
977.861 .0246014
978.472 .0245922
979.083 .0245829
979.693 .0245735
980.303 .0245642
980.912 .0245503
981.521 .0245412
982.130 .0245322
982.738 .0245233
983.346 .0245146
983.954 .0245060
984.562 .0244977
985.169 .0244896
985.775 .0244819
986.382 .0244745
986.988 .0244676
987.594 .0244612
988.199 .0244554
988.804 .0244501
989.409 .0244490
990.013 .0244444
990.617 .0244402
991.221 .0244363
991.824 .0244328
992.427 .0244296
993.030 .0244266
993.632 .0244240
994.234 .0244217
994.836 .0244196
995.438 .0244177
996.039 .0244160
996.640 .0244143
997.240 .0244126
997.840 .0244110
998.440 .0244095
999.040 .0244080
999.639 .0244067
1000.238 .0244056
1000.836 .0244048
1001.435 .0244043
1002.033 .0244041
1002.630 .0244039
1003.228 .0244039
1003.825 .0244040
1004.422 .0244039
1005.018 .0244038
1005.614 .0244037
1006.210 .0244034
1006.806 .0244032
1007.401 .0244031
1007.996 .0244030
1008.591 .0244031
1009.186 .0244034
1009.780 .0244038
1010.374 .0244043
1010.967 .0244050
1011.561 .0244057
1012.154 .0244065
1012.746 .0244076
1013.339 .0244091
1013.931 .0244110
1014.523 .0244133
1015.115 .0244162
1015.706 .0244196
1016.298 .0244234
1016.888 .0244277
1017.479 .0244324
1018.069 .0244372
1018.660 .0244421
1019.250 .0244471
1019.839 .0244522
1020.429 .0244574
1021.018 .0244627
1021.607 .0244682
1022.195 .0244740
1022.784 .0244799
1023.372 .0244861
1023.960 .0244926
1024.547 .0244994
1025.135 .0245064
1025.722 .0245138
1026.309 .0245215
1026.896 .0245296
1027.483 .0245381
1028.069 .0245470
1028.655 .0245563
1029.241 .0245661
1029.827 .0245761
1030.412 .0245865
1030.997 .0245970
1031.582 .0246078
1032.167 .0246186
1032.752 .0246295
1033.336 .0246403
1033.921 .0246511
1034.505 .0246617
1035.089 .0246723
1035.672 .0246827
1036.256 .0246929
1036.839 .0247030
1037.422 .0247129
1038.005 .0247225
1038.588 .0247320
1039.171 .0247412
1039.753 .0247501
1040.335 .0247587
1040.918 .0247671
1041.500 .0247750
1042.081 .0247827
1042.663 .0247900
1043.244 .0247969
1043.826 .0248034
1044.407 .0248095
1044.988 .0248153
1045.569 .0248206
1046.150 .0248255
1046.730 .0248299
1047.311 .0248337
1047.891 .0248370
1048.471 .0248398
1049.052 .0248421
1049.632 .0248439
1050.211 .0248453
1050.791 .0248464
1051.371 .0248472
1051.950 .0248478
1052.530 .0248482
1053.109 .0248485
1053.688 .0248486
1054.268 .0248487
1054.847 .0248486
1055.426 .0248486
1056.005 .0248486
1056.583 .0248488
1057.162 .0248493
1057.741 .0248500
1058.319 .0248511
1058.898 .0248525
1059.476 .0248542
1060.055 .0248561
1060.633 .0248580
1061.211 .0248600
1061.790 .0248620
1062.368 .0248639
1062.946 .0248658
1063.524 .0248676
1064.102 .0248695
1064.680 .0248715
1065.258 .0248734
1065.836 .0248754
1066.414 .0248773
1066.992 .0248792
1067.570 .0248809
1068.148 .0248827
1068.726 .0248844
1069.304 .0248863
1069.882 .0248883
1070.460 .0248905
1071.038 .0248931
1071.616 .0248959
1072.194 .0248990
1072.772 .0249022
1073.350 .0249056
1073.928 .0249089
1074.506 .0249121
1075.084 .0249152
1075.662 .0249181
1076.240 .0249209
1076.819 .0249236
1077.397 .0249263
1077.976 .0249292
1078.554 .0249321
1079.133 .0249353
1079.711 .0249387
1080.290 .0249422
1080.869 .0249460
1081.448 .0249500
1082.027 .0249543
1082.606 .0249591
1083.185 .0249643
1083.764 .0249701
1084.343 .0249766
1084.923 .0249838
1085.502 .0249917
1086.082 .0250003
1086.662 .0250096
1087.242 .0250196
1087.822 .0250303
1088.402 .0250417
1088.983 .0250539
1089.563 .0250670
1090.144 .0250809
1090.725 .0250956
1091.306 .0251111
1091.887 .0251274
1092.469 .0251443
1093.050 .0251619
1093.632 .0251800
1094.214 .0251985
1094.796 .0252173
1095.379 .0252364
1095.961 .0252555
1096.544 .0252745
1097.127 .0252934
1097.710 .0253118
1098.294 .0253297
1098.877 .0253471
1099.461 .0253637
1100.046 .0253797
1100.630 .0253949
1101.215 .0254094
1101.800 .0254231
1102.385 .0254358
1102.970 .0254475
1103.556 .0254583
1104.142 .0254682
1104.728 .0254773
1105.315 .0254860
1105.902 .0254942
1106.489 .0255024
1107.077 .0255108
1107.664 .0255195
1108.253 .0255286
1108.841 .0255382
1109.430 .0255486
1110.019 .0255597
1110.609 .0255719
1111.198 .0255854
1111.789 .0256007
1112.379 .0256180
1112.970 .0256375
1113.561 .0256594
1114.153 .0256837
1114.745 .0257102
1115.338 .0257390
1115.931 .0257698
1116.524 .0258027
1117.117 .0258376
1117.712 .0258746
1118.306 .0259138
1118.901 .0259553
1119.496 .0259992
1120.092 .0260455
1120.689 .0260941
1121.285 .0261448
1121.882 .0261973
1122.480 .0262512
1123.078 .0263066
1123.677 .0263632
1124.276 .0264213
1124.875 .0264809
1125.476 .0265421
1126.076 .0266048
1126.677 .0266692
1127.279 .0267348
1127.881 .0268014
1128.484 .0268687
1129.087 .0269002
1129.691 .0269676
1130.295 .0270351
1130.900 .0271030
1131.505 .0271720
1132.111 .0272429
1132.718 .0273162
1133.325 .0273928
1133.933 .0274735
1134.541 .0275579
1135.150 .0276485
1135.760 .0277354
1136.370 .0278386
1136.981 .0278709
1137.592 .0279450
1138.204 .0280226
1138.817 .0281068
1139.431 .0282029
1140.045 .0283148
1140.660 .0284369
1141.275 .0285822
1141.891 .0287425
1142.508 .0288976
1143.126 .0291220
1143.744 .0290747
1144.363 .0295931
1144.983 .0297726
