Measurement Sequence started on: 15-12-46-377
Integration time: 28
Scans to Average: 2 
>>>>>Begin Spectral Data<<<<<
432.689 .0000100
433.621 .0000100
434.552 .0000100
435.482 .0000100
436.410 .0000100
437.337 .0000100
438.262 .0305974
439.187 .0647840
440.110 .1073504
441.031 .1553138
441.952 .1241772
442.871 .1296115
443.789 .1346496
444.705 .1393686
445.621 .1438225
446.535 .1480543
447.447 .1504862
448.359 .1509544
449.269 .1490397
450.178 .1444756
451.086 .1373536
451.993 .1282084
452.898 .1179237
453.803 .1075023
454.706 .0977991
455.608 .0893437
456.508 .0823153
457.408 .0775023
458.306 .0737686
459.204 .0707116
460.100 .0681261
460.995 .0658997
461.888 .0639588
462.781 .0622522
463.673 .0607405
464.563 .0593941
465.452 .0581905
466.340 .0571100
467.228 .0561378
468.114 .0552613
468.999 .0544705
469.882 .0537569
470.765 .0531129
471.647 .0525319
472.528 .0520094
473.407 .0515397
474.286 .0511190
475.163 .0507445
476.040 .0504125
476.915 .0501195
477.790 .0498618
478.663 .0496361
479.535 .0494397
480.407 .0492694
481.277 .0491225
482.147 .0489963
483.015 .0488891
483.883 .0487996
484.749 .0487267
485.615 .0486705
486.479 .0486312
487.343 .0486088
488.206 .0486034
489.067 .0486141
489.928 .0486412
490.788 .0486845
491.647 .0487449
492.505 .0488229
493.362 .0489199
494.218 .0490376
495.073 .0491780
495.928 .0494809
496.781 .0496883
497.634 .0499237
498.486 .0501877
499.337 .0504814
500.187 .0508050
501.036 .0511595
501.884 .0515470
502.731 .0519705
503.578 .0524335
504.424 .0527512
505.268 .0532887
506.113 .0538796
506.956 .0545296
507.798 .0552461
508.640 .0560374
509.480 .0569138
510.320 .0578863
511.160 .0589677
511.998 .0601721
512.836 .0615160
513.672 .0630174
514.508 .0646983
515.344 .0665828
516.178 .0686984
517.012 .0710750
517.845 .0737414
518.677 .0767242
519.508 .0800470
520.339 .0837229
521.169 .0877556
521.998 .0921189
522.826 .0967724
523.654 .1016521
524.481 .1066778
525.307 .1117593
526.133 .1167942
526.958 .1216806
527.782 .1263210
528.605 .1306225
529.428 .1345067
530.250 .1379029
531.072 .1407622
531.892 .1430401
532.712 .1447047
533.532 .1457338
534.350 .1461134
535.168 .1458432
535.986 .1449272
536.802 .1433700
537.618 .1411861
538.434 .1383934
539.249 .1350368
540.063 .1311720
540.876 .1268727
541.689 .1222272
542.501 .1173309
543.313 .1122871
544.124 .1071967
544.934 .1021538
545.744 .0972452
546.553 .0925412
547.361 .0881017
548.169 .0839614
548.976 .0801466
549.783 .0766679
550.589 .0735225
551.395 .0706946
552.200 .0681570
553.004 .0658788
553.808 .0638303
554.611 .0619818
555.414 .0603083
556.216 .0587868
557.018 .0573979
557.819 .0561261
558.619 .0549563
559.419 .0538758
560.218 .0528744
561.017 .0519422
561.815 .0510700
562.613 .0502506
563.410 .0494763
564.207 .0487407
565.003 .0480387
565.799 .0473658
566.594 .0467183
567.388 .0460935
568.182 .0454900
568.976 .0449063
569.769 .0443413
570.562 .0437938
571.354 .0432626
572.145 .0427475
572.936 .0422482
573.727 .0417638
574.517 .0412945
575.307 .0408408
576.096 .0404024
576.885 .0399797
577.673 .0395732
578.461 .0391833
579.248 .0388102
580.035 .0384545
580.821 .0381163
581.607 .0377958
582.392 .0374932
583.177 .0372085
583.962 .0369416
584.746 .0366922
585.529 .0364596
586.313 .0362431
587.095 .0360420
587.878 .0358556
588.660 .0356828
589.441 .0355232
590.222 .0353762
591.003 .0352413
591.783 .0351178
592.563 .0350052
593.342 .0349026
594.121 .0348091
594.899 .0347236
595.678 .0346451
596.455 .0345723
597.233 .0345041
598.009 .0344398
598.786 .0343784
599.562 .0343195
600.338 .0342627
601.113 .0342078
601.888 .0341306
602.663 .0340797
603.437 .0340301
604.211 .0339821
604.984 .0339353
605.757 .0338897
606.530 .0338453
607.302 .0338019
608.074 .0337594
608.845 .0337178
609.616 .0336771
610.387 .0336589
611.158 .0336196
611.928 .0335812
612.697 .0335437
613.467 .0335072
614.236 .0334716
615.004 .0334370
615.773 .0334034
616.541 .0333708
617.308 .0333392
618.076 .0333083
618.843 .0332782
619.609 .0332486
620.375 .0332195
621.141 .0331907
621.907 .0331621
622.672 .0331337
623.437 .0331052
624.202 .0330767
624.966 .0330480
625.730 .0330190
626.493 .0329896
627.257 .0329597
628.020 .0329294
628.782 .0328987
629.545 .0328675
630.307 .0328361
631.068 .0328044
631.830 .0327725
632.591 .0327404
633.352 .0327081
634.112 .0326757
634.872 .0326432
635.632 .0326107
636.392 .0325782
637.151 .0325458
637.910 .0325137
638.668 .0324819
639.427 .0324505
640.185 .0324195
640.943 .0323890
641.700 .0323591
642.457 .0323298
643.214 .0323011
643.971 .0322730
644.727 .0322457
645.483 .0322190
646.239 .0321929
646.994 .0321674
647.750 .0321424
648.505 .0321178
649.259 .0320936
650.014 .0320699
650.768 .0320465
651.521 .0320236
652.275 .0320010
653.028 .0319788
653.781 .0319567
654.534 .0319347
655.286 .0319127
656.039 .0318905
656.791 .0318680
657.542 .0318452
658.294 .0318221
659.045 .0317989
659.796 .0317755
660.546 .0317521
661.297 .0317286
662.047 .0317051
662.796 .0316814
663.546 .0316576
664.295 .0316338
665.044 .0316098
665.793 .0315858
666.542 .0315618
667.290 .0315379
668.038 .0315141
668.786 .0314906
669.533 .0314674
670.281 .0314443
671.028 .0314215
671.774 .0313989
672.521 .0313765
673.267 .0313543
674.013 .0313324
674.759 .0313105
675.505 .0312889
676.250 .0312675
676.995 .0312462
677.740 .0312250
678.484 .0312040
679.229 .0311830
679.973 .0311621
680.717 .0311412
681.460 .0311202
682.204 .0310990
682.947 .0310776
683.690 .0310558
684.433 .0310336
685.175 .0310109
685.917 .0309876
686.659 .0309638
687.401 .0309395
688.142 .0309148
688.884 .0308899
689.625 .0308648
690.365 .0308395
691.106 .0308141
691.846 .0307885
692.586 .0307628
693.326 .0307369
694.066 .0307109
694.805 .0306848
695.545 .0306587
696.284 .0306327
697.022 .0306068
697.761 .0305812
698.499 .0305559
699.237 .0305310
699.975 .0305064
700.713 .0304823
701.450 .0304586
702.187 .0304353
702.924 .0304124
703.661 .0303899
704.397 .0303678
705.133 .0303461
705.869 .0303247
706.605 .0303038
707.341 .0302832
708.076 .0302632
708.811 .0302436
709.546 .0302246
710.281 .0302062
711.015 .0301884
711.749 .0301711
712.483 .0301542
713.217 .0301377
713.950 .0301215
714.684 .0301054
715.417 .0300894
716.150 .0300735
716.882 .0300577
717.615 .0300420
718.347 .0300264
719.079 .0300109
719.811 .0299956
720.542 .0299803
721.273 .0299651
722.005 .0299499
722.735 .0299347
723.466 .0299196
724.196 .0299046
724.927 .0298895
725.656 .0298746
726.386 .0298597
727.116 .0298450
727.845 .0298303
728.574 .0298158
729.303 .0298015
730.031 .0297873
730.760 .0297735
731.488 .0297599
732.216 .0297466
732.944 .0297336
733.671 .0297208
734.398 .0297083
735.125 .0296960
735.852 .0296839
736.579 .0296720
737.305 .0296605
738.031 .0296493
738.757 .0296386
739.483 .0296282
740.208 .0296182
740.933 .0296085
741.658 .0295990
742.383 .0295897
743.108 .0295804
743.832 .0295713
744.556 .0295623
745.280 .0295533
746.004 .0295444
746.727 .0295355
747.450 .0295264
748.173 .0295173
748.896 .0295079
749.618 .0294982
750.340 .0294882
751.062 .0294779
751.784 .0294672
752.506 .0294561
753.227 .0294445
753.948 .0294323
754.669 .0294195
755.389 .0294060
756.110 .0293917
756.830 .0293766
757.550 .0293607
758.269 .0293441
758.989 .0293268
759.708 .0293089
760.427 .0292904
761.146 .0292713
761.864 .0292517
762.582 .0292316
763.300 .0292110
764.018 .0291901
764.736 .0291690
765.453 .0291477
766.170 .0291264
766.887 .0291051
767.603 .0290840
768.320 .0290629
769.036 .0290420
769.751 .0290213
770.467 .0290008
771.182 .0289806
771.897 .0289608
772.612 .0289413
773.327 .0289223
774.041 .0289039
774.755 .0288859
775.469 .0288684
776.183 .0288514
776.896 .0288349
777.609 .0288189
778.322 .0288032
779.035 .0287880
779.747 .0287732
780.459 .0287587
781.171 .0287446
781.882 .0287308
782.594 .0287173
783.305 .0287040
784.016 .0286910
784.726 .0286782
785.436 .0286655
786.147 .0286472
786.856 .0286348
787.566 .0286225
788.275 .0286103
788.984 .0285982
789.693 .0285862
790.401 .0285742
791.110 .0285624
791.818 .0285507
792.525 .0285391
793.233 .0285275
793.940 .0285160
794.647 .0285103
795.353 .0284988
796.060 .0284872
796.766 .0284756
797.472 .0284639
798.177 .0284523
798.883 .0284406
799.588 .0284289
800.292 .0284171
800.997 .0284052
801.701 .0283931
802.405 .0283810
803.109 .0283687
803.812 .0283563
804.515 .0283438
805.218 .0283313
805.921 .0283186
806.623 .0283059
807.325 .0282931
808.027 .0282801
808.728 .0282671
809.429 .0282539
810.130 .0282406
810.831 .0282273
811.531 .0282140
812.231 .0282009
812.931 .0281879
813.630 .0281752
814.330 .0281628
815.029 .0281509
815.727 .0281395
816.426 .0281285
817.124 .0281181
817.821 .0281084
818.519 .0280992
819.216 .0280907
819.913 .0280830
820.609 .0280761
821.306 .0280700
822.002 .0280648
822.697 .0280604
823.393 .0280569
824.088 .0280542
824.783 .0280523
825.477 .0280511
826.171 .0280506
826.865 .0280507
827.559 .0280512
828.252 .0280523
828.945 .0280537
829.638 .0280556
830.330 .0280578
831.023 .0280604
831.714 .0280632
832.406 .0280662
833.097 .0280692
833.788 .0280723
834.479 .0280754
835.169 .0280783
835.859 .0280810
836.548 .0280836
837.238 .0280859
837.927 .0280879
838.615 .0280896
839.304 .0280909
839.992 .0280917
840.680 .0280920
841.367 .0280918
842.054 .0280910
842.741 .0280895
843.428 .0280874
844.114 .0280847
844.800 .0280812
845.485 .0280771
846.170 .0280721
846.855 .0280663
847.540 .0280596
848.224 .0280520
848.908 .0280433
849.592 .0280335
850.275 .0280227
850.958 .0280109
851.641 .0279979
852.323 .0279840
853.005 .0279689
853.687 .0279529
854.368 .0279358
855.049 .0279176
855.730 .0278985
856.410 .0278784
857.090 .0278574
857.769 .0278357
858.449 .0278132
859.128 .0277900
859.806 .0277664
860.485 .0277423
861.163 .0277180
861.840 .0276934
862.518 .0276689
863.195 .0276444
863.871 .0276200
864.548 .0275959
865.224 .0275719
865.899 .0275482
866.574 .0275247
867.249 .0275014
867.924 .0274784
868.598 .0274558
869.272 .0274335
869.946 .0274117
870.619 .0273903
871.292 .0273695
871.964 .0273491
872.636 .0273292
873.308 .0273098
873.979 .0272908
874.651 .0272722
875.321 .0272540
875.992 .0272363
876.662 .0272191
877.331 .0272022
878.001 .0271858
878.670 .0271697
879.338 .0271540
880.007 .0271386
880.675 .0271234
881.342 .0271086
882.009 .0270941
882.676 .0270799
883.343 .0270660
884.009 .0270526
884.675 .0270395
885.340 .0270269
886.005 .0270146
886.670 .0270028
887.334 .0269913
887.998 .0269802
888.662 .0269694
889.325 .0269589
889.988 .0269487
890.650 .0269388
891.312 .0269291
891.974 .0269196
892.636 .0269101
893.297 .0269008
893.957 .0268914
894.618 .0268820
895.278 .0268724
895.937 .0268625
896.596 .0268523
897.255 .0268418
897.914 .0268310
898.572 .0268197
899.230 .0268080
899.887 .0267959
900.544 .0267833
901.201 .0267703
901.857 .0267486
902.513 .0267344
903.168 .0267198
903.823 .0267047
904.478 .0266892
905.132 .0266733
905.786 .0266570
906.440 .0266404
907.093 .0266236
907.746 .0266068
908.399 .0265898
909.051 .0265728
909.703 .0265559
910.354 .0265480
911.005 .0265315
911.656 .0265152
912.306 .0264992
912.956 .0264835
913.605 .0264682
914.254 .0264534
914.903 .0264391
915.551 .0264252
916.199 .0264118
916.847 .0263988
917.494 .0263862
918.141 .0263739
918.788 .0263619
919.434 .0263502
920.079 .0263387
920.725 .0263275
921.370 .0263165
922.014 .0263057
922.658 .0262952
923.302 .0262848
923.946 .0262745
924.589 .0262644
925.231 .0262544
925.873 .0262444
926.515 .0262344
927.157 .0262245
927.798 .0262146
928.439 .0262047
929.079 .0261949
929.719 .0261851
930.359 .0261755
930.998 .0261661
931.637 .0261569
932.275 .0261479
932.913 .0261393
933.551 .0261312
934.188 .0261236
934.825 .0261166
935.462 .0261103
936.098 .0261047
936.733 .0261000
937.369 .0260960
938.004 .0260929
938.638 .0260907
939.273 .0260893
939.907 .0260887
940.540 .0260889
941.173 .0260900
941.806 .0260917
942.438 .0260943
943.070 .0260975
943.702 .0261013
944.333 .0261057
944.964 .0261107
945.594 .0261160
946.224 .0261217
946.854 .0261277
947.483 .0261338
948.112 .0261399
948.741 .0261460
949.369 .0261520
949.996 .0261578
950.624 .0261635
951.251 .0261689
951.878 .0261742
952.504 .0261791
953.130 .0261838
953.755 .0261882
954.380 .0261921
955.005 .0261956
955.629 .0261986
956.253 .0262011
956.877 .0262030
957.500 .0262044
958.123 .0262053
958.746 .0262058
959.368 .0262058
959.990 .0262055
960.611 .0262048
961.232 .0262038
961.853 .0262024
962.473 .0262007
963.093 .0261986
963.712 .0261960
964.331 .0261932
964.950 .0261899
965.569 .0261864
966.187 .0261826
966.804 .0261784
967.422 .0261739
968.039 .0261690
968.655 .0261636
969.272 .0261578
969.887 .0261516
970.503 .0261449
971.118 .0261378
971.733 .0261304
972.347 .0261225
972.961 .0261142
973.575 .0261055
974.188 .0260962
974.801 .0260864
975.414 .0260759
976.026 .0260646
976.638 .0260527
977.250 .0260400
977.861 .0260267
978.472 .0260128
979.083 .0259984
979.693 .0259836
980.303 .0259684
980.912 .0259437
981.521 .0259276
982.130 .0259113
982.738 .0258947
983.346 .0258779
983.954 .0258608
984.562 .0258437
985.169 .0258264
985.775 .0258091
986.382 .0257918
986.988 .0257745
987.594 .0257571
988.199 .0257396
988.804 .0257220
989.409 .0257139
990.013 .0256963
990.617 .0256788
991.221 .0256613
991.824 .0256440
992.427 .0256270
993.030 .0256102
993.632 .0255937
994.234 .0255775
994.836 .0255616
995.438 .0255458
996.039 .0255303
996.640 .0255151
997.240 .0255001
997.840 .0254856
998.440 .0254716
999.040 .0254580
999.639 .0254450
1000.238 .0254324
1000.836 .0254202
1001.435 .0254083
1002.033 .0253966
1002.630 .0253849
1003.228 .0253734
1003.825 .0253620
1004.422 .0253506
1005.018 .0253395
1005.614 .0253285
1006.210 .0253178
1006.806 .0253074
1007.401 .0252972
1007.996 .0252873
1008.591 .0252777
1009.186 .0252682
1009.780 .0252589
1010.374 .0252497
1010.967 .0252405
1011.561 .0252314
1012.154 .0252223
1012.746 .0252131
1013.339 .0252039
1013.931 .0251947
1014.523 .0251854
1015.115 .0251761
1015.706 .0251667
1016.298 .0251573
1016.888 .0251477
1017.479 .0251382
1018.069 .0251287
1018.660 .0251192
1019.250 .0251099
1019.839 .0251008
1020.429 .0250921
1021.018 .0250837
1021.607 .0250758
1022.195 .0250685
1022.784 .0250617
1023.372 .0250554
1023.960 .0250497
1024.547 .0250444
1025.135 .0250395
1025.722 .0250349
1026.309 .0250306
1026.896 .0250265
1027.483 .0250226
1028.069 .0250188
1028.655 .0250152
1029.241 .0250118
1029.827 .0250086
1030.412 .0250055
1030.997 .0250027
1031.582 .0250001
1032.167 .0249976
1032.752 .0249953
1033.336 .0249932
1033.921 .0249912
1034.505 .0249894
1035.089 .0249878
1035.672 .0249863
1036.256 .0249851
1036.839 .0249841
1037.422 .0249832
1038.005 .0249824
1038.588 .0249816
1039.171 .0249807
1039.753 .0249795
1040.335 .0249782
1040.918 .0249766
1041.500 .0249747
1042.081 .0249725
1042.663 .0249702
1043.244 .0249678
1043.826 .0249655
1044.407 .0249634
1044.988 .0249616
1045.569 .0249601
1046.150 .0249590
1046.730 .0249584
1047.311 .0249581
1047.891 .0249582
1048.471 .0249586
1049.052 .0249592
1049.632 .0249599
1050.211 .0249608
1050.791 .0249617
1051.371 .0249627
1051.950 .0249637
1052.530 .0249647
1053.109 .0249656
1053.688 .0249663
1054.268 .0249669
1054.847 .0249673
1055.426 .0249675
1056.005 .0249676
1056.583 .0249677
1057.162 .0249679
1057.741 .0249683
1058.319 .0249691
1058.898 .0249703
1059.476 .0249721
1060.055 .0249746
1060.633 .0249777
1061.211 .0249815
1061.790 .0249860
1062.368 .0249911
1062.946 .0249969
1063.524 .0250032
1064.102 .0250099
1064.680 .0250170
1065.258 .0250244
1065.836 .0250320
1066.414 .0250399
1066.992 .0250480
1067.570 .0250563
1068.148 .0250648
1068.726 .0250734
1069.304 .0250821
1069.882 .0250910
1070.460 .0251001
1071.038 .0251094
1071.616 .0251190
1072.194 .0251289
1072.772 .0251393
1073.350 .0251501
1073.928 .0251616
1074.506 .0251736
1075.084 .0251864
1075.662 .0251998
1076.240 .0252139
1076.819 .0252286
1077.397 .0252438
1077.976 .0252595
1078.554 .0252757
1079.133 .0252924
1079.711 .0253094
1080.290 .0253267
1080.869 .0253445
1081.448 .0253625
1082.027 .0253809
1082.606 .0253996
1083.185 .0254186
1083.764 .0254379
1084.343 .0254574
1084.923 .0254772
1085.502 .0254974
1086.082 .0255179
1086.662 .0255388
1087.242 .0255602
1087.822 .0255822
1088.402 .0256047
1088.983 .0256278
1089.563 .0256513
1090.144 .0256753
1090.725 .0256997
1091.306 .0257244
1091.887 .0257493
1092.469 .0257743
1093.050 .0257994
1093.632 .0258245
1094.214 .0258494
1094.796 .0258742
1095.379 .0258988
1095.961 .0259231
1096.544 .0259471
1097.127 .0259708
1097.710 .0259943
1098.294 .0260177
1098.877 .0260414
1099.461 .0260654
1100.046 .0260900
1100.630 .0261152
1101.215 .0261413
1101.800 .0261683
1102.385 .0261962
1102.970 .0262251
1103.556 .0262549
1104.142 .0262856
1104.728 .0263172
1105.315 .0263497
1105.902 .0263832
1106.489 .0264178
1107.077 .0264533
1107.664 .0264899
1108.253 .0265275
1108.841 .0265659
1109.430 .0266052
1110.019 .0266451
1110.609 .0266855
1111.198 .0267265
1111.789 .0267679
1112.379 .0268099
1112.970 .0268526
1113.561 .0268961
1114.153 .0269407
1114.745 .0269866
1115.338 .0270339
1115.931 .0270825
1116.524 .0271325
1117.117 .0271835
1117.712 .0272353
1118.306 .0272877
1118.901 .0273404
1119.496 .0273933
1120.092 .0274464
1120.689 .0274994
1121.285 .0275525
1121.882 .0276058
1122.480 .0276590
1123.078 .0277123
1123.677 .0277656
1124.276 .0278189
1124.875 .0278723
1125.476 .0279260
1126.076 .0279804
1126.677 .0280361
1127.279 .0280934
1127.881 .0281529
1128.484 .0282151
1129.087 .0282428
1129.691 .0283091
1130.295 .0283790
1130.900 .0284529
1131.505 .0285313
1132.111 .0286141
1132.718 .0287015
1133.325 .0287936
1133.933 .0288902
1134.541 .0289981
1135.150 .0291056
1135.760 .0292178
1136.370 .0293320
1136.981 .0292034
1137.592 .0293398
1138.204 .0294863
1138.817 .0296444
1139.431 .0298218
1140.045 .0300049
1140.660 .0301959
1141.275 .0303895
1141.891 .0305835
1142.508 .0309651
1143.126 .0310149
1143.744 .0311972
1144.363 .0313054
1144.983 .0313899
