Measurement Sequence started on: 15-12-46-377
Integration time: 28
Scans to Average: 2 
>>>>>Begin Spectral Data<<<<<
432.689 .0000100
433.621 .0000100
434.552 .0000100
435.482 .0000100
436.410 .0000100
437.337 .0000100
438.262 .0273178
439.187 .0578631
440.110 .0958012
441.031 .1386575
441.952 .1113204
442.871 .1162476
443.789 .1208273
444.705 .1251339
445.621 .1292201
446.535 .1331262
447.447 .1354428
448.359 .1360203
449.269 .1344862
450.178 .1305938
451.086 .1244176
451.993 .1164309
452.898 .1074189
453.803 .0982745
454.706 .0897594
455.608 .0823485
456.508 .0762045
457.408 .0720337
458.306 .0688240
459.204 .0662112
460.100 .0640152
460.995 .0621310
461.888 .0604871
462.781 .0590342
463.673 .0577352
464.563 .0565651
465.452 .0555054
466.340 .0545416
467.228 .0536632
468.114 .0528620
468.999 .0521308
469.882 .0514638
470.765 .0508554
471.647 .0503009
472.528 .0497966
473.407 .0493388
474.286 .0489241
475.163 .0485503
476.040 .0482143
476.915 .0479134
477.790 .0476447
478.663 .0474051
479.535 .0471919
480.407 .0470028
481.277 .0468356
482.147 .0466888
483.015 .0465617
483.883 .0464537
484.749 .0463640
485.615 .0462923
486.479 .0462377
487.343 .0461999
488.206 .0461786
489.067 .0461737
489.928 .0461853
490.788 .0462148
491.647 .0462633
492.505 .0463319
493.362 .0464225
494.218 .0465364
495.073 .0466746
495.928 .0469715
496.781 .0471710
497.634 .0473939
498.486 .0476404
499.337 .0479113
500.187 .0482078
501.036 .0485322
501.884 .0488869
502.731 .0492758
503.578 .0497022
504.424 .0499916
505.268 .0504858
506.113 .0510264
506.956 .0516166
507.798 .0522614
508.640 .0529669
509.480 .0537420
510.320 .0545973
511.160 .0555439
511.998 .0565961
512.836 .0577684
513.672 .0590760
514.508 .0605377
515.344 .0621732
516.178 .0640012
517.012 .0660434
517.845 .0683198
518.677 .0708496
519.508 .0736484
520.339 .0767234
521.169 .0800779
521.998 .0836922
522.826 .0875342
523.654 .0915517
524.481 .0956814
525.307 .0998519
526.133 .1039780
526.958 .1079743
527.782 .1117563
528.605 .1152454
529.428 .1183753
530.250 .1210865
531.072 .1233408
531.892 .1251058
532.712 .1263609
533.532 .1270942
534.350 .1272991
535.168 .1269790
535.986 .1261379
536.802 .1247816
537.618 .1229226
538.434 .1205727
539.249 .1177657
540.063 .1145479
540.876 .1109817
541.689 .1071395
542.501 .1030992
543.313 .0989468
544.124 .0947657
544.934 .0906338
545.744 .0866219
546.553 .0827852
547.361 .0791721
548.169 .0758099
548.976 .0727160
549.783 .0698950
550.589 .0673420
551.395 .0650428
552.200 .0629743
553.004 .0611118
553.808 .0594308
554.611 .0579071
555.414 .0565217
556.216 .0552563
557.018 .0540929
557.819 .0530177
558.619 .0520174
559.419 .0510807
560.218 .0501995
561.017 .0493670
561.815 .0485776
562.613 .0478276
563.410 .0471137
564.207 .0464319
565.003 .0457784
565.799 .0451495
566.594 .0445417
567.388 .0439528
568.182 .0433809
568.976 .0428240
569.769 .0422817
570.562 .0417542
571.354 .0412422
572.145 .0407465
572.936 .0402675
573.727 .0398058
574.517 .0393612
575.307 .0389340
576.096 .0385234
576.885 .0381296
577.673 .0377523
578.461 .0373916
579.248 .0370476
580.035 .0367203
580.821 .0364098
581.607 .0361160
582.392 .0358388
583.177 .0355780
583.962 .0353330
584.746 .0351031
585.529 .0348877
586.313 .0346861
587.095 .0344976
587.878 .0343214
588.660 .0341569
589.441 .0340033
590.222 .0338601
591.003 .0337266
591.783 .0336020
592.563 .0334858
593.342 .0333771
594.121 .0332752
594.899 .0331792
595.678 .0330883
596.455 .0330019
597.233 .0329195
598.009 .0328407
598.786 .0327653
599.562 .0326931
600.338 .0326240
601.113 .0325581
601.888 .0324719
602.663 .0324141
603.437 .0323593
604.211 .0323077
604.984 .0322590
605.757 .0322132
606.530 .0321703
607.302 .0321300
608.074 .0320922
608.845 .0320566
609.616 .0320232
610.387 .0320101
611.158 .0319788
611.928 .0319491
612.697 .0319209
613.467 .0318940
614.236 .0318684
615.004 .0318438
615.773 .0318201
616.541 .0317972
617.308 .0317748
618.076 .0317527
618.843 .0317309
619.609 .0317092
620.375 .0316874
621.141 .0316657
621.907 .0316440
622.672 .0316224
623.437 .0316009
624.202 .0315794
624.966 .0315580
625.730 .0315366
626.493 .0315152
627.257 .0314935
628.020 .0314715
628.782 .0314493
629.545 .0314266
630.307 .0314034
631.068 .0313799
631.830 .0313558
632.591 .0313313
633.352 .0313064
634.112 .0312812
634.872 .0312558
635.632 .0312301
636.392 .0312043
637.151 .0311785
637.910 .0311525
638.668 .0311263
639.427 .0311000
640.185 .0310734
640.943 .0310467
641.700 .0310199
642.457 .0309931
643.214 .0309665
643.971 .0309403
644.727 .0309147
645.483 .0308896
646.239 .0308652
646.994 .0308413
647.750 .0308179
648.505 .0307948
649.259 .0307720
650.014 .0307495
650.768 .0307271
651.521 .0307049
652.275 .0306828
653.028 .0306610
653.781 .0306394
654.534 .0306180
655.286 .0305967
656.039 .0305756
656.791 .0305546
657.542 .0305337
658.294 .0305128
659.045 .0304918
659.796 .0304708
660.546 .0304495
661.297 .0304279
662.047 .0304060
662.796 .0303838
663.546 .0303612
664.295 .0303384
665.044 .0303156
665.793 .0302927
666.542 .0302700
667.290 .0302474
668.038 .0302249
668.786 .0302026
669.533 .0301803
670.281 .0301582
671.028 .0301361
671.774 .0301141
672.521 .0300924
673.267 .0300710
674.013 .0300501
674.759 .0300297
675.505 .0300098
676.250 .0299904
676.995 .0299715
677.740 .0299531
678.484 .0299351
679.229 .0299175
679.973 .0299002
680.717 .0298834
681.460 .0298668
682.204 .0298504
682.947 .0298342
683.690 .0298180
684.433 .0298018
685.175 .0297855
685.917 .0297691
686.659 .0297525
687.401 .0297357
688.142 .0297187
688.884 .0297014
689.625 .0296839
690.365 .0296661
691.106 .0296478
691.846 .0296293
692.586 .0296104
693.326 .0295912
694.066 .0295717
694.805 .0295521
695.545 .0295325
696.284 .0295128
697.022 .0294931
697.761 .0294734
698.499 .0294538
699.237 .0294343
699.975 .0294148
700.713 .0293955
701.450 .0293764
702.187 .0293575
702.924 .0293389
703.661 .0293206
704.397 .0293025
705.133 .0292848
705.869 .0292673
706.605 .0292501
707.341 .0292330
708.076 .0292161
708.811 .0291994
709.546 .0291827
710.281 .0291659
711.015 .0291492
711.749 .0291324
712.483 .0291154
713.217 .0290984
713.950 .0290813
714.684 .0290642
715.417 .0290469
716.150 .0290297
716.882 .0290123
717.615 .0289947
718.347 .0289769
719.079 .0289587
719.811 .0289402
720.542 .0289213
721.273 .0289020
722.005 .0288825
722.735 .0288630
723.466 .0288434
724.196 .0288239
724.927 .0288047
725.656 .0287858
726.386 .0287672
727.116 .0287489
727.845 .0287310
728.574 .0287135
729.303 .0286965
730.031 .0286799
730.760 .0286640
731.488 .0286487
732.216 .0286340
732.944 .0286201
733.671 .0286069
734.398 .0285944
735.125 .0285827
735.852 .0285716
736.579 .0285611
737.305 .0285513
738.031 .0285419
738.757 .0285330
739.483 .0285243
740.208 .0285159
740.933 .0285077
741.658 .0284994
742.383 .0284911
743.108 .0284828
743.832 .0284744
744.556 .0284658
745.280 .0284571
746.004 .0284482
746.727 .0284390
747.450 .0284295
748.173 .0284196
748.896 .0284092
749.618 .0283984
750.340 .0283871
751.062 .0283755
751.784 .0283636
752.506 .0283515
753.227 .0283393
753.948 .0283269
754.669 .0283145
755.389 .0283018
756.110 .0282890
756.830 .0282760
757.550 .0282628
758.269 .0282494
758.989 .0282359
759.708 .0282223
760.427 .0282087
761.146 .0281951
761.864 .0281815
762.582 .0281679
763.300 .0281543
764.018 .0281406
764.736 .0281269
765.453 .0281132
766.170 .0280994
766.887 .0280856
767.603 .0280719
768.320 .0280583
769.036 .0280448
769.751 .0280316
770.467 .0280186
771.182 .0280058
771.897 .0279935
772.612 .0279815
773.327 .0279700
774.041 .0279590
774.755 .0279486
775.469 .0279387
776.183 .0279294
776.896 .0279206
777.609 .0279125
778.322 .0279049
779.035 .0278979
779.747 .0278915
780.459 .0278857
781.171 .0278803
781.882 .0278754
782.594 .0278708
783.305 .0278665
784.016 .0278623
784.726 .0278582
785.436 .0278540
786.147 .0278466
786.856 .0278415
787.566 .0278361
788.275 .0278302
788.984 .0278240
789.693 .0278174
790.401 .0278102
791.110 .0278026
791.818 .0277946
792.525 .0277860
793.233 .0277769
793.940 .0277674
794.647 .0277612
795.353 .0277511
796.060 .0277405
796.766 .0277295
797.472 .0277180
798.177 .0277061
798.883 .0276939
799.588 .0276812
800.292 .0276682
800.997 .0276549
801.701 .0276413
802.405 .0276274
803.109 .0276134
803.812 .0275991
804.515 .0275846
805.218 .0275698
805.921 .0275547
806.623 .0275393
807.325 .0275236
808.027 .0275076
808.728 .0274912
809.429 .0274745
810.130 .0274574
810.831 .0274400
811.531 .0274223
812.231 .0274044
812.931 .0273863
813.630 .0273681
814.330 .0273498
815.029 .0273315
815.727 .0273133
816.426 .0272953
817.124 .0272776
817.821 .0272603
818.519 .0272435
819.216 .0272272
819.913 .0272115
820.609 .0271964
821.306 .0271821
822.002 .0271685
822.697 .0271557
823.393 .0271436
824.088 .0271323
824.783 .0271218
825.477 .0271120
826.171 .0271027
826.865 .0270941
827.559 .0270860
828.252 .0270784
828.945 .0270711
829.638 .0270642
830.330 .0270575
831.023 .0270511
831.714 .0270449
832.406 .0270388
833.097 .0270328
833.788 .0270268
834.479 .0270208
835.169 .0270147
835.859 .0270086
836.548 .0270023
837.238 .0269960
837.927 .0269895
838.615 .0269828
839.304 .0269760
839.992 .0269689
840.680 .0269616
841.367 .0269541
842.054 .0269462
842.741 .0269381
843.428 .0269298
844.114 .0269212
844.800 .0269123
845.485 .0269033
846.170 .0268940
846.855 .0268844
847.540 .0268746
848.224 .0268644
848.908 .0268537
849.592 .0268427
850.275 .0268312
850.958 .0268191
851.641 .0268066
852.323 .0267937
853.005 .0267803
853.687 .0267665
854.368 .0267523
855.049 .0267378
855.730 .0267230
856.410 .0267079
857.090 .0266925
857.769 .0266769
858.449 .0266611
859.128 .0266451
859.806 .0266293
860.485 .0266135
861.163 .0265980
861.840 .0265827
862.518 .0265679
863.195 .0265535
863.871 .0265396
864.548 .0265262
865.224 .0265135
865.899 .0265013
866.574 .0264898
867.249 .0264790
867.924 .0264689
868.598 .0264596
869.272 .0264510
869.946 .0264430
870.619 .0264357
871.292 .0264289
871.964 .0264226
872.636 .0264168
873.308 .0264115
873.979 .0264066
874.651 .0264021
875.321 .0263980
875.992 .0263943
876.662 .0263909
877.331 .0263878
878.001 .0263849
878.670 .0263822
879.338 .0263796
880.007 .0263773
880.675 .0263751
881.342 .0263732
882.009 .0263715
882.676 .0263701
883.343 .0263689
884.009 .0263679
884.675 .0263672
885.340 .0263667
886.005 .0263665
886.670 .0263665
887.334 .0263668
887.998 .0263674
888.662 .0263682
889.325 .0263692
889.988 .0263705
890.650 .0263718
891.312 .0263733
891.974 .0263749
892.636 .0263766
893.297 .0263783
893.957 .0263800
894.618 .0263818
895.278 .0263834
895.937 .0263849
896.596 .0263861
897.255 .0263870
897.914 .0263873
898.572 .0263871
899.230 .0263863
899.887 .0263850
900.544 .0263829
901.201 .0263803
901.857 .0263728
902.513 .0263681
903.168 .0263625
903.823 .0263559
904.478 .0263483
905.132 .0263396
905.786 .0263300
906.440 .0263196
907.093 .0263083
907.746 .0262964
908.399 .0262839
909.051 .0262709
909.703 .0262574
910.354 .0262492
911.005 .0262353
911.656 .0262211
912.306 .0262065
912.956 .0261916
913.605 .0261766
914.254 .0261615
914.903 .0261464
915.551 .0261313
916.199 .0261162
916.847 .0261012
917.494 .0260861
918.141 .0260710
918.788 .0260558
919.434 .0260404
920.079 .0260250
920.725 .0260094
921.370 .0259937
922.014 .0259780
922.658 .0259621
923.302 .0259461
923.946 .0259300
924.589 .0259137
925.231 .0258972
925.873 .0258805
926.515 .0258636
927.157 .0258464
927.798 .0258292
928.439 .0258117
929.079 .0257942
929.719 .0257767
930.359 .0257591
930.998 .0257415
931.637 .0257239
932.275 .0257064
932.913 .0256889
933.551 .0256716
934.188 .0256545
934.825 .0256378
935.462 .0256214
936.098 .0256056
936.733 .0255902
937.369 .0255754
938.004 .0255612
938.638 .0255475
939.273 .0255343
939.907 .0255217
940.540 .0255097
941.173 .0254983
941.806 .0254874
942.438 .0254770
943.070 .0254671
943.702 .0254577
944.333 .0254488
944.964 .0254401
945.594 .0254317
946.224 .0254234
946.854 .0254151
947.483 .0254069
948.112 .0253986
948.741 .0253902
949.369 .0253818
949.996 .0253732
950.624 .0253645
951.251 .0253556
951.878 .0253466
952.504 .0253372
953.130 .0253276
953.755 .0253176
954.380 .0253074
955.005 .0252970
955.629 .0252863
956.253 .0252755
956.877 .0252645
957.500 .0252534
958.123 .0252422
958.746 .0252308
959.368 .0252193
959.990 .0252077
960.611 .0251959
961.232 .0251841
961.853 .0251722
962.473 .0251603
963.093 .0251486
963.712 .0251369
964.331 .0251253
964.950 .0251138
965.569 .0251022
966.187 .0250907
966.804 .0250791
967.422 .0250673
968.039 .0250553
968.655 .0250432
969.272 .0250309
969.887 .0250185
970.503 .0250059
971.118 .0249931
971.733 .0249802
972.347 .0249671
972.961 .0249539
973.575 .0249404
974.188 .0249267
974.801 .0249129
975.414 .0248989
976.026 .0248847
976.638 .0248704
977.250 .0248560
977.861 .0248414
978.472 .0248267
979.083 .0248118
979.693 .0247967
980.303 .0247815
980.912 .0247581
981.521 .0247425
982.130 .0247268
982.738 .0247110
983.346 .0246952
983.954 .0246794
984.562 .0246639
985.169 .0246486
985.775 .0246336
986.382 .0246190
986.988 .0246049
987.594 .0245911
988.199 .0245779
988.804 .0245651
989.409 .0245603
990.013 .0245484
990.617 .0245370
991.221 .0245261
991.824 .0245157
992.427 .0245058
993.030 .0244963
993.632 .0244872
994.234 .0244784
994.836 .0244697
995.438 .0244611
996.039 .0244527
996.640 .0244444
997.240 .0244363
997.840 .0244285
998.440 .0244211
999.040 .0244141
999.639 .0244077
1000.238 .0244020
1000.836 .0243968
1001.435 .0243923
1002.033 .0243884
1002.630 .0243849
1003.228 .0243820
1003.825 .0243795
1004.422 .0243775
1005.018 .0243758
1005.614 .0243746
1006.210 .0243739
1006.806 .0243735
1007.401 .0243735
1007.996 .0243739
1008.591 .0243746
1009.186 .0243756
1009.780 .0243768
1010.374 .0243782
1010.967 .0243799
1011.561 .0243819
1012.154 .0243841
1012.746 .0243868
1013.339 .0243898
1013.931 .0243933
1014.523 .0243972
1015.115 .0244015
1015.706 .0244060
1016.298 .0244108
1016.888 .0244158
1017.479 .0244209
1018.069 .0244261
1018.660 .0244315
1019.250 .0244369
1019.839 .0244425
1020.429 .0244482
1021.018 .0244542
1021.607 .0244602
1022.195 .0244665
1022.784 .0244729
1023.372 .0244795
1023.960 .0244862
1024.547 .0244932
1025.135 .0245005
1025.722 .0245081
1026.309 .0245161
1026.896 .0245246
1027.483 .0245336
1028.069 .0245431
1028.655 .0245530
1029.241 .0245633
1029.827 .0245740
1030.412 .0245850
1030.997 .0245963
1031.582 .0246079
1032.167 .0246198
1032.752 .0246318
1033.336 .0246441
1033.921 .0246564
1034.505 .0246687
1035.089 .0246809
1035.672 .0246929
1036.256 .0247045
1036.839 .0247156
1037.422 .0247262
1038.005 .0247364
1038.588 .0247462
1039.171 .0247555
1039.753 .0247645
1040.335 .0247730
1040.918 .0247812
1041.500 .0247890
1042.081 .0247963
1042.663 .0248031
1043.244 .0248094
1043.826 .0248153
1044.407 .0248209
1044.988 .0248262
1045.569 .0248316
1046.150 .0248369
1046.730 .0248422
1047.311 .0248475
1047.891 .0248527
1048.471 .0248578
1049.052 .0248625
1049.632 .0248670
1050.211 .0248710
1050.791 .0248749
1051.371 .0248786
1051.950 .0248824
1052.530 .0248863
1053.109 .0248905
1053.688 .0248951
1054.268 .0248999
1054.847 .0249050
1055.426 .0249102
1056.005 .0249154
1056.583 .0249207
1057.162 .0249261
1057.741 .0249315
1058.319 .0249372
1058.898 .0249431
1059.476 .0249493
1060.055 .0249559
1060.633 .0249626
1061.211 .0249695
1061.790 .0249763
1062.368 .0249829
1062.946 .0249892
1063.524 .0249953
1064.102 .0250011
1064.680 .0250069
1065.258 .0250127
1065.836 .0250186
1066.414 .0250247
1066.992 .0250309
1067.570 .0250371
1068.148 .0250432
1068.726 .0250489
1069.304 .0250543
1069.882 .0250591
1070.460 .0250634
1071.038 .0250673
1071.616 .0250708
1072.194 .0250740
1072.772 .0250769
1073.350 .0250794
1073.928 .0250816
1074.506 .0250834
1075.084 .0250847
1075.662 .0250855
1076.240 .0250861
1076.819 .0250866
1077.397 .0250871
1077.976 .0250880
1078.554 .0250894
1079.133 .0250916
1079.711 .0250947
1080.290 .0250987
1080.869 .0251037
1081.448 .0251096
1082.027 .0251165
1082.606 .0251242
1083.185 .0251330
1083.764 .0251429
1084.343 .0251539
1084.923 .0251661
1085.502 .0251795
1086.082 .0251941
1086.662 .0252099
1087.242 .0252268
1087.822 .0252447
1088.402 .0252636
1088.983 .0252833
1089.563 .0253038
1090.144 .0253250
1090.725 .0253470
1091.306 .0253698
1091.887 .0253934
1092.469 .0254178
1093.050 .0254429
1093.632 .0254684
1094.214 .0254942
1094.796 .0255201
1095.379 .0255458
1095.961 .0255713
1096.544 .0255964
1097.127 .0256212
1097.710 .0256456
1098.294 .0256698
1098.877 .0256937
1099.461 .0257176
1100.046 .0257414
1100.630 .0257651
1101.215 .0257887
1101.800 .0258122
1102.385 .0258356
1102.970 .0258589
1103.556 .0258822
1104.142 .0259055
1104.728 .0259290
1105.315 .0259525
1105.902 .0259763
1106.489 .0260002
1107.077 .0260246
1107.664 .0260493
1108.253 .0260744
1108.841 .0260998
1109.430 .0261256
1110.019 .0261519
1110.609 .0261787
1111.198 .0262062
1111.789 .0262345
1112.379 .0262637
1112.970 .0262942
1113.561 .0263259
1114.153 .0263591
1114.745 .0263938
1115.338 .0264302
1115.931 .0264683
1116.524 .0265081
1117.117 .0265494
1117.712 .0265923
1118.306 .0266368
1118.901 .0266829
1119.496 .0267306
1120.092 .0267799
1120.689 .0268307
1121.285 .0268833
1121.882 .0269377
1122.480 .0269940
1123.078 .0270524
1123.677 .0271134
1124.276 .0271770
1124.875 .0272435
1125.476 .0273130
1126.076 .0273855
1126.677 .0274608
1127.279 .0275388
1127.881 .0276193
1128.484 .0277017
1129.087 .0277388
1129.691 .0278246
1130.295 .0279119
1130.900 .0280005
1131.505 .0280901
1132.111 .0281801
1132.718 .0282700
1133.325 .0283595
1133.933 .0284478
1134.541 .0285397
1135.150 .0286178
1135.760 .0286969
1136.370 .0287840
1136.981 .0290126
1137.592 .0291128
1138.204 .0292096
1138.817 .0293018
1139.431 .0293942
1140.045 .0294720
1140.660 .0295430
1141.275 .0296073
1141.891 .0296560
1142.508 .0298321
1143.126 .0295223
1143.744 .0296307
1144.363 .0299308
1144.983 .0298205
