Measurement Sequence started on: 15-12-46-377
Integration time: 28
Scans to Average: 2 
>>>>>Begin Spectral Data<<<<<
432.689 .0000100
433.621 .0000100
434.552 .0000100
435.482 .0000100
436.410 .0000100
437.337 .0000100
438.262 .0268683
439.187 .0569748
440.110 .0945104
441.031 .1368832
441.952 .1108962
442.871 .1159706
443.789 .1207047
444.705 .1251659
445.621 .1294008
446.535 .1334495
447.447 .1359257
448.359 .1366815
449.269 .1353455
450.178 .1316763
451.086 .1257436
451.993 .1180093
452.898 .1092403
453.803 .1003136
454.706 .0919763
455.608 .0846948
456.508 .0786311
457.408 .0744831
458.306 .0712603
459.204 .0686123
460.100 .0663621
460.995 .0644128
461.888 .0626982
462.781 .0611743
463.673 .0598031
464.563 .0585598
465.452 .0574243
466.340 .0563802
467.228 .0554174
468.114 .0545291
468.999 .0537102
469.882 .0529571
470.765 .0522664
471.647 .0516348
472.528 .0510596
473.407 .0505368
474.286 .0500632
475.163 .0496367
476.040 .0492543
476.915 .0489148
477.790 .0486161
478.663 .0483576
479.535 .0481376
480.407 .0479547
481.277 .0478071
482.147 .0476925
483.015 .0476088
483.883 .0475541
484.749 .0475261
485.615 .0475230
486.479 .0475427
487.343 .0475833
488.206 .0476427
489.067 .0477189
489.928 .0478104
490.788 .0479162
491.647 .0480353
492.505 .0481683
493.362 .0483155
494.218 .0484781
495.073 .0486570
495.928 .0489833
496.781 .0492061
497.634 .0494451
498.486 .0496990
499.337 .0499680
500.187 .0502527
501.036 .0505548
501.884 .0508772
502.731 .0512256
503.578 .0516050
504.424 .0518637
505.268 .0523122
506.113 .0528099
506.956 .0533626
507.798 .0539767
508.640 .0546596
509.480 .0554196
510.320 .0562671
511.160 .0572139
511.998 .0582747
512.836 .0594674
513.672 .0608093
514.508 .0623205
515.344 .0640218
516.178 .0659341
517.012 .0680767
517.845 .0704670
518.677 .0731198
519.508 .0760479
520.339 .0792562
521.169 .0827453
521.998 .0864955
522.826 .0904777
523.654 .0946455
524.481 .0989407
525.307 .1032937
526.133 .1076220
526.958 .1118379
527.782 .1158545
528.605 .1195865
529.428 .1229590
530.250 .1259042
531.072 .1283762
531.892 .1303393
532.712 .1317715
533.532 .1326610
534.350 .1330067
535.168 .1328153
535.986 .1320955
536.802 .1308532
537.618 .1290995
538.434 .1268466
539.249 .1241245
540.063 .1209722
540.876 .1174423
541.689 .1136000
542.501 .1095205
543.313 .1052872
544.124 .1009870
544.934 .0967013
545.744 .0925078
546.553 .0884703
547.361 .0846423
548.169 .0810556
548.976 .0777296
549.783 .0746696
550.589 .0718715
551.395 .0693191
552.200 .0669911
553.004 .0648643
553.808 .0629192
554.611 .0611362
555.414 .0594989
556.216 .0579916
557.018 .0565991
557.819 .0553093
558.619 .0541099
559.419 .0529898
560.218 .0519411
561.017 .0509564
561.815 .0500301
562.613 .0491579
563.410 .0483355
564.207 .0475585
565.003 .0468234
565.799 .0461259
566.594 .0454623
567.388 .0448280
568.182 .0442204
568.976 .0436363
569.769 .0430739
570.562 .0425319
571.354 .0420096
572.145 .0415075
572.936 .0410256
573.727 .0405639
574.517 .0401222
575.307 .0396998
576.096 .0392957
576.885 .0389091
577.673 .0385392
578.461 .0381850
579.248 .0378462
580.035 .0375225
580.821 .0372142
581.607 .0369217
582.392 .0366455
583.177 .0363859
583.962 .0361431
584.746 .0359169
585.529 .0357067
586.313 .0355113
587.095 .0353296
587.878 .0351603
588.660 .0350020
589.441 .0348538
590.222 .0347146
591.003 .0345842
591.783 .0344623
592.563 .0343483
593.342 .0342421
594.121 .0341433
594.899 .0340513
595.678 .0339654
596.455 .0338849
597.233 .0338089
598.009 .0337367
598.786 .0336678
599.562 .0336016
600.338 .0335377
601.113 .0334760
601.888 .0333902
602.663 .0333334
603.437 .0332786
604.211 .0332259
604.984 .0331749
605.757 .0331257
606.530 .0330781
607.302 .0330321
608.074 .0329875
608.845 .0329443
609.616 .0329026
610.387 .0328854
611.158 .0328459
611.928 .0328080
612.697 .0327715
613.467 .0327364
614.236 .0327028
615.004 .0326706
615.773 .0326396
616.541 .0326100
617.308 .0325815
618.076 .0325540
618.843 .0325274
619.609 .0325015
620.375 .0324762
621.141 .0324512
621.907 .0324264
622.672 .0324017
623.437 .0323770
624.202 .0323521
624.966 .0323270
625.730 .0323017
626.493 .0322760
627.257 .0322500
628.020 .0322235
628.782 .0321964
629.545 .0321687
630.307 .0321403
631.068 .0321112
631.830 .0320816
632.591 .0320513
633.352 .0320206
634.112 .0319895
634.872 .0319581
635.632 .0319265
636.392 .0318950
637.151 .0318635
637.910 .0318324
638.668 .0318016
639.427 .0317713
640.185 .0317417
640.943 .0317129
641.700 .0316849
642.457 .0316578
643.214 .0316317
643.971 .0316064
644.727 .0315820
645.483 .0315584
646.239 .0315357
646.994 .0315138
647.750 .0314927
648.505 .0314724
649.259 .0314529
650.014 .0314339
650.768 .0314155
651.521 .0313976
652.275 .0313800
653.028 .0313626
653.781 .0313452
654.534 .0313279
655.286 .0313103
656.039 .0312926
656.791 .0312744
657.542 .0312558
658.294 .0312367
659.045 .0312169
659.796 .0311965
660.546 .0311755
661.297 .0311538
662.047 .0311316
662.796 .0311089
663.546 .0310856
664.295 .0310619
665.044 .0310378
665.793 .0310132
666.542 .0309884
667.290 .0309634
668.038 .0309382
668.786 .0309131
669.533 .0308880
670.281 .0308631
671.028 .0308385
671.774 .0308141
672.521 .0307900
673.267 .0307662
674.013 .0307426
674.759 .0307193
675.505 .0306961
676.250 .0306731
676.995 .0306504
677.740 .0306279
678.484 .0306055
679.229 .0305833
679.973 .0305613
680.717 .0305394
681.460 .0305176
682.204 .0304959
682.947 .0304742
683.690 .0304525
684.433 .0304306
685.175 .0304086
685.917 .0303864
686.659 .0303640
687.401 .0303414
688.142 .0303186
688.884 .0302954
689.625 .0302720
690.365 .0302484
691.106 .0302245
691.846 .0302003
692.586 .0301758
693.326 .0301512
694.066 .0301262
694.805 .0301011
695.545 .0300759
696.284 .0300505
697.022 .0300252
697.761 .0299999
698.499 .0299746
699.237 .0299496
699.975 .0299248
700.713 .0299003
701.450 .0298761
702.187 .0298522
702.924 .0298287
703.661 .0298056
704.397 .0297828
705.133 .0297605
705.869 .0297387
706.605 .0297173
707.341 .0296963
708.076 .0296758
708.811 .0296557
709.546 .0296360
710.281 .0296167
711.015 .0295977
711.749 .0295790
712.483 .0295605
713.217 .0295421
713.950 .0295239
714.684 .0295056
715.417 .0294874
716.150 .0294691
716.882 .0294506
717.615 .0294320
718.347 .0294132
719.079 .0293942
719.811 .0293750
720.542 .0293556
721.273 .0293360
722.005 .0293162
722.735 .0292965
723.466 .0292767
724.196 .0292571
724.927 .0292376
725.656 .0292184
726.386 .0291995
727.116 .0291810
727.845 .0291630
728.574 .0291455
729.303 .0291285
730.031 .0291123
730.760 .0290968
731.488 .0290821
732.216 .0290683
732.944 .0290554
733.671 .0290435
734.398 .0290326
735.125 .0290227
735.852 .0290137
736.579 .0290056
737.305 .0289984
738.031 .0289920
738.757 .0289863
739.483 .0289813
740.208 .0289769
740.933 .0289729
741.658 .0289694
742.383 .0289663
743.108 .0289636
743.832 .0289611
744.556 .0289587
745.280 .0289563
746.004 .0289538
746.727 .0289511
747.450 .0289481
748.173 .0289445
748.896 .0289404
749.618 .0289356
750.340 .0289301
751.062 .0289239
751.784 .0289170
752.506 .0289093
753.227 .0289009
753.948 .0288918
754.669 .0288819
755.389 .0288712
756.110 .0288598
756.830 .0288476
757.550 .0288347
758.269 .0288211
758.989 .0288068
759.708 .0287919
760.427 .0287765
761.146 .0287607
761.864 .0287446
762.582 .0287283
763.300 .0287118
764.018 .0286954
764.736 .0286789
765.453 .0286625
766.170 .0286462
766.887 .0286299
767.603 .0286136
768.320 .0285973
769.036 .0285811
769.751 .0285649
770.467 .0285489
771.182 .0285330
771.897 .0285173
772.612 .0285018
773.327 .0284864
774.041 .0284713
774.755 .0284565
775.469 .0284418
776.183 .0284273
776.896 .0284131
777.609 .0283990
778.322 .0283850
779.035 .0283713
779.747 .0283576
780.459 .0283441
781.171 .0283307
781.882 .0283174
782.594 .0283041
783.305 .0282909
784.016 .0282778
784.726 .0282647
785.436 .0282515
786.147 .0282316
786.856 .0282179
787.566 .0282041
788.275 .0281899
788.984 .0281754
789.693 .0281604
790.401 .0281451
791.110 .0281292
791.818 .0281130
792.525 .0280963
793.233 .0280792
793.940 .0280617
794.647 .0280515
795.353 .0280336
796.060 .0280154
796.766 .0279968
797.472 .0279779
798.177 .0279585
798.883 .0279388
799.588 .0279187
800.292 .0278984
800.997 .0278778
801.701 .0278571
802.405 .0278362
803.109 .0278153
803.812 .0277943
804.515 .0277732
805.218 .0277522
805.921 .0277313
806.623 .0277105
807.325 .0276898
808.027 .0276694
808.728 .0276492
809.429 .0276293
810.130 .0276098
810.831 .0275905
811.531 .0275716
812.231 .0275529
812.931 .0275347
813.630 .0275167
814.330 .0274991
815.029 .0274819
815.727 .0274652
816.426 .0274491
817.124 .0274335
817.821 .0274186
818.519 .0274044
819.216 .0273910
819.913 .0273785
820.609 .0273668
821.306 .0273559
822.002 .0273461
822.697 .0273371
823.393 .0273291
824.088 .0273222
824.783 .0273162
825.477 .0273112
826.171 .0273071
826.865 .0273040
827.559 .0273016
828.252 .0273000
828.945 .0272991
829.638 .0272987
830.330 .0272988
831.023 .0272994
831.714 .0273003
832.406 .0273017
833.097 .0273033
833.788 .0273052
834.479 .0273074
835.169 .0273098
835.859 .0273124
836.548 .0273150
837.238 .0273178
837.927 .0273206
838.615 .0273234
839.304 .0273262
839.992 .0273289
840.680 .0273316
841.367 .0273340
842.054 .0273361
842.741 .0273379
843.428 .0273394
844.114 .0273404
844.800 .0273411
845.485 .0273414
846.170 .0273414
846.855 .0273410
847.540 .0273402
848.224 .0273391
848.908 .0273375
849.592 .0273354
850.275 .0273330
850.958 .0273301
851.641 .0273267
852.323 .0273228
853.005 .0273186
853.687 .0273138
854.368 .0273087
855.049 .0273031
855.730 .0272970
856.410 .0272905
857.090 .0272837
857.769 .0272765
858.449 .0272690
859.128 .0272613
859.806 .0272534
860.485 .0272454
861.163 .0272372
861.840 .0272290
862.518 .0272207
863.195 .0272125
863.871 .0272044
864.548 .0271965
865.224 .0271889
865.899 .0271816
866.574 .0271746
867.249 .0271681
867.924 .0271618
868.598 .0271558
869.272 .0271500
869.946 .0271443
870.619 .0271385
871.292 .0271328
871.964 .0271270
872.636 .0271212
873.308 .0271154
873.979 .0271095
874.651 .0271036
875.321 .0270976
875.992 .0270915
876.662 .0270853
877.331 .0270788
878.001 .0270722
878.670 .0270654
879.338 .0270583
880.007 .0270509
880.675 .0270434
881.342 .0270356
882.009 .0270275
882.676 .0270192
883.343 .0270106
884.009 .0270019
884.675 .0269929
885.340 .0269840
886.005 .0269751
886.670 .0269662
887.334 .0269575
887.998 .0269490
888.662 .0269406
889.325 .0269324
889.988 .0269243
890.650 .0269163
891.312 .0269083
891.974 .0269003
892.636 .0268924
893.297 .0268845
893.957 .0268765
894.618 .0268684
895.278 .0268600
895.937 .0268514
896.596 .0268423
897.255 .0268326
897.914 .0268221
898.572 .0268109
899.230 .0267987
899.887 .0267855
900.544 .0267713
901.201 .0267559
901.857 .0267275
902.513 .0267091
903.168 .0266895
903.823 .0266688
904.478 .0266470
905.132 .0266242
905.786 .0266004
906.440 .0265756
907.093 .0265500
907.746 .0265236
908.399 .0264965
909.051 .0264687
909.703 .0264404
910.354 .0264253
911.005 .0263966
911.656 .0263676
912.306 .0263383
912.956 .0263089
913.605 .0262794
914.254 .0262498
914.903 .0262203
915.551 .0261908
916.199 .0261614
916.847 .0261321
917.494 .0261030
918.141 .0260740
918.788 .0260452
919.434 .0260165
920.079 .0259881
920.725 .0259597
921.370 .0259315
922.014 .0259033
922.658 .0258752
923.302 .0258471
923.946 .0258190
924.589 .0257909
925.231 .0257629
925.873 .0257350
926.515 .0257071
927.157 .0256794
927.798 .0256519
928.439 .0256245
929.079 .0255973
929.719 .0255703
930.359 .0255436
930.998 .0255172
931.637 .0254913
932.275 .0254659
932.913 .0254413
933.551 .0254174
934.188 .0253943
934.825 .0253722
935.462 .0253510
936.098 .0253308
936.733 .0253116
937.369 .0252933
938.004 .0252759
938.638 .0252596
939.273 .0252444
939.907 .0252302
940.540 .0252171
941.173 .0252051
941.806 .0251940
942.438 .0251838
943.070 .0251744
943.702 .0251657
944.333 .0251575
944.964 .0251498
945.594 .0251425
946.224 .0251355
946.854 .0251289
947.483 .0251225
948.112 .0251164
948.741 .0251104
949.369 .0251046
949.996 .0250990
950.624 .0250933
951.251 .0250876
951.878 .0250819
952.504 .0250763
953.130 .0250706
953.755 .0250651
954.380 .0250598
955.005 .0250547
955.629 .0250498
956.253 .0250452
956.877 .0250408
957.500 .0250365
958.123 .0250323
958.746 .0250283
959.368 .0250244
959.990 .0250207
960.611 .0250172
961.232 .0250142
961.853 .0250115
962.473 .0250093
963.093 .0250075
963.712 .0250062
964.331 .0250053
964.950 .0250047
965.569 .0250044
966.187 .0250045
966.804 .0250049
967.422 .0250056
968.039 .0250067
968.655 .0250082
969.272 .0250100
969.887 .0250121
970.503 .0250144
971.118 .0250168
971.733 .0250194
972.347 .0250219
972.961 .0250243
973.575 .0250267
974.188 .0250290
974.801 .0250313
975.414 .0250335
976.026 .0250357
976.638 .0250379
977.250 .0250401
977.861 .0250423
978.472 .0250443
979.083 .0250464
979.693 .0250483
980.303 .0250503
980.912 .0250530
981.521 .0250551
982.130 .0250573
982.738 .0250595
983.346 .0250619
983.954 .0250645
984.562 .0250672
985.169 .0250701
985.775 .0250731
986.382 .0250764
986.988 .0250800
987.594 .0250840
988.199 .0250884
988.804 .0250932
989.409 .0250973
990.013 .0251029
990.617 .0251090
991.221 .0251156
991.824 .0251225
992.427 .0251299
993.030 .0251377
993.632 .0251458
994.234 .0251543
994.836 .0251632
995.438 .0251723
996.039 .0251818
996.640 .0251916
997.240 .0252016
997.840 .0252119
998.440 .0252224
999.040 .0252330
999.639 .0252436
1000.238 .0252543
1000.836 .0252650
1001.435 .0252755
1002.033 .0252859
1002.630 .0252962
1003.228 .0253062
1003.825 .0253160
1004.422 .0253253
1005.018 .0253343
1005.614 .0253427
1006.210 .0253506
1006.806 .0253579
1007.401 .0253647
1007.996 .0253711
1008.591 .0253769
1009.186 .0253824
1009.780 .0253877
1010.374 .0253929
1010.967 .0253979
1011.561 .0254029
1012.154 .0254080
1012.746 .0254130
1013.339 .0254180
1013.931 .0254231
1014.523 .0254282
1015.115 .0254333
1015.706 .0254384
1016.298 .0254436
1016.888 .0254488
1017.479 .0254541
1018.069 .0254595
1018.660 .0254652
1019.250 .0254710
1019.839 .0254772
1020.429 .0254836
1021.018 .0254903
1021.607 .0254973
1022.195 .0255046
1022.784 .0255123
1023.372 .0255205
1023.960 .0255291
1024.547 .0255383
1025.135 .0255480
1025.722 .0255583
1026.309 .0255690
1026.896 .0255799
1027.483 .0255910
1028.069 .0256021
1028.655 .0256130
1029.241 .0256236
1029.827 .0256337
1030.412 .0256435
1030.997 .0256527
1031.582 .0256615
1032.167 .0256699
1032.752 .0256778
1033.336 .0256852
1033.921 .0256921
1034.505 .0256985
1035.089 .0257042
1035.672 .0257092
1036.256 .0257134
1036.839 .0257169
1037.422 .0257197
1038.005 .0257216
1038.588 .0257229
1039.171 .0257233
1039.753 .0257229
1040.335 .0257217
1040.918 .0257195
1041.500 .0257163
1042.081 .0257122
1042.663 .0257070
1043.244 .0257010
1043.826 .0256942
1044.407 .0256866
1044.988 .0256784
1045.569 .0256696
1046.150 .0256604
1046.730 .0256507
1047.311 .0256406
1047.891 .0256301
1048.471 .0256192
1049.052 .0256081
1049.632 .0255966
1050.211 .0255849
1050.791 .0255731
1051.371 .0255612
1051.950 .0255493
1052.530 .0255373
1053.109 .0255251
1053.688 .0255128
1054.268 .0255002
1054.847 .0254877
1055.426 .0254750
1056.005 .0254625
1056.583 .0254500
1057.162 .0254378
1057.741 .0254259
1058.319 .0254141
1058.898 .0254023
1059.476 .0253905
1060.055 .0253786
1060.633 .0253663
1061.211 .0253537
1061.790 .0253408
1062.368 .0253276
1062.946 .0253143
1063.524 .0253007
1064.102 .0252870
1064.680 .0252729
1065.258 .0252584
1065.836 .0252434
1066.414 .0252278
1066.992 .0252116
1067.570 .0251948
1068.148 .0251775
1068.726 .0251599
1069.304 .0251423
1069.882 .0251249
1070.460 .0251079
1071.038 .0250913
1071.616 .0250752
1072.194 .0250594
1072.772 .0250438
1073.350 .0250282
1073.928 .0250126
1074.506 .0249970
1075.084 .0249816
1075.662 .0249664
1076.240 .0249519
1076.819 .0249381
1077.397 .0249253
1077.976 .0249134
1078.554 .0249024
1079.133 .0248922
1079.711 .0248824
1080.290 .0248731
1080.869 .0248641
1081.448 .0248554
1082.027 .0248472
1082.606 .0248397
1083.185 .0248330
1083.764 .0248274
1084.343 .0248228
1084.923 .0248192
1085.502 .0248163
1086.082 .0248140
1086.662 .0248120
1087.242 .0248102
1087.822 .0248086
1088.402 .0248073
1088.983 .0248063
1089.563 .0248060
1090.144 .0248063
1090.725 .0248074
1091.306 .0248092
1091.887 .0248116
1092.469 .0248146
1093.050 .0248179
1093.632 .0248215
1094.214 .0248254
1094.796 .0248298
1095.379 .0248348
1095.961 .0248406
1096.544 .0248474
1097.127 .0248553
1097.710 .0248642
1098.294 .0248741
1098.877 .0248850
1099.461 .0248967
1100.046 .0249091
1100.630 .0249222
1101.215 .0249360
1101.800 .0249504
1102.385 .0249656
1102.970 .0249816
1103.556 .0249984
1104.142 .0250159
1104.728 .0250340
1105.315 .0250525
1105.902 .0250713
1106.489 .0250905
1107.077 .0251100
1107.664 .0251301
1108.253 .0251507
1108.841 .0251723
1109.430 .0251948
1110.019 .0252184
1110.609 .0252430
1111.198 .0252686
1111.789 .0252949
1112.379 .0253217
1112.970 .0253488
1113.561 .0253758
1114.153 .0254027
1114.745 .0254296
1115.338 .0254565
1115.931 .0254837
1116.524 .0255113
1117.117 .0255394
1117.712 .0255684
1118.306 .0255984
1118.901 .0256294
1119.496 .0256615
1120.092 .0256949
1120.689 .0257294
1121.285 .0257651
1121.882 .0258023
1122.480 .0258411
1123.078 .0258818
1123.677 .0259249
1124.276 .0259703
1124.875 .0260183
1125.476 .0260688
1126.076 .0261218
1126.677 .0261775
1127.279 .0262357
1127.881 .0262964
1128.484 .0263597
1129.087 .0263826
1129.691 .0264496
1130.295 .0265199
1130.900 .0265940
1131.505 .0266724
1132.111 .0267554
1132.718 .0268437
1133.325 .0269377
1133.933 .0270369
1134.541 .0271419
1135.150 .0272541
1135.760 .0273777
1136.370 .0275038
1136.981 .0275133
1137.592 .0276339
1138.204 .0277604
1138.817 .0278881
1139.431 .0280280
1140.045 .0281775
1140.660 .0283453
1141.275 .0285253
1141.891 .0287006
1142.508 .0288954
1143.126 .0291408
1143.744 .0295085
1144.363 .0296329
1144.983 .0292708
