Measurement Sequence started on: 15-12-46-377
Integration time: 28
Scans to Average: 2 
>>>>>Begin Spectral Data<<<<<
432.689 .0000100
433.621 .0000100
434.552 .0000100
435.482 .0000100
436.410 .0000100
437.337 .0000100
438.262 .0282258
439.187 .0598322
440.110 .0990985
441.031 .1433540
441.952 .1150448
442.871 .1202026
443.789 .1250152
444.705 .1295556
445.621 .1338710
446.535 .1379983
447.447 .1404789
448.359 .1411565
449.269 .1396458
450.178 .1356976
451.086 .1293911
451.993 .1212198
452.898 .1119964
453.803 .1026431
454.706 .0939429
455.608 .0863816
456.508 .0801203
457.408 .0758823
458.306 .0726182
459.204 .0699497
460.100 .0676889
460.995 .0657342
461.888 .0640153
462.781 .0624879
463.673 .0611176
464.563 .0598802
465.452 .0587567
466.340 .0577316
467.228 .0567940
468.114 .0559343
468.999 .0551444
469.882 .0544177
470.765 .0537479
471.647 .0531304
472.528 .0525616
473.407 .0520379
474.286 .0515566
475.163 .0511158
476.040 .0507133
476.915 .0503470
477.790 .0500150
478.663 .0497157
479.535 .0494478
480.407 .0492098
481.277 .0489997
482.147 .0488151
483.015 .0486538
483.883 .0485136
484.749 .0483926
485.615 .0482896
486.479 .0482038
487.343 .0481349
488.206 .0480834
489.067 .0480500
489.928 .0480357
490.788 .0480417
491.647 .0480690
492.505 .0481180
493.362 .0481891
494.218 .0482821
495.073 .0483969
495.928 .0486520
496.781 .0488254
497.634 .0490236
498.486 .0492489
499.337 .0495037
500.187 .0497912
501.036 .0501145
501.884 .0504768
502.731 .0508805
503.578 .0513285
504.424 .0516454
505.268 .0521689
506.113 .0527440
506.956 .0533746
507.798 .0540667
508.640 .0548285
509.480 .0556711
510.320 .0566082
511.160 .0576555
511.998 .0588298
512.836 .0601513
513.672 .0616390
514.508 .0633150
515.344 .0652010
516.178 .0673183
517.012 .0696916
517.845 .0723425
518.677 .0752927
519.508 .0785621
520.339 .0821641
521.169 .0861061
521.998 .0903664
522.826 .0949122
523.654 .0996862
524.481 .1046138
525.307 .1096063
526.133 .1145612
526.958 .1193702
527.782 .1239282
528.605 .1281373
529.428 .1319142
530.250 .1351862
531.072 .1379058
531.892 .1400339
532.712 .1415454
533.532 .1424289
534.350 .1426789
535.168 .1422992
535.986 .1413005
536.802 .1396895
537.618 .1374781
538.434 .1346810
539.249 .1313399
540.063 .1275063
540.876 .1232497
541.689 .1186549
542.501 .1138160
543.313 .1088359
544.124 .1038201
544.934 .0988661
545.744 .0940629
546.553 .0894829
547.361 .0851844
548.169 .0811986
548.976 .0775472
549.783 .0742345
550.589 .0712518
551.395 .0685791
552.200 .0661902
553.004 .0640507
553.808 .0621314
554.611 .0604045
555.414 .0588452
556.216 .0574305
557.018 .0561392
557.819 .0549543
558.619 .0538611
559.419 .0528476
560.218 .0519039
561.017 .0510206
561.815 .0501911
562.613 .0494086
563.410 .0486655
564.207 .0479555
565.003 .0472739
565.799 .0466153
566.594 .0459766
567.388 .0453551
568.182 .0447496
568.976 .0441586
569.769 .0435824
570.562 .0430210
571.354 .0424747
572.145 .0419444
572.936 .0414302
573.727 .0409320
574.517 .0404501
575.307 .0399845
576.096 .0395351
576.885 .0391023
577.673 .0386869
578.461 .0382889
579.248 .0379091
580.035 .0375482
580.821 .0372070
581.607 .0368859
582.392 .0365854
583.177 .0363054
583.962 .0360456
584.746 .0358054
585.529 .0355840
586.313 .0353803
587.095 .0351934
587.878 .0350219
588.660 .0348649
589.441 .0347212
590.222 .0345900
591.003 .0344702
591.783 .0343611
592.563 .0342616
593.342 .0341706
594.121 .0340873
594.899 .0340106
595.678 .0339396
596.455 .0338735
597.233 .0338115
598.009 .0337531
598.786 .0336978
599.562 .0336453
600.338 .0335953
601.113 .0335478
601.888 .0334851
602.663 .0334436
603.437 .0334044
604.211 .0333676
604.984 .0333331
605.757 .0333008
606.530 .0332706
607.302 .0332424
608.074 .0332159
608.845 .0331910
609.616 .0331677
610.387 .0331596
611.158 .0331380
611.928 .0331177
612.697 .0330985
613.467 .0330803
614.236 .0330629
615.004 .0330463
615.773 .0330301
616.541 .0330143
617.308 .0329984
618.076 .0329822
618.843 .0329655
619.609 .0329481
620.375 .0329297
621.141 .0329103
621.907 .0328896
622.672 .0328678
623.437 .0328447
624.202 .0328205
624.966 .0327949
625.730 .0327681
626.493 .0327400
627.257 .0327106
628.020 .0326797
628.782 .0326474
629.545 .0326135
630.307 .0325781
631.068 .0325412
631.830 .0325029
632.591 .0324633
633.352 .0324226
634.112 .0323810
634.872 .0323385
635.632 .0322956
636.392 .0322522
637.151 .0322086
637.910 .0321651
638.668 .0321216
639.427 .0320784
640.185 .0320353
640.943 .0319926
641.700 .0319502
642.457 .0319084
643.214 .0318672
643.971 .0318268
644.727 .0317874
645.483 .0317491
646.239 .0317120
646.994 .0316761
647.750 .0316415
648.505 .0316079
649.259 .0315753
650.014 .0315436
650.768 .0315126
651.521 .0314825
652.275 .0314532
653.028 .0314247
653.781 .0313971
654.534 .0313703
655.286 .0313442
656.039 .0313186
656.791 .0312935
657.542 .0312687
658.294 .0312443
659.045 .0312203
659.796 .0311967
660.546 .0311734
661.297 .0311507
662.047 .0311284
662.796 .0311066
663.546 .0310852
664.295 .0310643
665.044 .0310438
665.793 .0310240
666.542 .0310050
667.290 .0309868
668.038 .0309695
668.786 .0309532
669.533 .0309376
670.281 .0309228
671.028 .0309085
671.774 .0308947
672.521 .0308812
673.267 .0308680
674.013 .0308551
674.759 .0308426
675.505 .0308303
676.250 .0308183
676.995 .0308064
677.740 .0307946
678.484 .0307826
679.229 .0307704
679.973 .0307579
680.717 .0307450
681.460 .0307317
682.204 .0307181
682.947 .0307040
683.690 .0306895
684.433 .0306745
685.175 .0306590
685.917 .0306428
686.659 .0306259
687.401 .0306082
688.142 .0305899
688.884 .0305710
689.625 .0305514
690.365 .0305313
691.106 .0305108
691.846 .0304897
692.586 .0304681
693.326 .0304461
694.066 .0304236
694.805 .0304007
695.545 .0303775
696.284 .0303541
697.022 .0303306
697.761 .0303071
698.499 .0302836
699.237 .0302603
699.975 .0302370
700.713 .0302140
701.450 .0301911
702.187 .0301684
702.924 .0301459
703.661 .0301237
704.397 .0301017
705.133 .0300799
705.869 .0300583
706.605 .0300367
707.341 .0300151
708.076 .0299934
708.811 .0299714
709.546 .0299492
710.281 .0299266
711.015 .0299037
711.749 .0298804
712.483 .0298566
713.217 .0298323
713.950 .0298074
714.684 .0297818
715.417 .0297554
716.150 .0297281
716.882 .0296999
717.615 .0296710
718.347 .0296413
719.079 .0296110
719.811 .0295802
720.542 .0295492
721.273 .0295181
722.005 .0294870
722.735 .0294562
723.466 .0294258
724.196 .0293959
724.927 .0293667
725.656 .0293383
726.386 .0293107
727.116 .0292840
727.845 .0292582
728.574 .0292334
729.303 .0292096
730.031 .0291869
730.760 .0291654
731.488 .0291452
732.216 .0291262
732.944 .0291085
733.671 .0290921
734.398 .0290768
735.125 .0290626
735.852 .0290494
736.579 .0290370
737.305 .0290254
738.031 .0290144
738.757 .0290041
739.483 .0289945
740.208 .0289855
740.933 .0289771
741.658 .0289693
742.383 .0289619
743.108 .0289550
743.832 .0289483
744.556 .0289419
745.280 .0289356
746.004 .0289294
746.727 .0289232
747.450 .0289170
748.173 .0289108
748.896 .0289045
749.618 .0288981
750.340 .0288915
751.062 .0288849
751.784 .0288781
752.506 .0288712
753.227 .0288641
753.948 .0288569
754.669 .0288495
755.389 .0288419
756.110 .0288341
756.830 .0288261
757.550 .0288180
758.269 .0288097
758.989 .0288015
759.708 .0287932
760.427 .0287851
761.146 .0287771
761.864 .0287692
762.582 .0287615
763.300 .0287539
764.018 .0287465
764.736 .0287392
765.453 .0287323
766.170 .0287256
766.887 .0287192
767.603 .0287132
768.320 .0287077
769.036 .0287025
769.751 .0286979
770.467 .0286936
771.182 .0286898
771.897 .0286863
772.612 .0286832
773.327 .0286804
774.041 .0286779
774.755 .0286755
775.469 .0286732
776.183 .0286710
776.896 .0286688
777.609 .0286665
778.322 .0286642
779.035 .0286618
779.747 .0286594
780.459 .0286568
781.171 .0286540
781.882 .0286509
782.594 .0286475
783.305 .0286435
784.016 .0286390
784.726 .0286338
785.436 .0286280
786.147 .0286163
786.856 .0286087
787.566 .0286004
788.275 .0285914
788.984 .0285817
789.693 .0285712
790.401 .0285600
791.110 .0285479
791.818 .0285351
792.525 .0285214
793.233 .0285069
793.940 .0284916
794.647 .0284822
795.353 .0284659
796.060 .0284490
796.766 .0284314
797.472 .0284132
798.177 .0283943
798.883 .0283749
799.588 .0283550
800.292 .0283345
800.997 .0283135
801.701 .0282921
802.405 .0282703
803.109 .0282479
803.812 .0282251
804.515 .0282018
805.218 .0281780
805.921 .0281536
806.623 .0281288
807.325 .0281036
808.027 .0280779
808.728 .0280519
809.429 .0280256
810.130 .0279990
810.831 .0279722
811.531 .0279452
812.231 .0279181
812.931 .0278908
813.630 .0278634
814.330 .0278361
815.029 .0278089
815.727 .0277820
816.426 .0277553
817.124 .0277291
817.821 .0277034
818.519 .0276781
819.216 .0276535
819.913 .0276294
820.609 .0276058
821.306 .0275829
822.002 .0275605
822.697 .0275389
823.393 .0275180
824.088 .0274980
824.783 .0274788
825.477 .0274604
826.171 .0274429
826.865 .0274262
827.559 .0274102
828.252 .0273949
828.945 .0273802
829.638 .0273661
830.330 .0273526
831.023 .0273397
831.714 .0273274
832.406 .0273156
833.097 .0273042
833.788 .0272934
834.479 .0272828
835.169 .0272726
835.859 .0272627
836.548 .0272531
837.238 .0272438
837.927 .0272347
838.615 .0272260
839.304 .0272176
839.992 .0272094
840.680 .0272013
841.367 .0271935
842.054 .0271857
842.741 .0271780
843.428 .0271704
844.114 .0271629
844.800 .0271556
845.485 .0271485
846.170 .0271417
846.855 .0271350
847.540 .0271286
848.224 .0271222
848.908 .0271161
849.592 .0271099
850.275 .0271039
850.958 .0270979
851.641 .0270920
852.323 .0270862
853.005 .0270805
853.687 .0270750
854.368 .0270697
855.049 .0270645
855.730 .0270595
856.410 .0270545
857.090 .0270497
857.769 .0270448
858.449 .0270400
859.128 .0270352
859.806 .0270305
860.485 .0270258
861.163 .0270212
861.840 .0270167
862.518 .0270123
863.195 .0270081
863.871 .0270041
864.548 .0270002
865.224 .0269965
865.899 .0269929
866.574 .0269894
867.249 .0269861
867.924 .0269829
868.598 .0269798
869.272 .0269768
869.946 .0269740
870.619 .0269714
871.292 .0269689
871.964 .0269667
872.636 .0269647
873.308 .0269630
873.979 .0269617
874.651 .0269608
875.321 .0269604
875.992 .0269604
876.662 .0269610
877.331 .0269621
878.001 .0269637
878.670 .0269658
879.338 .0269684
880.007 .0269715
880.675 .0269752
881.342 .0269793
882.009 .0269840
882.676 .0269893
883.343 .0269950
884.009 .0270012
884.675 .0270079
885.340 .0270150
886.005 .0270225
886.670 .0270302
887.334 .0270382
887.998 .0270464
888.662 .0270547
889.325 .0270630
889.988 .0270713
890.650 .0270796
891.312 .0270877
891.974 .0270957
892.636 .0271034
893.297 .0271109
893.957 .0271180
894.618 .0271247
895.278 .0271309
895.937 .0271363
896.596 .0271408
897.255 .0271444
897.914 .0271469
898.572 .0271483
899.230 .0271485
899.887 .0271476
900.544 .0271454
901.201 .0271421
901.857 .0271317
902.513 .0271251
903.168 .0271171
903.823 .0271078
904.478 .0270972
905.132 .0270852
905.786 .0270720
906.440 .0270576
907.093 .0270421
907.746 .0270255
908.399 .0270077
909.051 .0269890
909.703 .0269692
910.354 .0269571
911.005 .0269362
911.656 .0269145
912.306 .0268921
912.956 .0268691
913.605 .0268455
914.254 .0268216
914.903 .0267972
915.551 .0267725
916.199 .0267474
916.847 .0267219
917.494 .0266959
918.141 .0266696
918.788 .0266429
919.434 .0266157
920.079 .0265882
920.725 .0265605
921.370 .0265324
922.014 .0265041
922.658 .0264755
923.302 .0264465
923.946 .0264173
924.589 .0263878
925.231 .0263579
925.873 .0263277
926.515 .0262972
927.157 .0262664
927.798 .0262354
928.439 .0262042
929.079 .0261729
929.719 .0261415
930.359 .0261101
930.998 .0260787
931.637 .0260473
932.275 .0260160
932.913 .0259849
933.551 .0259541
934.188 .0259235
934.825 .0258933
935.462 .0258635
936.098 .0258343
936.733 .0258056
937.369 .0257775
938.004 .0257501
938.638 .0257233
939.273 .0256972
939.907 .0256718
940.540 .0256471
941.173 .0256231
941.806 .0255999
942.438 .0255774
943.070 .0255556
943.702 .0255345
944.333 .0255140
944.964 .0254940
945.594 .0254744
946.224 .0254551
946.854 .0254360
947.483 .0254172
948.112 .0253986
948.741 .0253802
949.369 .0253619
949.996 .0253439
950.624 .0253260
951.251 .0253083
951.878 .0252907
952.504 .0252732
953.130 .0252557
953.755 .0252383
954.380 .0252209
955.005 .0252036
955.629 .0251864
956.253 .0251694
956.877 .0251525
957.500 .0251358
958.123 .0251192
958.746 .0251027
959.368 .0250862
959.990 .0250699
960.611 .0250537
961.232 .0250375
961.853 .0250216
962.473 .0250058
963.093 .0249903
963.712 .0249751
964.331 .0249601
964.950 .0249452
965.569 .0249306
966.187 .0249160
966.804 .0249016
967.422 .0248873
968.039 .0248731
968.655 .0248592
969.272 .0248455
969.887 .0248322
970.503 .0248191
971.118 .0248063
971.733 .0247938
972.347 .0247815
972.961 .0247694
973.575 .0247574
974.188 .0247455
974.801 .0247337
975.414 .0247222
976.026 .0247109
976.638 .0246998
977.250 .0246891
977.861 .0246786
978.472 .0246685
979.083 .0246586
979.693 .0246491
980.303 .0246398
980.912 .0246272
981.521 .0246188
982.130 .0246108
982.738 .0246034
983.346 .0245965
983.954 .0245903
984.562 .0245847
985.169 .0245798
985.775 .0245755
986.382 .0245719
986.988 .0245690
987.594 .0245668
988.199 .0245653
988.804 .0245645
989.409 .0245665
990.013 .0245670
990.617 .0245683
991.221 .0245704
991.824 .0245733
992.427 .0245771
993.030 .0245816
993.632 .0245869
994.234 .0245929
994.836 .0245997
995.438 .0246071
996.039 .0246153
996.640 .0246241
997.240 .0246336
997.840 .0246439
998.440 .0246548
999.040 .0246663
999.639 .0246785
1000.238 .0246911
1000.836 .0247042
1001.435 .0247176
1002.033 .0247313
1002.630 .0247453
1003.228 .0247594
1003.825 .0247736
1004.422 .0247879
1005.018 .0248022
1005.614 .0248165
1006.210 .0248307
1006.806 .0248449
1007.401 .0248590
1007.996 .0248731
1008.591 .0248871
1009.186 .0249012
1009.780 .0249153
1010.374 .0249295
1010.967 .0249439
1011.561 .0249586
1012.154 .0249736
1012.746 .0249889
1013.339 .0250047
1013.931 .0250209
1014.523 .0250376
1015.115 .0250549
1015.706 .0250727
1016.298 .0250911
1016.888 .0251101
1017.479 .0251296
1018.069 .0251496
1018.660 .0251702
1019.250 .0251912
1019.839 .0252126
1020.429 .0252345
1021.018 .0252568
1021.607 .0252794
1022.195 .0253025
1022.784 .0253258
1023.372 .0253494
1023.960 .0253733
1024.547 .0253974
1025.135 .0254216
1025.722 .0254459
1026.309 .0254702
1026.896 .0254945
1027.483 .0255186
1028.069 .0255426
1028.655 .0255662
1029.241 .0255895
1029.827 .0256124
1030.412 .0256347
1030.997 .0256562
1031.582 .0256770
1032.167 .0256969
1032.752 .0257159
1033.336 .0257340
1033.921 .0257511
1034.505 .0257673
1035.089 .0257826
1035.672 .0257970
1036.256 .0258106
1036.839 .0258233
1037.422 .0258352
1038.005 .0258463
1038.588 .0258566
1039.171 .0258660
1039.753 .0258745
1040.335 .0258824
1040.918 .0258896
1041.500 .0258961
1042.081 .0259020
1042.663 .0259074
1043.244 .0259123
1043.826 .0259166
1044.407 .0259205
1044.988 .0259238
1045.569 .0259266
1046.150 .0259288
1046.730 .0259306
1047.311 .0259320
1047.891 .0259330
1048.471 .0259338
1049.052 .0259345
1049.632 .0259352
1050.211 .0259358
1050.791 .0259364
1051.371 .0259370
1051.950 .0259375
1052.530 .0259379
1053.109 .0259383
1053.688 .0259385
1054.268 .0259385
1054.847 .0259383
1055.426 .0259380
1056.005 .0259378
1056.583 .0259376
1057.162 .0259374
1057.741 .0259373
1058.319 .0259372
1058.898 .0259369
1059.476 .0259364
1060.055 .0259354
1060.633 .0259340
1061.211 .0259321
1061.790 .0259296
1062.368 .0259267
1062.946 .0259234
1063.524 .0259199
1064.102 .0259162
1064.680 .0259122
1065.258 .0259081
1065.836 .0259036
1066.414 .0258988
1066.992 .0258935
1067.570 .0258879
1068.148 .0258820
1068.726 .0258759
1069.304 .0258696
1069.882 .0258632
1070.460 .0258567
1071.038 .0258503
1071.616 .0258437
1072.194 .0258368
1072.772 .0258296
1073.350 .0258218
1073.928 .0258136
1074.506 .0258050
1075.084 .0257962
1075.662 .0257873
1076.240 .0257785
1076.819 .0257698
1077.397 .0257615
1077.976 .0257535
1078.554 .0257458
1079.133 .0257384
1079.711 .0257313
1080.290 .0257245
1080.869 .0257181
1081.448 .0257122
1082.027 .0257070
1082.606 .0257024
1083.185 .0256985
1083.764 .0256951
1084.343 .0256920
1084.923 .0256892
1085.502 .0256865
1086.082 .0256838
1086.662 .0256811
1087.242 .0256785
1087.822 .0256759
1088.402 .0256737
1088.983 .0256718
1089.563 .0256704
1090.144 .0256695
1090.725 .0256689
1091.306 .0256685
1091.887 .0256681
1092.469 .0256678
1093.050 .0256674
1093.632 .0256671
1094.214 .0256669
1094.796 .0256668
1095.379 .0256670
1095.961 .0256674
1096.544 .0256681
1097.127 .0256688
1097.710 .0256695
1098.294 .0256701
1098.877 .0256705
1099.461 .0256710
1100.046 .0256717
1100.630 .0256730
1101.215 .0256750
1101.800 .0256780
1102.385 .0256822
1102.970 .0256874
1103.556 .0256935
1104.142 .0257003
1104.728 .0257077
1105.315 .0257156
1105.902 .0257238
1106.489 .0257324
1107.077 .0257416
1107.664 .0257519
1108.253 .0257635
1108.841 .0257765
1109.430 .0257912
1110.019 .0258073
1110.609 .0258247
1111.198 .0258431
1111.789 .0258623
1112.379 .0258822
1112.970 .0259026
1113.561 .0259238
1114.153 .0259457
1114.745 .0259685
1115.338 .0259923
1115.931 .0260171
1116.524 .0260427
1117.117 .0260687
1117.712 .0260948
1118.306 .0261208
1118.901 .0261465
1119.496 .0261720
1120.092 .0261977
1120.689 .0262242
1121.285 .0262522
1121.882 .0262823
1122.480 .0263149
1123.078 .0263503
1123.677 .0263885
1124.276 .0264293
1124.875 .0264723
1125.476 .0265172
1126.076 .0265637
1126.677 .0266120
1127.279 .0266621
1127.881 .0267142
1128.484 .0267686
1129.087 .0267888
1129.691 .0268469
1130.295 .0269072
1130.900 .0269691
1131.505 .0270322
1132.111 .0270957
1132.718 .0271595
1133.325 .0272233
1133.933 .0272871
1134.541 .0273524
1135.150 .0274150
1135.760 .0274863
1136.370 .0275540
1136.981 .0277586
1137.592 .0278498
1138.204 .0279326
1138.817 .0280002
1139.431 .0280567
1140.045 .0280997
1140.660 .0281417
1141.275 .0281771
1141.891 .0282121
1142.508 .0282818
1143.126 .0282332
1143.744 .0285013
1144.363 .0284210
1144.983 .0284059
