Measurement Sequence started on: 15-12-46-377
Integration time: 28
Scans to Average: 2 
>>>>>Begin Spectral Data<<<<<
432.689 .0000100
433.621 .0000100
434.552 .0000100
435.482 .0000100
436.410 .0000100
437.337 .0000100
438.262 .0274028
439.187 .0577437
440.110 .0954441
441.031 .1378779
441.952 .1097165
442.871 .1145146
443.789 .1189729
444.705 .1231608
445.621 .1271291
446.535 .1309174
447.447 .1331131
448.359 .1335848
449.269 .1319643
450.178 .1280176
451.086 .1218278
451.993 .1138717
452.898 .1049351
453.803 .0959051
454.706 .0875325
455.608 .0802801
456.508 .0742989
457.408 .0702913
458.306 .0672296
459.204 .0647562
460.100 .0626914
460.995 .0609331
461.888 .0594121
462.781 .0580787
463.673 .0568942
464.563 .0558312
465.452 .0548686
466.340 .0539900
467.228 .0531829
468.114 .0524390
468.999 .0517522
469.882 .0511167
470.765 .0505277
471.647 .0499819
472.528 .0494758
473.407 .0490070
474.286 .0485736
475.163 .0481745
476.040 .0478092
476.915 .0474780
477.790 .0471809
478.663 .0469183
479.535 .0466899
480.407 .0464949
481.277 .0463319
482.147 .0461988
483.015 .0460932
483.883 .0460128
484.749 .0459554
485.615 .0459190
486.479 .0459015
487.343 .0459016
488.206 .0459175
489.067 .0459476
489.928 .0459912
490.788 .0460476
491.647 .0461168
492.505 .0461990
493.362 .0462949
494.218 .0464056
495.073 .0465322
495.928 .0467839
496.781 .0469572
497.634 .0471496
498.486 .0473619
499.337 .0475962
500.187 .0478553
501.036 .0481421
501.884 .0484607
502.731 .0488152
503.578 .0492090
504.424 .0494932
505.268 .0499583
506.113 .0504723
506.956 .0510376
507.798 .0516588
508.640 .0523417
509.480 .0530945
510.320 .0539273
511.160 .0548523
511.998 .0558831
512.836 .0570354
513.672 .0583243
514.508 .0597659
515.344 .0613762
516.178 .0631726
517.012 .0651744
517.845 .0674001
518.677 .0698679
519.508 .0725963
520.339 .0755958
521.169 .0788733
521.998 .0824146
522.826 .0861889
523.654 .0901492
524.481 .0942380
525.307 .0983850
526.133 .1025109
526.958 .1065329
527.782 .1103697
528.605 .1139437
529.428 .1171883
530.250 .1200413
531.072 .1224578
531.892 .1244035
532.712 .1258540
533.532 .1267911
534.350 .1272065
535.168 .1270992
535.986 .1264719
536.802 .1253257
537.618 .1236680
538.434 .1215069
539.249 .1188725
540.063 .1158088
540.876 .1123739
541.689 .1086347
542.501 .1046695
543.313 .1005602
544.124 .0963895
544.934 .0922354
545.744 .0881681
546.553 .0842457
547.361 .0805199
548.169 .0770229
548.976 .0737772
549.783 .0707931
550.589 .0680737
551.395 .0656083
552.200 .0633800
553.004 .0613670
553.808 .0595473
554.611 .0579011
555.414 .0564104
556.216 .0550563
557.018 .0538219
557.819 .0526916
558.619 .0516523
559.419 .0506901
560.218 .0497953
561.017 .0489580
561.815 .0481705
562.613 .0474266
563.410 .0467205
564.207 .0460468
565.003 .0454021
565.799 .0447817
566.594 .0441822
567.388 .0436008
568.182 .0430350
568.976 .0424824
569.769 .0419419
570.562 .0414130
571.354 .0408958
572.145 .0403909
572.936 .0398994
573.727 .0394221
574.517 .0389604
575.307 .0385152
576.096 .0380870
576.885 .0376768
577.673 .0372848
578.461 .0369109
579.248 .0365555
580.035 .0362187
580.821 .0359005
581.607 .0356009
582.392 .0353206
583.177 .0350596
583.962 .0348180
584.746 .0345956
585.529 .0343918
586.313 .0342057
587.095 .0340359
587.878 .0338810
588.660 .0337396
589.441 .0336102
590.222 .0334918
591.003 .0333833
591.783 .0332841
592.563 .0331934
593.342 .0331105
594.121 .0330348
594.899 .0329654
595.678 .0329014
596.455 .0328418
597.233 .0327857
598.009 .0327324
598.786 .0326813
599.562 .0326318
600.338 .0325837
601.113 .0325368
601.888 .0324696
602.663 .0324254
603.437 .0323823
604.211 .0323402
604.984 .0322991
605.757 .0322588
606.530 .0322194
607.302 .0321807
608.074 .0321429
608.845 .0321058
609.616 .0320696
610.387 .0320540
611.158 .0320192
611.928 .0319852
612.697 .0319519
613.467 .0319195
614.236 .0318879
615.004 .0318571
615.773 .0318271
616.541 .0317978
617.308 .0317691
618.076 .0317409
618.843 .0317132
619.609 .0316856
620.375 .0316582
621.141 .0316309
621.907 .0316037
622.672 .0315765
623.437 .0315493
624.202 .0315221
624.966 .0314948
625.730 .0314675
626.493 .0314400
627.257 .0314124
628.020 .0313844
628.782 .0313562
629.545 .0313277
630.307 .0312990
631.068 .0312702
631.830 .0312413
632.591 .0312123
633.352 .0311834
634.112 .0311545
634.872 .0311258
635.632 .0310971
636.392 .0310685
637.151 .0310399
637.910 .0310114
638.668 .0309831
639.427 .0309549
640.185 .0309269
640.943 .0308993
641.700 .0308721
642.457 .0308454
643.214 .0308192
643.971 .0307937
644.727 .0307687
645.483 .0307445
646.239 .0307209
646.994 .0306979
647.750 .0306755
648.505 .0306538
649.259 .0306327
650.014 .0306121
650.768 .0305922
651.521 .0305728
652.275 .0305541
653.028 .0305360
653.781 .0305186
654.534 .0305019
655.286 .0304857
656.039 .0304701
656.791 .0304549
657.542 .0304400
658.294 .0304253
659.045 .0304106
659.796 .0303959
660.546 .0303813
661.297 .0303666
662.047 .0303520
662.796 .0303374
663.546 .0303229
664.295 .0303084
665.044 .0302939
665.793 .0302795
666.542 .0302650
667.290 .0302505
668.038 .0302359
668.786 .0302211
669.533 .0302063
670.281 .0301914
671.028 .0301764
671.774 .0301612
672.521 .0301460
673.267 .0301307
674.013 .0301153
674.759 .0300999
675.505 .0300844
676.250 .0300688
676.995 .0300530
677.740 .0300369
678.484 .0300205
679.229 .0300037
679.973 .0299864
680.717 .0299686
681.460 .0299503
682.204 .0299317
682.947 .0299126
683.690 .0298931
684.433 .0298733
685.175 .0298530
685.917 .0298324
686.659 .0298113
687.401 .0297898
688.142 .0297679
688.884 .0297457
689.625 .0297233
690.365 .0297007
691.106 .0296780
691.846 .0296553
692.586 .0296325
693.326 .0296098
694.066 .0295872
694.805 .0295646
695.545 .0295421
696.284 .0295198
697.022 .0294978
697.761 .0294759
698.499 .0294544
699.237 .0294331
699.975 .0294122
700.713 .0293916
701.450 .0293713
702.187 .0293513
702.924 .0293317
703.661 .0293123
704.397 .0292930
705.133 .0292740
705.869 .0292551
706.605 .0292362
707.341 .0292175
708.076 .0291988
708.811 .0291801
709.546 .0291613
710.281 .0291425
711.015 .0291237
711.749 .0291048
712.483 .0290857
713.217 .0290664
713.950 .0290468
714.684 .0290268
715.417 .0290065
716.150 .0289857
716.882 .0289645
717.615 .0289429
718.347 .0289209
719.079 .0288986
719.811 .0288761
720.542 .0288533
721.273 .0288305
722.005 .0288078
722.735 .0287850
723.466 .0287625
724.196 .0287400
724.927 .0287179
725.656 .0286960
726.386 .0286746
727.116 .0286537
727.845 .0286334
728.574 .0286140
729.303 .0285953
730.031 .0285777
730.760 .0285610
731.488 .0285453
732.216 .0285305
732.944 .0285167
733.671 .0285036
734.398 .0284914
735.125 .0284799
735.852 .0284690
736.579 .0284589
737.305 .0284493
738.031 .0284403
738.757 .0284318
739.483 .0284238
740.208 .0284161
740.933 .0284087
741.658 .0284015
742.383 .0283944
743.108 .0283873
743.832 .0283803
744.556 .0283730
745.280 .0283656
746.004 .0283580
746.727 .0283502
747.450 .0283421
748.173 .0283338
748.896 .0283254
749.618 .0283169
750.340 .0283083
751.062 .0282997
751.784 .0282910
752.506 .0282823
753.227 .0282734
753.948 .0282645
754.669 .0282555
755.389 .0282464
756.110 .0282373
756.830 .0282282
757.550 .0282190
758.269 .0282098
758.989 .0282006
759.708 .0281914
760.427 .0281822
761.146 .0281729
761.864 .0281636
762.582 .0281543
763.300 .0281450
764.018 .0281357
764.736 .0281264
765.453 .0281172
766.170 .0281081
766.887 .0280991
767.603 .0280902
768.320 .0280815
769.036 .0280730
769.751 .0280648
770.467 .0280569
771.182 .0280493
771.897 .0280420
772.612 .0280350
773.327 .0280283
774.041 .0280219
774.755 .0280158
775.469 .0280100
776.183 .0280046
776.896 .0279994
777.609 .0279945
778.322 .0279899
779.035 .0279854
779.747 .0279811
780.459 .0279768
781.171 .0279724
781.882 .0279680
782.594 .0279635
783.305 .0279587
784.016 .0279538
784.726 .0279485
785.436 .0279429
786.147 .0279327
786.856 .0279260
787.566 .0279189
788.275 .0279113
788.984 .0279031
789.693 .0278945
790.401 .0278855
791.110 .0278759
791.818 .0278659
792.525 .0278555
793.233 .0278446
793.940 .0278332
794.647 .0278264
795.353 .0278143
796.060 .0278017
796.766 .0277886
797.472 .0277749
798.177 .0277606
798.883 .0277459
799.588 .0277306
800.292 .0277147
800.997 .0276984
801.701 .0276815
802.405 .0276640
803.109 .0276460
803.812 .0276275
804.515 .0276083
805.218 .0275886
805.921 .0275684
806.623 .0275475
807.325 .0275261
808.027 .0275041
808.728 .0274816
809.429 .0274586
810.130 .0274351
810.831 .0274111
811.531 .0273867
812.231 .0273620
812.931 .0273369
813.630 .0273116
814.330 .0272862
815.029 .0272607
815.727 .0272354
816.426 .0272103
817.124 .0271855
817.821 .0271610
818.519 .0271369
819.216 .0271133
819.913 .0270902
820.609 .0270676
821.306 .0270457
822.002 .0270245
822.697 .0270040
823.393 .0269842
824.088 .0269653
824.783 .0269471
825.477 .0269298
826.171 .0269131
826.865 .0268972
827.559 .0268819
828.252 .0268672
828.945 .0268531
829.638 .0268394
830.330 .0268263
831.023 .0268136
831.714 .0268013
832.406 .0267893
833.097 .0267777
833.788 .0267663
834.479 .0267552
835.169 .0267443
835.859 .0267336
836.548 .0267232
837.238 .0267130
837.927 .0267031
838.615 .0266933
839.304 .0266837
839.992 .0266743
840.680 .0266649
841.367 .0266556
842.054 .0266463
842.741 .0266371
843.428 .0266280
844.114 .0266190
844.800 .0266100
845.485 .0266011
846.170 .0265923
846.855 .0265834
847.540 .0265745
848.224 .0265654
848.908 .0265562
849.592 .0265469
850.275 .0265375
850.958 .0265278
851.641 .0265181
852.323 .0265083
853.005 .0264984
853.687 .0264884
854.368 .0264783
855.049 .0264681
855.730 .0264578
856.410 .0264473
857.090 .0264367
857.769 .0264260
858.449 .0264151
859.128 .0264042
859.806 .0263933
860.485 .0263826
861.163 .0263719
861.840 .0263614
862.518 .0263513
863.195 .0263414
863.871 .0263320
864.548 .0263230
865.224 .0263144
865.899 .0263064
866.574 .0262989
867.249 .0262919
867.924 .0262856
868.598 .0262799
869.272 .0262748
869.946 .0262703
870.619 .0262664
871.292 .0262631
871.964 .0262604
872.636 .0262583
873.308 .0262567
873.979 .0262558
874.651 .0262553
875.321 .0262555
875.992 .0262561
876.662 .0262573
877.331 .0262590
878.001 .0262611
878.670 .0262638
879.338 .0262669
880.007 .0262704
880.675 .0262744
881.342 .0262789
882.009 .0262837
882.676 .0262889
883.343 .0262944
884.009 .0263002
884.675 .0263061
885.340 .0263121
886.005 .0263182
886.670 .0263245
887.334 .0263308
887.998 .0263373
888.662 .0263439
889.325 .0263506
889.988 .0263574
890.650 .0263642
891.312 .0263710
891.974 .0263778
892.636 .0263845
893.297 .0263910
893.957 .0263973
894.618 .0264033
895.278 .0264090
895.937 .0264144
896.596 .0264193
897.255 .0264237
897.914 .0264276
898.572 .0264310
899.230 .0264339
899.887 .0264361
900.544 .0264377
901.201 .0264387
901.857 .0264368
902.513 .0264358
903.168 .0264340
903.823 .0264315
904.478 .0264282
905.132 .0264242
905.786 .0264196
906.440 .0264142
907.093 .0264082
907.746 .0264014
908.399 .0263940
909.051 .0263859
909.703 .0263770
910.354 .0263710
911.005 .0263614
911.656 .0263513
912.306 .0263407
912.956 .0263298
913.605 .0263183
914.254 .0263065
914.903 .0262942
915.551 .0262815
916.199 .0262682
916.847 .0262546
917.494 .0262406
918.141 .0262263
918.788 .0262118
919.434 .0261972
920.079 .0261824
920.725 .0261674
921.370 .0261521
922.014 .0261365
922.658 .0261205
923.302 .0261040
923.946 .0260869
924.589 .0260694
925.231 .0260515
925.873 .0260331
926.515 .0260145
927.157 .0259956
927.798 .0259765
928.439 .0259570
929.079 .0259372
929.719 .0259170
930.359 .0258965
930.998 .0258757
931.637 .0258546
932.275 .0258335
932.913 .0258123
933.551 .0257914
934.188 .0257706
934.825 .0257501
935.462 .0257299
936.098 .0257099
936.733 .0256901
937.369 .0256705
938.004 .0256511
938.638 .0256319
939.273 .0256131
939.907 .0255945
940.540 .0255762
941.173 .0255583
941.806 .0255408
942.438 .0255234
943.070 .0255062
943.702 .0254892
944.333 .0254723
944.964 .0254554
945.594 .0254387
946.224 .0254220
946.854 .0254053
947.483 .0253887
948.112 .0253722
948.741 .0253555
949.369 .0253387
949.996 .0253217
950.624 .0253044
951.251 .0252867
951.878 .0252687
952.504 .0252504
953.130 .0252318
953.755 .0252129
954.380 .0251937
955.005 .0251742
955.629 .0251544
956.253 .0251344
956.877 .0251141
957.500 .0250935
958.123 .0250728
958.746 .0250519
959.368 .0250310
959.990 .0250100
960.611 .0249891
961.232 .0249682
961.853 .0249473
962.473 .0249265
963.093 .0249056
963.712 .0248847
964.331 .0248639
964.950 .0248431
965.569 .0248223
966.187 .0248017
966.804 .0247812
967.422 .0247608
968.039 .0247405
968.655 .0247203
969.272 .0247001
969.887 .0246799
970.503 .0246598
971.118 .0246397
971.733 .0246196
972.347 .0245996
972.961 .0245797
973.575 .0245598
974.188 .0245400
974.801 .0245201
975.414 .0245002
976.026 .0244803
976.638 .0244602
977.250 .0244401
977.861 .0244199
978.472 .0243996
979.083 .0243792
979.693 .0243586
980.303 .0243380
980.912 .0243066
981.521 .0242859
982.130 .0242652
982.738 .0242447
983.346 .0242244
983.954 .0242044
984.562 .0241847
985.169 .0241654
985.775 .0241465
986.382 .0241280
986.988 .0241100
987.594 .0240924
988.199 .0240753
988.804 .0240587
989.409 .0240524
990.013 .0240367
990.617 .0240217
991.221 .0240074
991.824 .0239937
992.427 .0239809
993.030 .0239688
993.632 .0239575
994.234 .0239470
994.836 .0239374
995.438 .0239286
996.039 .0239207
996.640 .0239137
997.240 .0239076
997.840 .0239025
998.440 .0238983
999.040 .0238952
999.639 .0238929
1000.238 .0238916
1000.836 .0238911
1001.435 .0238914
1002.033 .0238924
1002.630 .0238940
1003.228 .0238960
1003.825 .0238985
1004.422 .0239012
1005.018 .0239041
1005.614 .0239072
1006.210 .0239104
1006.806 .0239138
1007.401 .0239172
1007.996 .0239207
1008.591 .0239243
1009.186 .0239281
1009.780 .0239319
1010.374 .0239358
1010.967 .0239399
1011.561 .0239441
1012.154 .0239484
1012.746 .0239530
1013.339 .0239579
1013.931 .0239632
1014.523 .0239688
1015.115 .0239747
1015.706 .0239810
1016.298 .0239875
1016.888 .0239943
1017.479 .0240014
1018.069 .0240087
1018.660 .0240162
1019.250 .0240242
1019.839 .0240327
1020.429 .0240417
1021.018 .0240513
1021.607 .0240616
1022.195 .0240725
1022.784 .0240841
1023.372 .0240963
1023.960 .0241091
1024.547 .0241225
1025.135 .0241364
1025.722 .0241509
1026.309 .0241659
1026.896 .0241814
1027.483 .0241973
1028.069 .0242135
1028.655 .0242300
1029.241 .0242467
1029.827 .0242635
1030.412 .0242803
1030.997 .0242971
1031.582 .0243139
1032.167 .0243306
1032.752 .0243474
1033.336 .0243643
1033.921 .0243811
1034.505 .0243980
1035.089 .0244149
1035.672 .0244315
1036.256 .0244480
1036.839 .0244642
1037.422 .0244800
1038.005 .0244954
1038.588 .0245105
1039.171 .0245251
1039.753 .0245393
1040.335 .0245532
1040.918 .0245667
1041.500 .0245798
1042.081 .0245927
1042.663 .0246051
1043.244 .0246173
1043.826 .0246292
1044.407 .0246411
1044.988 .0246530
1045.569 .0246650
1046.150 .0246773
1046.730 .0246899
1047.311 .0247029
1047.891 .0247163
1048.471 .0247300
1049.052 .0247440
1049.632 .0247582
1050.211 .0247725
1050.791 .0247869
1051.371 .0248012
1051.950 .0248154
1052.530 .0248296
1053.109 .0248436
1053.688 .0248575
1054.268 .0248713
1054.847 .0248851
1055.426 .0248990
1056.005 .0249129
1056.583 .0249270
1057.162 .0249412
1057.741 .0249554
1058.319 .0249697
1058.898 .0249839
1059.476 .0249981
1060.055 .0250122
1060.633 .0250262
1061.211 .0250401
1061.790 .0250538
1062.368 .0250671
1062.946 .0250802
1063.524 .0250927
1064.102 .0251047
1064.680 .0251159
1065.258 .0251264
1065.836 .0251362
1066.414 .0251452
1066.992 .0251536
1067.570 .0251615
1068.148 .0251690
1068.726 .0251764
1069.304 .0251838
1069.882 .0251914
1070.460 .0251992
1071.038 .0252075
1071.616 .0252162
1072.194 .0252253
1072.772 .0252349
1073.350 .0252451
1073.928 .0252557
1074.506 .0252670
1075.084 .0252791
1075.662 .0252919
1076.240 .0253055
1076.819 .0253199
1077.397 .0253351
1077.976 .0253510
1078.554 .0253676
1079.133 .0253847
1079.711 .0254023
1080.290 .0254203
1080.869 .0254386
1081.448 .0254573
1082.027 .0254766
1082.606 .0254965
1083.185 .0255171
1083.764 .0255383
1084.343 .0255602
1084.923 .0255826
1085.502 .0256055
1086.082 .0256288
1086.662 .0256522
1087.242 .0256755
1087.822 .0256987
1088.402 .0257215
1088.983 .0257440
1089.563 .0257659
1090.144 .0257873
1090.725 .0258082
1091.306 .0258286
1091.887 .0258485
1092.469 .0258680
1093.050 .0258871
1093.632 .0259058
1094.214 .0259242
1094.796 .0259422
1095.379 .0259598
1095.961 .0259771
1096.544 .0259940
1097.127 .0260109
1097.710 .0260279
1098.294 .0260451
1098.877 .0260626
1099.461 .0260803
1100.046 .0260983
1100.630 .0261165
1101.215 .0261347
1101.800 .0261527
1102.385 .0261706
1102.970 .0261881
1103.556 .0262054
1104.142 .0262229
1104.728 .0262406
1105.315 .0262591
1105.902 .0262784
1106.489 .0262989
1107.077 .0263205
1107.664 .0263434
1108.253 .0263677
1108.841 .0263933
1109.430 .0264204
1110.019 .0264488
1110.609 .0264788
1111.198 .0265104
1111.789 .0265439
1112.379 .0265792
1112.970 .0266164
1113.561 .0266553
1114.153 .0266956
1114.745 .0267370
1115.338 .0267793
1115.931 .0268223
1116.524 .0268657
1117.117 .0269095
1117.712 .0269536
1118.306 .0269980
1118.901 .0270430
1119.496 .0270885
1120.092 .0271347
1120.689 .0271818
1121.285 .0272295
1121.882 .0272781
1122.480 .0273273
1123.078 .0273770
1123.677 .0274273
1124.276 .0274784
1124.875 .0275300
1125.476 .0275823
1126.076 .0276351
1126.677 .0276887
1127.279 .0277429
1127.881 .0277981
1128.484 .0278544
1129.087 .0278799
1129.691 .0279369
1130.295 .0279952
1130.900 .0280549
1131.505 .0281163
1132.111 .0281794
1132.718 .0282443
1133.325 .0283112
1133.933 .0283807
1134.541 .0284536
1135.150 .0285264
1135.760 .0286008
1136.370 .0286846
1136.981 .0287041
1137.592 .0288095
1138.204 .0289148
1138.817 .0290170
1139.431 .0291235
1140.045 .0292250
1140.660 .0293220
1141.275 .0294219
1141.891 .0295350
1142.508 .0296726
1143.126 .0297027
1143.744 .0297831
1144.363 .0300783
1144.983 .0303949
