Measurement Sequence started on: 15-12-46-377
Integration time: 28
Scans to Average: 2 
>>>>>Begin Spectral Data<<<<<
432.689 .0000100
433.621 .0000100
434.552 .0000100
435.482 .0000100
436.410 .0000100
437.337 .0000100
438.262 .0275951
439.187 .0584772
440.110 .0969227
441.031 .1403007
441.952 .1126731
442.871 .1176740
443.789 .1223228
444.705 .1266916
445.621 .1308291
446.535 .1347733
447.447 .1371007
448.359 .1376606
449.269 .1360743
450.178 .1320983
451.086 .1258102
451.993 .1176918
452.898 .1085385
453.803 .0992542
454.706 .0906101
455.608 .0830855
456.508 .0768428
457.408 .0725948
458.306 .0693174
459.204 .0666450
460.100 .0643921
460.995 .0624558
461.888 .0607662
462.781 .0592767
463.673 .0579517
464.563 .0567653
465.452 .0556976
466.340 .0547320
467.228 .0538552
468.114 .0530572
468.999 .0523292
469.882 .0516644
470.765 .0510564
471.647 .0505002
472.528 .0499916
473.407 .0495264
474.286 .0491012
475.163 .0487143
476.040 .0483637
476.915 .0480477
477.790 .0477652
478.663 .0475151
479.535 .0472962
480.407 .0471068
481.277 .0469448
482.147 .0468077
483.015 .0466931
483.883 .0465991
484.749 .0465237
485.615 .0464663
486.479 .0464266
487.343 .0464053
488.206 .0464030
489.067 .0464202
489.928 .0464576
490.788 .0465153
491.647 .0465933
492.505 .0466910
493.362 .0468077
494.218 .0469431
495.073 .0470971
495.928 .0473981
496.781 .0476015
497.634 .0478259
498.486 .0480729
499.337 .0483447
500.187 .0486428
501.036 .0489692
501.884 .0493263
502.731 .0497167
503.578 .0501426
504.424 .0504321
505.268 .0509247
506.113 .0514639
506.956 .0520553
507.798 .0527058
508.640 .0534239
509.480 .0542206
510.320 .0551082
511.160 .0560995
511.998 .0572097
512.836 .0584559
513.672 .0598559
514.508 .0614297
515.344 .0631987
516.178 .0651851
517.012 .0674139
517.845 .0699099
518.677 .0726949
519.508 .0757857
520.339 .0791921
521.169 .0829153
521.998 .0869303
522.826 .0911971
523.654 .0956551
524.481 .1002310
525.307 .1048391
526.133 .1093826
526.958 .1137621
527.782 .1178835
528.605 .1216617
529.428 .1250220
530.250 .1278995
531.072 .1302532
531.892 .1320503
532.712 .1332708
533.532 .1339038
534.350 .1339455
535.168 .1333987
535.986 .1322711
536.802 .1305714
537.618 .1283127
538.434 .1255143
539.249 .1222205
540.063 .1184873
540.876 .1143869
541.689 .1100003
542.501 .1054179
543.313 .1007361
544.124 .0960506
544.934 .0914483
545.744 .0870058
546.553 .0827875
547.361 .0788450
548.169 .0752063
548.976 .0718889
549.783 .0688941
550.589 .0662120
551.395 .0638206
552.200 .0616912
553.004 .0597915
553.808 .0580918
554.611 .0565655
555.414 .0551883
556.216 .0539372
557.018 .0527926
557.819 .0517391
558.619 .0507641
559.419 .0498571
560.218 .0490104
561.017 .0482173
561.815 .0474724
562.613 .0467709
563.410 .0461072
564.207 .0454766
565.003 .0448740
565.799 .0442942
566.594 .0437333
567.388 .0431891
568.182 .0426605
568.976 .0421468
569.769 .0416487
570.562 .0411669
571.354 .0407018
572.145 .0402536
572.936 .0398221
573.727 .0394064
574.517 .0390052
575.307 .0386174
576.096 .0382421
576.885 .0378788
577.673 .0375275
578.461 .0371887
579.248 .0368634
580.035 .0365524
580.821 .0362557
581.607 .0359735
582.392 .0357059
583.177 .0354527
583.962 .0352136
584.746 .0349884
585.529 .0347769
586.313 .0345790
587.095 .0343946
587.878 .0342236
588.660 .0340659
589.441 .0339213
590.222 .0337892
591.003 .0336690
591.783 .0335596
592.563 .0334601
593.342 .0333695
594.121 .0332865
594.899 .0332103
595.678 .0331396
596.455 .0330735
597.233 .0330113
598.009 .0329523
598.786 .0328959
599.562 .0328417
600.338 .0327892
601.113 .0327381
601.888 .0326652
602.663 .0326172
603.437 .0325704
604.211 .0325246
604.984 .0324799
605.757 .0324364
606.530 .0323941
607.302 .0323531
608.074 .0323135
608.845 .0322754
609.616 .0322388
610.387 .0322241
611.158 .0321898
611.928 .0321571
612.697 .0321259
613.467 .0320963
614.236 .0320682
615.004 .0320415
615.773 .0320163
616.541 .0319925
617.308 .0319698
618.076 .0319482
618.843 .0319273
619.609 .0319071
620.375 .0318872
621.141 .0318675
621.907 .0318477
622.672 .0318278
623.437 .0318076
624.202 .0317870
624.966 .0317658
625.730 .0317441
626.493 .0317215
627.257 .0316982
628.020 .0316738
628.782 .0316483
629.545 .0316218
630.307 .0315942
631.068 .0315656
631.830 .0315361
632.591 .0315059
633.352 .0314751
634.112 .0314438
634.872 .0314121
635.632 .0313802
636.392 .0313480
637.151 .0313158
637.910 .0312835
638.668 .0312514
639.427 .0312196
640.185 .0311882
640.943 .0311575
641.700 .0311276
642.457 .0310986
643.214 .0310705
643.971 .0310434
644.727 .0310173
645.483 .0309922
646.239 .0309678
646.994 .0309441
647.750 .0309210
648.505 .0308983
649.259 .0308760
650.014 .0308539
650.768 .0308318
651.521 .0308096
652.275 .0307872
653.028 .0307645
653.781 .0307414
654.534 .0307179
655.286 .0306939
656.039 .0306694
656.791 .0306444
657.542 .0306189
658.294 .0305928
659.045 .0305661
659.796 .0305389
660.546 .0305111
661.297 .0304827
662.047 .0304540
662.796 .0304250
663.546 .0303958
664.295 .0303667
665.044 .0303377
665.793 .0303090
666.542 .0302806
667.290 .0302527
668.038 .0302252
668.786 .0301984
669.533 .0301723
670.281 .0301469
671.028 .0301224
671.774 .0300987
672.521 .0300759
673.267 .0300540
674.013 .0300331
674.759 .0300130
675.505 .0299937
676.250 .0299751
676.995 .0299573
677.740 .0299401
678.484 .0299236
679.229 .0299077
679.973 .0298922
680.717 .0298771
681.460 .0298623
682.204 .0298476
682.947 .0298328
683.690 .0298180
684.433 .0298030
685.175 .0297879
685.917 .0297726
686.659 .0297572
687.401 .0297416
688.142 .0297259
688.884 .0297099
689.625 .0296938
690.365 .0296774
691.106 .0296607
691.846 .0296437
692.586 .0296263
693.326 .0296088
694.066 .0295910
694.805 .0295731
695.545 .0295552
696.284 .0295373
697.022 .0295194
697.761 .0295018
698.499 .0294844
699.237 .0294672
699.975 .0294504
700.713 .0294340
701.450 .0294178
702.187 .0294019
702.924 .0293862
703.661 .0293707
704.397 .0293554
705.133 .0293402
705.869 .0293252
706.605 .0293103
707.341 .0292957
708.076 .0292813
708.811 .0292672
709.546 .0292534
710.281 .0292398
711.015 .0292263
711.749 .0292130
712.483 .0291997
713.217 .0291865
713.950 .0291733
714.684 .0291601
715.417 .0291469
716.150 .0291337
716.882 .0291206
717.615 .0291074
718.347 .0290942
719.079 .0290810
719.811 .0290676
720.542 .0290540
721.273 .0290402
722.005 .0290261
722.735 .0290116
723.466 .0289968
724.196 .0289817
724.927 .0289664
725.656 .0289508
726.386 .0289350
727.116 .0289192
727.845 .0289033
728.574 .0288875
729.303 .0288717
730.031 .0288560
730.760 .0288404
731.488 .0288248
732.216 .0288094
732.944 .0287940
733.671 .0287788
734.398 .0287636
735.125 .0287487
735.852 .0287339
736.579 .0287194
737.305 .0287052
738.031 .0286914
738.757 .0286779
739.483 .0286649
740.208 .0286521
740.933 .0286395
741.658 .0286271
742.383 .0286146
743.108 .0286021
743.832 .0285894
744.556 .0285764
745.280 .0285632
746.004 .0285496
746.727 .0285357
747.450 .0285212
748.173 .0285064
748.896 .0284910
749.618 .0284750
750.340 .0284584
751.062 .0284412
751.784 .0284233
752.506 .0284049
753.227 .0283857
753.948 .0283660
754.669 .0283457
755.389 .0283248
756.110 .0283034
756.830 .0282817
757.550 .0282597
758.269 .0282375
758.989 .0282152
759.708 .0281929
760.427 .0281707
761.146 .0281486
761.864 .0281266
762.582 .0281048
763.300 .0280831
764.018 .0280616
764.736 .0280403
765.453 .0280192
766.170 .0279985
766.887 .0279782
767.603 .0279583
768.320 .0279389
769.036 .0279199
769.751 .0279014
770.467 .0278834
771.182 .0278659
771.897 .0278489
772.612 .0278324
773.327 .0278164
774.041 .0278009
774.755 .0277859
775.469 .0277715
776.183 .0277576
776.896 .0277442
777.609 .0277312
778.322 .0277188
779.035 .0277068
779.747 .0276954
780.459 .0276844
781.171 .0276740
781.882 .0276639
782.594 .0276544
783.305 .0276451
784.016 .0276362
784.726 .0276274
785.436 .0276188
786.147 .0276064
786.856 .0275977
787.566 .0275891
788.275 .0275803
788.984 .0275715
789.693 .0275626
790.401 .0275535
791.110 .0275442
791.818 .0275346
792.525 .0275247
793.233 .0275145
793.940 .0275040
794.647 .0274977
795.353 .0274869
796.060 .0274760
796.766 .0274649
797.472 .0274537
798.177 .0274424
798.883 .0274310
799.588 .0274195
800.292 .0274079
800.997 .0273962
801.701 .0273845
802.405 .0273727
803.109 .0273611
803.812 .0273495
804.515 .0273380
805.218 .0273266
805.921 .0273153
806.623 .0273041
807.325 .0272930
808.027 .0272819
808.728 .0272710
809.429 .0272603
810.130 .0272497
810.831 .0272394
811.531 .0272292
812.231 .0272193
812.931 .0272096
813.630 .0272002
814.330 .0271910
815.029 .0271821
815.727 .0271735
816.426 .0271651
817.124 .0271571
817.821 .0271493
818.519 .0271420
819.216 .0271351
819.913 .0271285
820.609 .0271224
821.306 .0271167
822.002 .0271115
822.697 .0271067
823.393 .0271024
824.088 .0270987
824.783 .0270954
825.477 .0270926
826.171 .0270903
826.865 .0270884
827.559 .0270868
828.252 .0270857
828.945 .0270849
829.638 .0270844
830.330 .0270842
831.023 .0270843
831.714 .0270846
832.406 .0270852
833.097 .0270859
833.788 .0270868
834.479 .0270878
835.169 .0270888
835.859 .0270899
836.548 .0270911
837.238 .0270924
837.927 .0270937
838.615 .0270950
839.304 .0270964
839.992 .0270977
840.680 .0270989
841.367 .0270999
842.054 .0271007
842.741 .0271011
843.428 .0271012
844.114 .0271009
844.800 .0271002
845.485 .0270989
846.170 .0270971
846.855 .0270947
847.540 .0270915
848.224 .0270876
848.908 .0270829
849.592 .0270773
850.275 .0270709
850.958 .0270637
851.641 .0270557
852.323 .0270469
853.005 .0270373
853.687 .0270270
854.368 .0270158
855.049 .0270040
855.730 .0269915
856.410 .0269783
857.090 .0269647
857.769 .0269506
858.449 .0269362
859.128 .0269215
859.806 .0269067
860.485 .0268919
861.163 .0268770
861.840 .0268622
862.518 .0268474
863.195 .0268328
863.871 .0268184
864.548 .0268042
865.224 .0267903
865.899 .0267767
866.574 .0267635
867.249 .0267505
867.924 .0267379
868.598 .0267256
869.272 .0267135
869.946 .0267016
870.619 .0266900
871.292 .0266784
871.964 .0266670
872.636 .0266558
873.308 .0266447
873.979 .0266337
874.651 .0266228
875.321 .0266120
875.992 .0266013
876.662 .0265907
877.331 .0265802
878.001 .0265698
878.670 .0265595
879.338 .0265493
880.007 .0265392
880.675 .0265293
881.342 .0265195
882.009 .0265098
882.676 .0265002
883.343 .0264908
884.009 .0264815
884.675 .0264724
885.340 .0264635
886.005 .0264548
886.670 .0264464
887.334 .0264382
887.998 .0264303
888.662 .0264225
889.325 .0264149
889.988 .0264074
890.650 .0263999
891.312 .0263923
891.974 .0263845
892.636 .0263766
893.297 .0263684
893.957 .0263598
894.618 .0263509
895.278 .0263415
895.937 .0263317
896.596 .0263213
897.255 .0263103
897.914 .0262985
898.572 .0262859
899.230 .0262724
899.887 .0262580
900.544 .0262426
901.201 .0262262
901.857 .0261975
902.513 .0261789
903.168 .0261594
903.823 .0261390
904.478 .0261178
905.132 .0260959
905.786 .0260732
906.440 .0260498
907.093 .0260258
907.746 .0260013
908.399 .0259764
909.051 .0259511
909.703 .0259256
910.354 .0259126
911.005 .0258872
911.656 .0258618
912.306 .0258364
912.956 .0258111
913.605 .0257859
914.254 .0257610
914.903 .0257363
915.551 .0257118
916.199 .0256877
916.847 .0256639
917.494 .0256404
918.141 .0256173
918.788 .0255944
919.434 .0255718
920.079 .0255493
920.725 .0255269
921.370 .0255046
922.014 .0254823
922.658 .0254599
923.302 .0254375
923.946 .0254150
924.589 .0253925
925.231 .0253699
925.873 .0253473
926.515 .0253247
927.157 .0253020
927.798 .0252794
928.439 .0252567
929.079 .0252340
929.719 .0252114
930.359 .0251890
930.998 .0251666
931.637 .0251446
932.275 .0251229
932.913 .0251016
933.551 .0250809
934.188 .0250608
934.825 .0250412
935.462 .0250224
936.098 .0250043
936.733 .0249869
937.369 .0249703
938.004 .0249544
938.638 .0249394
939.273 .0249253
939.907 .0249121
940.540 .0248997
941.173 .0248883
941.806 .0248778
942.438 .0248680
943.070 .0248590
943.702 .0248506
944.333 .0248428
944.964 .0248355
945.594 .0248286
946.224 .0248221
946.854 .0248160
947.483 .0248101
948.112 .0248044
948.741 .0247988
949.369 .0247934
949.996 .0247879
950.624 .0247825
951.251 .0247771
951.878 .0247716
952.504 .0247660
953.130 .0247604
953.755 .0247548
954.380 .0247492
955.005 .0247437
955.629 .0247382
956.253 .0247328
956.877 .0247274
957.500 .0247221
958.123 .0247168
958.746 .0247117
959.368 .0247067
959.990 .0247020
960.611 .0246974
961.232 .0246931
961.853 .0246890
962.473 .0246853
963.093 .0246818
963.712 .0246787
964.331 .0246758
964.950 .0246731
965.569 .0246708
966.187 .0246687
966.804 .0246669
967.422 .0246653
968.039 .0246640
968.655 .0246628
969.272 .0246619
969.887 .0246611
970.503 .0246604
971.118 .0246598
971.733 .0246592
972.347 .0246587
972.961 .0246583
973.575 .0246578
974.188 .0246574
974.801 .0246569
975.414 .0246564
976.026 .0246558
976.638 .0246551
977.250 .0246544
977.861 .0246536
978.472 .0246528
979.083 .0246521
979.693 .0246513
980.303 .0246506
980.912 .0246497
981.521 .0246492
982.130 .0246487
982.738 .0246483
983.346 .0246480
983.954 .0246478
984.562 .0246477
985.169 .0246479
985.775 .0246483
986.382 .0246490
986.988 .0246500
987.594 .0246514
988.199 .0246531
988.804 .0246552
989.409 .0246575
990.013 .0246601
990.617 .0246630
991.221 .0246664
991.824 .0246701
992.427 .0246742
993.030 .0246786
993.632 .0246834
994.234 .0246886
994.836 .0246942
995.438 .0247000
996.039 .0247062
996.640 .0247127
997.240 .0247194
997.840 .0247264
998.440 .0247337
999.040 .0247412
999.639 .0247489
1000.238 .0247569
1000.836 .0247650
1001.435 .0247732
1002.033 .0247814
1002.630 .0247897
1003.228 .0247980
1003.825 .0248062
1004.422 .0248143
1005.018 .0248224
1005.614 .0248304
1006.210 .0248384
1006.806 .0248463
1007.401 .0248541
1007.996 .0248619
1008.591 .0248696
1009.186 .0248773
1009.780 .0248849
1010.374 .0248925
1010.967 .0249002
1011.561 .0249079
1012.154 .0249158
1012.746 .0249238
1013.339 .0249321
1013.931 .0249406
1014.523 .0249494
1015.115 .0249585
1015.706 .0249678
1016.298 .0249774
1016.888 .0249872
1017.479 .0249973
1018.069 .0250076
1018.660 .0250183
1019.250 .0250293
1019.839 .0250406
1020.429 .0250524
1021.018 .0250645
1021.607 .0250771
1022.195 .0250901
1022.784 .0251035
1023.372 .0251171
1023.960 .0251311
1024.547 .0251452
1025.135 .0251594
1025.722 .0251738
1026.309 .0251884
1026.896 .0252031
1027.483 .0252180
1028.069 .0252329
1028.655 .0252478
1029.241 .0252627
1029.827 .0252773
1030.412 .0252916
1030.997 .0253054
1031.582 .0253187
1032.167 .0253314
1032.752 .0253435
1033.336 .0253550
1033.921 .0253658
1034.505 .0253759
1035.089 .0253854
1035.672 .0253942
1036.256 .0254023
1036.839 .0254097
1037.422 .0254164
1038.005 .0254223
1038.588 .0254276
1039.171 .0254323
1039.753 .0254364
1040.335 .0254401
1040.918 .0254435
1041.500 .0254467
1042.081 .0254497
1042.663 .0254526
1043.244 .0254553
1043.826 .0254579
1044.407 .0254604
1044.988 .0254626
1045.569 .0254646
1046.150 .0254664
1046.730 .0254680
1047.311 .0254693
1047.891 .0254704
1048.471 .0254713
1049.052 .0254720
1049.632 .0254723
1050.211 .0254723
1050.791 .0254719
1051.371 .0254711
1051.950 .0254700
1052.530 .0254686
1053.109 .0254669
1053.688 .0254649
1054.268 .0254628
1054.847 .0254605
1055.426 .0254580
1056.005 .0254552
1056.583 .0254521
1057.162 .0254486
1057.741 .0254446
1058.319 .0254401
1058.898 .0254351
1059.476 .0254296
1060.055 .0254237
1060.633 .0254175
1061.211 .0254108
1061.790 .0254039
1062.368 .0253968
1062.946 .0253894
1063.524 .0253820
1064.102 .0253745
1064.680 .0253669
1065.258 .0253594
1065.836 .0253520
1066.414 .0253447
1066.992 .0253376
1067.570 .0253306
1068.148 .0253237
1068.726 .0253170
1069.304 .0253104
1069.882 .0253038
1070.460 .0252972
1071.038 .0252907
1071.616 .0252841
1072.194 .0252775
1072.772 .0252707
1073.350 .0252639
1073.928 .0252569
1074.506 .0252499
1075.084 .0252429
1075.662 .0252359
1076.240 .0252291
1076.819 .0252224
1077.397 .0252161
1077.976 .0252102
1078.554 .0252047
1079.133 .0251997
1079.711 .0251949
1080.290 .0251904
1080.869 .0251860
1081.448 .0251817
1082.027 .0251776
1082.606 .0251737
1083.185 .0251702
1083.764 .0251670
1084.343 .0251645
1084.923 .0251625
1085.502 .0251610
1086.082 .0251599
1086.662 .0251590
1087.242 .0251581
1087.822 .0251572
1088.402 .0251560
1088.983 .0251549
1089.563 .0251537
1090.144 .0251527
1090.725 .0251520
1091.306 .0251514
1091.887 .0251512
1092.469 .0251510
1093.050 .0251507
1093.632 .0251503
1094.214 .0251495
1094.796 .0251481
1095.379 .0251464
1095.961 .0251444
1096.544 .0251422
1097.127 .0251400
1097.710 .0251380
1098.294 .0251363
1098.877 .0251350
1099.461 .0251340
1100.046 .0251333
1100.630 .0251329
1101.215 .0251329
1101.800 .0251334
1102.385 .0251344
1102.970 .0251364
1103.556 .0251394
1104.142 .0251439
1104.728 .0251500
1105.315 .0251578
1105.902 .0251676
1106.489 .0251793
1107.077 .0251931
1107.664 .0252089
1108.253 .0252268
1108.841 .0252466
1109.430 .0252682
1110.019 .0252917
1110.609 .0253168
1111.198 .0253435
1111.789 .0253717
1112.379 .0254012
1112.970 .0254318
1113.561 .0254634
1114.153 .0254956
1114.745 .0255285
1115.338 .0255617
1115.931 .0255952
1116.524 .0256288
1117.117 .0256622
1117.712 .0256957
1118.306 .0257291
1118.901 .0257628
1119.496 .0257968
1120.092 .0258312
1120.689 .0258662
1121.285 .0259017
1121.882 .0259380
1122.480 .0259750
1123.078 .0260130
1123.677 .0260520
1124.276 .0260920
1124.875 .0261333
1125.476 .0261762
1126.076 .0262209
1126.677 .0262677
1127.279 .0263167
1127.881 .0263680
1128.484 .0264217
1129.087 .0264400
1129.691 .0264969
1130.295 .0265565
1130.900 .0266190
1131.505 .0266844
1132.111 .0267527
1132.718 .0268240
1133.325 .0268983
1133.933 .0269747
1134.541 .0270576
1135.150 .0271369
1135.760 .0272192
1136.370 .0273088
1136.981 .0274288
1137.592 .0275357
1138.204 .0276461
1138.817 .0277565
1139.431 .0278659
1140.045 .0279713
1140.660 .0280730
1141.275 .0281742
1141.891 .0282457
1142.508 .0284362
1143.126 .0283522
1143.744 .0284533
1144.363 .0286813
1144.983 .0280572
