Measurement Sequence started on: 15-12-46-377
Integration time: 28
Scans to Average: 2 
>>>>>Begin Spectral Data<<<<<
432.689 .0000100
433.621 .0000100
434.552 .0000100
435.482 .0000100
436.410 .0000100
437.337 .0000100
438.262 .0270726
439.187 .0573355
440.110 .0949534
441.031 .1374132
441.952 .1101433
442.871 .1150184
443.789 .1195567
444.705 .1238319
445.621 .1278923
446.535 .1317725
447.447 .1340727
448.359 .1346429
449.269 .1331128
450.178 .1292405
451.086 .1231005
451.993 .1151664
452.898 .1062209
453.803 .0971518
454.706 .0887155
455.608 .0813815
456.508 .0753085
457.408 .0711928
458.306 .0680265
459.204 .0654463
460.100 .0632701
460.995 .0613958
461.888 .0597530
462.781 .0582968
463.673 .0569956
464.563 .0558277
465.452 .0547774
466.340 .0538303
467.228 .0529754
468.114 .0522034
468.999 .0515063
469.882 .0508768
470.765 .0503080
471.647 .0497938
472.528 .0493298
473.407 .0489124
474.286 .0485386
475.163 .0482070
476.040 .0479156
476.915 .0476627
477.790 .0474458
478.663 .0472623
479.535 .0471090
480.407 .0469829
481.277 .0468808
482.147 .0467988
483.015 .0467339
483.883 .0466832
484.749 .0466439
485.615 .0466145
486.479 .0465945
487.343 .0465834
488.206 .0465820
489.067 .0465909
489.928 .0466113
490.788 .0466438
491.647 .0466894
492.505 .0467485
493.362 .0468223
494.218 .0469120
495.073 .0470191
495.928 .0472615
496.781 .0474299
497.634 .0476260
498.486 .0478526
499.337 .0481133
500.187 .0484109
501.036 .0487473
501.884 .0491243
502.731 .0495437
503.578 .0500066
504.424 .0503329
505.268 .0508680
506.113 .0514542
506.956 .0520939
507.798 .0527923
508.640 .0535552
509.480 .0543914
510.320 .0553109
511.160 .0563248
511.998 .0574446
512.836 .0586856
513.672 .0600613
514.508 .0615895
515.344 .0632887
516.178 .0651787
517.012 .0672803
517.845 .0696154
518.677 .0722048
519.508 .0750684
520.339 .0782153
521.169 .0816535
521.998 .0853636
522.826 .0893137
523.654 .0934504
524.481 .0977091
525.307 .1020137
526.133 .1062808
526.958 .1104199
527.782 .1143457
528.605 .1179787
529.428 .1212549
530.250 .1241112
531.072 .1265065
531.892 .1284053
532.712 .1297834
533.532 .1306241
534.350 .1309197
535.168 .1306684
535.986 .1298756
536.802 .1285453
537.618 .1266890
538.434 .1243167
539.249 .1214631
540.063 .1181736
540.876 .1145096
541.689 .1105445
542.501 .1063603
543.313 .1020423
544.124 .0976803
544.934 .0933575
545.744 .0891471
546.553 .0851068
547.361 .0812880
548.169 .0777208
548.976 .0744247
549.783 .0714070
550.589 .0686656
551.395 .0661877
552.200 .0639536
553.004 .0619368
553.808 .0601118
554.611 .0584559
555.414 .0569485
556.216 .0555701
557.018 .0543037
557.819 .0531364
558.619 .0520551
559.419 .0510487
560.218 .0501093
561.017 .0492286
561.815 .0483981
562.613 .0476120
563.410 .0468642
564.207 .0461495
565.003 .0454636
565.799 .0448027
566.594 .0441638
567.388 .0435451
568.182 .0429451
568.976 .0423629
569.769 .0417989
570.562 .0412535
571.354 .0407272
572.145 .0402210
572.936 .0397356
573.727 .0392709
574.517 .0388267
575.307 .0384034
576.096 .0379998
576.885 .0376154
577.673 .0372500
578.461 .0369034
579.248 .0365753
580.035 .0362660
580.821 .0359751
581.607 .0357024
582.392 .0354476
583.177 .0352098
583.962 .0349879
584.746 .0347811
585.529 .0345881
586.313 .0344075
587.095 .0342388
587.878 .0340810
588.660 .0339339
589.441 .0337971
590.222 .0336705
591.003 .0335536
591.783 .0334461
592.563 .0333472
593.342 .0332562
594.121 .0331720
594.899 .0330939
595.678 .0330209
596.455 .0329522
597.233 .0328873
598.009 .0328257
598.786 .0327673
599.562 .0327117
600.338 .0326588
601.113 .0326084
601.888 .0325398
602.663 .0324947
603.437 .0324514
604.211 .0324096
604.984 .0323690
605.757 .0323296
606.530 .0322912
607.302 .0322537
608.074 .0322173
608.845 .0321818
609.616 .0321473
610.387 .0321325
611.158 .0320994
611.928 .0320672
612.697 .0320359
613.467 .0320053
614.236 .0319755
615.004 .0319463
615.773 .0319175
616.541 .0318891
617.308 .0318611
618.076 .0318333
618.843 .0318058
619.609 .0317784
620.375 .0317513
621.141 .0317244
621.907 .0316977
622.672 .0316714
623.437 .0316455
624.202 .0316199
624.966 .0315948
625.730 .0315699
626.493 .0315454
627.257 .0315211
628.020 .0314970
628.782 .0314732
629.545 .0314498
630.307 .0314266
631.068 .0314039
631.830 .0313817
632.591 .0313598
633.352 .0313383
634.112 .0313171
634.872 .0312961
635.632 .0312753
636.392 .0312546
637.151 .0312340
637.910 .0312135
638.668 .0311931
639.427 .0311727
640.185 .0311524
640.943 .0311322
641.700 .0311121
642.457 .0310920
643.214 .0310721
643.971 .0310525
644.727 .0310330
645.483 .0310139
646.239 .0309951
646.994 .0309765
647.750 .0309581
648.505 .0309398
649.259 .0309216
650.014 .0309033
650.768 .0308850
651.521 .0308667
652.275 .0308481
653.028 .0308295
653.781 .0308106
654.534 .0307914
655.286 .0307720
656.039 .0307521
656.791 .0307317
657.542 .0307107
658.294 .0306892
659.045 .0306671
659.796 .0306444
660.546 .0306212
661.297 .0305974
662.047 .0305731
662.796 .0305483
663.546 .0305230
664.295 .0304973
665.044 .0304713
665.793 .0304452
666.542 .0304189
667.290 .0303928
668.038 .0303668
668.786 .0303411
669.533 .0303158
670.281 .0302908
671.028 .0302662
671.774 .0302419
672.521 .0302180
673.267 .0301944
674.013 .0301712
674.759 .0301484
675.505 .0301260
676.250 .0301039
676.995 .0300823
677.740 .0300609
678.484 .0300399
679.229 .0300192
679.973 .0299988
680.717 .0299786
681.460 .0299586
682.204 .0299387
682.947 .0299191
683.690 .0298996
684.433 .0298802
685.175 .0298610
685.917 .0298419
686.659 .0298229
687.401 .0298041
688.142 .0297855
688.884 .0297671
689.625 .0297489
690.365 .0297309
691.106 .0297132
691.846 .0296956
692.586 .0296781
693.326 .0296607
694.066 .0296432
694.805 .0296255
695.545 .0296076
696.284 .0295896
697.022 .0295713
697.761 .0295529
698.499 .0295345
699.237 .0295159
699.975 .0294973
700.713 .0294785
701.450 .0294596
702.187 .0294406
702.924 .0294213
703.661 .0294019
704.397 .0293822
705.133 .0293624
705.869 .0293426
706.605 .0293228
707.341 .0293030
708.076 .0292834
708.811 .0292639
709.546 .0292445
710.281 .0292253
711.015 .0292064
711.749 .0291877
712.483 .0291692
713.217 .0291510
713.950 .0291330
714.684 .0291152
715.417 .0290976
716.150 .0290802
716.882 .0290629
717.615 .0290458
718.347 .0290288
719.079 .0290120
719.811 .0289954
720.542 .0289790
721.273 .0289628
722.005 .0289467
722.735 .0289308
723.466 .0289150
724.196 .0288994
724.927 .0288839
725.656 .0288687
726.386 .0288538
727.116 .0288393
727.845 .0288253
728.574 .0288117
729.303 .0287986
730.031 .0287861
730.760 .0287740
731.488 .0287624
732.216 .0287513
732.944 .0287405
733.671 .0287301
734.398 .0287201
735.125 .0287104
735.852 .0287011
736.579 .0286922
737.305 .0286835
738.031 .0286752
738.757 .0286671
739.483 .0286592
740.208 .0286514
740.933 .0286438
741.658 .0286361
742.383 .0286285
743.108 .0286208
743.832 .0286129
744.556 .0286050
745.280 .0285970
746.004 .0285889
746.727 .0285806
747.450 .0285721
748.173 .0285634
748.896 .0285544
749.618 .0285450
750.340 .0285354
751.062 .0285254
751.784 .0285151
752.506 .0285044
753.227 .0284933
753.948 .0284820
754.669 .0284704
755.389 .0284585
756.110 .0284463
756.830 .0284338
757.550 .0284210
758.269 .0284079
758.989 .0283946
759.708 .0283811
760.427 .0283673
761.146 .0283533
761.864 .0283391
762.582 .0283246
763.300 .0283099
764.018 .0282951
764.736 .0282802
765.453 .0282652
766.170 .0282502
766.887 .0282352
767.603 .0282202
768.320 .0282054
769.036 .0281906
769.751 .0281760
770.467 .0281615
771.182 .0281472
771.897 .0281331
772.612 .0281192
773.327 .0281058
774.041 .0280927
774.755 .0280800
775.469 .0280677
776.183 .0280560
776.896 .0280446
777.609 .0280338
778.322 .0280233
779.035 .0280133
779.747 .0280035
780.459 .0279941
781.171 .0279849
781.882 .0279759
782.594 .0279670
783.305 .0279583
784.016 .0279497
784.726 .0279410
785.436 .0279322
786.147 .0279182
786.856 .0279086
787.566 .0278987
788.275 .0278883
788.984 .0278775
789.693 .0278663
790.401 .0278546
791.110 .0278425
791.818 .0278299
792.525 .0278168
793.233 .0278032
793.940 .0277892
794.647 .0277808
795.353 .0277660
796.060 .0277508
796.766 .0277351
797.472 .0277190
798.177 .0277025
798.883 .0276856
799.588 .0276684
800.292 .0276508
800.997 .0276329
801.701 .0276147
802.405 .0275963
803.109 .0275776
803.812 .0275588
804.515 .0275399
805.218 .0275210
805.921 .0275020
806.623 .0274830
807.325 .0274640
808.027 .0274448
808.728 .0274256
809.429 .0274063
810.130 .0273868
810.831 .0273673
811.531 .0273478
812.231 .0273283
812.931 .0273090
813.630 .0272899
814.330 .0272710
815.029 .0272524
815.727 .0272341
816.426 .0272161
817.124 .0271985
817.821 .0271813
818.519 .0271646
819.216 .0271484
819.913 .0271329
820.609 .0271180
821.306 .0271039
822.002 .0270906
822.697 .0270781
823.393 .0270664
824.088 .0270555
824.783 .0270452
825.477 .0270356
826.171 .0270266
826.865 .0270181
827.559 .0270100
828.252 .0270025
828.945 .0269954
829.638 .0269888
830.330 .0269826
831.023 .0269769
831.714 .0269716
832.406 .0269667
833.097 .0269620
833.788 .0269576
834.479 .0269533
835.169 .0269491
835.859 .0269450
836.548 .0269410
837.238 .0269371
837.927 .0269332
838.615 .0269293
839.304 .0269254
839.992 .0269214
840.680 .0269172
841.367 .0269128
842.054 .0269083
842.741 .0269036
843.428 .0268989
844.114 .0268940
844.800 .0268892
845.485 .0268842
846.170 .0268790
846.855 .0268737
847.540 .0268680
848.224 .0268620
848.908 .0268556
849.592 .0268488
850.275 .0268415
850.958 .0268339
851.641 .0268259
852.323 .0268175
853.005 .0268087
853.687 .0267994
854.368 .0267897
855.049 .0267796
855.730 .0267690
856.410 .0267581
857.090 .0267468
857.769 .0267353
858.449 .0267237
859.128 .0267120
859.806 .0267002
860.485 .0266885
861.163 .0266770
861.840 .0266657
862.518 .0266547
863.195 .0266442
863.871 .0266341
864.548 .0266245
865.224 .0266155
865.899 .0266071
866.574 .0265992
867.249 .0265920
867.924 .0265853
868.598 .0265792
869.272 .0265738
869.946 .0265690
870.619 .0265649
871.292 .0265613
871.964 .0265583
872.636 .0265557
873.308 .0265536
873.979 .0265517
874.651 .0265502
875.321 .0265490
875.992 .0265481
876.662 .0265475
877.331 .0265472
878.001 .0265472
878.670 .0265473
879.338 .0265476
880.007 .0265479
880.675 .0265483
881.342 .0265486
882.009 .0265490
882.676 .0265493
883.343 .0265497
884.009 .0265502
884.675 .0265508
885.340 .0265515
886.005 .0265525
886.670 .0265536
887.334 .0265550
887.998 .0265565
888.662 .0265582
889.325 .0265600
889.988 .0265619
890.650 .0265639
891.312 .0265660
891.974 .0265681
892.636 .0265702
893.297 .0265722
893.957 .0265740
894.618 .0265757
895.278 .0265770
895.937 .0265779
896.596 .0265783
897.255 .0265781
897.914 .0265773
898.572 .0265758
899.230 .0265734
899.887 .0265703
900.544 .0265662
901.201 .0265612
901.857 .0265492
902.513 .0265418
903.168 .0265334
903.823 .0265241
904.478 .0265138
905.132 .0265026
905.786 .0264905
906.440 .0264776
907.093 .0264638
907.746 .0264493
908.399 .0264341
909.051 .0264181
909.703 .0264016
910.354 .0263921
911.005 .0263750
911.656 .0263574
912.306 .0263394
912.956 .0263211
913.605 .0263025
914.254 .0262836
914.903 .0262646
915.551 .0262455
916.199 .0262263
916.847 .0262070
917.494 .0261876
918.141 .0261682
918.788 .0261487
919.434 .0261291
920.079 .0261092
920.725 .0260892
921.370 .0260689
922.014 .0260482
922.658 .0260273
923.302 .0260060
923.946 .0259843
924.589 .0259623
925.231 .0259400
925.873 .0259173
926.515 .0258944
927.157 .0258712
927.798 .0258476
928.439 .0258239
929.079 .0258000
929.719 .0257758
930.359 .0257516
930.998 .0257274
931.637 .0257031
932.275 .0256791
932.913 .0256552
933.551 .0256317
934.188 .0256085
934.825 .0255858
935.462 .0255636
936.098 .0255419
936.733 .0255207
937.369 .0255000
938.004 .0254799
938.638 .0254604
939.273 .0254416
939.907 .0254235
940.540 .0254061
941.173 .0253895
941.806 .0253737
942.438 .0253586
943.070 .0253441
943.702 .0253302
944.333 .0253168
944.964 .0253038
945.594 .0252911
946.224 .0252786
946.854 .0252663
947.483 .0252541
948.112 .0252420
948.741 .0252298
949.369 .0252175
949.996 .0252050
950.624 .0251922
951.251 .0251791
951.878 .0251657
952.504 .0251518
953.130 .0251375
953.755 .0251228
954.380 .0251076
955.005 .0250921
955.629 .0250762
956.253 .0250599
956.877 .0250434
957.500 .0250266
958.123 .0250095
958.746 .0249923
959.368 .0249750
959.990 .0249577
960.611 .0249403
961.232 .0249230
961.853 .0249058
962.473 .0248887
963.093 .0248717
963.712 .0248550
964.331 .0248384
964.950 .0248222
965.569 .0248063
966.187 .0247908
966.804 .0247756
967.422 .0247607
968.039 .0247462
968.655 .0247320
969.272 .0247179
969.887 .0247041
970.503 .0246904
971.118 .0246769
971.733 .0246635
972.347 .0246502
972.961 .0246370
973.575 .0246237
974.188 .0246105
974.801 .0245972
975.414 .0245838
976.026 .0245704
976.638 .0245569
977.250 .0245433
977.861 .0245297
978.472 .0245160
979.083 .0245023
979.693 .0244886
980.303 .0244748
980.912 .0244537
981.521 .0244401
982.130 .0244265
982.738 .0244131
983.346 .0243998
983.954 .0243868
984.562 .0243740
985.169 .0243616
985.775 .0243496
986.382 .0243381
986.988 .0243272
987.594 .0243168
988.199 .0243070
988.804 .0242979
989.409 .0242955
990.013 .0242876
990.617 .0242803
991.221 .0242739
991.824 .0242682
992.427 .0242633
993.030 .0242591
993.632 .0242556
994.234 .0242527
994.836 .0242506
995.438 .0242490
996.039 .0242480
996.640 .0242475
997.240 .0242475
997.840 .0242480
998.440 .0242489
999.040 .0242503
999.639 .0242521
1000.238 .0242542
1000.836 .0242567
1001.435 .0242595
1002.033 .0242628
1002.630 .0242663
1003.228 .0242702
1003.825 .0242744
1004.422 .0242789
1005.018 .0242837
1005.614 .0242887
1006.210 .0242940
1006.806 .0242995
1007.401 .0243053
1007.996 .0243114
1008.591 .0243177
1009.186 .0243244
1009.780 .0243314
1010.374 .0243386
1010.967 .0243460
1011.561 .0243536
1012.154 .0243614
1012.746 .0243692
1013.339 .0243773
1013.931 .0243855
1014.523 .0243940
1015.115 .0244027
1015.706 .0244117
1016.298 .0244211
1016.888 .0244308
1017.479 .0244409
1018.069 .0244513
1018.660 .0244621
1019.250 .0244732
1019.839 .0244846
1020.429 .0244964
1021.018 .0245085
1021.607 .0245210
1022.195 .0245340
1022.784 .0245475
1023.372 .0245614
1023.960 .0245759
1024.547 .0245907
1025.135 .0246059
1025.722 .0246211
1026.309 .0246364
1026.896 .0246516
1027.483 .0246666
1028.069 .0246815
1028.655 .0246963
1029.241 .0247111
1029.827 .0247260
1030.412 .0247411
1030.997 .0247563
1031.582 .0247718
1032.167 .0247874
1032.752 .0248030
1033.336 .0248186
1033.921 .0248342
1034.505 .0248497
1035.089 .0248652
1035.672 .0248808
1036.256 .0248965
1036.839 .0249123
1037.422 .0249283
1038.005 .0249442
1038.588 .0249599
1039.171 .0249752
1039.753 .0249898
1040.335 .0250038
1040.918 .0250169
1041.500 .0250292
1042.081 .0250408
1042.663 .0250519
1043.244 .0250624
1043.826 .0250727
1044.407 .0250828
1044.988 .0250926
1045.569 .0251023
1046.150 .0251117
1046.730 .0251209
1047.311 .0251299
1047.891 .0251387
1048.471 .0251474
1049.052 .0251561
1049.632 .0251648
1050.211 .0251736
1050.791 .0251823
1051.371 .0251910
1051.950 .0251995
1052.530 .0252075
1053.109 .0252151
1053.688 .0252222
1054.268 .0252288
1054.847 .0252351
1055.426 .0252412
1056.005 .0252473
1056.583 .0252537
1057.162 .0252605
1057.741 .0252676
1058.319 .0252753
1058.898 .0252835
1059.476 .0252921
1060.055 .0253013
1060.633 .0253108
1061.211 .0253209
1061.790 .0253313
1062.368 .0253423
1062.946 .0253536
1063.524 .0253652
1064.102 .0253770
1064.680 .0253888
1065.258 .0254003
1065.836 .0254114
1066.414 .0254221
1066.992 .0254322
1067.570 .0254417
1068.148 .0254509
1068.726 .0254596
1069.304 .0254681
1069.882 .0254764
1070.460 .0254844
1071.038 .0254923
1071.616 .0254998
1072.194 .0255069
1072.772 .0255137
1073.350 .0255201
1073.928 .0255262
1074.506 .0255320
1075.084 .0255377
1075.662 .0255433
1076.240 .0255487
1076.819 .0255540
1077.397 .0255591
1077.976 .0255640
1078.554 .0255686
1079.133 .0255730
1079.711 .0255772
1080.290 .0255812
1080.869 .0255852
1081.448 .0255892
1082.027 .0255934
1082.606 .0255979
1083.185 .0256027
1083.764 .0256078
1084.343 .0256133
1084.923 .0256191
1085.502 .0256251
1086.082 .0256314
1086.662 .0256381
1087.242 .0256450
1087.822 .0256523
1088.402 .0256600
1088.983 .0256684
1089.563 .0256774
1090.144 .0256872
1090.725 .0256978
1091.306 .0257091
1091.887 .0257213
1092.469 .0257340
1093.050 .0257475
1093.632 .0257616
1094.214 .0257764
1094.796 .0257919
1095.379 .0258080
1095.961 .0258247
1096.544 .0258421
1097.127 .0258601
1097.710 .0258787
1098.294 .0258977
1098.877 .0259172
1099.461 .0259369
1100.046 .0259569
1100.630 .0259771
1101.215 .0259975
1101.800 .0260179
1102.385 .0260383
1102.970 .0260585
1103.556 .0260783
1104.142 .0260977
1104.728 .0261164
1105.315 .0261346
1105.902 .0261521
1106.489 .0261691
1107.077 .0261857
1107.664 .0262021
1108.253 .0262185
1108.841 .0262347
1109.430 .0262507
1110.019 .0262664
1110.609 .0262817
1111.198 .0262964
1111.789 .0263106
1112.379 .0263244
1112.970 .0263381
1113.561 .0263518
1114.153 .0263659
1114.745 .0263806
1115.338 .0263960
1115.931 .0264123
1116.524 .0264292
1117.117 .0264468
1117.712 .0264649
1118.306 .0264836
1118.901 .0265032
1119.496 .0265241
1120.092 .0265468
1120.689 .0265719
1121.285 .0266002
1121.882 .0266319
1122.480 .0266676
1123.078 .0267069
1123.677 .0267498
1124.276 .0267959
1124.875 .0268449
1125.476 .0268968
1126.076 .0269515
1126.677 .0270091
1127.279 .0270698
1127.881 .0271340
1128.484 .0272020
1129.087 .0272275
1129.691 .0273012
1130.295 .0273781
1130.900 .0274580
1131.505 .0275405
1132.111 .0276255
1132.718 .0277129
1133.325 .0278032
1133.933 .0278970
1134.541 .0279918
1135.150 .0280937
1135.760 .0282030
1136.370 .0283135
1136.981 .0284457
1137.592 .0285655
1138.204 .0286810
1138.817 .0287917
1139.431 .0289012
1140.045 .0290112
1140.660 .0291272
1141.275 .0292475
1141.891 .0293859
1142.508 .0294460
1143.126 .0296751
1143.744 .0299148
1144.363 .0299814
1144.983 .0302873
