Measurement Sequence started on: 15-12-46-377
Integration time: 28
Scans to Average: 2 
>>>>>Begin Spectral Data<<<<<
432.689 .0000100
433.621 .0000100
434.552 .0000100
435.482 .0000100
436.410 .0000100
437.337 .0000100
438.262 .0271911
439.187 .0576713
440.110 .0955351
441.031 .1382762
441.952 .1109374
442.871 .1158377
443.789 .1203912
444.705 .1246711
445.621 .1287296
446.535 .1326054
447.447 .1348961
448.359 .1354504
449.269 .1338982
450.178 .1299976
451.086 .1238236
451.993 .1158491
452.898 .1068603
453.803 .0977491
454.706 .0892760
455.608 .0819149
456.508 .0758276
457.408 .0717164
458.306 .0685739
459.204 .0660340
460.100 .0639143
460.995 .0621109
461.888 .0605525
462.781 .0591888
463.673 .0579832
464.563 .0569094
465.452 .0559473
466.340 .0550801
467.228 .0542949
468.114 .0535816
468.999 .0529316
469.882 .0523377
470.765 .0517936
471.647 .0512935
472.528 .0508331
473.407 .0504079
474.286 .0500150
475.163 .0496525
476.040 .0493182
476.915 .0490114
477.790 .0487313
478.663 .0484772
479.535 .0482478
480.407 .0480423
481.277 .0478595
482.147 .0476985
483.015 .0475583
483.883 .0474387
484.749 .0473395
485.615 .0472610
486.479 .0472040
487.343 .0471689
488.206 .0471575
489.067 .0471700
489.928 .0472070
490.788 .0472686
491.647 .0473544
492.505 .0474637
493.362 .0475952
494.218 .0477479
495.073 .0479213
495.928 .0482532
496.781 .0484745
497.634 .0487160
498.486 .0489785
499.337 .0492632
500.187 .0495709
501.036 .0499031
501.884 .0502613
502.731 .0506465
503.578 .0510614
504.424 .0513286
505.268 .0517995
506.113 .0523097
506.956 .0528658
507.798 .0534759
508.640 .0541493
509.480 .0548986
510.320 .0557373
511.160 .0566795
511.998 .0577394
512.836 .0589335
513.672 .0602765
514.508 .0617867
515.344 .0634837
516.178 .0653894
517.012 .0675308
517.845 .0699336
518.677 .0726246
519.508 .0756269
520.339 .0789557
521.169 .0826177
521.998 .0865909
522.826 .0908410
523.654 .0953107
524.481 .0999284
525.307 .1046121
526.133 .1092695
526.958 .1138060
527.782 .1181278
528.605 .1221503
529.428 .1257977
530.250 .1290025
531.072 .1317165
531.892 .1338963
532.712 .1355114
533.532 .1365398
534.350 .1369659
535.168 .1367848
535.986 .1359968
536.802 .1346055
537.618 .1326206
538.434 .1300581
539.249 .1269603
540.063 .1233816
540.876 .1193922
541.689 .1150719
542.501 .1105065
543.313 .1057880
544.124 .1010087
544.934 .0962562
545.744 .0916086
546.553 .0871344
547.361 .0828927
548.169 .0789230
548.976 .0752567
549.783 .0719093
550.589 .0688834
551.395 .0661677
552.200 .0637411
553.004 .0615741
553.808 .0596371
554.611 .0579022
555.414 .0563436
556.216 .0549375
557.018 .0536609
557.819 .0524962
558.619 .0514287
559.419 .0504464
560.218 .0495402
561.017 .0486998
561.815 .0479174
562.613 .0471855
563.410 .0464963
564.207 .0458426
565.003 .0452179
565.799 .0446162
566.594 .0440329
567.388 .0434653
568.182 .0429124
568.976 .0423739
569.769 .0418510
570.562 .0413452
571.354 .0408576
572.145 .0403888
572.936 .0399387
573.727 .0395060
574.517 .0390902
575.307 .0386906
576.096 .0383066
576.885 .0379377
577.673 .0375843
578.461 .0372471
579.248 .0369268
580.035 .0366243
580.821 .0363400
581.607 .0360737
582.392 .0358254
583.177 .0355945
583.962 .0353799
584.746 .0351805
585.529 .0349953
586.313 .0348230
587.095 .0346626
587.878 .0345132
588.660 .0343740
589.441 .0342447
590.222 .0341251
591.003 .0340147
591.783 .0339133
592.563 .0338202
593.342 .0337349
594.121 .0336566
594.899 .0335847
595.678 .0335182
596.455 .0334559
597.233 .0333971
598.009 .0333408
598.786 .0332865
599.562 .0332336
600.338 .0331817
601.113 .0331305
601.888 .0330547
602.663 .0330050
603.437 .0329559
604.211 .0329073
604.984 .0328592
605.757 .0328113
606.530 .0327636
607.302 .0327162
608.074 .0326689
608.845 .0326221
609.616 .0325758
610.387 .0325554
611.158 .0325106
611.928 .0324667
612.697 .0324239
613.467 .0323823
614.236 .0323420
615.004 .0323032
615.773 .0322658
616.541 .0322299
617.308 .0321954
618.076 .0321623
618.843 .0321304
619.609 .0320996
620.375 .0320698
621.141 .0320408
621.907 .0320126
622.672 .0319850
623.437 .0319580
624.202 .0319314
624.966 .0319052
625.730 .0318793
626.493 .0318536
627.257 .0318279
628.020 .0318021
628.782 .0317764
629.545 .0317504
630.307 .0317244
631.068 .0316982
631.830 .0316721
632.591 .0316460
633.352 .0316200
634.112 .0315941
634.872 .0315684
635.632 .0315429
636.392 .0315177
637.151 .0314929
637.910 .0314686
638.668 .0314449
639.427 .0314218
640.185 .0313994
640.943 .0313776
641.700 .0313566
642.457 .0313361
643.214 .0313160
643.971 .0312963
644.727 .0312768
645.483 .0312575
646.239 .0312384
646.994 .0312195
647.750 .0312009
648.505 .0311825
649.259 .0311641
650.014 .0311458
650.768 .0311273
651.521 .0311087
652.275 .0310898
653.028 .0310705
653.781 .0310508
654.534 .0310306
655.286 .0310099
656.039 .0309887
656.791 .0309671
657.542 .0309450
658.294 .0309226
659.045 .0308998
659.796 .0308768
660.546 .0308536
661.297 .0308303
662.047 .0308068
662.796 .0307832
663.546 .0307595
664.295 .0307354
665.044 .0307111
665.793 .0306864
666.542 .0306614
667.290 .0306360
668.038 .0306104
668.786 .0305845
669.533 .0305584
670.281 .0305321
671.028 .0305058
671.774 .0304794
672.521 .0304529
673.267 .0304263
674.013 .0303995
674.759 .0303725
675.505 .0303454
676.250 .0303182
676.995 .0302909
677.740 .0302638
678.484 .0302368
679.229 .0302101
679.973 .0301839
680.717 .0301582
681.460 .0301330
682.204 .0301083
682.947 .0300840
683.690 .0300600
684.433 .0300362
685.175 .0300125
685.917 .0299887
686.659 .0299649
687.401 .0299411
688.142 .0299173
688.884 .0298935
689.625 .0298697
690.365 .0298460
691.106 .0298224
691.846 .0297987
692.586 .0297750
693.326 .0297513
694.066 .0297276
694.805 .0297039
695.545 .0296802
696.284 .0296566
697.022 .0296333
697.761 .0296104
698.499 .0295880
699.237 .0295662
699.975 .0295451
700.713 .0295249
701.450 .0295055
702.187 .0294871
702.924 .0294695
703.661 .0294528
704.397 .0294368
705.133 .0294215
705.869 .0294069
706.605 .0293928
707.341 .0293795
708.076 .0293667
708.811 .0293545
709.546 .0293430
710.281 .0293319
711.015 .0293213
711.749 .0293109
712.483 .0293008
713.217 .0292907
713.950 .0292805
714.684 .0292703
715.417 .0292600
716.150 .0292495
716.882 .0292388
717.615 .0292279
718.347 .0292167
719.079 .0292054
719.811 .0291938
720.542 .0291820
721.273 .0291699
722.005 .0291576
722.735 .0291451
723.466 .0291324
724.196 .0291196
724.927 .0291067
725.656 .0290938
726.386 .0290809
727.116 .0290680
727.845 .0290552
728.574 .0290426
729.303 .0290301
730.031 .0290179
730.760 .0290059
731.488 .0289941
732.216 .0289825
732.944 .0289711
733.671 .0289599
734.398 .0289489
735.125 .0289381
735.852 .0289275
736.579 .0289172
737.305 .0289070
738.031 .0288970
738.757 .0288870
739.483 .0288770
740.208 .0288669
740.933 .0288565
741.658 .0288458
742.383 .0288347
743.108 .0288232
743.832 .0288113
744.556 .0287988
745.280 .0287858
746.004 .0287722
746.727 .0287579
747.450 .0287429
748.173 .0287271
748.896 .0287105
749.618 .0286931
750.340 .0286749
751.062 .0286561
751.784 .0286365
752.506 .0286163
753.227 .0285955
753.948 .0285741
754.669 .0285521
755.389 .0285296
756.110 .0285066
756.830 .0284832
757.550 .0284593
758.269 .0284351
758.989 .0284107
759.708 .0283859
760.427 .0283610
761.146 .0283359
761.864 .0283107
762.582 .0282854
763.300 .0282600
764.018 .0282345
764.736 .0282091
765.453 .0281837
766.170 .0281585
766.887 .0281336
767.603 .0281089
768.320 .0280846
769.036 .0280606
769.751 .0280370
770.467 .0280139
771.182 .0279913
771.897 .0279691
772.612 .0279475
773.327 .0279264
774.041 .0279060
774.755 .0278864
775.469 .0278675
776.183 .0278495
776.896 .0278323
777.609 .0278160
778.322 .0278006
779.035 .0277861
779.747 .0277724
780.459 .0277596
781.171 .0277475
781.882 .0277362
782.594 .0277257
783.305 .0277158
784.016 .0277065
784.726 .0276979
785.436 .0276897
786.147 .0276793
786.856 .0276721
787.566 .0276651
788.275 .0276585
788.984 .0276520
789.693 .0276458
790.401 .0276397
791.110 .0276339
791.818 .0276281
792.525 .0276225
793.233 .0276170
793.940 .0276116
794.647 .0276089
795.353 .0276036
796.060 .0275984
796.766 .0275933
797.472 .0275883
798.177 .0275835
798.883 .0275787
799.588 .0275741
800.292 .0275695
800.997 .0275650
801.701 .0275605
802.405 .0275560
803.109 .0275515
803.812 .0275470
804.515 .0275426
805.218 .0275382
805.921 .0275338
806.623 .0275294
807.325 .0275250
808.027 .0275206
808.728 .0275162
809.429 .0275119
810.130 .0275076
810.831 .0275034
811.531 .0274993
812.231 .0274953
812.931 .0274914
813.630 .0274877
814.330 .0274841
815.029 .0274807
815.727 .0274775
816.426 .0274746
817.124 .0274720
817.821 .0274696
818.519 .0274675
819.216 .0274657
819.913 .0274642
820.609 .0274630
821.306 .0274621
822.002 .0274614
822.697 .0274610
823.393 .0274608
824.088 .0274608
824.783 .0274609
825.477 .0274611
826.171 .0274612
826.865 .0274612
827.559 .0274611
828.252 .0274608
828.945 .0274602
829.638 .0274594
830.330 .0274584
831.023 .0274571
831.714 .0274554
832.406 .0274534
833.097 .0274510
833.788 .0274482
834.479 .0274449
835.169 .0274412
835.859 .0274370
836.548 .0274322
837.238 .0274270
837.927 .0274212
838.615 .0274148
839.304 .0274078
839.992 .0274000
840.680 .0273916
841.367 .0273825
842.054 .0273727
842.741 .0273623
843.428 .0273512
844.114 .0273394
844.800 .0273268
845.485 .0273135
846.170 .0272993
846.855 .0272841
847.540 .0272681
848.224 .0272511
848.908 .0272331
849.592 .0272141
850.275 .0271942
850.958 .0271734
851.641 .0271517
852.323 .0271292
853.005 .0271058
853.687 .0270816
854.368 .0270566
855.049 .0270310
855.730 .0270047
856.410 .0269778
857.090 .0269506
857.769 .0269230
858.449 .0268951
859.128 .0268670
859.806 .0268387
860.485 .0268104
861.163 .0267821
861.840 .0267538
862.518 .0267258
863.195 .0266980
863.871 .0266705
864.548 .0266434
865.224 .0266166
865.899 .0265902
866.574 .0265640
867.249 .0265381
867.924 .0265125
868.598 .0264870
869.272 .0264618
869.946 .0264368
870.619 .0264121
871.292 .0263878
871.964 .0263638
872.636 .0263403
873.308 .0263173
873.979 .0262946
874.651 .0262724
875.321 .0262505
875.992 .0262289
876.662 .0262078
877.331 .0261869
878.001 .0261665
878.670 .0261466
879.338 .0261271
880.007 .0261081
880.675 .0260898
881.342 .0260722
882.009 .0260552
882.676 .0260390
883.343 .0260236
884.009 .0260091
884.675 .0259955
885.340 .0259829
886.005 .0259712
886.670 .0259605
887.334 .0259508
887.998 .0259421
888.662 .0259343
889.325 .0259275
889.988 .0259216
890.650 .0259167
891.312 .0259127
891.974 .0259097
892.636 .0259075
893.297 .0259060
893.957 .0259052
894.618 .0259049
895.278 .0259049
895.937 .0259052
896.596 .0259057
897.255 .0259063
897.914 .0259069
898.572 .0259075
899.230 .0259080
899.887 .0259083
900.544 .0259085
901.201 .0259084
901.857 .0259061
902.513 .0259051
903.168 .0259036
903.823 .0259018
904.478 .0258996
905.132 .0258971
905.786 .0258942
906.440 .0258909
907.093 .0258874
907.746 .0258836
908.399 .0258795
909.051 .0258753
909.703 .0258708
910.354 .0258689
911.005 .0258645
911.656 .0258600
912.306 .0258556
912.956 .0258512
913.605 .0258470
914.254 .0258429
914.903 .0258390
915.551 .0258352
916.199 .0258316
916.847 .0258281
917.494 .0258248
918.141 .0258215
918.788 .0258184
919.434 .0258153
920.079 .0258124
920.725 .0258096
921.370 .0258068
922.014 .0258041
922.658 .0258015
923.302 .0257988
923.946 .0257960
924.589 .0257932
925.231 .0257902
925.873 .0257872
926.515 .0257841
927.157 .0257809
927.798 .0257778
928.439 .0257747
929.079 .0257718
929.719 .0257689
930.359 .0257663
930.998 .0257638
931.637 .0257614
932.275 .0257593
932.913 .0257573
933.551 .0257556
934.188 .0257542
934.825 .0257531
935.462 .0257523
936.098 .0257520
936.733 .0257520
937.369 .0257525
938.004 .0257534
938.638 .0257546
939.273 .0257561
939.907 .0257580
940.540 .0257601
941.173 .0257625
941.806 .0257652
942.438 .0257681
943.070 .0257711
943.702 .0257742
944.333 .0257774
944.964 .0257805
945.594 .0257835
946.224 .0257862
946.854 .0257888
947.483 .0257909
948.112 .0257928
948.741 .0257942
949.369 .0257951
949.996 .0257956
950.624 .0257956
951.251 .0257950
951.878 .0257938
952.504 .0257921
953.130 .0257897
953.755 .0257867
954.380 .0257830
955.005 .0257787
955.629 .0257738
956.253 .0257682
956.877 .0257619
957.500 .0257550
958.123 .0257475
958.746 .0257392
959.368 .0257304
959.990 .0257209
960.611 .0257110
961.232 .0257004
961.853 .0256894
962.473 .0256780
963.093 .0256661
963.712 .0256538
964.331 .0256411
964.950 .0256281
965.569 .0256148
966.187 .0256012
966.804 .0255872
967.422 .0255728
968.039 .0255581
968.655 .0255430
969.272 .0255274
969.887 .0255115
970.503 .0254953
971.118 .0254786
971.733 .0254617
972.347 .0254443
972.961 .0254266
973.575 .0254085
974.188 .0253899
974.801 .0253709
975.414 .0253514
976.026 .0253313
976.638 .0253108
977.250 .0252899
977.861 .0252685
978.472 .0252467
979.083 .0252245
979.693 .0252018
980.303 .0251787
980.912 .0251418
981.521 .0251173
982.130 .0250923
982.738 .0250669
983.346 .0250410
983.954 .0250148
984.562 .0249883
985.169 .0249616
985.775 .0249347
986.382 .0249077
986.988 .0248806
987.594 .0248536
988.199 .0248266
988.804 .0247997
989.409 .0247870
990.013 .0247609
990.617 .0247352
991.221 .0247099
991.824 .0246852
992.427 .0246610
993.030 .0246374
993.632 .0246143
994.234 .0245918
994.836 .0245699
995.438 .0245486
996.039 .0245278
996.640 .0245076
997.240 .0244880
997.840 .0244690
998.440 .0244506
999.040 .0244329
999.639 .0244157
1000.238 .0243990
1000.836 .0243827
1001.435 .0243669
1002.033 .0243516
1002.630 .0243367
1003.228 .0243222
1003.825 .0243081
1004.422 .0242944
1005.018 .0242811
1005.614 .0242680
1006.210 .0242552
1006.806 .0242426
1007.401 .0242300
1007.996 .0242175
1008.591 .0242050
1009.186 .0241926
1009.780 .0241802
1010.374 .0241678
1010.967 .0241555
1011.561 .0241433
1012.154 .0241311
1012.746 .0241191
1013.339 .0241072
1013.931 .0240956
1014.523 .0240842
1015.115 .0240731
1015.706 .0240624
1016.298 .0240521
1016.888 .0240423
1017.479 .0240331
1018.069 .0240245
1018.660 .0240166
1019.250 .0240095
1019.839 .0240031
1020.429 .0239975
1021.018 .0239926
1021.607 .0239884
1022.195 .0239849
1022.784 .0239819
1023.372 .0239796
1023.960 .0239777
1024.547 .0239765
1025.135 .0239758
1025.722 .0239758
1026.309 .0239765
1026.896 .0239779
1027.483 .0239800
1028.069 .0239828
1028.655 .0239862
1029.241 .0239902
1029.827 .0239948
1030.412 .0240001
1030.997 .0240058
1031.582 .0240122
1032.167 .0240192
1032.752 .0240267
1033.336 .0240346
1033.921 .0240429
1034.505 .0240514
1035.089 .0240602
1035.672 .0240690
1036.256 .0240777
1036.839 .0240865
1037.422 .0240952
1038.005 .0241039
1038.588 .0241125
1039.171 .0241212
1039.753 .0241300
1040.335 .0241389
1040.918 .0241481
1041.500 .0241574
1042.081 .0241671
1042.663 .0241770
1043.244 .0241874
1043.826 .0241982
1044.407 .0242095
1044.988 .0242213
1045.569 .0242335
1046.150 .0242463
1046.730 .0242594
1047.311 .0242727
1047.891 .0242863
1048.471 .0243001
1049.052 .0243139
1049.632 .0243278
1050.211 .0243418
1050.791 .0243559
1051.371 .0243701
1051.950 .0243845
1052.530 .0243990
1053.109 .0244136
1053.688 .0244283
1054.268 .0244431
1054.847 .0244578
1055.426 .0244725
1056.005 .0244870
1056.583 .0245015
1057.162 .0245160
1057.741 .0245303
1058.319 .0245446
1058.898 .0245587
1059.476 .0245726
1060.055 .0245861
1060.633 .0245993
1061.211 .0246121
1061.790 .0246244
1062.368 .0246365
1062.946 .0246483
1063.524 .0246601
1064.102 .0246719
1064.680 .0246839
1065.258 .0246962
1065.836 .0247089
1066.414 .0247220
1066.992 .0247355
1067.570 .0247496
1068.148 .0247641
1068.726 .0247790
1069.304 .0247945
1069.882 .0248105
1070.460 .0248270
1071.038 .0248439
1071.616 .0248613
1072.194 .0248791
1072.772 .0248971
1073.350 .0249154
1073.928 .0249338
1074.506 .0249523
1075.084 .0249709
1075.662 .0249896
1076.240 .0250083
1076.819 .0250272
1077.397 .0250463
1077.976 .0250656
1078.554 .0250851
1079.133 .0251048
1079.711 .0251247
1080.290 .0251448
1080.869 .0251650
1081.448 .0251852
1082.027 .0252056
1082.606 .0252259
1083.185 .0252462
1083.764 .0252664
1084.343 .0252865
1084.923 .0253064
1085.502 .0253263
1086.082 .0253462
1086.662 .0253660
1087.242 .0253860
1087.822 .0254062
1088.402 .0254266
1088.983 .0254473
1089.563 .0254684
1090.144 .0254898
1090.725 .0255115
1091.306 .0255335
1091.887 .0255556
1092.469 .0255779
1093.050 .0256003
1093.632 .0256227
1094.214 .0256451
1094.796 .0256674
1095.379 .0256897
1095.961 .0257119
1096.544 .0257341
1097.127 .0257563
1097.710 .0257786
1098.294 .0258012
1098.877 .0258239
1099.461 .0258469
1100.046 .0258702
1100.630 .0258938
1101.215 .0259179
1101.800 .0259427
1102.385 .0259680
1102.970 .0259939
1103.556 .0260206
1104.142 .0260480
1104.728 .0260763
1105.315 .0261053
1105.902 .0261350
1106.489 .0261652
1107.077 .0261959
1107.664 .0262269
1108.253 .0262583
1108.841 .0262901
1109.430 .0263225
1110.019 .0263557
1110.609 .0263898
1111.198 .0264251
1111.789 .0264617
1112.379 .0264998
1112.970 .0265392
1113.561 .0265796
1114.153 .0266207
1114.745 .0266626
1115.338 .0267049
1115.931 .0267479
1116.524 .0267916
1117.117 .0268360
1117.712 .0268814
1118.306 .0269279
1118.901 .0269754
1119.496 .0270238
1120.092 .0270731
1120.689 .0271231
1121.285 .0271738
1121.882 .0272252
1122.480 .0272777
1123.078 .0273317
1123.677 .0273880
1124.276 .0274468
1124.875 .0275082
1125.476 .0275725
1126.076 .0276393
1126.677 .0277085
1127.279 .0277797
1127.881 .0278526
1128.484 .0279270
1129.087 .0279591
1129.691 .0280357
1130.295 .0281139
1130.900 .0281940
1131.505 .0282760
1132.111 .0283600
1132.718 .0284460
1133.325 .0285347
1133.933 .0286262
1134.541 .0287134
1135.150 .0288034
1135.760 .0289042
1136.370 .0290278
1136.981 .0291301
1137.592 .0292290
1138.204 .0293317
1138.817 .0294338
1139.431 .0295362
1140.045 .0296364
1140.660 .0297406
1141.275 .0298666
1141.891 .0300003
1142.508 .0299345
1143.126 .0300777
1143.744 .0304493
1144.363 .0311524
1144.983 .0309449
