Measurement Sequence started on: 15-12-46-377
Integration time: 28
Scans to Average: 2 
>>>>>Begin Spectral Data<<<<<
432.689 .0000100
433.621 .0000100
434.552 .0000100
435.482 .0000100
436.410 .0000100
437.337 .0000100
438.262 .0265953
439.187 .0564588
440.110 .0936087
441.031 .1355329
441.952 .1091448
442.871 .1140626
443.789 .1186566
444.705 .1229948
445.621 .1271246
446.535 .1310799
447.447 .1334845
448.359 .1341832
449.269 .1328095
450.178 .1291243
451.086 .1232003
451.993 .1154998
452.898 .1067917
453.803 .0979504
454.706 .0897219
455.608 .0825679
456.508 .0766462
457.408 .0726406
458.306 .0695644
459.204 .0670580
460.100 .0649402
460.995 .0631111
461.888 .0615050
462.781 .0600777
463.673 .0587979
464.563 .0576449
465.452 .0566039
466.340 .0556601
467.228 .0548034
468.114 .0540242
468.999 .0533141
469.882 .0526656
470.765 .0520719
471.647 .0515267
472.528 .0510266
473.407 .0505674
474.286 .0501472
475.163 .0497651
476.040 .0494199
476.915 .0491103
477.790 .0488348
478.663 .0485921
479.535 .0483804
480.407 .0481972
481.277 .0480409
482.147 .0479087
483.015 .0477984
483.883 .0477084
484.749 .0476370
485.615 .0475839
486.479 .0475489
487.343 .0475320
488.206 .0475344
489.067 .0475564
489.928 .0475986
490.788 .0476608
491.647 .0477433
492.505 .0478454
493.362 .0479666
494.218 .0481067
495.073 .0482667
495.928 .0485875
496.781 .0488077
497.634 .0490541
498.486 .0493287
499.337 .0496328
500.187 .0499672
501.036 .0503323
501.884 .0507281
502.731 .0511558
503.578 .0516166
504.424 .0519182
505.268 .0524373
506.113 .0529997
506.956 .0536112
507.798 .0542778
508.640 .0550056
509.480 .0558029
510.320 .0566786
511.160 .0576432
511.998 .0587087
512.836 .0598906
513.672 .0612064
514.508 .0626779
515.344 .0643310
516.178 .0661926
517.012 .0682899
517.845 .0706506
518.677 .0732981
519.508 .0762530
520.339 .0795230
521.169 .0831075
521.998 .0869811
522.826 .0911063
523.654 .0954245
524.481 .0998645
525.307 .1043489
526.133 .1087929
526.958 .1131079
527.782 .1172085
528.605 .1210157
529.428 .1244598
530.250 .1274769
531.072 .1300187
531.892 .1320420
532.712 .1335147
533.532 .1344127
534.350 .1347227
535.168 .1344419
535.986 .1335741
536.802 .1321263
537.618 .1301135
538.434 .1275582
539.249 .1245029
540.063 .1210014
540.876 .1171217
541.689 .1129421
542.501 .1085443
543.313 .1040143
544.124 .0994401
544.934 .0949058
545.744 .0904865
546.553 .0862452
547.361 .0822365
548.169 .0784955
548.976 .0750471
549.783 .0719008
550.589 .0690554
551.395 .0664985
552.200 .0642066
553.004 .0621528
553.808 .0603100
554.611 .0586542
555.414 .0571616
556.216 .0558106
557.018 .0545808
557.819 .0534565
558.619 .0524228
559.419 .0514680
560.218 .0505835
561.017 .0497614
561.815 .0489939
562.613 .0482746
563.410 .0475964
564.207 .0469526
565.003 .0463370
565.799 .0457446
566.594 .0451704
567.388 .0446114
568.182 .0440650
568.976 .0435297
569.769 .0430046
570.562 .0424899
571.354 .0419857
572.145 .0414930
572.936 .0410129
573.727 .0405463
574.517 .0400940
575.307 .0396577
576.096 .0392381
576.885 .0388359
577.673 .0384516
578.461 .0380851
579.248 .0377362
580.035 .0374046
580.821 .0370901
581.607 .0367922
582.392 .0365108
583.177 .0362463
583.962 .0359986
584.746 .0357680
585.529 .0355541
586.313 .0353566
587.095 .0351743
587.878 .0350062
588.660 .0348508
589.441 .0347068
590.222 .0345730
591.003 .0344483
591.783 .0343319
592.563 .0342230
593.342 .0341211
594.121 .0340256
594.899 .0339360
595.678 .0338519
596.455 .0337727
597.233 .0336978
598.009 .0336265
598.786 .0335584
599.562 .0334929
600.338 .0334295
601.113 .0333678
601.888 .0332809
602.663 .0332231
603.437 .0331668
604.211 .0331123
604.984 .0330594
605.757 .0330083
606.530 .0329589
607.302 .0329113
608.074 .0328653
608.845 .0328208
609.616 .0327777
610.387 .0327594
611.158 .0327185
611.928 .0326791
612.697 .0326412
613.467 .0326047
614.236 .0325698
615.004 .0325365
615.773 .0325048
616.541 .0324748
617.308 .0324463
618.076 .0324194
618.843 .0323938
619.609 .0323695
620.375 .0323462
621.141 .0323238
621.907 .0323020
622.672 .0322808
623.437 .0322599
624.202 .0322392
624.966 .0322186
625.730 .0321979
626.493 .0321771
627.257 .0321561
628.020 .0321346
628.782 .0321126
629.545 .0320900
630.307 .0320667
631.068 .0320427
631.830 .0320180
632.591 .0319927
633.352 .0319667
634.112 .0319402
634.872 .0319133
635.632 .0318859
636.392 .0318582
637.151 .0318302
637.910 .0318018
638.668 .0317734
639.427 .0317449
640.185 .0317165
640.943 .0316884
641.700 .0316607
642.457 .0316334
643.214 .0316068
643.971 .0315808
644.727 .0315554
645.483 .0315307
646.239 .0315066
646.994 .0314831
647.750 .0314602
648.505 .0314381
649.259 .0314165
650.014 .0313954
650.768 .0313747
651.521 .0313544
652.275 .0313342
653.028 .0313141
653.781 .0312940
654.534 .0312739
655.286 .0312535
656.039 .0312329
656.791 .0312118
657.542 .0311903
658.294 .0311681
659.045 .0311453
659.796 .0311217
660.546 .0310974
661.297 .0310724
662.047 .0310468
662.796 .0310207
663.546 .0309942
664.295 .0309672
665.044 .0309399
665.793 .0309123
666.542 .0308844
667.290 .0308563
668.038 .0308282
668.786 .0308001
669.533 .0307721
670.281 .0307442
671.028 .0307165
671.774 .0306890
672.521 .0306618
673.267 .0306348
674.013 .0306082
674.759 .0305819
675.505 .0305559
676.250 .0305304
676.995 .0305054
677.740 .0304809
678.484 .0304567
679.229 .0304330
679.973 .0304095
680.717 .0303862
681.460 .0303630
682.204 .0303400
682.947 .0303169
683.690 .0302939
684.433 .0302708
685.175 .0302477
685.917 .0302246
686.659 .0302014
687.401 .0301782
688.142 .0301549
688.884 .0301316
689.625 .0301082
690.365 .0300848
691.106 .0300614
691.846 .0300381
692.586 .0300149
693.326 .0299918
694.066 .0299689
694.805 .0299463
695.545 .0299240
696.284 .0299022
697.022 .0298809
697.761 .0298601
698.499 .0298399
699.237 .0298204
699.975 .0298015
700.713 .0297834
701.450 .0297659
702.187 .0297490
702.924 .0297328
703.661 .0297171
704.397 .0297021
705.133 .0296876
705.869 .0296737
706.605 .0296604
707.341 .0296476
708.076 .0296353
708.811 .0296235
709.546 .0296122
710.281 .0296012
711.015 .0295905
711.749 .0295799
712.483 .0295695
713.217 .0295591
713.950 .0295488
714.684 .0295384
715.417 .0295280
716.150 .0295175
716.882 .0295067
717.615 .0294957
718.347 .0294844
719.079 .0294726
719.811 .0294603
720.542 .0294475
721.273 .0294342
722.005 .0294204
722.735 .0294061
723.466 .0293915
724.196 .0293766
724.927 .0293614
725.656 .0293458
726.386 .0293300
727.116 .0293139
727.845 .0292975
728.574 .0292809
729.303 .0292642
730.031 .0292474
730.760 .0292307
731.488 .0292141
732.216 .0291977
732.944 .0291814
733.671 .0291653
734.398 .0291493
735.125 .0291335
735.852 .0291178
736.579 .0291022
737.305 .0290867
738.031 .0290713
738.757 .0290560
739.483 .0290407
740.208 .0290255
740.933 .0290102
741.658 .0289949
742.383 .0289794
743.108 .0289638
743.832 .0289479
744.556 .0289318
745.280 .0289154
746.004 .0288985
746.727 .0288812
747.450 .0288634
748.173 .0288450
748.896 .0288261
749.618 .0288065
750.340 .0287864
751.062 .0287657
751.784 .0287446
752.506 .0287232
753.227 .0287014
753.948 .0286792
754.669 .0286567
755.389 .0286338
756.110 .0286105
756.830 .0285868
757.550 .0285628
758.269 .0285384
758.989 .0285140
759.708 .0284894
760.427 .0284650
761.146 .0284407
761.864 .0284166
762.582 .0283929
763.300 .0283693
764.018 .0283460
764.736 .0283230
765.453 .0283001
766.170 .0282775
766.887 .0282551
767.603 .0282330
768.320 .0282113
769.036 .0281901
769.751 .0281694
770.467 .0281492
771.182 .0281297
771.897 .0281108
772.612 .0280927
773.327 .0280753
774.041 .0280586
774.755 .0280427
775.469 .0280275
776.183 .0280132
776.896 .0279996
777.609 .0279869
778.322 .0279749
779.035 .0279637
779.747 .0279534
780.459 .0279440
781.171 .0279355
781.882 .0279279
782.594 .0279213
783.305 .0279156
784.016 .0279107
784.726 .0279065
785.436 .0279030
786.147 .0279005
786.856 .0278982
787.566 .0278964
788.275 .0278948
788.984 .0278936
789.693 .0278927
790.401 .0278919
791.110 .0278914
791.818 .0278909
792.525 .0278905
793.233 .0278899
793.940 .0278892
794.647 .0278877
795.353 .0278865
796.060 .0278850
796.766 .0278832
797.472 .0278812
798.177 .0278788
798.883 .0278762
799.588 .0278733
800.292 .0278702
800.997 .0278666
801.701 .0278628
802.405 .0278586
803.109 .0278540
803.812 .0278492
804.515 .0278440
805.218 .0278387
805.921 .0278332
806.623 .0278276
807.325 .0278220
808.027 .0278162
808.728 .0278105
809.429 .0278047
810.130 .0277987
810.831 .0277928
811.531 .0277868
812.231 .0277807
812.931 .0277746
813.630 .0277684
814.330 .0277623
815.029 .0277561
815.727 .0277500
816.426 .0277437
817.124 .0277375
817.821 .0277311
818.519 .0277248
819.216 .0277185
819.913 .0277123
820.609 .0277062
821.306 .0277004
822.002 .0276947
822.697 .0276892
823.393 .0276840
824.088 .0276788
824.783 .0276738
825.477 .0276688
826.171 .0276639
826.865 .0276591
827.559 .0276542
828.252 .0276495
828.945 .0276447
829.638 .0276400
830.330 .0276352
831.023 .0276302
831.714 .0276250
832.406 .0276194
833.097 .0276134
833.788 .0276070
834.479 .0276001
835.169 .0275927
835.859 .0275849
836.548 .0275767
837.238 .0275680
837.927 .0275588
838.615 .0275491
839.304 .0275388
839.992 .0275279
840.680 .0275164
841.367 .0275042
842.054 .0274913
842.741 .0274778
843.428 .0274638
844.114 .0274491
844.800 .0274338
845.485 .0274178
846.170 .0274011
846.855 .0273837
847.540 .0273655
848.224 .0273466
848.908 .0273268
849.592 .0273064
850.275 .0272852
850.958 .0272633
851.641 .0272408
852.323 .0272176
853.005 .0271937
853.687 .0271692
854.368 .0271440
855.049 .0271182
855.730 .0270919
856.410 .0270649
857.090 .0270375
857.769 .0270097
858.449 .0269816
859.128 .0269532
859.806 .0269246
860.485 .0268960
861.163 .0268674
861.840 .0268390
862.518 .0268108
863.195 .0267829
863.871 .0267554
864.548 .0267282
865.224 .0267016
865.899 .0266754
866.574 .0266497
867.249 .0266246
867.924 .0266001
868.598 .0265761
869.272 .0265528
869.946 .0265301
870.619 .0265081
871.292 .0264866
871.964 .0264658
872.636 .0264456
873.308 .0264260
873.979 .0264071
874.651 .0263887
875.321 .0263709
875.992 .0263537
876.662 .0263371
877.331 .0263211
878.001 .0263056
878.670 .0262907
879.338 .0262763
880.007 .0262625
880.675 .0262494
881.342 .0262370
882.009 .0262253
882.676 .0262144
883.343 .0262043
884.009 .0261949
884.675 .0261864
885.340 .0261786
886.005 .0261717
886.670 .0261655
887.334 .0261601
887.998 .0261554
888.662 .0261516
889.325 .0261485
889.988 .0261461
890.650 .0261444
891.312 .0261434
891.974 .0261429
892.636 .0261430
893.297 .0261436
893.957 .0261447
894.618 .0261462
895.278 .0261481
895.937 .0261503
896.596 .0261526
897.255 .0261550
897.914 .0261574
898.572 .0261596
899.230 .0261616
899.887 .0261634
900.544 .0261649
901.201 .0261660
901.857 .0261660
902.513 .0261662
903.168 .0261660
903.823 .0261654
904.478 .0261643
905.132 .0261627
905.786 .0261606
906.440 .0261581
907.093 .0261551
907.746 .0261519
908.399 .0261484
909.051 .0261447
909.703 .0261409
910.354 .0261385
911.005 .0261348
911.656 .0261311
912.306 .0261274
912.956 .0261237
913.605 .0261201
914.254 .0261166
914.903 .0261132
915.551 .0261100
916.199 .0261069
916.847 .0261040
917.494 .0261012
918.141 .0260985
918.788 .0260958
919.434 .0260932
920.079 .0260906
920.725 .0260881
921.370 .0260855
922.014 .0260830
922.658 .0260804
923.302 .0260778
923.946 .0260751
924.589 .0260722
925.231 .0260692
925.873 .0260659
926.515 .0260623
927.157 .0260585
927.798 .0260545
928.439 .0260502
929.079 .0260457
929.719 .0260411
930.359 .0260362
930.998 .0260311
931.637 .0260259
932.275 .0260205
932.913 .0260150
933.551 .0260094
934.188 .0260040
934.825 .0259988
935.462 .0259939
936.098 .0259893
936.733 .0259852
937.369 .0259814
938.004 .0259781
938.638 .0259751
939.273 .0259725
939.907 .0259703
940.540 .0259685
941.173 .0259670
941.806 .0259659
942.438 .0259652
943.070 .0259646
943.702 .0259643
944.333 .0259640
944.964 .0259636
945.594 .0259631
946.224 .0259622
946.854 .0259609
947.483 .0259593
948.112 .0259573
948.741 .0259549
949.369 .0259520
949.996 .0259487
950.624 .0259449
951.251 .0259406
951.878 .0259356
952.504 .0259299
953.130 .0259235
953.755 .0259162
954.380 .0259083
955.005 .0258995
955.629 .0258901
956.253 .0258800
956.877 .0258691
957.500 .0258577
958.123 .0258456
958.746 .0258329
959.368 .0258197
959.990 .0258061
960.611 .0257921
961.232 .0257778
961.853 .0257633
962.473 .0257486
963.093 .0257338
963.712 .0257189
964.331 .0257039
964.950 .0256888
965.569 .0256736
966.187 .0256582
966.804 .0256426
967.422 .0256268
968.039 .0256106
968.655 .0255941
969.272 .0255771
969.887 .0255597
970.503 .0255418
971.118 .0255234
971.733 .0255045
972.347 .0254851
972.961 .0254652
973.575 .0254448
974.188 .0254240
974.801 .0254026
975.414 .0253807
976.026 .0253583
976.638 .0253354
977.250 .0253119
977.861 .0252879
978.472 .0252631
979.083 .0252378
979.693 .0252117
980.303 .0251851
980.912 .0251432
981.521 .0251154
982.130 .0250872
982.738 .0250587
983.346 .0250300
983.954 .0250012
984.562 .0249724
985.169 .0249436
985.775 .0249151
986.382 .0248869
986.988 .0248591
987.594 .0248319
988.199 .0248051
988.804 .0247789
989.409 .0247676
990.013 .0247424
990.617 .0247177
991.221 .0246935
991.824 .0246698
992.427 .0246466
993.030 .0246237
993.632 .0246013
994.234 .0245793
994.836 .0245578
995.438 .0245367
996.039 .0245161
996.640 .0244961
997.240 .0244768
997.840 .0244582
998.440 .0244404
999.040 .0244235
999.639 .0244074
1000.238 .0243921
1000.836 .0243777
1001.435 .0243641
1002.033 .0243511
1002.630 .0243388
1003.228 .0243272
1003.825 .0243161
1004.422 .0243055
1005.018 .0242954
1005.614 .0242858
1006.210 .0242766
1006.806 .0242678
1007.401 .0242592
1007.996 .0242508
1008.591 .0242427
1009.186 .0242350
1009.780 .0242276
1010.374 .0242206
1010.967 .0242141
1011.561 .0242083
1012.154 .0242030
1012.746 .0241984
1013.339 .0241944
1013.931 .0241908
1014.523 .0241876
1015.115 .0241846
1015.706 .0241819
1016.298 .0241793
1016.888 .0241769
1017.479 .0241749
1018.069 .0241731
1018.660 .0241718
1019.250 .0241708
1019.839 .0241703
1020.429 .0241701
1021.018 .0241702
1021.607 .0241706
1022.195 .0241713
1022.784 .0241722
1023.372 .0241736
1023.960 .0241754
1024.547 .0241780
1025.135 .0241812
1025.722 .0241851
1026.309 .0241898
1026.896 .0241951
1027.483 .0242010
1028.069 .0242074
1028.655 .0242141
1029.241 .0242211
1029.827 .0242286
1030.412 .0242364
1030.997 .0242448
1031.582 .0242538
1032.167 .0242634
1032.752 .0242736
1033.336 .0242843
1033.921 .0242954
1034.505 .0243069
1035.089 .0243185
1035.672 .0243303
1036.256 .0243422
1036.839 .0243542
1037.422 .0243664
1038.005 .0243787
1038.588 .0243912
1039.171 .0244038
1039.753 .0244166
1040.335 .0244293
1040.918 .0244419
1041.500 .0244544
1042.081 .0244666
1042.663 .0244787
1043.244 .0244906
1043.826 .0245025
1044.407 .0245143
1044.988 .0245262
1045.569 .0245383
1046.150 .0245506
1046.730 .0245630
1047.311 .0245757
1047.891 .0245885
1048.471 .0246015
1049.052 .0246147
1049.632 .0246280
1050.211 .0246415
1050.791 .0246551
1051.371 .0246689
1051.950 .0246827
1052.530 .0246967
1053.109 .0247108
1053.688 .0247250
1054.268 .0247393
1054.847 .0247537
1055.426 .0247682
1056.005 .0247829
1056.583 .0247977
1057.162 .0248126
1057.741 .0248276
1058.319 .0248426
1058.898 .0248577
1059.476 .0248729
1060.055 .0248881
1060.633 .0249032
1061.211 .0249183
1061.790 .0249334
1062.368 .0249483
1062.946 .0249631
1063.524 .0249776
1064.102 .0249918
1064.680 .0250056
1065.258 .0250190
1065.836 .0250319
1066.414 .0250444
1066.992 .0250567
1067.570 .0250687
1068.148 .0250808
1068.726 .0250928
1069.304 .0251050
1069.882 .0251173
1070.460 .0251297
1071.038 .0251423
1071.616 .0251550
1072.194 .0251680
1072.772 .0251813
1073.350 .0251948
1073.928 .0252088
1074.506 .0252231
1075.084 .0252379
1075.662 .0252530
1076.240 .0252685
1076.819 .0252844
1077.397 .0253004
1077.976 .0253167
1078.554 .0253331
1079.133 .0253497
1079.711 .0253666
1080.290 .0253838
1080.869 .0254014
1081.448 .0254195
1082.027 .0254379
1082.606 .0254567
1083.185 .0254759
1083.764 .0254951
1084.343 .0255143
1084.923 .0255335
1085.502 .0255526
1086.082 .0255716
1086.662 .0255905
1087.242 .0256095
1087.822 .0256287
1088.402 .0256480
1088.983 .0256674
1089.563 .0256870
1090.144 .0257066
1090.725 .0257264
1091.306 .0257462
1091.887 .0257662
1092.469 .0257864
1093.050 .0258069
1093.632 .0258279
1094.214 .0258495
1094.796 .0258717
1095.379 .0258946
1095.961 .0259179
1096.544 .0259413
1097.127 .0259649
1097.710 .0259882
1098.294 .0260113
1098.877 .0260342
1099.461 .0260568
1100.046 .0260796
1100.630 .0261026
1101.215 .0261263
1101.800 .0261507
1102.385 .0261760
1102.970 .0262022
1103.556 .0262292
1104.142 .0262569
1104.728 .0262853
1105.315 .0263144
1105.902 .0263442
1106.489 .0263747
1107.077 .0264061
1107.664 .0264383
1108.253 .0264712
1108.841 .0265049
1109.430 .0265392
1110.019 .0265738
1110.609 .0266088
1111.198 .0266438
1111.789 .0266787
1112.379 .0267134
1112.970 .0267483
1113.561 .0267834
1114.153 .0268189
1114.745 .0268550
1115.338 .0268921
1115.931 .0269302
1116.524 .0269697
1117.117 .0270103
1117.712 .0270524
1118.306 .0270958
1118.901 .0271403
1119.496 .0271858
1120.092 .0272323
1120.689 .0272795
1121.285 .0273273
1121.882 .0273757
1122.480 .0274249
1123.078 .0274750
1123.677 .0275261
1124.276 .0275783
1124.875 .0276318
1125.476 .0276867
1126.076 .0277428
1126.677 .0277999
1127.279 .0278580
1127.881 .0279169
1128.484 .0279768
1129.087 .0280034
1129.691 .0280656
1130.295 .0281293
1130.900 .0281950
1131.505 .0282628
1132.111 .0283326
1132.718 .0284046
1133.325 .0284789
1133.933 .0285564
1134.541 .0286314
1135.150 .0287105
1135.760 .0287875
1136.370 .0288768
1136.981 .0289391
1137.592 .0290056
1138.204 .0290824
1138.817 .0291679
1139.431 .0292575
1140.045 .0293538
1140.660 .0294516
1141.275 .0295602
1141.891 .0297029
1142.508 .0296864
1143.126 .0298678
1143.744 .0298797
1144.363 .0302943
1144.983 .0311955
