Measurement Sequence started on: 15-12-46-377
Integration time: 28
Scans to Average: 2 
>>>>>Begin Spectral Data<<<<<
432.689 .0000100
433.621 .0000100
434.552 .0000100
435.482 .0000100
436.410 .0000100
437.337 .0000100
438.262 .0258962
439.187 .0547916
440.110 .0906734
441.031 .1311632
441.952 .1054204
442.871 .1101860
443.789 .1146399
444.705 .1188480
445.621 .1228563
446.535 .1266987
447.447 .1290369
448.359 .1297323
449.269 .1284332
450.178 .1249090
451.086 .1192304
451.993 .1118443
452.898 .1034925
453.803 .0950159
454.706 .0871278
455.608 .0802699
456.508 .0745894
457.408 .0707514
458.306 .0677926
459.204 .0653695
460.100 .0633143
460.995 .0615328
461.888 .0599621
462.781 .0585586
463.673 .0572910
464.563 .0561375
465.452 .0550814
466.340 .0541099
467.228 .0532141
468.114 .0523882
468.999 .0516294
469.882 .0509347
470.765 .0503015
471.647 .0497271
472.528 .0492090
473.407 .0487430
474.286 .0483260
475.163 .0479544
476.040 .0476253
476.915 .0473361
477.790 .0470855
478.663 .0468712
479.535 .0466922
480.407 .0465469
481.277 .0464333
482.147 .0463489
483.015 .0462905
483.883 .0462549
484.749 .0462387
485.615 .0462385
486.479 .0462520
487.343 .0462768
488.206 .0463129
489.067 .0463598
489.928 .0464186
490.788 .0464901
491.647 .0465751
492.505 .0466739
493.362 .0467868
494.218 .0469138
495.073 .0470552
495.928 .0473219
496.781 .0475048
497.634 .0477053
498.486 .0479254
499.337 .0481676
500.187 .0484351
501.036 .0487313
501.884 .0490600
502.731 .0494252
503.578 .0498319
504.424 .0501245
505.268 .0506115
506.113 .0511550
506.956 .0517607
507.798 .0524348
508.640 .0531848
509.480 .0540196
510.320 .0549502
511.160 .0559869
511.998 .0571425
512.836 .0584320
513.672 .0598693
514.508 .0614707
515.344 .0632540
516.178 .0652402
517.012 .0674494
517.845 .0699003
518.677 .0726093
519.508 .0755904
520.339 .0788479
521.169 .0823827
521.998 .0861704
522.826 .0901787
523.654 .0943562
524.481 .0986379
525.307 .1029483
526.133 .1072035
526.958 .1113134
527.782 .1151895
528.605 .1187502
529.428 .1219244
530.250 .1246461
531.072 .1268760
531.892 .1285823
532.712 .1297467
533.532 .1303583
534.350 .1304164
535.168 .1299257
535.986 .1288976
536.802 .1273413
537.618 .1252721
538.434 .1227059
539.249 .1196811
540.063 .1162416
540.876 .1124464
541.689 .1083679
542.501 .1040862
543.313 .0996857
544.124 .0952560
544.934 .0908809
545.744 .0866355
546.553 .0825819
547.361 .0787747
548.169 .0752411
548.976 .0720000
549.783 .0690536
550.589 .0663932
551.395 .0640000
552.200 .0618505
553.004 .0599160
553.808 .0581715
554.611 .0565951
555.414 .0551664
556.216 .0538674
557.018 .0526823
557.819 .0515965
558.619 .0505965
559.419 .0496711
560.218 .0488113
561.017 .0480074
561.815 .0472523
562.613 .0465408
563.410 .0458679
564.207 .0452290
565.003 .0446206
565.799 .0440383
566.594 .0434797
567.388 .0429424
568.182 .0424240
568.976 .0419230
569.769 .0414379
570.562 .0409684
571.354 .0405135
572.145 .0400728
572.936 .0396451
573.727 .0392290
574.517 .0388248
575.307 .0384323
576.096 .0380511
576.885 .0376818
577.673 .0373257
578.461 .0369837
579.248 .0366569
580.035 .0363459
580.821 .0360514
581.607 .0357736
582.392 .0355123
583.177 .0352670
583.962 .0350369
584.746 .0348215
585.529 .0346200
586.313 .0344316
587.095 .0342556
587.878 .0340913
588.660 .0339382
589.441 .0337956
590.222 .0336631
591.003 .0335401
591.783 .0334259
592.563 .0333199
593.342 .0332213
594.121 .0331292
594.899 .0330429
595.678 .0329619
596.455 .0328854
597.233 .0328130
598.009 .0327442
598.786 .0326788
599.562 .0326164
600.338 .0325570
601.113 .0325005
601.888 .0324247
602.663 .0323745
603.437 .0323267
604.211 .0322811
604.984 .0322376
605.757 .0321961
606.530 .0321565
607.302 .0321185
608.074 .0320820
608.845 .0320471
609.616 .0320137
610.387 .0320009
611.158 .0319699
611.928 .0319404
612.697 .0319124
613.467 .0318859
614.236 .0318608
615.004 .0318370
615.773 .0318143
616.541 .0317926
617.308 .0317715
618.076 .0317511
618.843 .0317310
619.609 .0317114
620.375 .0316921
621.141 .0316732
621.907 .0316548
622.672 .0316367
623.437 .0316189
624.202 .0316012
624.966 .0315836
625.730 .0315659
626.493 .0315480
627.257 .0315299
628.020 .0315116
628.782 .0314929
629.545 .0314740
630.307 .0314547
631.068 .0314352
631.830 .0314153
632.591 .0313950
633.352 .0313744
634.112 .0313534
634.872 .0313321
635.632 .0313105
636.392 .0312888
637.151 .0312669
637.910 .0312448
638.668 .0312225
639.427 .0311998
640.185 .0311767
640.943 .0311531
641.700 .0311291
642.457 .0311046
643.214 .0310798
643.971 .0310547
644.727 .0310293
645.483 .0310038
646.239 .0309781
646.994 .0309521
647.750 .0309259
648.505 .0308994
649.259 .0308727
650.014 .0308458
650.768 .0308189
651.521 .0307919
652.275 .0307651
653.028 .0307384
653.781 .0307117
654.534 .0306852
655.286 .0306588
656.039 .0306323
656.791 .0306059
657.542 .0305794
658.294 .0305530
659.045 .0305266
659.796 .0305002
660.546 .0304738
661.297 .0304473
662.047 .0304207
662.796 .0303940
663.546 .0303670
664.295 .0303399
665.044 .0303127
665.793 .0302854
666.542 .0302581
667.290 .0302308
668.038 .0302034
668.786 .0301760
669.533 .0301486
670.281 .0301210
671.028 .0300933
671.774 .0300657
672.521 .0300380
673.267 .0300106
674.013 .0299836
674.759 .0299569
675.505 .0299307
676.250 .0299050
676.995 .0298798
677.740 .0298552
678.484 .0298311
679.229 .0298076
679.973 .0297848
680.717 .0297627
681.460 .0297414
682.204 .0297210
682.947 .0297014
683.690 .0296826
684.433 .0296646
685.175 .0296472
685.917 .0296303
686.659 .0296139
687.401 .0295978
688.142 .0295819
688.884 .0295662
689.625 .0295507
690.365 .0295351
691.106 .0295194
691.846 .0295037
692.586 .0294877
693.326 .0294716
694.066 .0294552
694.805 .0294387
695.545 .0294221
696.284 .0294053
697.022 .0293885
697.761 .0293716
698.499 .0293548
699.237 .0293380
699.975 .0293213
700.713 .0293047
701.450 .0292883
702.187 .0292722
702.924 .0292563
703.661 .0292408
704.397 .0292257
705.133 .0292111
705.869 .0291969
706.605 .0291831
707.341 .0291698
708.076 .0291570
708.811 .0291447
709.546 .0291328
710.281 .0291215
711.015 .0291105
711.749 .0290998
712.483 .0290894
713.217 .0290791
713.950 .0290689
714.684 .0290588
715.417 .0290486
716.150 .0290383
716.882 .0290280
717.615 .0290175
718.347 .0290070
719.079 .0289962
719.811 .0289853
720.542 .0289741
721.273 .0289626
722.005 .0289509
722.735 .0289390
723.466 .0289270
724.196 .0289147
724.927 .0289024
725.656 .0288901
726.386 .0288778
727.116 .0288655
727.845 .0288533
728.574 .0288413
729.303 .0288294
730.031 .0288177
730.760 .0288062
731.488 .0287949
732.216 .0287836
732.944 .0287725
733.671 .0287615
734.398 .0287504
735.125 .0287394
735.852 .0287284
736.579 .0287173
737.305 .0287062
738.031 .0286950
738.757 .0286837
739.483 .0286723
740.208 .0286606
740.933 .0286487
741.658 .0286365
742.383 .0286241
743.108 .0286113
743.832 .0285983
744.556 .0285850
745.280 .0285715
746.004 .0285577
746.727 .0285435
747.450 .0285290
748.173 .0285141
748.896 .0284988
749.618 .0284832
750.340 .0284671
751.062 .0284508
751.784 .0284342
752.506 .0284174
753.227 .0284005
753.948 .0283835
754.669 .0283663
755.389 .0283491
756.110 .0283318
756.830 .0283144
757.550 .0282969
758.269 .0282793
758.989 .0282616
759.708 .0282439
760.427 .0282261
761.146 .0282082
761.864 .0281902
762.582 .0281721
763.300 .0281538
764.018 .0281353
764.736 .0281167
765.453 .0280978
766.170 .0280788
766.887 .0280596
767.603 .0280402
768.320 .0280208
769.036 .0280012
769.751 .0279817
770.467 .0279621
771.182 .0279427
771.897 .0279234
772.612 .0279043
773.327 .0278856
774.041 .0278672
774.755 .0278492
775.469 .0278317
776.183 .0278146
776.896 .0277980
777.609 .0277819
778.322 .0277662
779.035 .0277511
779.747 .0277365
780.459 .0277223
781.171 .0277086
781.882 .0276954
782.594 .0276827
783.305 .0276703
784.016 .0276582
784.726 .0276465
785.436 .0276349
786.147 .0276180
786.856 .0276068
787.566 .0275957
788.275 .0275847
788.984 .0275738
789.693 .0275630
790.401 .0275522
791.110 .0275414
791.818 .0275305
792.525 .0275194
793.233 .0275082
793.940 .0274968
794.647 .0274910
795.353 .0274794
796.060 .0274677
796.766 .0274560
797.472 .0274443
798.177 .0274325
798.883 .0274207
799.588 .0274089
800.292 .0273970
800.997 .0273852
801.701 .0273733
802.405 .0273614
803.109 .0273495
803.812 .0273377
804.515 .0273260
805.218 .0273143
805.921 .0273027
806.623 .0272912
807.325 .0272798
808.027 .0272685
808.728 .0272572
809.429 .0272460
810.130 .0272349
810.831 .0272239
811.531 .0272131
812.231 .0272025
812.931 .0271922
813.630 .0271821
814.330 .0271724
815.029 .0271630
815.727 .0271541
816.426 .0271457
817.124 .0271378
817.821 .0271306
818.519 .0271240
819.216 .0271183
819.913 .0271132
820.609 .0271090
821.306 .0271055
822.002 .0271027
822.697 .0271007
823.393 .0270994
824.088 .0270987
824.783 .0270987
825.477 .0270994
826.171 .0271007
826.865 .0271026
827.559 .0271050
828.252 .0271080
828.945 .0271114
829.638 .0271151
830.330 .0271192
831.023 .0271235
831.714 .0271280
832.406 .0271327
833.097 .0271374
833.788 .0271422
834.479 .0271469
835.169 .0271515
835.859 .0271558
836.548 .0271600
837.238 .0271638
837.927 .0271672
838.615 .0271703
839.304 .0271730
839.992 .0271753
840.680 .0271771
841.367 .0271785
842.054 .0271795
842.741 .0271800
843.428 .0271801
844.114 .0271798
844.800 .0271790
845.485 .0271778
846.170 .0271761
846.855 .0271739
847.540 .0271713
848.224 .0271681
848.908 .0271645
849.592 .0271604
850.275 .0271559
850.958 .0271510
851.641 .0271458
852.323 .0271401
853.005 .0271340
853.687 .0271275
854.368 .0271205
855.049 .0271131
855.730 .0271052
856.410 .0270969
857.090 .0270883
857.769 .0270793
858.449 .0270700
859.128 .0270604
859.806 .0270504
860.485 .0270402
861.163 .0270297
861.840 .0270189
862.518 .0270079
863.195 .0269968
863.871 .0269855
864.548 .0269741
865.224 .0269626
865.899 .0269510
866.574 .0269392
867.249 .0269273
867.924 .0269152
868.598 .0269028
869.272 .0268903
869.946 .0268777
870.619 .0268649
871.292 .0268520
871.964 .0268392
872.636 .0268263
873.308 .0268134
873.979 .0268005
874.651 .0267874
875.321 .0267743
875.992 .0267610
876.662 .0267476
877.331 .0267341
878.001 .0267206
878.670 .0267071
879.338 .0266937
880.007 .0266804
880.675 .0266672
881.342 .0266543
882.009 .0266416
882.676 .0266290
883.343 .0266167
884.009 .0266046
884.675 .0265928
885.340 .0265813
886.005 .0265702
886.670 .0265594
887.334 .0265490
887.998 .0265391
888.662 .0265294
889.325 .0265202
889.988 .0265111
890.650 .0265024
891.312 .0264938
891.974 .0264855
892.636 .0264773
893.297 .0264693
893.957 .0264615
894.618 .0264537
895.278 .0264457
895.937 .0264376
896.596 .0264292
897.255 .0264202
897.914 .0264106
898.572 .0264002
899.230 .0263891
899.887 .0263771
900.544 .0263641
901.201 .0263503
901.857 .0263251
902.513 .0263087
903.168 .0262913
903.823 .0262729
904.478 .0262535
905.132 .0262330
905.786 .0262116
906.440 .0261892
907.093 .0261660
907.746 .0261421
908.399 .0261175
909.051 .0260922
909.703 .0260664
910.354 .0260523
911.005 .0260260
911.656 .0259993
912.306 .0259722
912.956 .0259448
913.605 .0259173
914.254 .0258896
914.903 .0258621
915.551 .0258346
916.199 .0258073
916.847 .0257802
917.494 .0257533
918.141 .0257266
918.788 .0257002
919.434 .0256739
920.079 .0256479
920.725 .0256221
921.370 .0255966
922.014 .0255714
922.658 .0255463
923.302 .0255213
923.946 .0254965
924.589 .0254718
925.231 .0254471
925.873 .0254224
926.515 .0253977
927.157 .0253730
927.798 .0253484
928.439 .0253239
929.079 .0252995
929.719 .0252754
930.359 .0252515
930.998 .0252280
931.637 .0252049
932.275 .0251822
932.913 .0251600
933.551 .0251385
934.188 .0251177
934.825 .0250976
935.462 .0250784
936.098 .0250600
936.733 .0250426
937.369 .0250260
938.004 .0250103
938.638 .0249955
939.273 .0249815
939.907 .0249683
940.540 .0249561
941.173 .0249447
941.806 .0249341
942.438 .0249243
943.070 .0249153
943.702 .0249071
944.333 .0248994
944.964 .0248923
945.594 .0248857
946.224 .0248793
946.854 .0248733
947.483 .0248674
948.112 .0248617
948.741 .0248560
949.369 .0248504
949.996 .0248448
950.624 .0248392
951.251 .0248335
951.878 .0248276
952.504 .0248216
953.130 .0248153
953.755 .0248089
954.380 .0248022
955.005 .0247954
955.629 .0247884
956.253 .0247813
956.877 .0247742
957.500 .0247671
958.123 .0247600
958.746 .0247530
959.368 .0247462
959.990 .0247395
960.611 .0247332
961.232 .0247272
961.853 .0247217
962.473 .0247168
963.093 .0247123
963.712 .0247085
964.331 .0247052
964.950 .0247026
965.569 .0247005
966.187 .0246989
966.804 .0246979
967.422 .0246974
968.039 .0246974
968.655 .0246979
969.272 .0246988
969.887 .0247001
970.503 .0247018
971.118 .0247038
971.733 .0247061
972.347 .0247086
972.961 .0247113
973.575 .0247141
974.188 .0247170
974.801 .0247200
975.414 .0247230
976.026 .0247260
976.638 .0247290
977.250 .0247319
977.861 .0247347
978.472 .0247374
979.083 .0247401
979.693 .0247427
980.303 .0247452
980.912 .0247483
981.521 .0247506
982.130 .0247527
982.738 .0247546
983.346 .0247564
983.954 .0247580
984.562 .0247594
985.169 .0247608
985.775 .0247622
986.382 .0247636
986.988 .0247651
987.594 .0247666
988.199 .0247683
988.804 .0247701
989.409 .0247716
990.013 .0247737
990.617 .0247761
991.221 .0247788
991.824 .0247819
992.427 .0247854
993.030 .0247894
993.632 .0247939
994.234 .0247988
994.836 .0248041
995.438 .0248097
996.039 .0248158
996.640 .0248224
997.240 .0248293
997.840 .0248366
998.440 .0248445
999.040 .0248527
999.639 .0248614
1000.238 .0248705
1000.836 .0248800
1001.435 .0248897
1002.033 .0248997
1002.630 .0249098
1003.228 .0249203
1003.825 .0249309
1004.422 .0249419
1005.018 .0249531
1005.614 .0249646
1006.210 .0249764
1006.806 .0249884
1007.401 .0250006
1007.996 .0250130
1008.591 .0250255
1009.186 .0250381
1009.780 .0250510
1010.374 .0250640
1010.967 .0250771
1011.561 .0250905
1012.154 .0251039
1012.746 .0251173
1013.339 .0251307
1013.931 .0251438
1014.523 .0251566
1015.115 .0251692
1015.706 .0251814
1016.298 .0251934
1016.888 .0252052
1017.479 .0252169
1018.069 .0252285
1018.660 .0252401
1019.250 .0252517
1019.839 .0252632
1020.429 .0252746
1021.018 .0252859
1021.607 .0252971
1022.195 .0253082
1022.784 .0253193
1023.372 .0253304
1023.960 .0253417
1024.547 .0253533
1025.135 .0253651
1025.722 .0253773
1026.309 .0253897
1026.896 .0254023
1027.483 .0254148
1028.069 .0254271
1028.655 .0254392
1029.241 .0254508
1029.827 .0254621
1030.412 .0254731
1030.997 .0254837
1031.582 .0254941
1032.167 .0255043
1032.752 .0255144
1033.336 .0255243
1033.921 .0255340
1034.505 .0255434
1035.089 .0255523
1035.672 .0255608
1036.256 .0255688
1036.839 .0255763
1037.422 .0255834
1038.005 .0255900
1038.588 .0255963
1039.171 .0256021
1039.753 .0256077
1040.335 .0256128
1040.918 .0256175
1041.500 .0256217
1042.081 .0256254
1042.663 .0256285
1043.244 .0256309
1043.826 .0256329
1044.407 .0256345
1044.988 .0256357
1045.569 .0256367
1046.150 .0256376
1046.730 .0256384
1047.311 .0256392
1047.891 .0256399
1048.471 .0256406
1049.052 .0256412
1049.632 .0256417
1050.211 .0256422
1050.791 .0256426
1051.371 .0256431
1051.950 .0256436
1052.530 .0256443
1053.109 .0256451
1053.688 .0256460
1054.268 .0256470
1054.847 .0256480
1055.426 .0256491
1056.005 .0256502
1056.583 .0256513
1057.162 .0256525
1057.741 .0256537
1058.319 .0256551
1058.898 .0256564
1059.476 .0256578
1060.055 .0256590
1060.633 .0256601
1061.211 .0256607
1061.790 .0256610
1062.368 .0256607
1062.946 .0256598
1063.524 .0256582
1064.102 .0256560
1064.680 .0256531
1065.258 .0256495
1065.836 .0256452
1066.414 .0256401
1066.992 .0256343
1067.570 .0256280
1068.148 .0256211
1068.726 .0256138
1069.304 .0256062
1069.882 .0255983
1070.460 .0255903
1071.038 .0255822
1071.616 .0255741
1072.194 .0255657
1072.772 .0255571
1073.350 .0255482
1073.928 .0255389
1074.506 .0255292
1075.084 .0255191
1075.662 .0255085
1076.240 .0254976
1076.819 .0254863
1077.397 .0254747
1077.976 .0254631
1078.554 .0254517
1079.133 .0254406
1079.711 .0254300
1080.290 .0254200
1080.869 .0254108
1081.448 .0254024
1082.027 .0253948
1082.606 .0253882
1083.185 .0253824
1083.764 .0253775
1084.343 .0253735
1084.923 .0253704
1085.502 .0253681
1086.082 .0253666
1086.662 .0253658
1087.242 .0253655
1087.822 .0253656
1088.402 .0253659
1088.983 .0253663
1089.563 .0253667
1090.144 .0253670
1090.725 .0253672
1091.306 .0253675
1091.887 .0253679
1092.469 .0253687
1093.050 .0253700
1093.632 .0253719
1094.214 .0253746
1094.796 .0253779
1095.379 .0253816
1095.961 .0253857
1096.544 .0253900
1097.127 .0253942
1097.710 .0253983
1098.294 .0254023
1098.877 .0254060
1099.461 .0254096
1100.046 .0254129
1100.630 .0254159
1101.215 .0254186
1101.800 .0254209
1102.385 .0254226
1102.970 .0254237
1103.556 .0254242
1104.142 .0254242
1104.728 .0254239
1105.315 .0254236
1105.902 .0254235
1106.489 .0254238
1107.077 .0254248
1107.664 .0254268
1108.253 .0254298
1108.841 .0254340
1109.430 .0254393
1110.019 .0254461
1110.609 .0254542
1111.198 .0254639
1111.789 .0254751
1112.379 .0254880
1112.970 .0255028
1113.561 .0255194
1114.153 .0255379
1114.745 .0255582
1115.338 .0255806
1115.931 .0256048
1116.524 .0256310
1117.117 .0256593
1117.712 .0256899
1118.306 .0257228
1118.901 .0257580
1119.496 .0257957
1120.092 .0258356
1120.689 .0258774
1121.285 .0259211
1121.882 .0259662
1122.480 .0260124
1123.078 .0260595
1123.677 .0261076
1124.276 .0261568
1124.875 .0262073
1125.476 .0262591
1126.076 .0263128
1126.677 .0263688
1127.279 .0264269
1127.881 .0264874
1128.484 .0265502
1129.087 .0265784
1129.691 .0266436
1130.295 .0267109
1130.900 .0267807
1131.505 .0268532
1132.111 .0269289
1132.718 .0270086
1133.325 .0270921
1133.933 .0271785
1134.541 .0272736
1135.150 .0273750
1135.760 .0274818
1136.370 .0275800
1136.981 .0275213
1137.592 .0276412
1138.204 .0277621
1138.817 .0278851
1139.431 .0280148
1140.045 .0281590
1140.660 .0283209
1141.275 .0284852
1141.891 .0286165
1142.508 .0289226
1143.126 .0291610
1143.744 .0293782
1144.363 .0292031
1144.983 .0282661
