Measurement Sequence started on: 15-12-46-377
Integration time: 28
Scans to Average: 2 
>>>>>Begin Spectral Data<<<<<
432.689 .0000100
433.621 .0000100
434.552 .0000100
435.482 .0000100
436.410 .0000100
437.337 .0000100
438.262 .0280912
439.187 .0595496
440.110 .0986157
441.031 .1427112
441.952 .1144307
442.871 .1194503
443.789 .1241057
444.705 .1284752
445.621 .1326152
446.535 .1365681
447.447 .1388851
448.359 .1394104
449.269 .1377613
450.178 .1336865
451.086 .1272629
451.993 .1189782
452.898 .1096432
453.803 .1001801
454.706 .0913763
455.608 .0837223
456.508 .0773872
457.408 .0730981
458.306 .0698147
459.204 .0671592
460.100 .0649425
460.995 .0630560
461.888 .0614232
462.781 .0599912
463.673 .0587205
464.563 .0575844
465.452 .0565632
466.340 .0556410
467.228 .0548057
468.114 .0540467
468.999 .0533557
469.882 .0527249
470.765 .0521478
471.647 .0516192
472.528 .0511356
473.407 .0506939
474.286 .0502922
475.163 .0499298
476.040 .0496049
476.915 .0493161
477.790 .0490611
478.663 .0488379
479.535 .0486443
480.407 .0484779
481.277 .0483367
482.147 .0482195
483.015 .0481253
483.883 .0480537
484.749 .0480040
485.615 .0479753
486.479 .0479668
487.343 .0479771
488.206 .0480049
489.067 .0480484
489.928 .0481065
490.788 .0481785
491.647 .0482644
492.505 .0483645
493.362 .0484796
494.218 .0486107
495.073 .0487595
495.928 .0490486
496.781 .0492477
497.634 .0494682
498.486 .0497106
499.337 .0499761
500.187 .0502655
501.036 .0505804
501.884 .0509231
502.731 .0512970
503.578 .0517061
504.424 .0519892
505.268 .0524669
506.113 .0529940
506.956 .0535763
507.798 .0542200
508.640 .0549323
509.480 .0557219
510.320 .0565989
511.160 .0575753
511.998 .0586645
512.836 .0598838
513.672 .0612523
514.508 .0627934
515.344 .0645306
516.178 .0664910
517.012 .0687000
517.845 .0711825
518.677 .0739584
519.508 .0770428
520.339 .0804422
521.169 .0841563
521.998 .0881617
522.826 .0924249
523.654 .0968923
524.481 .1015002
525.307 .1061710
526.133 .1108192
526.958 .1153494
527.782 .1196686
528.605 .1236850
529.428 .1273171
530.250 .1304887
531.072 .1331466
531.892 .1352443
532.712 .1367530
533.532 .1376529
534.350 .1379365
535.168 .1376054
535.986 .1366700
536.802 .1351419
537.618 .1330391
538.434 .1303821
539.249 .1272140
540.063 .1235831
540.876 .1195557
541.689 .1152070
542.501 .1106222
543.313 .1058908
544.124 .1011081
544.934 .0963638
545.744 .0917425
546.553 .0873161
547.361 .0831474
548.169 .0792735
548.976 .0757212
549.783 .0724980
550.589 .0695984
551.395 .0670044
552.200 .0646904
553.004 .0626244
553.808 .0607774
554.611 .0591213
555.414 .0576317
556.216 .0562836
557.018 .0550571
557.819 .0539337
558.619 .0528962
559.419 .0519312
560.218 .0510277
561.017 .0501765
561.815 .0493713
562.613 .0486067
563.410 .0478783
564.207 .0471817
565.003 .0465133
565.799 .0458686
566.594 .0452445
567.388 .0446388
568.182 .0440500
568.976 .0434773
569.769 .0429209
570.562 .0423818
571.354 .0418607
572.145 .0413590
572.936 .0408775
573.727 .0404163
574.517 .0399755
575.307 .0395550
576.096 .0391539
576.885 .0387717
577.673 .0384081
578.461 .0380627
579.248 .0377351
580.035 .0374252
580.821 .0371325
581.607 .0368565
582.392 .0365973
583.177 .0363545
583.962 .0361275
584.746 .0359161
585.529 .0357194
586.313 .0355366
587.095 .0353670
587.878 .0352094
588.660 .0350632
589.441 .0349276
590.222 .0348021
591.003 .0346861
591.783 .0345790
592.563 .0344801
593.342 .0343889
594.121 .0343047
594.899 .0342268
595.678 .0341544
596.455 .0340868
597.233 .0340234
598.009 .0339636
598.786 .0339068
599.562 .0338524
600.338 .0338000
601.113 .0337492
601.888 .0336764
602.663 .0336284
603.437 .0335814
604.211 .0335355
604.984 .0334906
605.757 .0334465
606.530 .0334032
607.302 .0333604
608.074 .0333183
608.845 .0332766
609.616 .0332354
610.387 .0332163
611.158 .0331761
611.928 .0331365
612.697 .0330975
613.467 .0330593
614.236 .0330218
615.004 .0329851
615.773 .0329492
616.541 .0329142
617.308 .0328800
618.076 .0328466
618.843 .0328139
619.609 .0327817
620.375 .0327498
621.141 .0327183
621.907 .0326869
622.672 .0326555
623.437 .0326242
624.202 .0325929
624.966 .0325615
625.730 .0325300
626.493 .0324983
627.257 .0324663
628.020 .0324338
628.782 .0324007
629.545 .0323669
630.307 .0323323
631.068 .0322970
631.830 .0322610
632.591 .0322244
633.352 .0321874
634.112 .0321502
634.872 .0321130
635.632 .0320758
636.392 .0320388
637.151 .0320021
637.910 .0319659
638.668 .0319302
639.427 .0318950
640.185 .0318605
640.943 .0318268
641.700 .0317938
642.457 .0317616
643.214 .0317303
643.971 .0316999
644.727 .0316705
645.483 .0316421
646.239 .0316148
646.994 .0315885
647.750 .0315633
648.505 .0315390
649.259 .0315156
650.014 .0314930
650.768 .0314712
651.521 .0314501
652.275 .0314295
653.028 .0314094
653.781 .0313898
654.534 .0313704
655.286 .0313513
656.039 .0313323
656.791 .0313134
657.542 .0312944
658.294 .0312754
659.045 .0312564
659.796 .0312372
660.546 .0312180
661.297 .0311987
662.047 .0311794
662.796 .0311601
663.546 .0311408
664.295 .0311217
665.044 .0311027
665.793 .0310840
666.542 .0310655
667.290 .0310473
668.038 .0310293
668.786 .0310117
669.533 .0309943
670.281 .0309772
671.028 .0309602
671.774 .0309434
672.521 .0309267
673.267 .0309101
674.013 .0308935
674.759 .0308770
675.505 .0308603
676.250 .0308436
676.995 .0308267
677.740 .0308096
678.484 .0307924
679.229 .0307749
679.973 .0307573
680.717 .0307395
681.460 .0307215
682.204 .0307033
682.947 .0306848
683.690 .0306659
684.433 .0306465
685.175 .0306266
685.917 .0306061
686.659 .0305849
687.401 .0305632
688.142 .0305409
688.884 .0305181
689.625 .0304947
690.365 .0304709
691.106 .0304465
691.846 .0304215
692.586 .0303959
693.326 .0303697
694.066 .0303430
694.805 .0303157
695.545 .0302880
696.284 .0302598
697.022 .0302312
697.761 .0302024
698.499 .0301733
699.237 .0301441
699.975 .0301146
700.713 .0300852
701.450 .0300557
702.187 .0300263
702.924 .0299971
703.661 .0299680
704.397 .0299390
705.133 .0299102
705.869 .0298815
706.605 .0298530
707.341 .0298247
708.076 .0297967
708.811 .0297690
709.546 .0297417
710.281 .0297148
711.015 .0296883
711.749 .0296622
712.483 .0296366
713.217 .0296112
713.950 .0295862
714.684 .0295614
715.417 .0295367
716.150 .0295123
716.882 .0294881
717.615 .0294641
718.347 .0294403
719.079 .0294168
719.811 .0293936
720.542 .0293707
721.273 .0293483
722.005 .0293263
722.735 .0293048
723.466 .0292838
724.196 .0292634
724.927 .0292436
725.656 .0292245
726.386 .0292061
727.116 .0291885
727.845 .0291717
728.574 .0291558
729.303 .0291408
730.031 .0291267
730.760 .0291135
731.488 .0291010
732.216 .0290893
732.944 .0290784
733.671 .0290681
734.398 .0290584
735.125 .0290494
735.852 .0290411
736.579 .0290333
737.305 .0290259
738.031 .0290191
738.757 .0290126
739.483 .0290064
740.208 .0290004
740.933 .0289948
741.658 .0289894
742.383 .0289841
743.108 .0289791
743.832 .0289743
744.556 .0289696
745.280 .0289650
746.004 .0289604
746.727 .0289559
747.450 .0289515
748.173 .0289471
748.896 .0289427
749.618 .0289384
750.340 .0289341
751.062 .0289299
751.784 .0289255
752.506 .0289211
753.227 .0289165
753.948 .0289118
754.669 .0289068
755.389 .0289016
756.110 .0288961
756.830 .0288903
757.550 .0288841
758.269 .0288775
758.989 .0288703
759.708 .0288626
760.427 .0288542
761.146 .0288451
761.864 .0288353
762.582 .0288249
763.300 .0288138
764.018 .0288021
764.736 .0287899
765.453 .0287773
766.170 .0287642
766.887 .0287507
767.603 .0287368
768.320 .0287227
769.036 .0287083
769.751 .0286938
770.467 .0286793
771.182 .0286647
771.897 .0286503
772.612 .0286361
773.327 .0286220
774.041 .0286083
774.755 .0285949
775.469 .0285818
776.183 .0285690
776.896 .0285566
777.609 .0285445
778.322 .0285327
779.035 .0285211
779.747 .0285097
780.459 .0284985
781.171 .0284874
781.882 .0284763
782.594 .0284652
783.305 .0284542
784.016 .0284430
784.726 .0284317
785.436 .0284201
786.147 .0284011
786.856 .0283884
787.566 .0283753
788.275 .0283616
788.984 .0283474
789.693 .0283327
790.401 .0283174
791.110 .0283015
791.818 .0282849
792.525 .0282678
793.233 .0282501
793.940 .0282318
794.647 .0282211
795.353 .0282019
796.060 .0281822
796.766 .0281620
797.472 .0281412
798.177 .0281200
798.883 .0280982
799.588 .0280759
800.292 .0280531
800.997 .0280297
801.701 .0280059
802.405 .0279816
803.109 .0279570
803.812 .0279323
804.515 .0279073
805.218 .0278822
805.921 .0278570
806.623 .0278317
807.325 .0278062
808.027 .0277807
808.728 .0277550
809.429 .0277293
810.130 .0277035
810.831 .0276778
811.531 .0276521
812.231 .0276266
812.931 .0276012
813.630 .0275760
814.330 .0275511
815.029 .0275264
815.727 .0275022
816.426 .0274785
817.124 .0274553
817.821 .0274328
818.519 .0274110
819.216 .0273899
819.913 .0273697
820.609 .0273504
821.306 .0273320
822.002 .0273147
822.697 .0272983
823.393 .0272831
824.088 .0272690
824.783 .0272561
825.477 .0272442
826.171 .0272334
826.865 .0272237
827.559 .0272150
828.252 .0272074
828.945 .0272008
829.638 .0271951
830.330 .0271905
831.023 .0271868
831.714 .0271839
832.406 .0271819
833.097 .0271805
833.788 .0271798
834.479 .0271797
835.169 .0271802
835.859 .0271813
836.548 .0271829
837.238 .0271851
837.927 .0271877
838.615 .0271906
839.304 .0271937
839.992 .0271969
840.680 .0272001
841.367 .0272032
842.054 .0272062
842.741 .0272092
843.428 .0272121
844.114 .0272150
844.800 .0272177
845.485 .0272204
846.170 .0272229
846.855 .0272251
847.540 .0272269
848.224 .0272284
848.908 .0272294
849.592 .0272301
850.275 .0272303
850.958 .0272301
851.641 .0272296
852.323 .0272287
853.005 .0272273
853.687 .0272255
854.368 .0272232
855.049 .0272205
855.730 .0272172
856.410 .0272134
857.090 .0272092
857.769 .0272046
858.449 .0271996
859.128 .0271943
859.806 .0271888
860.485 .0271832
861.163 .0271774
861.840 .0271716
862.518 .0271658
863.195 .0271600
863.871 .0271543
864.548 .0271487
865.224 .0271431
865.899 .0271376
866.574 .0271323
867.249 .0271271
867.924 .0271222
868.598 .0271174
869.272 .0271128
869.946 .0271085
870.619 .0271044
871.292 .0271004
871.964 .0270966
872.636 .0270928
873.308 .0270893
873.979 .0270858
874.651 .0270825
875.321 .0270793
875.992 .0270762
876.662 .0270734
877.331 .0270706
878.001 .0270678
878.670 .0270652
879.338 .0270626
880.007 .0270600
880.675 .0270575
881.342 .0270550
882.009 .0270527
882.676 .0270506
883.343 .0270486
884.009 .0270467
884.675 .0270449
885.340 .0270432
886.005 .0270416
886.670 .0270399
887.334 .0270383
887.998 .0270366
888.662 .0270349
889.325 .0270331
889.988 .0270312
890.650 .0270292
891.312 .0270269
891.974 .0270243
892.636 .0270213
893.297 .0270179
893.957 .0270139
894.618 .0270094
895.278 .0270042
895.937 .0269983
896.596 .0269916
897.255 .0269840
897.914 .0269754
898.572 .0269658
899.230 .0269551
899.887 .0269433
900.544 .0269305
901.201 .0269166
901.857 .0268911
902.513 .0268747
903.168 .0268573
903.823 .0268388
904.478 .0268191
905.132 .0267983
905.786 .0267765
906.440 .0267536
907.093 .0267297
907.746 .0267049
908.399 .0266794
909.051 .0266531
909.703 .0266260
910.354 .0266110
911.005 .0265832
911.656 .0265547
912.306 .0265256
912.956 .0264959
913.605 .0264659
914.254 .0264354
914.903 .0264047
915.551 .0263738
916.199 .0263428
916.847 .0263116
917.494 .0262801
918.141 .0262485
918.788 .0262166
919.434 .0261844
920.079 .0261519
920.725 .0261192
921.370 .0260863
922.014 .0260532
922.658 .0260200
923.302 .0259866
923.946 .0259532
924.589 .0259198
925.231 .0258864
925.873 .0258530
926.515 .0258197
927.157 .0257864
927.798 .0257534
928.439 .0257205
929.079 .0256880
929.719 .0256558
930.359 .0256240
930.998 .0255927
931.637 .0255618
932.275 .0255316
932.913 .0255019
933.551 .0254729
934.188 .0254446
934.825 .0254170
935.462 .0253901
936.098 .0253640
936.733 .0253387
937.369 .0253142
938.004 .0252906
938.638 .0252679
939.273 .0252461
939.907 .0252253
940.540 .0252056
941.173 .0251869
941.806 .0251693
942.438 .0251525
943.070 .0251366
943.702 .0251215
944.333 .0251071
944.964 .0250934
945.594 .0250802
946.224 .0250676
946.854 .0250556
947.483 .0250440
948.112 .0250327
948.741 .0250219
949.369 .0250114
949.996 .0250012
950.624 .0249912
951.251 .0249815
951.878 .0249721
952.504 .0249629
953.130 .0249540
953.755 .0249454
954.380 .0249370
955.005 .0249289
955.629 .0249210
956.253 .0249134
956.877 .0249059
957.500 .0248987
958.123 .0248915
958.746 .0248846
959.368 .0248779
959.990 .0248715
960.611 .0248653
961.232 .0248593
961.853 .0248537
962.473 .0248483
963.093 .0248432
963.712 .0248384
964.331 .0248339
964.950 .0248298
965.569 .0248261
966.187 .0248227
966.804 .0248197
967.422 .0248169
968.039 .0248145
968.655 .0248123
969.272 .0248104
969.887 .0248087
970.503 .0248073
971.118 .0248061
971.733 .0248052
972.347 .0248046
972.961 .0248043
973.575 .0248042
974.188 .0248043
974.801 .0248045
975.414 .0248049
976.026 .0248055
976.638 .0248062
977.250 .0248071
977.861 .0248081
978.472 .0248092
979.083 .0248106
979.693 .0248121
980.303 .0248137
980.912 .0248164
981.521 .0248182
982.130 .0248200
982.738 .0248219
983.346 .0248239
983.954 .0248259
984.562 .0248281
985.169 .0248306
985.775 .0248332
986.382 .0248361
986.988 .0248393
987.594 .0248429
988.199 .0248467
988.804 .0248509
989.409 .0248540
990.013 .0248588
990.617 .0248639
991.221 .0248693
991.824 .0248752
992.427 .0248813
993.030 .0248879
993.632 .0248950
994.234 .0249024
994.836 .0249104
995.438 .0249188
996.039 .0249277
996.640 .0249370
997.240 .0249470
997.840 .0249575
998.440 .0249686
999.040 .0249803
999.639 .0249925
1000.238 .0250054
1000.836 .0250188
1001.435 .0250327
1002.033 .0250471
1002.630 .0250618
1003.228 .0250768
1003.825 .0250921
1004.422 .0251075
1005.018 .0251231
1005.614 .0251387
1006.210 .0251543
1006.806 .0251699
1007.401 .0251855
1007.996 .0252010
1008.591 .0252163
1009.186 .0252316
1009.780 .0252467
1010.374 .0252616
1010.967 .0252764
1011.561 .0252911
1012.154 .0253056
1012.746 .0253199
1013.339 .0253341
1013.931 .0253481
1014.523 .0253618
1015.115 .0253753
1015.706 .0253885
1016.298 .0254014
1016.888 .0254140
1017.479 .0254265
1018.069 .0254388
1018.660 .0254510
1019.250 .0254632
1019.839 .0254753
1020.429 .0254874
1021.018 .0254994
1021.607 .0255114
1022.195 .0255233
1022.784 .0255351
1023.372 .0255468
1023.960 .0255583
1024.547 .0255699
1025.135 .0255814
1025.722 .0255928
1026.309 .0256043
1026.896 .0256157
1027.483 .0256270
1028.069 .0256381
1028.655 .0256491
1029.241 .0256599
1029.827 .0256705
1030.412 .0256808
1030.997 .0256909
1031.582 .0257007
1032.167 .0257104
1032.752 .0257198
1033.336 .0257290
1033.921 .0257380
1034.505 .0257466
1035.089 .0257546
1035.672 .0257621
1036.256 .0257689
1036.839 .0257748
1037.422 .0257799
1038.005 .0257840
1038.588 .0257871
1039.171 .0257894
1039.753 .0257907
1040.335 .0257911
1040.918 .0257908
1041.500 .0257896
1042.081 .0257877
1042.663 .0257851
1043.244 .0257818
1043.826 .0257778
1044.407 .0257733
1044.988 .0257682
1045.569 .0257626
1046.150 .0257567
1046.730 .0257506
1047.311 .0257442
1047.891 .0257377
1048.471 .0257310
1049.052 .0257241
1049.632 .0257171
1050.211 .0257097
1050.791 .0257021
1051.371 .0256942
1051.950 .0256859
1052.530 .0256773
1053.109 .0256685
1053.688 .0256594
1054.268 .0256502
1054.847 .0256410
1055.426 .0256319
1056.005 .0256228
1056.583 .0256140
1057.162 .0256053
1057.741 .0255967
1058.319 .0255882
1058.898 .0255797
1059.476 .0255713
1060.055 .0255629
1060.633 .0255545
1061.211 .0255460
1061.790 .0255374
1062.368 .0255286
1062.946 .0255197
1063.524 .0255106
1064.102 .0255011
1064.680 .0254913
1065.258 .0254811
1065.836 .0254704
1066.414 .0254592
1066.992 .0254476
1067.570 .0254354
1068.148 .0254229
1068.726 .0254101
1069.304 .0253971
1069.882 .0253840
1070.460 .0253709
1071.038 .0253577
1071.616 .0253446
1072.194 .0253315
1072.772 .0253183
1073.350 .0253052
1073.928 .0252920
1074.506 .0252787
1075.084 .0252653
1075.662 .0252518
1076.240 .0252382
1076.819 .0252245
1077.397 .0252108
1077.976 .0251970
1078.554 .0251831
1079.133 .0251691
1079.711 .0251551
1080.290 .0251410
1080.869 .0251270
1081.448 .0251131
1082.027 .0250992
1082.606 .0250853
1083.185 .0250716
1083.764 .0250580
1084.343 .0250446
1084.923 .0250314
1085.502 .0250185
1086.082 .0250059
1086.662 .0249936
1087.242 .0249818
1087.822 .0249705
1088.402 .0249598
1088.983 .0249498
1089.563 .0249404
1090.144 .0249318
1090.725 .0249240
1091.306 .0249172
1091.887 .0249115
1092.469 .0249070
1093.050 .0249040
1093.632 .0249024
1094.214 .0249022
1094.796 .0249036
1095.379 .0249064
1095.961 .0249105
1096.544 .0249158
1097.127 .0249224
1097.710 .0249299
1098.294 .0249383
1098.877 .0249476
1099.461 .0249577
1100.046 .0249686
1100.630 .0249802
1101.215 .0249925
1101.800 .0250056
1102.385 .0250192
1102.970 .0250335
1103.556 .0250482
1104.142 .0250633
1104.728 .0250786
1105.315 .0250940
1105.902 .0251093
1106.489 .0251245
1107.077 .0251396
1107.664 .0251544
1108.253 .0251691
1108.841 .0251838
1109.430 .0251984
1110.019 .0252130
1110.609 .0252277
1111.198 .0252424
1111.789 .0252572
1112.379 .0252723
1112.970 .0252877
1113.561 .0253037
1114.153 .0253203
1114.745 .0253378
1115.338 .0253565
1115.931 .0253768
1116.524 .0253987
1117.117 .0254227
1117.712 .0254488
1118.306 .0254770
1118.901 .0255073
1119.496 .0255398
1120.092 .0255744
1120.689 .0256111
1121.285 .0256500
1121.882 .0256910
1122.480 .0257346
1123.078 .0257808
1123.677 .0258297
1124.276 .0258815
1124.875 .0259363
1125.476 .0259938
1126.076 .0260540
1126.677 .0261167
1127.279 .0261819
1127.881 .0262496
1128.484 .0263201
1129.087 .0263505
1129.691 .0264254
1130.295 .0265035
1130.900 .0265848
1131.505 .0266692
1132.111 .0267566
1132.718 .0268472
1133.325 .0269412
1133.933 .0270391
1134.541 .0271333
1135.150 .0272341
1135.760 .0273476
1136.370 .0274710
1136.981 .0274817
1137.592 .0276008
1138.204 .0277274
1138.817 .0278554
1139.431 .0279834
1140.045 .0281144
1140.660 .0282555
1141.275 .0284095
1141.891 .0285787
1142.508 .0285417
1143.126 .0287984
1143.744 .0292222
1144.363 .0295703
1144.983 .0297806
