Measurement Sequence started on: 15-12-46-377
Integration time: 28
Scans to Average: 2 
>>>>>Begin Spectral Data<<<<<
432.689 .0000100
433.621 .0000100
434.552 .0000100
435.482 .0000100
436.410 .0000100
437.337 .0000100
438.262 .0269619
439.187 .0572187
440.110 .0947914
441.031 .1372156
441.952 .1101680
442.871 .1150565
443.789 .1196080
444.705 .1238954
445.621 .1279711
446.535 .1318743
447.447 .1342145
448.359 .1348393
449.269 .1333805
450.178 .1295963
451.086 .1235603
451.993 .1157399
452.898 .1069128
453.803 .0979633
454.706 .0896451
455.608 .0824282
456.508 .0764707
457.408 .0724679
458.306 .0694197
459.204 .0669601
460.100 .0649068
460.995 .0631544
461.888 .0616315
462.781 .0602877
463.673 .0590865
464.563 .0580024
465.452 .0570166
466.340 .0561149
467.228 .0552859
468.114 .0545220
468.999 .0538168
469.882 .0531648
470.765 .0525615
471.647 .0520032
472.528 .0514869
473.407 .0510097
474.286 .0505704
475.163 .0501684
476.040 .0498031
476.915 .0494744
477.790 .0491810
478.663 .0489220
479.535 .0486959
480.407 .0485005
481.277 .0483334
482.147 .0481925
483.015 .0480756
483.883 .0479819
484.749 .0479100
485.615 .0478592
486.479 .0478295
487.343 .0478205
488.206 .0478318
489.067 .0478632
489.928 .0479140
490.788 .0479840
491.647 .0480730
492.505 .0481810
493.362 .0483083
494.218 .0484554
495.073 .0486236
495.928 .0489570
496.781 .0491823
497.634 .0494303
498.486 .0497012
499.337 .0499967
500.187 .0503177
501.036 .0506664
501.884 .0510457
502.731 .0514591
503.578 .0519111
504.424 .0522166
505.268 .0527403
506.113 .0533129
506.956 .0539383
507.798 .0546227
508.640 .0553727
509.480 .0561983
510.320 .0571111
511.160 .0581251
511.998 .0592554
512.836 .0605207
513.672 .0619378
514.508 .0635268
515.344 .0653086
516.178 .0673031
517.012 .0695315
517.845 .0720131
518.677 .0747663
519.508 .0778061
520.339 .0811372
521.169 .0847585
521.998 .0886426
522.826 .0927512
523.654 .0970233
524.481 .1013883
525.307 .1057665
526.133 .1100701
526.958 .1142083
527.782 .1180950
528.605 .1216509
529.428 .1248085
530.250 .1275061
531.072 .1297045
531.892 .1313708
532.712 .1324858
533.532 .1330403
534.350 .1330339
535.168 .1324748
535.986 .1313752
536.802 .1297443
537.618 .1275983
538.434 .1249538
539.249 .1218509
540.063 .1183385
540.876 .1144846
541.689 .1103656
542.501 .1060629
543.313 .1016642
544.124 .0972567
544.934 .0929189
545.744 .0887209
546.553 .0847183
547.361 .0809583
548.169 .0774665
548.976 .0742606
549.783 .0713418
550.589 .0687029
551.395 .0663245
552.200 .0641800
553.004 .0622385
553.808 .0604743
554.611 .0588634
555.414 .0573864
556.216 .0560273
557.018 .0547723
557.819 .0536098
558.619 .0525304
559.419 .0515260
560.218 .0505898
561.017 .0497145
561.815 .0488945
562.613 .0481246
563.410 .0473997
564.207 .0467151
565.003 .0460663
565.799 .0454486
566.594 .0448581
567.388 .0442917
568.182 .0437462
568.976 .0432196
569.769 .0427098
570.562 .0422155
571.354 .0417360
572.145 .0412715
572.936 .0408211
573.727 .0403846
574.517 .0399620
575.307 .0395531
576.096 .0391573
576.885 .0387748
577.673 .0384057
578.461 .0380506
579.248 .0377101
580.035 .0373850
580.821 .0370754
581.607 .0367821
582.392 .0365055
583.177 .0362458
583.962 .0360031
584.746 .0357770
585.529 .0355670
586.313 .0353724
587.095 .0351923
587.878 .0350258
588.660 .0348720
589.441 .0347300
590.222 .0345992
591.003 .0344786
591.783 .0343676
592.563 .0342655
593.342 .0341714
594.121 .0340846
594.899 .0340044
595.678 .0339296
596.455 .0338596
597.233 .0337935
598.009 .0337307
598.786 .0336704
599.562 .0336124
600.338 .0335561
601.113 .0335014
601.888 .0334244
602.663 .0333737
603.437 .0333246
604.211 .0332772
604.984 .0332315
605.757 .0331873
606.530 .0331447
607.302 .0331033
608.074 .0330632
608.845 .0330241
609.616 .0329863
610.387 .0329708
611.158 .0329345
611.928 .0328993
612.697 .0328651
613.467 .0328320
614.236 .0327999
615.004 .0327686
615.773 .0327382
616.541 .0327084
617.308 .0326792
618.076 .0326505
618.843 .0326221
619.609 .0325941
620.375 .0325663
621.141 .0325386
621.907 .0325108
622.672 .0324830
623.437 .0324549
624.202 .0324267
624.966 .0323982
625.730 .0323695
626.493 .0323406
627.257 .0323116
628.020 .0322825
628.782 .0322531
629.545 .0322236
630.307 .0321939
631.068 .0321639
631.830 .0321337
632.591 .0321034
633.352 .0320729
634.112 .0320424
634.872 .0320119
635.632 .0319816
636.392 .0319513
637.151 .0319211
637.910 .0318910
638.668 .0318610
639.427 .0318312
640.185 .0318017
640.943 .0317724
641.700 .0317436
642.457 .0317152
643.214 .0316873
643.971 .0316601
644.727 .0316335
645.483 .0316074
646.239 .0315818
646.994 .0315567
647.750 .0315319
648.505 .0315075
649.259 .0314834
650.014 .0314597
650.768 .0314363
651.521 .0314132
652.275 .0313904
653.028 .0313678
653.781 .0313454
654.534 .0313232
655.286 .0313010
656.039 .0312789
656.791 .0312567
657.542 .0312344
658.294 .0312119
659.045 .0311892
659.796 .0311664
660.546 .0311433
661.297 .0311199
662.047 .0310964
662.796 .0310728
663.546 .0310491
664.295 .0310254
665.044 .0310019
665.793 .0309784
666.542 .0309551
667.290 .0309318
668.038 .0309085
668.786 .0308852
669.533 .0308618
670.281 .0308384
671.028 .0308149
671.774 .0307914
672.521 .0307681
673.267 .0307449
674.013 .0307218
674.759 .0306990
675.505 .0306764
676.250 .0306540
676.995 .0306316
677.740 .0306094
678.484 .0305872
679.229 .0305651
679.973 .0305432
680.717 .0305214
681.460 .0304999
682.204 .0304787
682.947 .0304578
683.690 .0304372
684.433 .0304170
685.175 .0303972
685.917 .0303778
686.659 .0303587
687.401 .0303398
688.142 .0303210
688.884 .0303023
689.625 .0302836
690.365 .0302647
691.106 .0302457
691.846 .0302265
692.586 .0302072
693.326 .0301878
694.066 .0301682
694.805 .0301485
695.545 .0301287
696.284 .0301087
697.022 .0300886
697.761 .0300683
698.499 .0300478
699.237 .0300273
699.975 .0300067
700.713 .0299861
701.450 .0299655
702.187 .0299451
702.924 .0299247
703.661 .0299044
704.397 .0298843
705.133 .0298644
705.869 .0298447
706.605 .0298252
707.341 .0298059
708.076 .0297868
708.811 .0297679
709.546 .0297493
710.281 .0297309
711.015 .0297127
711.749 .0296946
712.483 .0296766
713.217 .0296586
713.950 .0296407
714.684 .0296228
715.417 .0296049
716.150 .0295869
716.882 .0295689
717.615 .0295507
718.347 .0295324
719.079 .0295139
719.811 .0294953
720.542 .0294765
721.273 .0294576
722.005 .0294384
722.735 .0294191
723.466 .0293997
724.196 .0293802
724.927 .0293606
725.656 .0293411
726.386 .0293217
727.116 .0293024
727.845 .0292834
728.574 .0292646
729.303 .0292462
730.031 .0292280
730.760 .0292100
731.488 .0291923
732.216 .0291748
732.944 .0291574
733.671 .0291403
734.398 .0291234
735.125 .0291068
735.852 .0290904
736.579 .0290742
737.305 .0290584
738.031 .0290429
738.757 .0290276
739.483 .0290127
740.208 .0289980
740.933 .0289835
741.658 .0289692
742.383 .0289552
743.108 .0289412
743.832 .0289275
744.556 .0289139
745.280 .0289005
746.004 .0288873
746.727 .0288743
747.450 .0288615
748.173 .0288489
748.896 .0288364
749.618 .0288240
750.340 .0288117
751.062 .0287994
751.784 .0287871
752.506 .0287747
753.227 .0287623
753.948 .0287499
754.669 .0287374
755.389 .0287249
756.110 .0287123
756.830 .0286997
757.550 .0286870
758.269 .0286743
758.989 .0286615
759.708 .0286486
760.427 .0286358
761.146 .0286229
761.864 .0286100
762.582 .0285971
763.300 .0285842
764.018 .0285712
764.736 .0285581
765.453 .0285451
766.170 .0285320
766.887 .0285189
767.603 .0285059
768.320 .0284930
769.036 .0284802
769.751 .0284675
770.467 .0284550
771.182 .0284427
771.897 .0284306
772.612 .0284187
773.327 .0284071
774.041 .0283957
774.755 .0283847
775.469 .0283740
776.183 .0283637
776.896 .0283538
777.609 .0283442
778.322 .0283351
779.035 .0283264
779.747 .0283181
780.459 .0283104
781.171 .0283031
781.882 .0282963
782.594 .0282900
783.305 .0282841
784.016 .0282787
784.726 .0282736
785.436 .0282688
786.147 .0282625
786.856 .0282580
787.566 .0282534
788.275 .0282489
788.984 .0282443
789.693 .0282396
790.401 .0282348
791.110 .0282298
791.818 .0282246
792.525 .0282190
793.233 .0282131
793.940 .0282067
794.647 .0282019
795.353 .0281947
796.060 .0281871
796.766 .0281789
797.472 .0281703
798.177 .0281612
798.883 .0281517
799.588 .0281418
800.292 .0281316
800.997 .0281210
801.701 .0281101
802.405 .0280988
803.109 .0280873
803.812 .0280755
804.515 .0280635
805.218 .0280512
805.921 .0280386
806.623 .0280258
807.325 .0280128
808.027 .0279996
808.728 .0279863
809.429 .0279728
810.130 .0279591
810.831 .0279454
811.531 .0279315
812.231 .0279176
812.931 .0279036
813.630 .0278897
814.330 .0278758
815.029 .0278620
815.727 .0278483
816.426 .0278348
817.124 .0278215
817.821 .0278083
818.519 .0277953
819.216 .0277825
819.913 .0277698
820.609 .0277573
821.306 .0277451
822.002 .0277331
822.697 .0277215
823.393 .0277102
824.088 .0276993
824.783 .0276888
825.477 .0276785
826.171 .0276685
826.865 .0276587
827.559 .0276491
828.252 .0276397
828.945 .0276304
829.638 .0276213
830.330 .0276124
831.023 .0276035
831.714 .0275948
832.406 .0275861
833.097 .0275773
833.788 .0275684
834.479 .0275594
835.169 .0275503
835.859 .0275410
836.548 .0275316
837.238 .0275221
837.927 .0275125
838.615 .0275027
839.304 .0274927
839.992 .0274826
840.680 .0274721
841.367 .0274614
842.054 .0274504
842.741 .0274391
843.428 .0274276
844.114 .0274158
844.800 .0274040
845.485 .0273920
846.170 .0273800
846.855 .0273678
847.540 .0273555
848.224 .0273429
848.908 .0273300
849.592 .0273169
850.275 .0273034
850.958 .0272897
851.641 .0272756
852.323 .0272613
853.005 .0272467
853.687 .0272319
854.368 .0272169
855.049 .0272017
855.730 .0271863
856.410 .0271706
857.090 .0271546
857.769 .0271384
858.449 .0271221
859.128 .0271056
859.806 .0270891
860.485 .0270726
861.163 .0270561
861.840 .0270396
862.518 .0270232
863.195 .0270068
863.871 .0269905
864.548 .0269743
865.224 .0269581
865.899 .0269421
866.574 .0269262
867.249 .0269106
867.924 .0268952
868.598 .0268801
869.272 .0268652
869.946 .0268507
870.619 .0268363
871.292 .0268222
871.964 .0268084
872.636 .0267948
873.308 .0267816
873.979 .0267687
874.651 .0267563
875.321 .0267443
875.992 .0267329
876.662 .0267219
877.331 .0267115
878.001 .0267014
878.670 .0266919
879.338 .0266827
880.007 .0266739
880.675 .0266656
881.342 .0266576
882.009 .0266502
882.676 .0266433
883.343 .0266368
884.009 .0266307
884.675 .0266252
885.340 .0266201
886.005 .0266154
886.670 .0266113
887.334 .0266077
887.998 .0266045
888.662 .0266019
889.325 .0265997
889.988 .0265980
890.650 .0265966
891.312 .0265956
891.974 .0265948
892.636 .0265941
893.297 .0265936
893.957 .0265930
894.618 .0265925
895.278 .0265919
895.937 .0265912
896.596 .0265902
897.255 .0265890
897.914 .0265874
898.572 .0265855
899.230 .0265830
899.887 .0265802
900.544 .0265768
901.201 .0265730
901.857 .0265647
902.513 .0265596
903.168 .0265540
903.823 .0265478
904.478 .0265410
905.132 .0265337
905.786 .0265259
906.440 .0265176
907.093 .0265090
907.746 .0265000
908.399 .0264908
909.051 .0264815
909.703 .0264720
910.354 .0264671
911.005 .0264576
911.656 .0264480
912.306 .0264384
912.956 .0264288
913.605 .0264191
914.254 .0264096
914.903 .0264001
915.551 .0263908
916.199 .0263815
916.847 .0263723
917.494 .0263631
918.141 .0263538
918.788 .0263444
919.434 .0263349
920.079 .0263252
920.725 .0263152
921.370 .0263051
922.014 .0262948
922.658 .0262842
923.302 .0262735
923.946 .0262626
924.589 .0262514
925.231 .0262400
925.873 .0262283
926.515 .0262164
927.157 .0262041
927.798 .0261917
928.439 .0261790
929.079 .0261661
929.719 .0261532
930.359 .0261402
930.998 .0261272
931.637 .0261142
932.275 .0261014
932.913 .0260887
933.551 .0260762
934.188 .0260639
934.825 .0260520
935.462 .0260405
936.098 .0260295
936.733 .0260191
937.369 .0260094
938.004 .0260004
938.638 .0259922
939.273 .0259847
939.907 .0259780
940.540 .0259719
941.173 .0259664
941.806 .0259615
942.438 .0259570
943.070 .0259529
943.702 .0259492
944.333 .0259458
944.964 .0259427
945.594 .0259398
946.224 .0259371
946.854 .0259344
947.483 .0259317
948.112 .0259290
948.741 .0259260
949.369 .0259229
949.996 .0259196
950.624 .0259160
951.251 .0259123
951.878 .0259082
952.504 .0259038
953.130 .0258991
953.755 .0258940
954.380 .0258884
955.005 .0258823
955.629 .0258756
956.253 .0258684
956.877 .0258605
957.500 .0258522
958.123 .0258433
958.746 .0258341
959.368 .0258245
959.990 .0258147
960.611 .0258046
961.232 .0257944
961.853 .0257841
962.473 .0257737
963.093 .0257632
963.712 .0257528
964.331 .0257424
964.950 .0257322
965.569 .0257220
966.187 .0257120
966.804 .0257021
967.422 .0256923
968.039 .0256825
968.655 .0256726
969.272 .0256626
969.887 .0256523
970.503 .0256418
971.118 .0256311
971.733 .0256200
972.347 .0256087
972.961 .0255970
973.575 .0255849
974.188 .0255725
974.801 .0255597
975.414 .0255463
976.026 .0255325
976.638 .0255182
977.250 .0255034
977.861 .0254880
978.472 .0254722
979.083 .0254560
979.693 .0254393
980.303 .0254223
980.912 .0253952
981.521 .0253778
982.130 .0253603
982.738 .0253426
983.346 .0253248
983.954 .0253070
984.562 .0252893
985.169 .0252718
985.775 .0252546
986.382 .0252378
986.988 .0252215
987.594 .0252058
988.199 .0251907
988.804 .0251762
989.409 .0251715
990.013 .0251579
990.617 .0251449
991.221 .0251325
991.824 .0251206
992.427 .0251092
993.030 .0250982
993.632 .0250877
994.234 .0250776
994.836 .0250678
995.438 .0250583
996.039 .0250491
996.640 .0250401
997.240 .0250314
997.840 .0250228
998.440 .0250143
999.040 .0250060
999.639 .0249979
1000.238 .0249898
1000.836 .0249818
1001.435 .0249739
1002.033 .0249660
1002.630 .0249582
1003.228 .0249502
1003.825 .0249422
1004.422 .0249341
1005.018 .0249259
1005.614 .0249174
1006.210 .0249087
1006.806 .0248999
1007.401 .0248910
1007.996 .0248820
1008.591 .0248731
1009.186 .0248642
1009.780 .0248555
1010.374 .0248470
1010.967 .0248389
1011.561 .0248310
1012.154 .0248235
1012.746 .0248164
1013.339 .0248098
1013.931 .0248037
1014.523 .0247982
1015.115 .0247932
1015.706 .0247888
1016.298 .0247849
1016.888 .0247815
1017.479 .0247786
1018.069 .0247761
1018.660 .0247740
1019.250 .0247722
1019.839 .0247707
1020.429 .0247696
1021.018 .0247690
1021.607 .0247688
1022.195 .0247692
1022.784 .0247702
1023.372 .0247717
1023.960 .0247738
1024.547 .0247764
1025.135 .0247795
1025.722 .0247830
1026.309 .0247870
1026.896 .0247912
1027.483 .0247957
1028.069 .0248004
1028.655 .0248053
1029.241 .0248102
1029.827 .0248151
1030.412 .0248199
1030.997 .0248244
1031.582 .0248285
1032.167 .0248323
1032.752 .0248356
1033.336 .0248385
1033.921 .0248410
1034.505 .0248431
1035.089 .0248449
1035.672 .0248464
1036.256 .0248477
1036.839 .0248487
1037.422 .0248495
1038.005 .0248500
1038.588 .0248501
1039.171 .0248500
1039.753 .0248495
1040.335 .0248486
1040.918 .0248475
1041.500 .0248460
1042.081 .0248444
1042.663 .0248425
1043.244 .0248405
1043.826 .0248385
1044.407 .0248364
1044.988 .0248343
1045.569 .0248323
1046.150 .0248303
1046.730 .0248286
1047.311 .0248271
1047.891 .0248258
1048.471 .0248250
1049.052 .0248245
1049.632 .0248245
1050.211 .0248248
1050.791 .0248256
1051.371 .0248268
1051.950 .0248284
1052.530 .0248304
1053.109 .0248326
1053.688 .0248350
1054.268 .0248377
1054.847 .0248405
1055.426 .0248436
1056.005 .0248470
1056.583 .0248506
1057.162 .0248545
1057.741 .0248588
1058.319 .0248635
1058.898 .0248685
1059.476 .0248738
1060.055 .0248793
1060.633 .0248851
1061.211 .0248909
1061.790 .0248970
1062.368 .0249031
1062.946 .0249095
1063.524 .0249161
1064.102 .0249229
1064.680 .0249298
1065.258 .0249367
1065.836 .0249435
1066.414 .0249503
1066.992 .0249569
1067.570 .0249633
1068.148 .0249694
1068.726 .0249755
1069.304 .0249815
1069.882 .0249876
1070.460 .0249939
1071.038 .0250004
1071.616 .0250071
1072.194 .0250141
1072.772 .0250211
1073.350 .0250283
1073.928 .0250355
1074.506 .0250427
1075.084 .0250499
1075.662 .0250572
1076.240 .0250647
1076.819 .0250724
1077.397 .0250804
1077.976 .0250889
1078.554 .0250979
1079.133 .0251075
1079.711 .0251176
1080.290 .0251283
1080.869 .0251395
1081.448 .0251514
1082.027 .0251639
1082.606 .0251770
1083.185 .0251909
1083.764 .0252055
1084.343 .0252210
1084.923 .0252374
1085.502 .0252547
1086.082 .0252728
1086.662 .0252917
1087.242 .0253111
1087.822 .0253309
1088.402 .0253509
1088.983 .0253711
1089.563 .0253912
1090.144 .0254114
1090.725 .0254315
1091.306 .0254517
1091.887 .0254721
1092.469 .0254927
1093.050 .0255137
1093.632 .0255349
1094.214 .0255565
1094.796 .0255785
1095.379 .0256005
1095.961 .0256226
1096.544 .0256448
1097.127 .0256671
1097.710 .0256895
1098.294 .0257122
1098.877 .0257354
1099.461 .0257591
1100.046 .0257835
1100.630 .0258086
1101.215 .0258342
1101.800 .0258603
1102.385 .0258865
1102.970 .0259127
1103.556 .0259390
1104.142 .0259654
1104.728 .0259920
1105.315 .0260192
1105.902 .0260472
1106.489 .0260763
1107.077 .0261065
1107.664 .0261380
1108.253 .0261706
1108.841 .0262042
1109.430 .0262384
1110.019 .0262732
1110.609 .0263085
1111.198 .0263443
1111.789 .0263807
1112.379 .0264182
1112.970 .0264570
1113.561 .0264971
1114.153 .0265384
1114.745 .0265809
1115.338 .0266242
1115.931 .0266680
1116.524 .0267119
1117.117 .0267557
1117.712 .0267994
1118.306 .0268432
1118.901 .0268871
1119.496 .0269317
1120.092 .0269771
1120.689 .0270232
1121.285 .0270704
1121.882 .0271185
1122.480 .0271676
1123.078 .0272175
1123.677 .0272687
1124.276 .0273211
1124.875 .0273753
1125.476 .0274315
1126.076 .0274902
1126.677 .0275519
1127.279 .0276169
1127.881 .0276851
1128.484 .0277565
1129.087 .0277862
1129.691 .0278614
1130.295 .0279395
1130.900 .0280203
1131.505 .0281036
1132.111 .0281897
1132.718 .0282787
1133.325 .0283710
1133.933 .0284671
1134.541 .0285626
1135.150 .0286675
1135.760 .0287706
1136.370 .0288901
1136.981 .0289489
1137.592 .0290863
1138.204 .0292285
1138.817 .0293683
1139.431 .0295043
1140.045 .0296444
1140.660 .0297818
1141.275 .0299293
1141.891 .0300803
1142.508 .0301018
1143.126 .0304101
1143.744 .0303987
1144.363 .0309071
1144.983 .0309951
