Measurement Sequence started on: 15-12-46-377
Integration time: 28
Scans to Average: 2 
>>>>>Begin Spectral Data<<<<<
432.689 .0000100
433.621 .0000100
434.552 .0000100
435.482 .0000100
436.410 .0000100
437.337 .0000100
438.262 .0294452
439.187 .0623042
440.110 .1031214
441.031 .1491876
441.952 .1191436
442.871 .1243793
443.789 .1292500
444.705 .1338323
445.621 .1381776
446.535 .1423258
447.447 .1447566
448.359 .1453132
449.269 .1435961
450.178 .1393437
451.086 .1326434
451.993 .1240105
452.898 .1142939
453.803 .1044556
454.706 .0953133
455.608 .0873746
456.508 .0808083
457.408 .0763701
458.306 .0729616
459.204 .0701895
460.100 .0678596
460.995 .0658591
461.888 .0641141
462.781 .0625757
463.673 .0612065
464.563 .0599798
465.452 .0588754
466.340 .0578767
467.228 .0569713
468.114 .0561498
468.999 .0554038
469.882 .0547261
470.765 .0541102
471.647 .0535507
472.528 .0530426
473.407 .0525809
474.286 .0521617
475.163 .0517817
476.040 .0514379
476.915 .0511278
477.790 .0508487
478.663 .0505988
479.535 .0503761
480.407 .0501794
481.277 .0500074
482.147 .0498581
483.015 .0497304
483.883 .0496234
484.749 .0495365
485.615 .0494695
486.479 .0494220
487.343 .0493939
488.206 .0493852
489.067 .0493954
489.928 .0494246
490.788 .0494735
491.647 .0495430
492.505 .0496340
493.362 .0497482
494.218 .0498866
495.073 .0500502
495.928 .0503872
496.781 .0506161
497.634 .0508697
498.486 .0511473
499.337 .0514483
500.187 .0517729
501.036 .0521219
501.884 .0524977
502.731 .0529038
503.578 .0533445
504.424 .0536373
505.268 .0541472
506.113 .0547071
506.956 .0553225
507.798 .0559991
508.640 .0567439
509.480 .0575650
510.320 .0584726
511.160 .0594787
511.998 .0605984
512.836 .0618516
513.672 .0632583
514.508 .0648440
515.344 .0666352
516.178 .0686579
517.012 .0709403
517.845 .0735072
518.677 .0763790
519.508 .0795704
520.339 .0830880
521.169 .0869315
521.998 .0910770
522.826 .0954864
523.654 .1001029
524.481 .1048579
525.307 .1096718
526.133 .1144519
526.958 .1190989
527.782 .1235176
528.605 .1276159
529.428 .1313121
530.250 .1345333
531.072 .1372286
531.892 .1393581
532.712 .1408947
533.532 .1418245
534.350 .1421414
535.168 .1418477
535.986 .1409528
536.802 .1394651
537.618 .1373990
538.434 .1347704
539.249 .1316178
540.063 .1279931
540.876 .1239623
541.689 .1196015
542.501 .1149955
543.313 .1102386
544.124 .1054298
544.934 .1006600
545.744 .0960137
546.553 .0915637
547.361 .0873693
548.169 .0834660
548.976 .0798750
549.783 .0766018
550.589 .0736378
551.395 .0709635
552.200 .0685526
553.004 .0663743
553.808 .0644025
554.611 .0626128
555.414 .0609854
556.216 .0595014
557.018 .0581423
557.819 .0568931
558.619 .0557409
559.419 .0546750
560.218 .0536860
561.017 .0527648
561.815 .0519043
562.613 .0510985
563.410 .0503393
564.207 .0496196
565.003 .0489333
565.799 .0482739
566.594 .0476364
567.388 .0470174
568.182 .0464145
568.976 .0458258
569.769 .0452510
570.562 .0446900
571.354 .0441428
572.145 .0436097
572.936 .0430904
573.727 .0425844
574.517 .0420921
575.307 .0416132
576.096 .0411475
576.885 .0406962
577.673 .0402601
578.461 .0398401
579.248 .0394373
580.035 .0390528
580.821 .0386870
581.607 .0383405
582.392 .0380137
583.177 .0377066
583.962 .0374193
584.746 .0371514
585.529 .0369027
586.313 .0366724
587.095 .0364602
587.878 .0362651
588.660 .0360862
589.441 .0359226
590.222 .0357733
591.003 .0356371
591.783 .0355131
592.563 .0354000
593.342 .0352968
594.121 .0352022
594.899 .0351152
595.678 .0350346
596.455 .0349594
597.233 .0348887
598.009 .0348219
598.786 .0347586
599.562 .0346982
600.338 .0346404
601.113 .0345849
601.888 .0345079
602.663 .0344572
603.437 .0344082
604.211 .0343608
604.984 .0343149
605.757 .0342706
606.530 .0342279
607.302 .0341867
608.074 .0341472
608.845 .0341091
609.616 .0340724
610.387 .0340577
611.158 .0340228
611.928 .0339890
612.697 .0339560
613.467 .0339239
614.236 .0338927
615.004 .0338623
615.773 .0338326
616.541 .0338033
617.308 .0337745
618.076 .0337457
618.843 .0337169
619.609 .0336879
620.375 .0336585
621.141 .0336288
621.907 .0335988
622.672 .0335684
623.437 .0335377
624.202 .0335067
624.966 .0334753
625.730 .0334436
626.493 .0334114
627.257 .0333788
628.020 .0333460
628.782 .0333130
629.545 .0332801
630.307 .0332473
631.068 .0332147
631.830 .0331824
632.591 .0331502
633.352 .0331182
634.112 .0330863
634.872 .0330546
635.632 .0330231
636.392 .0329919
637.151 .0329611
637.910 .0329307
638.668 .0329008
639.427 .0328714
640.185 .0328424
640.943 .0328138
641.700 .0327854
642.457 .0327572
643.214 .0327292
643.971 .0327013
644.727 .0326737
645.483 .0326462
646.239 .0326189
646.994 .0325918
647.750 .0325648
648.505 .0325379
649.259 .0325113
650.014 .0324849
650.768 .0324587
651.521 .0324329
652.275 .0324075
653.028 .0323824
653.781 .0323577
654.534 .0323332
655.286 .0323088
656.039 .0322846
656.791 .0322603
657.542 .0322360
658.294 .0322117
659.045 .0321873
659.796 .0321628
660.546 .0321381
661.297 .0321133
662.047 .0320883
662.796 .0320630
663.546 .0320374
664.295 .0320115
665.044 .0319854
665.793 .0319591
666.542 .0319327
667.290 .0319063
668.038 .0318798
668.786 .0318535
669.533 .0318272
670.281 .0318011
671.028 .0317752
671.774 .0317494
672.521 .0317239
673.267 .0316986
674.013 .0316735
674.759 .0316488
675.505 .0316244
676.250 .0316003
676.995 .0315765
677.740 .0315529
678.484 .0315294
679.229 .0315060
679.973 .0314825
680.717 .0314590
681.460 .0314355
682.204 .0314117
682.947 .0313878
683.690 .0313635
684.433 .0313389
685.175 .0313139
685.917 .0312884
686.659 .0312625
687.401 .0312360
688.142 .0312091
688.884 .0311816
689.625 .0311537
690.365 .0311253
691.106 .0310966
691.846 .0310676
692.586 .0310384
693.326 .0310090
694.066 .0309797
694.805 .0309505
695.545 .0309215
696.284 .0308930
697.022 .0308651
697.761 .0308377
698.499 .0308111
699.237 .0307851
699.975 .0307600
700.713 .0307355
701.450 .0307119
702.187 .0306891
702.924 .0306671
703.661 .0306458
704.397 .0306254
705.133 .0306057
705.869 .0305868
706.605 .0305685
707.341 .0305508
708.076 .0305336
708.811 .0305169
709.546 .0305005
710.281 .0304844
711.015 .0304686
711.749 .0304531
712.483 .0304377
713.217 .0304224
713.950 .0304072
714.684 .0303920
715.417 .0303768
716.150 .0303617
716.882 .0303466
717.615 .0303315
718.347 .0303165
719.079 .0303014
719.811 .0302865
720.542 .0302716
721.273 .0302568
722.005 .0302421
722.735 .0302276
723.466 .0302132
724.196 .0301990
724.927 .0301850
725.656 .0301714
726.386 .0301582
727.116 .0301453
727.845 .0301329
728.574 .0301209
729.303 .0301093
730.031 .0300982
730.760 .0300874
731.488 .0300771
732.216 .0300671
732.944 .0300576
733.671 .0300484
734.398 .0300397
735.125 .0300313
735.852 .0300233
736.579 .0300157
737.305 .0300084
738.031 .0300015
738.757 .0299947
739.483 .0299882
740.208 .0299819
740.933 .0299756
741.658 .0299694
742.383 .0299631
743.108 .0299566
743.832 .0299500
744.556 .0299431
745.280 .0299360
746.004 .0299285
746.727 .0299208
747.450 .0299127
748.173 .0299042
748.896 .0298952
749.618 .0298857
750.340 .0298755
751.062 .0298646
751.784 .0298530
752.506 .0298405
753.227 .0298270
753.948 .0298127
754.669 .0297975
755.389 .0297814
756.110 .0297644
756.830 .0297463
757.550 .0297274
758.269 .0297074
758.989 .0296866
759.708 .0296648
760.427 .0296422
761.146 .0296188
761.864 .0295948
762.582 .0295703
763.300 .0295452
764.018 .0295198
764.736 .0294940
765.453 .0294681
766.170 .0294422
766.887 .0294162
767.603 .0293905
768.320 .0293651
769.036 .0293401
769.751 .0293156
770.467 .0292917
771.182 .0292683
771.897 .0292455
772.612 .0292233
773.327 .0292018
774.041 .0291810
774.755 .0291609
775.469 .0291416
776.183 .0291231
776.896 .0291052
777.609 .0290881
778.322 .0290716
779.035 .0290556
779.747 .0290401
780.459 .0290250
781.171 .0290103
781.882 .0289959
782.594 .0289819
783.305 .0289683
784.016 .0289549
784.726 .0289418
785.436 .0289290
786.147 .0289107
786.856 .0288982
787.566 .0288859
788.275 .0288738
788.984 .0288618
789.693 .0288499
790.401 .0288383
791.110 .0288268
791.818 .0288155
792.525 .0288044
793.233 .0287935
793.940 .0287827
794.647 .0287775
795.353 .0287671
796.060 .0287569
796.766 .0287470
797.472 .0287374
798.177 .0287281
798.883 .0287191
799.588 .0287103
800.292 .0287018
800.997 .0286936
801.701 .0286857
802.405 .0286781
803.109 .0286710
803.812 .0286642
804.515 .0286578
805.218 .0286519
805.921 .0286463
806.623 .0286411
807.325 .0286362
808.027 .0286315
808.728 .0286270
809.429 .0286229
810.130 .0286189
810.831 .0286153
811.531 .0286120
812.231 .0286090
812.931 .0286063
813.630 .0286039
814.330 .0286017
815.029 .0285998
815.727 .0285981
816.426 .0285967
817.124 .0285956
817.821 .0285947
818.519 .0285941
819.216 .0285938
819.913 .0285938
820.609 .0285941
821.306 .0285945
822.002 .0285952
822.697 .0285961
823.393 .0285971
824.088 .0285983
824.783 .0285997
825.477 .0286013
826.171 .0286031
826.865 .0286050
827.559 .0286070
828.252 .0286091
828.945 .0286113
829.638 .0286134
830.330 .0286156
831.023 .0286176
831.714 .0286196
832.406 .0286214
833.097 .0286230
833.788 .0286243
834.479 .0286254
835.169 .0286260
835.859 .0286262
836.548 .0286260
837.238 .0286252
837.927 .0286239
838.615 .0286220
839.304 .0286194
839.992 .0286162
840.680 .0286123
841.367 .0286077
842.054 .0286023
842.741 .0285960
843.428 .0285890
844.114 .0285811
844.800 .0285724
845.485 .0285628
846.170 .0285523
846.855 .0285408
847.540 .0285285
848.224 .0285152
848.908 .0285008
849.592 .0284855
850.275 .0284692
850.958 .0284519
851.641 .0284338
852.323 .0284148
853.005 .0283950
853.687 .0283746
854.368 .0283534
855.049 .0283317
855.730 .0283095
856.410 .0282869
857.090 .0282640
857.769 .0282409
858.449 .0282176
859.128 .0281942
859.806 .0281709
860.485 .0281476
861.163 .0281243
861.840 .0281010
862.518 .0280777
863.195 .0280545
863.871 .0280313
864.548 .0280082
865.224 .0279852
865.899 .0279622
866.574 .0279394
867.249 .0279165
867.924 .0278937
868.598 .0278709
869.272 .0278480
869.946 .0278250
870.619 .0278019
871.292 .0277787
871.964 .0277555
872.636 .0277323
873.308 .0277091
873.979 .0276859
874.651 .0276628
875.321 .0276397
875.992 .0276165
876.662 .0275933
877.331 .0275701
878.001 .0275469
878.670 .0275238
879.338 .0275008
880.007 .0274780
880.675 .0274554
881.342 .0274331
882.009 .0274111
882.676 .0273895
883.343 .0273683
884.009 .0273475
884.675 .0273273
885.340 .0273078
886.005 .0272888
886.670 .0272706
887.334 .0272531
887.998 .0272363
888.662 .0272202
889.325 .0272048
889.988 .0271902
890.650 .0271763
891.312 .0271630
891.974 .0271506
892.636 .0271389
893.297 .0271278
893.957 .0271175
894.618 .0271077
895.278 .0270984
895.937 .0270895
896.596 .0270810
897.255 .0270727
897.914 .0270647
898.572 .0270569
899.230 .0270492
899.887 .0270416
900.544 .0270340
901.201 .0270263
901.857 .0270134
902.513 .0270050
903.168 .0269963
903.823 .0269874
904.478 .0269781
905.132 .0269686
905.786 .0269587
906.440 .0269485
907.093 .0269380
907.746 .0269272
908.399 .0269162
909.051 .0269050
909.703 .0268937
910.354 .0268884
911.005 .0268776
911.656 .0268670
912.306 .0268568
912.956 .0268470
913.605 .0268377
914.254 .0268289
914.903 .0268205
915.551 .0268126
916.199 .0268052
916.847 .0267983
917.494 .0267919
918.141 .0267859
918.788 .0267805
919.434 .0267755
920.079 .0267709
920.725 .0267667
921.370 .0267629
922.014 .0267593
922.658 .0267560
923.302 .0267528
923.946 .0267498
924.589 .0267470
925.231 .0267443
925.873 .0267416
926.515 .0267389
927.157 .0267363
927.798 .0267336
928.439 .0267309
929.079 .0267281
929.719 .0267253
930.359 .0267223
930.998 .0267194
931.637 .0267164
932.275 .0267134
932.913 .0267105
933.551 .0267076
934.188 .0267049
934.825 .0267025
935.462 .0267002
936.098 .0266982
936.733 .0266965
937.369 .0266950
938.004 .0266939
938.638 .0266931
939.273 .0266927
939.907 .0266928
940.540 .0266934
941.173 .0266945
941.806 .0266962
942.438 .0266985
943.070 .0267012
943.702 .0267044
944.333 .0267080
944.964 .0267120
945.594 .0267161
946.224 .0267205
946.854 .0267251
947.483 .0267299
948.112 .0267347
948.741 .0267396
949.369 .0267445
949.996 .0267492
950.624 .0267537
951.251 .0267578
951.878 .0267615
952.504 .0267648
953.130 .0267676
953.755 .0267700
954.380 .0267720
955.005 .0267736
955.629 .0267748
956.253 .0267754
956.877 .0267754
957.500 .0267747
958.123 .0267733
958.746 .0267711
959.368 .0267683
959.990 .0267649
960.611 .0267612
961.232 .0267572
961.853 .0267529
962.473 .0267484
963.093 .0267435
963.712 .0267383
964.331 .0267326
964.950 .0267264
965.569 .0267198
966.187 .0267128
966.804 .0267054
967.422 .0266978
968.039 .0266900
968.655 .0266820
969.272 .0266739
969.887 .0266654
970.503 .0266566
971.118 .0266474
971.733 .0266377
972.347 .0266275
972.961 .0266168
973.575 .0266057
974.188 .0265942
974.801 .0265823
975.414 .0265700
976.026 .0265571
976.638 .0265436
977.250 .0265295
977.861 .0265146
978.472 .0264990
979.083 .0264827
979.693 .0264657
980.303 .0264481
980.912 .0264192
981.521 .0264002
982.130 .0263806
982.738 .0263605
983.346 .0263400
983.954 .0263189
984.562 .0262976
985.169 .0262759
985.775 .0262542
986.382 .0262323
986.988 .0262106
987.594 .0261889
988.199 .0261675
988.804 .0261463
989.409 .0261364
990.013 .0261157
990.617 .0260952
991.221 .0260751
991.824 .0260552
992.427 .0260358
993.030 .0260166
993.632 .0259977
994.234 .0259790
994.836 .0259606
995.438 .0259423
996.039 .0259241
996.640 .0259061
997.240 .0258883
997.840 .0258707
998.440 .0258534
999.040 .0258363
999.639 .0258195
1000.238 .0258030
1000.836 .0257866
1001.435 .0257704
1002.033 .0257542
1002.630 .0257379
1003.228 .0257214
1003.825 .0257048
1004.422 .0256880
1005.018 .0256710
1005.614 .0256537
1006.210 .0256362
1006.806 .0256184
1007.401 .0256003
1007.996 .0255819
1008.591 .0255631
1009.186 .0255439
1009.780 .0255245
1010.374 .0255049
1010.967 .0254851
1011.561 .0254653
1012.154 .0254455
1012.746 .0254258
1013.339 .0254063
1013.931 .0253871
1014.523 .0253680
1015.115 .0253493
1015.706 .0253308
1016.298 .0253127
1016.888 .0252951
1017.479 .0252780
1018.069 .0252615
1018.660 .0252458
1019.250 .0252309
1019.839 .0252169
1020.429 .0252038
1021.018 .0251917
1021.607 .0251805
1022.195 .0251701
1022.784 .0251607
1023.372 .0251521
1023.960 .0251444
1024.547 .0251376
1025.135 .0251319
1025.722 .0251271
1026.309 .0251232
1026.896 .0251203
1027.483 .0251182
1028.069 .0251169
1028.655 .0251163
1029.241 .0251162
1029.827 .0251167
1030.412 .0251176
1030.997 .0251189
1031.582 .0251207
1032.167 .0251229
1032.752 .0251257
1033.336 .0251287
1033.921 .0251321
1034.505 .0251356
1035.089 .0251391
1035.672 .0251425
1036.256 .0251458
1036.839 .0251489
1037.422 .0251517
1038.005 .0251542
1038.588 .0251564
1039.171 .0251585
1039.753 .0251605
1040.335 .0251624
1040.918 .0251642
1041.500 .0251661
1042.081 .0251678
1042.663 .0251696
1043.244 .0251713
1043.826 .0251731
1044.407 .0251749
1044.988 .0251769
1045.569 .0251790
1046.150 .0251813
1046.730 .0251839
1047.311 .0251868
1047.891 .0251900
1048.471 .0251935
1049.052 .0251973
1049.632 .0252013
1050.211 .0252055
1050.791 .0252099
1051.371 .0252143
1051.950 .0252189
1052.530 .0252237
1053.109 .0252287
1053.688 .0252340
1054.268 .0252398
1054.847 .0252460
1055.426 .0252528
1056.005 .0252600
1056.583 .0252676
1057.162 .0252755
1057.741 .0252835
1058.319 .0252917
1058.898 .0253001
1059.476 .0253086
1060.055 .0253174
1060.633 .0253267
1061.211 .0253365
1061.790 .0253469
1062.368 .0253580
1062.946 .0253697
1063.524 .0253820
1064.102 .0253947
1064.680 .0254077
1065.258 .0254210
1065.836 .0254345
1066.414 .0254482
1066.992 .0254622
1067.570 .0254764
1068.148 .0254912
1068.726 .0255062
1069.304 .0255217
1069.882 .0255373
1070.460 .0255531
1071.038 .0255689
1071.616 .0255848
1072.194 .0256008
1072.772 .0256170
1073.350 .0256333
1073.928 .0256501
1074.506 .0256674
1075.084 .0256853
1075.662 .0257040
1076.240 .0257232
1076.819 .0257431
1077.397 .0257634
1077.976 .0257840
1078.554 .0258049
1079.133 .0258260
1079.711 .0258473
1080.290 .0258687
1080.869 .0258902
1081.448 .0259120
1082.027 .0259339
1082.606 .0259561
1083.185 .0259784
1083.764 .0260008
1084.343 .0260233
1084.923 .0260460
1085.502 .0260689
1086.082 .0260921
1086.662 .0261158
1087.242 .0261402
1087.822 .0261655
1088.402 .0261918
1088.983 .0262190
1089.563 .0262471
1090.144 .0262760
1090.725 .0263056
1091.306 .0263356
1091.887 .0263658
1092.469 .0263960
1093.050 .0264263
1093.632 .0264565
1094.214 .0264868
1094.796 .0265173
1095.379 .0265480
1095.961 .0265790
1096.544 .0266101
1097.127 .0266414
1097.710 .0266726
1098.294 .0267037
1098.877 .0267348
1099.461 .0267658
1100.046 .0267968
1100.630 .0268280
1101.215 .0268595
1101.800 .0268913
1102.385 .0269233
1102.970 .0269555
1103.556 .0269876
1104.142 .0270195
1104.728 .0270509
1105.315 .0270818
1105.902 .0271121
1106.489 .0271419
1107.077 .0271712
1107.664 .0272002
1108.253 .0272291
1108.841 .0272579
1109.430 .0272868
1110.019 .0273158
1110.609 .0273452
1111.198 .0273749
1111.789 .0274050
1112.379 .0274357
1112.970 .0274672
1113.561 .0274996
1114.153 .0275332
1114.745 .0275682
1115.338 .0276045
1115.931 .0276422
1116.524 .0276814
1117.117 .0277220
1117.712 .0277642
1118.306 .0278081
1118.901 .0278535
1119.496 .0279008
1120.092 .0279498
1120.689 .0280004
1121.285 .0280526
1121.882 .0281062
1122.480 .0281610
1123.078 .0282168
1123.677 .0282736
1124.276 .0283312
1124.875 .0283895
1125.476 .0284486
1126.076 .0285088
1126.677 .0285703
1127.279 .0286333
1127.881 .0286978
1128.484 .0287638
1129.087 .0287968
1129.691 .0288646
1130.295 .0289338
1130.900 .0290041
1131.505 .0290760
1132.111 .0291496
1132.718 .0292259
1133.325 .0293050
1133.933 .0293865
1134.541 .0294737
1135.150 .0295657
1135.760 .0296675
1136.370 .0297619
1136.981 .0297081
1137.592 .0298000
1138.204 .0298965
1138.817 .0299923
1139.431 .0301003
1140.045 .0302170
1140.660 .0303524
1141.275 .0304964
1141.891 .0306282
1142.508 .0308541
1143.126 .0310609
1143.744 .0314084
1144.363 .0312791
1144.983 .0307082
