Measurement Sequence started on: 15-12-46-377
Integration time: 28
Scans to Average: 2 
>>>>>Begin Spectral Data<<<<<
432.689 .0000100
433.621 .0000100
434.552 .0000100
435.482 .0000100
436.410 .0000100
437.337 .0000100
438.262 .0258914
439.187 .0550186
440.110 .0912582
441.031 .1322434
441.952 .1072393
442.871 .1121581
443.789 .1167572
444.705 .1211059
445.621 .1252498
446.535 .1292216
447.447 .1316820
448.359 .1324791
449.269 .1312534
450.178 .1277654
451.086 .1220804
451.993 .1146442
452.898 .1062026
453.803 .0976044
454.706 .0895734
455.608 .0825644
456.508 .0767343
457.408 .0727532
458.306 .0696662
459.204 .0671264
460.100 .0649619
460.995 .0630772
461.888 .0614074
462.781 .0599108
463.673 .0585588
464.563 .0573320
465.452 .0562151
466.340 .0551964
467.228 .0542683
468.114 .0534238
468.999 .0526566
469.882 .0519612
470.765 .0513316
471.647 .0507638
472.528 .0502531
473.407 .0497956
474.286 .0493886
475.163 .0490300
476.040 .0487163
476.915 .0484447
477.790 .0482114
478.663 .0480123
479.535 .0478430
480.407 .0476995
481.277 .0475779
482.147 .0474747
483.015 .0473874
483.883 .0473143
484.749 .0472537
485.615 .0472056
486.479 .0471693
487.343 .0471447
488.206 .0471325
489.067 .0471321
489.928 .0471438
490.788 .0471683
491.647 .0472063
492.505 .0472596
493.362 .0473299
494.218 .0474194
495.073 .0475303
495.928 .0477851
496.781 .0479585
497.634 .0481573
498.486 .0483823
499.337 .0486354
500.187 .0489185
501.036 .0492341
501.884 .0495856
502.731 .0499771
503.578 .0504116
504.424 .0507207
505.268 .0512324
506.113 .0517954
506.956 .0524132
507.798 .0530910
508.640 .0538352
509.480 .0546546
510.320 .0555599
511.160 .0565634
511.998 .0576796
512.836 .0589260
513.672 .0603169
514.508 .0618716
515.344 .0636092
516.178 .0655482
517.012 .0677070
517.845 .0701061
518.677 .0727625
519.508 .0756912
520.339 .0789001
521.169 .0823897
521.998 .0861375
522.826 .0901115
523.654 .0942579
524.481 .0985086
525.307 .1027872
526.133 .1070050
526.958 .1110681
527.782 .1148912
528.605 .1183925
529.428 .1215019
530.250 .1241613
531.072 .1263360
531.892 .1279953
532.712 .1291229
533.532 .1297122
534.350 .1297619
535.168 .1292760
535.986 .1282614
536.802 .1267223
537.618 .1246698
538.434 .1221203
539.249 .1191099
540.063 .1156854
540.876 .1119134
541.689 .1078712
542.501 .1036403
543.313 .0993095
544.124 .0949691
544.934 .0906978
545.744 .0865678
546.553 .0826378
547.361 .0789513
548.169 .0755323
548.976 .0723963
549.783 .0695443
550.589 .0669670
551.395 .0646487
552.200 .0625648
553.004 .0606898
553.808 .0590013
554.611 .0574759
555.414 .0560932
556.216 .0548354
557.018 .0536841
557.819 .0526233
558.619 .0516391
559.419 .0507211
560.218 .0498618
561.017 .0490542
561.815 .0482930
562.613 .0475738
563.410 .0468919
564.207 .0462435
565.003 .0456241
565.799 .0450293
566.594 .0444548
567.388 .0438976
568.182 .0433549
568.976 .0428249
569.769 .0423069
570.562 .0418010
571.354 .0413076
572.145 .0408276
572.936 .0403618
573.727 .0399106
574.517 .0394750
575.307 .0390555
576.096 .0386521
576.885 .0382652
577.673 .0378949
578.461 .0375417
579.248 .0372057
580.035 .0368875
580.821 .0365869
581.607 .0363043
582.392 .0360394
583.177 .0357922
583.962 .0355624
584.746 .0353493
585.529 .0351522
586.313 .0349700
587.095 .0348014
587.878 .0346454
588.660 .0345006
589.441 .0343660
590.222 .0342408
591.003 .0341240
591.783 .0340151
592.563 .0339131
593.342 .0338174
594.121 .0337272
594.899 .0336418
595.678 .0335603
596.455 .0334821
597.233 .0334064
598.009 .0333331
598.786 .0332617
599.562 .0331921
600.338 .0331243
601.113 .0330583
601.888 .0329662
602.663 .0329054
603.437 .0328467
604.211 .0327901
604.984 .0327355
605.757 .0326828
606.530 .0326319
607.302 .0325827
608.074 .0325353
608.845 .0324895
609.616 .0324455
610.387 .0324282
611.158 .0323869
611.928 .0323475
612.697 .0323098
613.467 .0322739
614.236 .0322398
615.004 .0322072
615.773 .0321761
616.541 .0321463
617.308 .0321176
618.076 .0320899
618.843 .0320629
619.609 .0320367
620.375 .0320111
621.141 .0319860
621.907 .0319615
622.672 .0319375
623.437 .0319139
624.202 .0318908
624.966 .0318680
625.730 .0318454
626.493 .0318228
627.257 .0318002
628.020 .0317775
628.782 .0317545
629.545 .0317312
630.307 .0317078
631.068 .0316841
631.830 .0316603
632.591 .0316365
633.352 .0316126
634.112 .0315887
634.872 .0315648
635.632 .0315407
636.392 .0315164
637.151 .0314917
637.910 .0314666
638.668 .0314411
639.427 .0314153
640.185 .0313893
640.943 .0313631
641.700 .0313368
642.457 .0313106
643.214 .0312844
643.971 .0312582
644.727 .0312321
645.483 .0312059
646.239 .0311796
646.994 .0311531
647.750 .0311266
648.505 .0311001
649.259 .0310737
650.014 .0310474
650.768 .0310214
651.521 .0309956
652.275 .0309701
653.028 .0309447
653.781 .0309196
654.534 .0308946
655.286 .0308697
656.039 .0308448
656.791 .0308200
657.542 .0307952
658.294 .0307704
659.045 .0307457
659.796 .0307209
660.546 .0306962
661.297 .0306714
662.047 .0306467
662.796 .0306221
663.546 .0305975
664.295 .0305731
665.044 .0305487
665.793 .0305245
666.542 .0305004
667.290 .0304764
668.038 .0304525
668.786 .0304287
669.533 .0304051
670.281 .0303816
671.028 .0303583
671.774 .0303353
672.521 .0303127
673.267 .0302904
674.013 .0302685
674.759 .0302469
675.505 .0302255
676.250 .0302044
676.995 .0301832
677.740 .0301621
678.484 .0301411
679.229 .0301201
679.973 .0300991
680.717 .0300782
681.460 .0300575
682.204 .0300368
682.947 .0300161
683.690 .0299953
684.433 .0299744
685.175 .0299534
685.917 .0299322
686.659 .0299109
687.401 .0298894
688.142 .0298679
688.884 .0298463
689.625 .0298247
690.365 .0298030
691.106 .0297812
691.846 .0297592
692.586 .0297372
693.326 .0297150
694.066 .0296929
694.805 .0296708
695.545 .0296487
696.284 .0296268
697.022 .0296050
697.761 .0295834
698.499 .0295620
699.237 .0295408
699.975 .0295198
700.713 .0294990
701.450 .0294784
702.187 .0294581
702.924 .0294380
703.661 .0294182
704.397 .0293986
705.133 .0293793
705.869 .0293604
706.605 .0293417
707.341 .0293234
708.076 .0293054
708.811 .0292877
709.546 .0292703
710.281 .0292530
711.015 .0292360
711.749 .0292190
712.483 .0292022
713.217 .0291855
713.950 .0291689
714.684 .0291524
715.417 .0291360
716.150 .0291196
716.882 .0291033
717.615 .0290869
718.347 .0290704
719.079 .0290537
719.811 .0290370
720.542 .0290201
721.273 .0290031
722.005 .0289861
722.735 .0289690
723.466 .0289519
724.196 .0289348
724.927 .0289177
725.656 .0289007
726.386 .0288839
727.116 .0288674
727.845 .0288512
728.574 .0288354
729.303 .0288201
730.031 .0288054
730.760 .0287912
731.488 .0287775
732.216 .0287643
732.944 .0287517
733.671 .0287397
734.398 .0287282
735.125 .0287173
735.852 .0287071
736.579 .0286973
737.305 .0286881
738.031 .0286792
738.757 .0286706
739.483 .0286621
740.208 .0286538
740.933 .0286454
741.658 .0286370
742.383 .0286284
743.108 .0286196
743.832 .0286106
744.556 .0286012
745.280 .0285913
746.004 .0285810
746.727 .0285701
747.450 .0285585
748.173 .0285462
748.896 .0285333
749.618 .0285197
750.340 .0285057
751.062 .0284912
751.784 .0284764
752.506 .0284613
753.227 .0284459
753.948 .0284304
754.669 .0284148
755.389 .0283990
756.110 .0283831
756.830 .0283671
757.550 .0283512
758.269 .0283353
758.989 .0283195
759.708 .0283038
760.427 .0282883
761.146 .0282730
761.864 .0282577
762.582 .0282427
763.300 .0282277
764.018 .0282129
764.736 .0281982
765.453 .0281836
766.170 .0281691
766.887 .0281547
767.603 .0281404
768.320 .0281262
769.036 .0281120
769.751 .0280978
770.467 .0280838
771.182 .0280698
771.897 .0280560
772.612 .0280424
773.327 .0280289
774.041 .0280156
774.755 .0280024
775.469 .0279893
776.183 .0279763
776.896 .0279634
777.609 .0279507
778.322 .0279381
779.035 .0279257
779.747 .0279136
780.459 .0279018
781.171 .0278902
781.882 .0278790
782.594 .0278679
783.305 .0278570
784.016 .0278462
784.726 .0278354
785.436 .0278246
786.147 .0278083
786.856 .0277973
787.566 .0277862
788.275 .0277750
788.984 .0277637
789.693 .0277521
790.401 .0277403
791.110 .0277282
791.818 .0277159
792.525 .0277033
793.233 .0276903
793.940 .0276772
794.647 .0276697
795.353 .0276563
796.060 .0276428
796.766 .0276292
797.472 .0276155
798.177 .0276017
798.883 .0275878
799.588 .0275739
800.292 .0275599
800.997 .0275459
801.701 .0275319
802.405 .0275180
803.109 .0275041
803.812 .0274902
804.515 .0274763
805.218 .0274625
805.921 .0274486
806.623 .0274346
807.325 .0274206
808.027 .0274066
808.728 .0273926
809.429 .0273787
810.130 .0273649
810.831 .0273512
811.531 .0273376
812.231 .0273240
812.931 .0273106
813.630 .0272971
814.330 .0272836
815.029 .0272702
815.727 .0272569
816.426 .0272436
817.124 .0272306
817.821 .0272177
818.519 .0272050
819.216 .0271924
819.913 .0271801
820.609 .0271679
821.306 .0271560
822.002 .0271443
822.697 .0271329
823.393 .0271219
824.088 .0271114
824.783 .0271014
825.477 .0270919
826.171 .0270830
826.865 .0270746
827.559 .0270667
828.252 .0270593
828.945 .0270524
829.638 .0270460
830.330 .0270400
831.023 .0270345
831.714 .0270294
832.406 .0270247
833.097 .0270204
833.788 .0270163
834.479 .0270124
835.169 .0270088
835.859 .0270053
836.548 .0270019
837.238 .0269987
837.927 .0269957
838.615 .0269927
839.304 .0269898
839.992 .0269869
840.680 .0269839
841.367 .0269807
842.054 .0269774
842.741 .0269740
843.428 .0269703
844.114 .0269665
844.800 .0269624
845.485 .0269582
846.170 .0269537
846.855 .0269489
847.540 .0269437
848.224 .0269382
848.908 .0269323
849.592 .0269260
850.275 .0269193
850.958 .0269123
851.641 .0269049
852.323 .0268971
853.005 .0268890
853.687 .0268806
854.368 .0268719
855.049 .0268629
855.730 .0268536
856.410 .0268440
857.090 .0268343
857.769 .0268244
858.449 .0268144
859.128 .0268043
859.806 .0267941
860.485 .0267838
861.163 .0267736
861.840 .0267633
862.518 .0267532
863.195 .0267431
863.871 .0267332
864.548 .0267235
865.224 .0267140
865.899 .0267048
866.574 .0266958
867.249 .0266871
867.924 .0266787
868.598 .0266706
869.272 .0266628
869.946 .0266552
870.619 .0266480
871.292 .0266409
871.964 .0266341
872.636 .0266276
873.308 .0266212
873.979 .0266151
874.651 .0266090
875.321 .0266031
875.992 .0265972
876.662 .0265913
877.331 .0265854
878.001 .0265794
878.670 .0265733
879.338 .0265670
880.007 .0265606
880.675 .0265540
881.342 .0265473
882.009 .0265404
882.676 .0265335
883.343 .0265264
884.009 .0265193
884.675 .0265121
885.340 .0265049
886.005 .0264977
886.670 .0264907
887.334 .0264837
887.998 .0264769
888.662 .0264703
889.325 .0264640
889.988 .0264578
890.650 .0264520
891.312 .0264463
891.974 .0264410
892.636 .0264358
893.297 .0264309
893.957 .0264263
894.618 .0264218
895.278 .0264176
895.937 .0264134
896.596 .0264092
897.255 .0264049
897.914 .0264005
898.572 .0263958
899.230 .0263908
899.887 .0263854
900.544 .0263795
901.201 .0263730
901.857 .0263601
902.513 .0263519
903.168 .0263429
903.823 .0263330
904.478 .0263224
905.132 .0263108
905.786 .0262982
906.440 .0262848
907.093 .0262704
907.746 .0262552
908.399 .0262394
909.051 .0262228
909.703 .0262058
910.354 .0261959
911.005 .0261786
911.656 .0261610
912.306 .0261431
912.956 .0261250
913.605 .0261068
914.254 .0260885
914.903 .0260701
915.551 .0260517
916.199 .0260334
916.847 .0260150
917.494 .0259967
918.141 .0259785
918.788 .0259602
919.434 .0259419
920.079 .0259234
920.725 .0259048
921.370 .0258859
922.014 .0258669
922.658 .0258476
923.302 .0258281
923.946 .0258085
924.589 .0257886
925.231 .0257686
925.873 .0257483
926.515 .0257277
927.157 .0257069
927.798 .0256856
928.439 .0256640
929.079 .0256421
929.719 .0256198
930.359 .0255973
930.998 .0255747
931.637 .0255519
932.275 .0255291
932.913 .0255064
933.551 .0254836
934.188 .0254610
934.825 .0254386
935.462 .0254162
936.098 .0253941
936.733 .0253723
937.369 .0253508
938.004 .0253297
938.638 .0253092
939.273 .0252893
939.907 .0252700
940.540 .0252515
941.173 .0252336
941.806 .0252164
942.438 .0251998
943.070 .0251838
943.702 .0251683
944.333 .0251532
944.964 .0251387
945.594 .0251246
946.224 .0251109
946.854 .0250976
947.483 .0250847
948.112 .0250721
948.741 .0250596
949.369 .0250473
949.996 .0250350
950.624 .0250227
951.251 .0250104
951.878 .0249981
952.504 .0249857
953.130 .0249734
953.755 .0249611
954.380 .0249490
955.005 .0249369
955.629 .0249250
956.253 .0249131
956.877 .0249012
957.500 .0248892
958.123 .0248773
958.746 .0248653
959.368 .0248534
959.990 .0248416
960.611 .0248298
961.232 .0248183
961.853 .0248068
962.473 .0247955
963.093 .0247843
963.712 .0247732
964.331 .0247622
964.950 .0247513
965.569 .0247406
966.187 .0247301
966.804 .0247199
967.422 .0247101
968.039 .0247006
968.655 .0246914
969.272 .0246826
969.887 .0246741
970.503 .0246658
971.118 .0246578
971.733 .0246499
972.347 .0246421
972.961 .0246345
973.575 .0246270
974.188 .0246195
974.801 .0246121
975.414 .0246045
976.026 .0245969
976.638 .0245892
977.250 .0245813
977.861 .0245733
978.472 .0245653
979.083 .0245571
979.693 .0245490
980.303 .0245408
980.912 .0245281
981.521 .0245200
982.130 .0245118
982.738 .0245037
983.346 .0244955
983.954 .0244873
984.562 .0244791
985.169 .0244710
985.775 .0244630
986.382 .0244553
986.988 .0244478
987.594 .0244406
988.199 .0244338
988.804 .0244274
989.409 .0244259
990.013 .0244204
990.617 .0244154
991.221 .0244109
991.824 .0244070
992.427 .0244038
993.030 .0244012
993.632 .0243992
994.234 .0243979
994.836 .0243972
995.438 .0243972
996.039 .0243976
996.640 .0243986
997.240 .0244000
997.840 .0244019
998.440 .0244043
999.040 .0244072
999.639 .0244105
1000.238 .0244143
1000.836 .0244185
1001.435 .0244232
1002.033 .0244283
1002.630 .0244337
1003.228 .0244394
1003.825 .0244453
1004.422 .0244515
1005.018 .0244579
1005.614 .0244644
1006.210 .0244710
1006.806 .0244776
1007.401 .0244843
1007.996 .0244910
1008.591 .0244977
1009.186 .0245043
1009.780 .0245110
1010.374 .0245176
1010.967 .0245243
1011.561 .0245310
1012.154 .0245380
1012.746 .0245451
1013.339 .0245526
1013.931 .0245605
1014.523 .0245687
1015.115 .0245775
1015.706 .0245866
1016.298 .0245963
1016.888 .0246063
1017.479 .0246168
1018.069 .0246277
1018.660 .0246389
1019.250 .0246505
1019.839 .0246624
1020.429 .0246747
1021.018 .0246872
1021.607 .0246999
1022.195 .0247129
1022.784 .0247260
1023.372 .0247392
1023.960 .0247525
1024.547 .0247659
1025.135 .0247793
1025.722 .0247929
1026.309 .0248067
1026.896 .0248206
1027.483 .0248348
1028.069 .0248491
1028.655 .0248634
1029.241 .0248777
1029.827 .0248919
1030.412 .0249060
1030.997 .0249198
1031.582 .0249333
1032.167 .0249466
1032.752 .0249597
1033.336 .0249726
1033.921 .0249852
1034.505 .0249977
1035.089 .0250101
1035.672 .0250222
1036.256 .0250340
1036.839 .0250455
1037.422 .0250567
1038.005 .0250675
1038.588 .0250780
1039.171 .0250883
1039.753 .0250982
1040.335 .0251081
1040.918 .0251178
1041.500 .0251275
1042.081 .0251371
1042.663 .0251467
1043.244 .0251562
1043.826 .0251655
1044.407 .0251746
1044.988 .0251835
1045.569 .0251922
1046.150 .0252007
1046.730 .0252089
1047.311 .0252170
1047.891 .0252249
1048.471 .0252326
1049.052 .0252401
1049.632 .0252474
1050.211 .0252544
1050.791 .0252610
1051.371 .0252673
1051.950 .0252732
1052.530 .0252787
1053.109 .0252838
1053.688 .0252886
1054.268 .0252932
1054.847 .0252976
1055.426 .0253019
1056.005 .0253059
1056.583 .0253099
1057.162 .0253136
1057.741 .0253172
1058.319 .0253204
1058.898 .0253234
1059.476 .0253261
1060.055 .0253284
1060.633 .0253305
1061.211 .0253323
1061.790 .0253338
1062.368 .0253352
1062.946 .0253364
1063.524 .0253376
1064.102 .0253387
1064.680 .0253398
1065.258 .0253410
1065.836 .0253421
1066.414 .0253431
1066.992 .0253440
1067.570 .0253449
1068.148 .0253458
1068.726 .0253467
1069.304 .0253475
1069.882 .0253483
1070.460 .0253490
1071.038 .0253497
1071.616 .0253503
1072.194 .0253507
1072.772 .0253509
1073.350 .0253508
1073.928 .0253504
1074.506 .0253496
1075.084 .0253485
1075.662 .0253471
1076.240 .0253455
1076.819 .0253437
1077.397 .0253416
1077.976 .0253394
1078.554 .0253370
1079.133 .0253344
1079.711 .0253315
1080.290 .0253286
1080.869 .0253255
1081.448 .0253224
1082.027 .0253194
1082.606 .0253166
1083.185 .0253141
1083.764 .0253120
1084.343 .0253102
1084.923 .0253089
1085.502 .0253079
1086.082 .0253074
1086.662 .0253073
1087.242 .0253078
1087.822 .0253088
1088.402 .0253104
1088.983 .0253127
1089.563 .0253159
1090.144 .0253201
1090.725 .0253251
1091.306 .0253311
1091.887 .0253378
1092.469 .0253453
1093.050 .0253534
1093.632 .0253621
1094.214 .0253713
1094.796 .0253810
1095.379 .0253913
1095.961 .0254023
1096.544 .0254141
1097.127 .0254267
1097.710 .0254400
1098.294 .0254540
1098.877 .0254684
1099.461 .0254831
1100.046 .0254979
1100.630 .0255130
1101.215 .0255283
1101.800 .0255439
1102.385 .0255598
1102.970 .0255762
1103.556 .0255930
1104.142 .0256103
1104.728 .0256280
1105.315 .0256459
1105.902 .0256638
1106.489 .0256816
1107.077 .0256994
1107.664 .0257175
1108.253 .0257362
1108.841 .0257557
1109.430 .0257762
1110.019 .0257981
1110.609 .0258213
1111.198 .0258458
1111.789 .0258715
1112.379 .0258981
1112.970 .0259253
1113.561 .0259531
1114.153 .0259814
1114.745 .0260101
1115.338 .0260395
1115.931 .0260697
1116.524 .0261007
1117.117 .0261324
1117.712 .0261648
1118.306 .0261977
1118.901 .0262310
1119.496 .0262649
1120.092 .0262993
1120.689 .0263343
1121.285 .0263703
1121.882 .0264077
1122.480 .0264469
1123.078 .0264882
1123.677 .0265323
1124.276 .0265794
1124.875 .0266299
1125.476 .0266837
1126.076 .0267410
1126.677 .0268018
1127.279 .0268661
1127.881 .0269338
1128.484 .0270049
1129.087 .0270301
1129.691 .0271058
1130.295 .0271850
1130.900 .0272678
1131.505 .0273539
1132.111 .0274432
1132.718 .0275351
1133.325 .0276294
1133.933 .0277257
1134.541 .0278287
1135.150 .0279345
1135.760 .0280234
1136.370 .0281249
1136.981 .0283180
1137.592 .0284549
1138.204 .0285877
1138.817 .0287179
1139.431 .0288465
1140.045 .0289739
1140.660 .0290859
1141.275 .0291943
1141.891 .0292966
1142.508 .0295220
1143.126 .0296385
1143.744 .0292018
1144.363 .0295896
1144.983 .0297918
