Measurement Sequence started on: 15-12-46-377
Integration time: 28
Scans to Average: 2 
>>>>>Begin Spectral Data<<<<<
432.689 .0000100
433.621 .0000100
434.552 .0000100
435.482 .0000100
436.410 .0000100
437.337 .0000100
438.262 .0288115
439.187 .0609076
440.110 .1006239
441.031 .1452440
441.952 .1148524
442.871 .1198196
443.789 .1244398
444.705 .1287845
445.621 .1329024
446.535 .1368313
447.447 .1390839
448.359 .1395098
449.269 .1377275
450.178 .1334941
451.086 .1269012
451.993 .1184583
452.898 .1089982
453.803 .0994581
454.706 .0906286
455.608 .0829923
456.508 .0767012
457.408 .0724839
458.306 .0692580
459.204 .0666351
460.100 .0644250
460.995 .0625261
461.888 .0608701
462.781 .0594110
463.673 .0581139
464.563 .0569524
465.452 .0559055
466.340 .0549547
467.228 .0540863
468.114 .0532890
468.999 .0525534
469.882 .0518728
470.765 .0512413
471.647 .0506561
472.528 .0501149
473.407 .0496163
474.286 .0491590
475.163 .0487422
476.040 .0483636
476.915 .0480207
477.790 .0477102
478.663 .0474296
479.535 .0471760
480.407 .0469470
481.277 .0467410
482.147 .0465563
483.015 .0463925
483.883 .0462494
484.749 .0461270
485.615 .0460255
486.479 .0459449
487.343 .0458844
488.206 .0458429
489.067 .0458183
489.928 .0458093
490.788 .0458144
491.647 .0458334
492.505 .0458669
493.362 .0459163
494.218 .0459840
495.073 .0460730
495.928 .0462949
496.781 .0464553
497.634 .0466458
498.486 .0468671
499.337 .0471209
500.187 .0474079
501.036 .0477291
501.884 .0480871
502.731 .0484857
503.578 .0489293
504.424 .0492564
505.268 .0497831
506.113 .0503673
506.956 .0510134
507.798 .0517265
508.640 .0525124
509.480 .0533781
510.320 .0543323
511.160 .0553859
511.998 .0565516
512.836 .0578457
513.672 .0592855
514.508 .0608917
515.344 .0626871
516.178 .0646952
517.012 .0669388
517.845 .0694409
518.677 .0722213
519.508 .0752945
520.339 .0786673
521.169 .0823439
521.998 .0863053
522.826 .0905161
523.654 .0949224
524.481 .0994571
525.307 .1040428
526.133 .1085893
526.958 .1129983
527.782 .1171753
528.605 .1210349
529.428 .1245017
530.250 .1275059
531.072 .1300041
531.892 .1319631
532.712 .1333596
533.532 .1341802
534.350 .1344188
535.168 .1340770
535.986 .1331618
536.802 .1316822
537.618 .1296480
538.434 .1270702
539.249 .1239846
540.063 .1204399
540.876 .1165023
541.689 .1122507
542.501 .1077702
543.313 .1031564
544.124 .0985100
544.934 .0939230
545.744 .0894734
546.553 .0852266
547.361 .0812395
548.169 .0775400
548.976 .0741429
549.783 .0710508
550.589 .0682560
551.395 .0657433
552.200 .0634892
553.004 .0614662
553.808 .0596496
554.611 .0580189
555.414 .0565542
556.216 .0552340
557.018 .0540384
557.819 .0529498
558.619 .0519508
559.419 .0510285
560.218 .0501711
561.017 .0493677
561.815 .0486110
562.613 .0478961
563.410 .0472178
564.207 .0465701
565.003 .0459484
565.799 .0453488
566.594 .0447671
567.388 .0442001
568.182 .0436445
568.976 .0430985
569.769 .0425614
570.562 .0420327
571.354 .0415128
572.145 .0410033
572.936 .0405058
573.727 .0400219
574.517 .0395532
575.307 .0391013
576.096 .0386667
576.885 .0382496
577.673 .0378506
578.461 .0374696
579.248 .0371064
580.035 .0367611
580.821 .0364338
581.607 .0361251
582.392 .0358350
583.177 .0355636
583.962 .0353111
584.746 .0350773
585.529 .0348615
586.313 .0346627
587.095 .0344798
587.878 .0343118
588.660 .0341571
589.441 .0340146
590.222 .0338835
591.003 .0337629
591.783 .0336519
592.563 .0335495
593.342 .0334548
594.121 .0333669
594.899 .0332849
595.678 .0332079
596.455 .0331352
597.233 .0330662
598.009 .0330005
598.786 .0329377
599.562 .0328775
600.338 .0328199
601.113 .0327644
601.888 .0326880
602.663 .0326373
603.437 .0325881
604.211 .0325404
604.984 .0324940
605.757 .0324488
606.530 .0324047
607.302 .0323618
608.074 .0323201
608.845 .0322797
609.616 .0322406
610.387 .0322237
611.158 .0321865
611.928 .0321507
612.697 .0321162
613.467 .0320829
614.236 .0320509
615.004 .0320201
615.773 .0319905
616.541 .0319621
617.308 .0319348
618.076 .0319085
618.843 .0318831
619.609 .0318586
620.375 .0318349
621.141 .0318118
621.907 .0317893
622.672 .0317672
623.437 .0317454
624.202 .0317239
624.966 .0317024
625.730 .0316808
626.493 .0316590
627.257 .0316370
628.020 .0316145
628.782 .0315917
629.545 .0315684
630.307 .0315446
631.068 .0315204
631.830 .0314956
632.591 .0314702
633.352 .0314444
634.112 .0314180
634.872 .0313912
635.632 .0313640
636.392 .0313365
637.151 .0313088
637.910 .0312810
638.668 .0312532
639.427 .0312254
640.185 .0311977
640.943 .0311701
641.700 .0311426
642.457 .0311153
643.214 .0310882
643.971 .0310612
644.727 .0310346
645.483 .0310082
646.239 .0309821
646.994 .0309563
647.750 .0309308
648.505 .0309055
649.259 .0308803
650.014 .0308552
650.768 .0308300
651.521 .0308047
652.275 .0307793
653.028 .0307537
653.781 .0307278
654.534 .0307017
655.286 .0306754
656.039 .0306488
656.791 .0306220
657.542 .0305952
658.294 .0305683
659.045 .0305415
659.796 .0305150
660.546 .0304888
661.297 .0304631
662.047 .0304378
662.796 .0304130
663.546 .0303888
664.295 .0303651
665.044 .0303420
665.793 .0303194
666.542 .0302974
667.290 .0302761
668.038 .0302555
668.786 .0302356
669.533 .0302165
670.281 .0301980
671.028 .0301801
671.774 .0301627
672.521 .0301457
673.267 .0301291
674.013 .0301127
674.759 .0300966
675.505 .0300808
676.250 .0300651
676.995 .0300496
677.740 .0300342
678.484 .0300189
679.229 .0300036
679.973 .0299881
680.717 .0299726
681.460 .0299570
682.204 .0299412
682.947 .0299253
683.690 .0299093
684.433 .0298932
685.175 .0298769
685.917 .0298606
686.659 .0298442
687.401 .0298277
688.142 .0298112
688.884 .0297946
689.625 .0297781
690.365 .0297617
691.106 .0297455
691.846 .0297293
692.586 .0297133
693.326 .0296974
694.066 .0296816
694.805 .0296660
695.545 .0296504
696.284 .0296349
697.022 .0296195
697.761 .0296041
698.499 .0295889
699.237 .0295738
699.975 .0295587
700.713 .0295438
701.450 .0295289
702.187 .0295141
702.924 .0294994
703.661 .0294847
704.397 .0294700
705.133 .0294552
705.869 .0294405
706.605 .0294257
707.341 .0294107
708.076 .0293957
708.811 .0293804
709.546 .0293649
710.281 .0293492
711.015 .0293331
711.749 .0293167
712.483 .0293001
713.217 .0292830
713.950 .0292657
714.684 .0292481
715.417 .0292302
716.150 .0292122
716.882 .0291940
717.615 .0291756
718.347 .0291570
719.079 .0291382
719.811 .0291192
720.542 .0291000
721.273 .0290806
722.005 .0290610
722.735 .0290413
723.466 .0290215
724.196 .0290017
724.927 .0289818
725.656 .0289621
726.386 .0289424
727.116 .0289228
727.845 .0289033
728.574 .0288839
729.303 .0288647
730.031 .0288457
730.760 .0288269
731.488 .0288084
732.216 .0287902
732.944 .0287723
733.671 .0287546
734.398 .0287373
735.125 .0287203
735.852 .0287036
736.579 .0286872
737.305 .0286712
738.031 .0286554
738.757 .0286400
739.483 .0286249
740.208 .0286100
740.933 .0285954
741.658 .0285809
742.383 .0285665
743.108 .0285522
743.832 .0285378
744.556 .0285235
745.280 .0285092
746.004 .0284947
746.727 .0284801
747.450 .0284654
748.173 .0284504
748.896 .0284351
749.618 .0284194
750.340 .0284033
751.062 .0283866
751.784 .0283694
752.506 .0283518
753.227 .0283337
753.948 .0283153
754.669 .0282967
755.389 .0282778
756.110 .0282589
756.830 .0282398
757.550 .0282208
758.269 .0282018
758.989 .0281829
759.708 .0281641
760.427 .0281453
761.146 .0281268
761.864 .0281084
762.582 .0280903
763.300 .0280725
764.018 .0280549
764.736 .0280376
765.453 .0280206
766.170 .0280040
766.887 .0279876
767.603 .0279717
768.320 .0279562
769.036 .0279411
769.751 .0279265
770.467 .0279124
771.182 .0278988
771.897 .0278858
772.612 .0278734
773.327 .0278616
774.041 .0278504
774.755 .0278399
775.469 .0278301
776.183 .0278211
776.896 .0278129
777.609 .0278056
778.322 .0277991
779.035 .0277934
779.747 .0277884
780.459 .0277843
781.171 .0277808
781.882 .0277780
782.594 .0277758
783.305 .0277741
784.016 .0277730
784.726 .0277723
785.436 .0277720
786.147 .0277719
786.856 .0277718
787.566 .0277718
788.275 .0277717
788.984 .0277715
789.693 .0277710
790.401 .0277703
791.110 .0277692
791.818 .0277678
792.525 .0277659
793.233 .0277636
793.940 .0277608
794.647 .0277581
795.353 .0277547
796.060 .0277510
796.766 .0277469
797.472 .0277424
798.177 .0277376
798.883 .0277325
799.588 .0277270
800.292 .0277213
800.997 .0277154
801.701 .0277093
802.405 .0277030
803.109 .0276966
803.812 .0276899
804.515 .0276831
805.218 .0276760
805.921 .0276687
806.623 .0276610
807.325 .0276531
808.027 .0276449
808.728 .0276364
809.429 .0276277
810.130 .0276187
810.831 .0276097
811.531 .0276005
812.231 .0275912
812.931 .0275817
813.630 .0275722
814.330 .0275626
815.029 .0275529
815.727 .0275432
816.426 .0275335
817.124 .0275239
817.821 .0275145
818.519 .0275052
819.216 .0274962
819.913 .0274874
820.609 .0274788
821.306 .0274705
822.002 .0274624
822.697 .0274545
823.393 .0274468
824.088 .0274393
824.783 .0274320
825.477 .0274249
826.171 .0274181
826.865 .0274115
827.559 .0274051
828.252 .0273988
828.945 .0273927
829.638 .0273865
830.330 .0273804
831.023 .0273742
831.714 .0273680
832.406 .0273616
833.097 .0273551
833.788 .0273485
834.479 .0273416
835.169 .0273344
835.859 .0273270
836.548 .0273191
837.238 .0273107
837.927 .0273019
838.615 .0272925
839.304 .0272827
839.992 .0272723
840.680 .0272614
841.367 .0272501
842.054 .0272383
842.741 .0272260
843.428 .0272133
844.114 .0272000
844.800 .0271862
845.485 .0271719
846.170 .0271570
846.855 .0271415
847.540 .0271254
848.224 .0271086
848.908 .0270913
849.592 .0270733
850.275 .0270548
850.958 .0270356
851.641 .0270159
852.323 .0269957
853.005 .0269749
853.687 .0269538
854.368 .0269323
855.049 .0269105
855.730 .0268884
856.410 .0268660
857.090 .0268434
857.769 .0268206
858.449 .0267977
859.128 .0267745
859.806 .0267513
860.485 .0267280
861.163 .0267047
861.840 .0266816
862.518 .0266586
863.195 .0266359
863.871 .0266134
864.548 .0265912
865.224 .0265693
865.899 .0265477
866.574 .0265264
867.249 .0265054
867.924 .0264848
868.598 .0264646
869.272 .0264449
869.946 .0264256
870.619 .0264069
871.292 .0263887
871.964 .0263709
872.636 .0263537
873.308 .0263370
873.979 .0263208
874.651 .0263051
875.321 .0262899
875.992 .0262753
876.662 .0262611
877.331 .0262474
878.001 .0262341
878.670 .0262213
879.338 .0262089
880.007 .0261970
880.675 .0261856
881.342 .0261747
882.009 .0261644
882.676 .0261547
883.343 .0261455
884.009 .0261368
884.675 .0261286
885.340 .0261210
886.005 .0261139
886.670 .0261072
887.334 .0261011
887.998 .0260956
888.662 .0260905
889.325 .0260861
889.988 .0260822
890.650 .0260788
891.312 .0260759
891.974 .0260735
892.636 .0260716
893.297 .0260701
893.957 .0260689
894.618 .0260682
895.278 .0260676
895.937 .0260673
896.596 .0260670
897.255 .0260666
897.914 .0260662
898.572 .0260655
899.230 .0260645
899.887 .0260633
900.544 .0260617
901.201 .0260596
901.857 .0260539
902.513 .0260503
903.168 .0260462
903.823 .0260414
904.478 .0260360
905.132 .0260299
905.786 .0260232
906.440 .0260159
907.093 .0260081
907.746 .0259999
908.399 .0259913
909.051 .0259824
909.703 .0259731
910.354 .0259679
911.005 .0259586
911.656 .0259492
912.306 .0259397
912.956 .0259302
913.605 .0259207
914.254 .0259113
914.903 .0259021
915.551 .0258929
916.199 .0258840
916.847 .0258751
917.494 .0258665
918.141 .0258581
918.788 .0258498
919.434 .0258419
920.079 .0258341
920.725 .0258266
921.370 .0258193
922.014 .0258122
922.658 .0258052
923.302 .0257983
923.946 .0257916
924.589 .0257850
925.231 .0257785
925.873 .0257722
926.515 .0257661
927.157 .0257602
927.798 .0257545
928.439 .0257489
929.079 .0257435
929.719 .0257382
930.359 .0257330
930.998 .0257280
931.637 .0257232
932.275 .0257187
932.913 .0257144
933.551 .0257104
934.188 .0257067
934.825 .0257034
935.462 .0257004
936.098 .0256978
936.733 .0256955
937.369 .0256936
938.004 .0256919
938.638 .0256906
939.273 .0256896
939.907 .0256890
940.540 .0256889
941.173 .0256890
941.806 .0256896
942.438 .0256904
943.070 .0256914
943.702 .0256926
944.333 .0256938
944.964 .0256951
945.594 .0256963
946.224 .0256974
946.854 .0256983
947.483 .0256992
948.112 .0256998
948.741 .0257003
949.369 .0257006
949.996 .0257006
950.624 .0257003
951.251 .0256996
951.878 .0256986
952.504 .0256971
953.130 .0256952
953.755 .0256929
954.380 .0256903
955.005 .0256872
955.629 .0256839
956.253 .0256803
956.877 .0256763
957.500 .0256720
958.123 .0256674
958.746 .0256625
959.368 .0256572
959.990 .0256516
960.611 .0256458
961.232 .0256399
961.853 .0256339
962.473 .0256279
963.093 .0256219
963.712 .0256159
964.331 .0256099
964.950 .0256039
965.569 .0255979
966.187 .0255919
966.804 .0255857
967.422 .0255795
968.039 .0255732
968.655 .0255669
969.272 .0255604
969.887 .0255538
970.503 .0255470
971.118 .0255400
971.733 .0255326
972.347 .0255249
972.961 .0255168
973.575 .0255083
974.188 .0254993
974.801 .0254898
975.414 .0254799
976.026 .0254694
976.638 .0254583
977.250 .0254467
977.861 .0254344
978.472 .0254214
979.083 .0254078
979.693 .0253935
980.303 .0253786
980.912 .0253539
981.521 .0253379
982.130 .0253215
982.738 .0253046
983.346 .0252874
983.954 .0252699
984.562 .0252522
985.169 .0252344
985.775 .0252166
986.382 .0251989
986.988 .0251814
987.594 .0251641
988.199 .0251471
988.804 .0251303
989.409 .0251230
990.013 .0251066
990.617 .0250904
991.221 .0250743
991.824 .0250584
992.427 .0250428
993.030 .0250274
993.632 .0250123
994.234 .0249975
994.836 .0249830
995.438 .0249688
996.039 .0249549
996.640 .0249413
997.240 .0249279
997.840 .0249148
998.440 .0249018
999.040 .0248892
999.639 .0248768
1000.238 .0248647
1000.836 .0248529
1001.435 .0248414
1002.033 .0248302
1002.630 .0248192
1003.228 .0248083
1003.825 .0247974
1004.422 .0247866
1005.018 .0247757
1005.614 .0247649
1006.210 .0247541
1006.806 .0247433
1007.401 .0247328
1007.996 .0247224
1008.591 .0247122
1009.186 .0247024
1009.780 .0246929
1010.374 .0246836
1010.967 .0246746
1011.561 .0246658
1012.154 .0246572
1012.746 .0246487
1013.339 .0246403
1013.931 .0246321
1014.523 .0246240
1015.115 .0246161
1015.706 .0246083
1016.298 .0246008
1016.888 .0245934
1017.479 .0245862
1018.069 .0245792
1018.660 .0245723
1019.250 .0245655
1019.839 .0245588
1020.429 .0245524
1021.018 .0245462
1021.607 .0245404
1022.195 .0245349
1022.784 .0245298
1023.372 .0245251
1023.960 .0245208
1024.547 .0245169
1025.135 .0245134
1025.722 .0245101
1026.309 .0245070
1026.896 .0245040
1027.483 .0245012
1028.069 .0244986
1028.655 .0244962
1029.241 .0244940
1029.827 .0244921
1030.412 .0244903
1030.997 .0244889
1031.582 .0244877
1032.167 .0244867
1032.752 .0244860
1033.336 .0244855
1033.921 .0244852
1034.505 .0244852
1035.089 .0244853
1035.672 .0244855
1036.256 .0244859
1036.839 .0244862
1037.422 .0244864
1038.005 .0244866
1038.588 .0244865
1039.171 .0244863
1039.753 .0244858
1040.335 .0244851
1040.918 .0244842
1041.500 .0244830
1042.081 .0244816
1042.663 .0244799
1043.244 .0244780
1043.826 .0244759
1044.407 .0244734
1044.988 .0244707
1045.569 .0244678
1046.150 .0244647
1046.730 .0244613
1047.311 .0244578
1047.891 .0244541
1048.471 .0244502
1049.052 .0244462
1049.632 .0244420
1050.211 .0244376
1050.791 .0244331
1051.371 .0244285
1051.950 .0244239
1052.530 .0244193
1053.109 .0244148
1053.688 .0244105
1054.268 .0244064
1054.847 .0244025
1055.426 .0243989
1056.005 .0243957
1056.583 .0243929
1057.162 .0243905
1057.741 .0243886
1058.319 .0243872
1058.898 .0243863
1059.476 .0243858
1060.055 .0243858
1060.633 .0243864
1061.211 .0243875
1061.790 .0243891
1062.368 .0243914
1062.946 .0243943
1063.524 .0243978
1064.102 .0244021
1064.680 .0244070
1065.258 .0244126
1065.836 .0244187
1066.414 .0244253
1066.992 .0244324
1067.570 .0244397
1068.148 .0244473
1068.726 .0244551
1069.304 .0244630
1069.882 .0244711
1070.460 .0244793
1071.038 .0244877
1071.616 .0244963
1072.194 .0245049
1072.772 .0245135
1073.350 .0245218
1073.928 .0245299
1074.506 .0245376
1075.084 .0245451
1075.662 .0245524
1076.240 .0245597
1076.819 .0245671
1077.397 .0245748
1077.976 .0245829
1078.554 .0245916
1079.133 .0246008
1079.711 .0246105
1080.290 .0246206
1080.869 .0246312
1081.448 .0246422
1082.027 .0246535
1082.606 .0246653
1083.185 .0246775
1083.764 .0246902
1084.343 .0247036
1084.923 .0247176
1085.502 .0247323
1086.082 .0247475
1086.662 .0247633
1087.242 .0247796
1087.822 .0247965
1088.402 .0248139
1088.983 .0248320
1089.563 .0248508
1090.144 .0248701
1090.725 .0248902
1091.306 .0249110
1091.887 .0249324
1092.469 .0249543
1093.050 .0249768
1093.632 .0249996
1094.214 .0250229
1094.796 .0250463
1095.379 .0250700
1095.961 .0250938
1096.544 .0251178
1097.127 .0251419
1097.710 .0251661
1098.294 .0251904
1098.877 .0252149
1099.461 .0252395
1100.046 .0252644
1100.630 .0252896
1101.215 .0253150
1101.800 .0253409
1102.385 .0253675
1102.970 .0253948
1103.556 .0254232
1104.142 .0254527
1104.728 .0254837
1105.315 .0255161
1105.902 .0255502
1106.489 .0255859
1107.077 .0256234
1107.664 .0256625
1108.253 .0257032
1108.841 .0257453
1109.430 .0257887
1110.019 .0258335
1110.609 .0258793
1111.198 .0259262
1111.789 .0259741
1112.379 .0260228
1112.970 .0260725
1113.561 .0261228
1114.153 .0261739
1114.745 .0262257
1115.338 .0262781
1115.931 .0263310
1116.524 .0263847
1117.117 .0264389
1117.712 .0264938
1118.306 .0265495
1118.901 .0266060
1119.496 .0266632
1120.092 .0267212
1120.689 .0267800
1121.285 .0268396
1121.882 .0268999
1122.480 .0269608
1123.078 .0270219
1123.677 .0270832
1124.276 .0271443
1124.875 .0272051
1125.476 .0272655
1126.076 .0273257
1126.677 .0273854
1127.279 .0274452
1127.881 .0275053
1128.484 .0275659
1129.087 .0275948
1129.691 .0276563
1130.295 .0277186
1130.900 .0277818
1131.505 .0278458
1132.111 .0279110
1132.718 .0279777
1133.325 .0280463
1133.933 .0281168
1134.541 .0281859
1135.150 .0282650
1135.760 .0283492
1136.370 .0284303
1136.981 .0284574
1137.592 .0285331
1138.204 .0286100
1138.817 .0286845
1139.431 .0287579
1140.045 .0288381
1140.660 .0289274
1141.275 .0290250
1141.891 .0291283
1142.508 .0291407
1143.126 .0294705
1143.744 .0296726
1144.363 .0296454
1144.983 .0295851
