Measurement Sequence started on: 15-12-46-377
Integration time: 28
Scans to Average: 2 
>>>>>Begin Spectral Data<<<<<
432.689 .0000100
433.621 .0000100
434.552 .0000100
435.482 .0000100
436.410 .0000100
437.337 .0000100
438.262 .0287489
439.187 .0610556
440.110 .1011476
441.031 .1463850
441.952 .1172425
442.871 .1224245
443.789 .1272493
444.705 .1317917
445.621 .1361022
446.535 .1402192
447.447 .1426582
448.359 .1432523
449.269 .1416097
450.178 .1374738
451.086 .1309272
451.993 .1224732
452.898 .1129447
453.803 .1032858
454.706 .0943021
455.608 .0864920
456.508 .0800230
457.408 .0756317
458.306 .0722510
459.204 .0694871
460.100 .0671469
460.995 .0651205
461.888 .0633360
462.781 .0617457
463.673 .0603149
464.563 .0590185
465.452 .0578390
466.340 .0567611
467.228 .0557739
468.114 .0548675
468.999 .0540345
469.882 .0532671
470.765 .0525605
471.647 .0519102
472.528 .0513135
473.407 .0507667
474.286 .0502677
475.163 .0498147
476.040 .0494059
476.915 .0490392
477.790 .0487124
478.663 .0484234
479.535 .0481699
480.407 .0479494
481.277 .0477596
482.147 .0475975
483.015 .0474615
483.883 .0473493
484.749 .0472594
485.615 .0471909
486.479 .0471433
487.343 .0471160
488.206 .0471094
489.067 .0471234
489.928 .0471588
490.788 .0472163
491.647 .0472973
492.505 .0474023
493.362 .0475327
494.218 .0476891
495.073 .0478722
495.928 .0482470
496.781 .0484977
497.634 .0487747
498.486 .0490780
499.337 .0494082
500.187 .0497664
501.036 .0501544
501.884 .0505740
502.731 .0510277
503.578 .0515181
504.424 .0518350
505.268 .0523879
506.113 .0529832
506.956 .0536235
507.798 .0543134
508.640 .0550586
509.480 .0558679
510.320 .0567523
511.160 .0577251
511.998 .0588013
512.836 .0599981
513.672 .0613324
514.508 .0628246
515.344 .0644936
516.178 .0663603
517.012 .0684471
517.845 .0707779
518.677 .0733748
519.508 .0762582
520.339 .0794405
521.169 .0829263
521.998 .0866979
522.826 .0907234
523.654 .0949487
524.481 .0993065
525.307 .1037155
526.133 .1080849
526.958 .1123189
527.782 .1163255
528.605 .1200199
529.428 .1233314
530.250 .1262001
531.072 .1285865
531.892 .1304587
532.712 .1317998
533.532 .1326000
534.350 .1328558
535.168 .1325665
535.986 .1317324
536.802 .1303546
537.618 .1284388
538.434 .1259960
539.249 .1230599
540.063 .1196779
540.876 .1159154
541.689 .1118500
542.501 .1075685
543.313 .1031629
544.124 .0987256
544.934 .0943432
545.744 .0900907
546.553 .0860278
547.361 .0822013
548.169 .0786381
548.976 .0753542
549.783 .0723522
550.589 .0696243
551.395 .0671541
552.200 .0649198
553.004 .0628985
553.808 .0610669
554.611 .0594045
555.414 .0578925
556.216 .0565122
557.018 .0552458
557.819 .0540785
558.619 .0529953
559.419 .0519853
560.218 .0510404
561.017 .0501538
561.815 .0493188
562.613 .0485314
563.410 .0477871
564.207 .0470819
565.003 .0464117
565.799 .0457717
566.594 .0451574
567.388 .0445658
568.182 .0439933
568.976 .0434374
569.769 .0428961
570.562 .0423691
571.354 .0418557
572.145 .0413565
572.936 .0408718
573.727 .0404017
574.517 .0399469
575.307 .0395085
576.096 .0390868
576.885 .0386824
577.673 .0382957
578.461 .0379273
579.248 .0375771
580.035 .0372449
580.821 .0369300
581.607 .0366323
582.392 .0363517
583.177 .0360880
583.962 .0358410
584.746 .0356107
585.529 .0353969
586.313 .0351988
587.095 .0350160
587.878 .0348473
588.660 .0346919
589.441 .0345488
590.222 .0344168
591.003 .0342950
591.783 .0341824
592.563 .0340783
593.342 .0339816
594.121 .0338917
594.899 .0338078
595.678 .0337291
596.455 .0336551
597.233 .0335853
598.009 .0335194
598.786 .0334567
599.562 .0333970
600.338 .0333397
601.113 .0332844
601.888 .0332069
602.663 .0331558
603.437 .0331062
604.211 .0330582
604.984 .0330116
605.757 .0329663
606.530 .0329224
607.302 .0328796
608.074 .0328381
608.845 .0327976
609.616 .0327583
610.387 .0327412
611.158 .0327033
611.928 .0326666
612.697 .0326308
613.467 .0325962
614.236 .0325626
615.004 .0325299
615.773 .0324981
616.541 .0324672
617.308 .0324371
618.076 .0324077
618.843 .0323790
619.609 .0323510
620.375 .0323236
621.141 .0322968
621.907 .0322704
622.672 .0322444
623.437 .0322187
624.202 .0321935
624.966 .0321687
625.730 .0321443
626.493 .0321203
627.257 .0320968
628.020 .0320735
628.782 .0320505
629.545 .0320277
630.307 .0320050
631.068 .0319822
631.830 .0319594
632.591 .0319367
633.352 .0319142
634.112 .0318918
634.872 .0318698
635.632 .0318480
636.392 .0318265
637.151 .0318052
637.910 .0317841
638.668 .0317630
639.427 .0317419
640.185 .0317207
640.943 .0316995
641.700 .0316782
642.457 .0316569
643.214 .0316356
643.971 .0316143
644.727 .0315930
645.483 .0315717
646.239 .0315502
646.994 .0315287
647.750 .0315069
648.505 .0314848
649.259 .0314623
650.014 .0314393
650.768 .0314158
651.521 .0313918
652.275 .0313670
653.028 .0313417
653.781 .0313157
654.534 .0312890
655.286 .0312616
656.039 .0312336
656.791 .0312051
657.542 .0311761
658.294 .0311467
659.045 .0311170
659.796 .0310872
660.546 .0310574
661.297 .0310275
662.047 .0309978
662.796 .0309683
663.546 .0309391
664.295 .0309102
665.044 .0308817
665.793 .0308539
666.542 .0308266
667.290 .0308001
668.038 .0307743
668.786 .0307492
669.533 .0307248
670.281 .0307009
671.028 .0306774
671.774 .0306542
672.521 .0306313
673.267 .0306086
674.013 .0305861
674.759 .0305637
675.505 .0305414
676.250 .0305191
676.995 .0304967
677.740 .0304742
678.484 .0304515
679.229 .0304285
679.973 .0304052
680.717 .0303815
681.460 .0303576
682.204 .0303333
682.947 .0303087
683.690 .0302839
684.433 .0302589
685.175 .0302336
685.917 .0302082
686.659 .0301827
687.401 .0301573
688.142 .0301320
688.884 .0301071
689.625 .0300825
690.365 .0300584
691.106 .0300349
691.846 .0300120
692.586 .0299896
693.326 .0299679
694.066 .0299468
694.805 .0299263
695.545 .0299065
696.284 .0298874
697.022 .0298690
697.761 .0298514
698.499 .0298344
699.237 .0298181
699.975 .0298024
700.713 .0297873
701.450 .0297727
702.187 .0297586
702.924 .0297448
703.661 .0297313
704.397 .0297182
705.133 .0297053
705.869 .0296926
706.605 .0296802
707.341 .0296679
708.076 .0296557
708.811 .0296436
709.546 .0296316
710.281 .0296196
711.015 .0296076
711.749 .0295954
712.483 .0295832
713.217 .0295708
713.950 .0295582
714.684 .0295454
715.417 .0295325
716.150 .0295193
716.882 .0295059
717.615 .0294922
718.347 .0294782
719.079 .0294640
719.811 .0294495
720.542 .0294348
721.273 .0294198
722.005 .0294046
722.735 .0293892
723.466 .0293736
724.196 .0293580
724.927 .0293422
725.656 .0293263
726.386 .0293102
727.116 .0292942
727.845 .0292781
728.574 .0292621
729.303 .0292463
730.031 .0292307
730.760 .0292155
731.488 .0292006
732.216 .0291862
732.944 .0291722
733.671 .0291586
734.398 .0291455
735.125 .0291328
735.852 .0291206
736.579 .0291089
737.305 .0290977
738.031 .0290869
738.757 .0290765
739.483 .0290665
740.208 .0290567
740.933 .0290470
741.658 .0290375
742.383 .0290279
743.108 .0290183
743.832 .0290086
744.556 .0289986
745.280 .0289885
746.004 .0289779
746.727 .0289669
747.450 .0289554
748.173 .0289432
748.896 .0289303
749.618 .0289167
750.340 .0289023
751.062 .0288872
751.784 .0288713
752.506 .0288546
753.227 .0288373
753.948 .0288193
754.669 .0288005
755.389 .0287811
756.110 .0287610
756.830 .0287402
757.550 .0287188
758.269 .0286969
758.989 .0286744
759.708 .0286516
760.427 .0286283
761.146 .0286047
761.864 .0285808
762.582 .0285566
763.300 .0285323
764.018 .0285078
764.736 .0284833
765.453 .0284588
766.170 .0284344
766.887 .0284103
767.603 .0283864
768.320 .0283630
769.036 .0283399
769.751 .0283174
770.467 .0282955
771.182 .0282742
771.897 .0282536
772.612 .0282337
773.327 .0282146
774.041 .0281964
774.755 .0281790
775.469 .0281624
776.183 .0281467
776.896 .0281319
777.609 .0281178
778.322 .0281045
779.035 .0280920
779.747 .0280800
780.459 .0280686
781.171 .0280578
781.882 .0280474
782.594 .0280375
783.305 .0280278
784.016 .0280185
784.726 .0280093
785.436 .0280004
786.147 .0279868
786.856 .0279780
787.566 .0279691
788.275 .0279603
788.984 .0279513
789.693 .0279423
790.401 .0279332
791.110 .0279239
791.818 .0279145
792.525 .0279050
793.233 .0278955
793.940 .0278859
794.647 .0278812
795.353 .0278717
796.060 .0278623
796.766 .0278529
797.472 .0278435
798.177 .0278342
798.883 .0278248
799.588 .0278155
800.292 .0278063
800.997 .0277971
801.701 .0277881
802.405 .0277791
803.109 .0277704
803.812 .0277617
804.515 .0277532
805.218 .0277448
805.921 .0277365
806.623 .0277283
807.325 .0277200
808.027 .0277119
808.728 .0277038
809.429 .0276958
810.130 .0276879
810.831 .0276803
811.531 .0276728
812.231 .0276656
812.931 .0276586
813.630 .0276519
814.330 .0276455
815.029 .0276395
815.727 .0276339
816.426 .0276286
817.124 .0276239
817.821 .0276196
818.519 .0276159
819.216 .0276127
819.913 .0276100
820.609 .0276080
821.306 .0276064
822.002 .0276054
822.697 .0276048
823.393 .0276048
824.088 .0276052
824.783 .0276061
825.477 .0276073
826.171 .0276089
826.865 .0276108
827.559 .0276129
828.252 .0276151
828.945 .0276174
829.638 .0276197
830.330 .0276219
831.023 .0276241
831.714 .0276261
832.406 .0276280
833.097 .0276297
833.788 .0276312
834.479 .0276325
835.169 .0276335
835.859 .0276342
836.548 .0276347
837.238 .0276350
837.927 .0276349
838.615 .0276344
839.304 .0276336
839.992 .0276324
840.680 .0276307
841.367 .0276286
842.054 .0276261
842.741 .0276231
843.428 .0276197
844.114 .0276158
844.800 .0276114
845.485 .0276063
846.170 .0276006
846.855 .0275942
847.540 .0275869
848.224 .0275787
848.908 .0275697
849.592 .0275597
850.275 .0275488
850.958 .0275369
851.641 .0275242
852.323 .0275105
853.005 .0274960
853.687 .0274806
854.368 .0274642
855.049 .0274469
855.730 .0274288
856.410 .0274099
857.090 .0273903
857.769 .0273701
858.449 .0273493
859.128 .0273280
859.806 .0273063
860.485 .0272843
861.163 .0272620
861.840 .0272394
862.518 .0272166
863.195 .0271937
863.871 .0271707
864.548 .0271478
865.224 .0271250
865.899 .0271024
866.574 .0270799
867.249 .0270577
867.924 .0270357
868.598 .0270139
869.272 .0269922
869.946 .0269708
870.619 .0269495
871.292 .0269284
871.964 .0269075
872.636 .0268868
873.308 .0268662
873.979 .0268457
874.651 .0268254
875.321 .0268051
875.992 .0267849
876.662 .0267648
877.331 .0267449
878.001 .0267250
878.670 .0267054
879.338 .0266861
880.007 .0266671
880.675 .0266485
881.342 .0266303
882.009 .0266127
882.676 .0265956
883.343 .0265790
884.009 .0265631
884.675 .0265478
885.340 .0265331
886.005 .0265191
886.670 .0265056
887.334 .0264928
887.998 .0264804
888.662 .0264686
889.325 .0264573
889.988 .0264465
890.650 .0264361
891.312 .0264261
891.974 .0264164
892.636 .0264070
893.297 .0263977
893.957 .0263885
894.618 .0263794
895.278 .0263702
895.937 .0263608
896.596 .0263512
897.255 .0263413
897.914 .0263309
898.572 .0263201
899.230 .0263086
899.887 .0262964
900.544 .0262835
901.201 .0262698
901.857 .0262455
902.513 .0262297
903.168 .0262131
903.823 .0261957
904.478 .0261776
905.132 .0261588
905.786 .0261393
906.440 .0261194
907.093 .0260989
907.746 .0260781
908.399 .0260571
909.051 .0260360
909.703 .0260149
910.354 .0260045
911.005 .0259838
911.656 .0259634
912.306 .0259432
912.956 .0259234
913.605 .0259039
914.254 .0258848
914.903 .0258662
915.551 .0258480
916.199 .0258303
916.847 .0258131
917.494 .0257964
918.141 .0257802
918.788 .0257645
919.434 .0257492
920.079 .0257343
920.725 .0257198
921.370 .0257056
922.014 .0256918
922.658 .0256782
923.302 .0256650
923.946 .0256520
924.589 .0256392
925.231 .0256267
925.873 .0256143
926.515 .0256020
927.157 .0255898
927.798 .0255778
928.439 .0255659
929.079 .0255542
929.719 .0255428
930.359 .0255316
930.998 .0255208
931.637 .0255104
932.275 .0255004
932.913 .0254910
933.551 .0254821
934.188 .0254739
934.825 .0254664
935.462 .0254597
936.098 .0254538
936.733 .0254489
937.369 .0254449
938.004 .0254418
938.638 .0254397
939.273 .0254386
939.907 .0254385
940.540 .0254394
941.173 .0254412
941.806 .0254440
942.438 .0254477
943.070 .0254523
943.702 .0254576
944.333 .0254637
944.964 .0254703
945.594 .0254773
946.224 .0254847
946.854 .0254923
947.483 .0255001
948.112 .0255079
948.741 .0255157
949.369 .0255234
949.996 .0255310
950.624 .0255385
951.251 .0255457
951.878 .0255527
952.504 .0255595
953.130 .0255658
953.755 .0255718
954.380 .0255774
955.005 .0255826
955.629 .0255875
956.253 .0255919
956.877 .0255960
957.500 .0255997
958.123 .0256031
958.746 .0256061
959.368 .0256090
959.990 .0256116
960.611 .0256140
961.232 .0256164
961.853 .0256187
962.473 .0256210
963.093 .0256234
963.712 .0256258
964.331 .0256283
964.950 .0256309
965.569 .0256337
966.187 .0256366
966.804 .0256396
967.422 .0256427
968.039 .0256459
968.655 .0256490
969.272 .0256521
969.887 .0256551
970.503 .0256580
971.118 .0256607
971.733 .0256633
972.347 .0256656
972.961 .0256677
973.575 .0256693
974.188 .0256705
974.801 .0256713
975.414 .0256715
976.026 .0256711
976.638 .0256700
977.250 .0256684
977.861 .0256660
978.472 .0256631
979.083 .0256596
979.693 .0256554
980.303 .0256506
980.912 .0256405
981.521 .0256342
982.130 .0256272
982.738 .0256196
983.346 .0256114
983.954 .0256027
984.562 .0255936
985.169 .0255843
985.775 .0255748
986.382 .0255653
986.988 .0255558
987.594 .0255465
988.199 .0255373
988.804 .0255284
989.409 .0255251
990.013 .0255168
990.617 .0255089
991.221 .0255014
991.824 .0254944
992.427 .0254877
993.030 .0254815
993.632 .0254756
994.234 .0254699
994.836 .0254645
995.438 .0254592
996.039 .0254539
996.640 .0254487
997.240 .0254435
997.840 .0254386
998.440 .0254338
999.040 .0254291
999.639 .0254246
1000.238 .0254202
1000.836 .0254158
1001.435 .0254114
1002.033 .0254069
1002.630 .0254023
1003.228 .0253975
1003.825 .0253927
1004.422 .0253876
1005.018 .0253824
1005.614 .0253771
1006.210 .0253715
1006.806 .0253656
1007.401 .0253593
1007.996 .0253525
1008.591 .0253452
1009.186 .0253372
1009.780 .0253288
1010.374 .0253200
1010.967 .0253108
1011.561 .0253015
1012.154 .0252921
1012.746 .0252827
1013.339 .0252734
1013.931 .0252642
1014.523 .0252553
1015.115 .0252464
1015.706 .0252378
1016.298 .0252293
1016.888 .0252213
1017.479 .0252135
1018.069 .0252063
1018.660 .0251996
1019.250 .0251933
1019.839 .0251875
1020.429 .0251820
1021.018 .0251767
1021.607 .0251716
1022.195 .0251665
1022.784 .0251613
1023.372 .0251562
1023.960 .0251511
1024.547 .0251460
1025.135 .0251412
1025.722 .0251366
1026.309 .0251324
1026.896 .0251283
1027.483 .0251245
1028.069 .0251208
1028.655 .0251172
1029.241 .0251136
1029.827 .0251099
1030.412 .0251062
1030.997 .0251024
1031.582 .0250986
1032.167 .0250947
1032.752 .0250909
1033.336 .0250870
1033.921 .0250830
1034.505 .0250789
1035.089 .0250746
1035.672 .0250699
1036.256 .0250648
1036.839 .0250593
1037.422 .0250534
1038.005 .0250469
1038.588 .0250402
1039.171 .0250330
1039.753 .0250257
1040.335 .0250180
1040.918 .0250102
1041.500 .0250021
1042.081 .0249937
1042.663 .0249850
1043.244 .0249760
1043.826 .0249665
1044.407 .0249567
1044.988 .0249465
1045.569 .0249360
1046.150 .0249253
1046.730 .0249144
1047.311 .0249034
1047.891 .0248922
1048.471 .0248808
1049.052 .0248694
1049.632 .0248577
1050.211 .0248460
1050.791 .0248341
1051.371 .0248221
1051.950 .0248099
1052.530 .0247976
1053.109 .0247852
1053.688 .0247727
1054.268 .0247601
1054.847 .0247475
1055.426 .0247351
1056.005 .0247228
1056.583 .0247107
1057.162 .0246988
1057.741 .0246871
1058.319 .0246755
1058.898 .0246640
1059.476 .0246525
1060.055 .0246410
1060.633 .0246296
1061.211 .0246184
1061.790 .0246073
1062.368 .0245964
1062.946 .0245860
1063.524 .0245758
1064.102 .0245658
1064.680 .0245559
1065.258 .0245459
1065.836 .0245358
1066.414 .0245255
1066.992 .0245148
1067.570 .0245039
1068.148 .0244930
1068.726 .0244822
1069.304 .0244717
1069.882 .0244619
1070.460 .0244527
1071.038 .0244443
1071.616 .0244368
1072.194 .0244300
1072.772 .0244239
1073.350 .0244186
1073.928 .0244140
1074.506 .0244101
1075.084 .0244071
1075.662 .0244050
1076.240 .0244038
1076.819 .0244037
1077.397 .0244046
1077.976 .0244064
1078.554 .0244089
1079.133 .0244120
1079.711 .0244153
1080.290 .0244188
1080.869 .0244223
1081.448 .0244259
1082.027 .0244296
1082.606 .0244335
1083.185 .0244376
1083.764 .0244422
1084.343 .0244472
1084.923 .0244528
1085.502 .0244589
1086.082 .0244656
1086.662 .0244727
1087.242 .0244802
1087.822 .0244883
1088.402 .0244969
1088.983 .0245062
1089.563 .0245163
1090.144 .0245272
1090.725 .0245390
1091.306 .0245519
1091.887 .0245658
1092.469 .0245808
1093.050 .0245970
1093.632 .0246141
1094.214 .0246323
1094.796 .0246514
1095.379 .0246715
1095.961 .0246925
1096.544 .0247144
1097.127 .0247373
1097.710 .0247611
1098.294 .0247859
1098.877 .0248116
1099.461 .0248382
1100.046 .0248657
1100.630 .0248939
1101.215 .0249226
1101.800 .0249517
1102.385 .0249810
1102.970 .0250105
1103.556 .0250400
1104.142 .0250694
1104.728 .0250989
1105.315 .0251285
1105.902 .0251583
1106.489 .0251883
1107.077 .0252187
1107.664 .0252496
1108.253 .0252810
1108.841 .0253128
1109.430 .0253451
1110.019 .0253779
1110.609 .0254115
1111.198 .0254460
1111.789 .0254816
1112.379 .0255185
1112.970 .0255569
1113.561 .0255971
1114.153 .0256392
1114.745 .0256832
1115.338 .0257292
1115.931 .0257773
1116.524 .0258275
1117.117 .0258798
1117.712 .0259344
1118.306 .0259913
1118.901 .0260506
1119.496 .0261124
1120.092 .0261764
1120.689 .0262423
1121.285 .0263099
1121.882 .0263787
1122.480 .0264484
1123.078 .0265188
1123.677 .0265895
1124.276 .0266603
1124.875 .0267311
1125.476 .0268021
1126.076 .0268730
1126.677 .0269439
1127.279 .0270152
1127.881 .0270869
1128.484 .0271592
1129.087 .0271972
1129.691 .0272704
1130.295 .0273450
1130.900 .0274217
1131.505 .0275011
1132.111 .0275840
1132.718 .0276715
1133.325 .0277652
1133.933 .0278661
1134.541 .0279668
1135.150 .0280812
1135.760 .0282067
1136.370 .0283557
1136.981 .0281215
1137.592 .0282212
1138.204 .0283379
1138.817 .0284766
1139.431 .0286314
1140.045 .0288115
1140.660 .0290202
1141.275 .0292728
1141.891 .0295550
1142.508 .0296277
1143.126 .0300958
1143.744 .0304920
1144.363 .0312410
1144.983 .0314408
