Measurement Sequence started on: 15-12-46-377
Integration time: 28
Scans to Average: 2 
>>>>>Begin Spectral Data<<<<<
432.689 .0000100
433.621 .0000100
434.552 .0000100
435.482 .0000100
436.410 .0000100
437.337 .0000100
438.262 .0267098
439.187 .0566778
440.110 .0940429
441.031 .1363083
441.952 .1108690
442.871 .1159652
443.789 .1207231
444.705 .1252158
445.621 .1294925
446.535 .1335900
447.447 .1361294
448.359 .1369578
449.269 .1357017
450.178 .1321154
451.086 .1262634
451.993 .1186036
452.898 .1099020
453.803 .1010317
454.706 .0927411
455.608 .0855011
456.508 .0794767
457.408 .0753649
458.306 .0721833
459.204 .0695798
460.100 .0673761
460.995 .0654721
461.888 .0637969
462.781 .0623036
463.673 .0609577
464.563 .0597351
465.452 .0586189
466.340 .0575965
467.228 .0566588
468.114 .0557989
468.999 .0550109
469.882 .0542889
470.765 .0536271
471.647 .0530206
472.528 .0524646
473.407 .0519544
474.286 .0514864
475.163 .0510576
476.040 .0506655
476.915 .0503089
477.790 .0499863
478.663 .0496972
479.535 .0494408
480.407 .0492156
481.277 .0490198
482.147 .0488506
483.015 .0487049
483.883 .0485793
484.749 .0484705
485.615 .0483764
486.479 .0482955
487.343 .0482278
488.206 .0481742
489.067 .0481357
489.928 .0481136
490.788 .0481097
491.647 .0481244
492.505 .0481583
493.362 .0482112
494.218 .0482832
495.073 .0483745
495.928 .0485875
496.781 .0487345
497.634 .0489057
498.486 .0491042
499.337 .0493330
500.187 .0495964
501.036 .0498986
501.884 .0502436
502.731 .0506362
503.578 .0510809
504.424 .0514151
505.268 .0519559
506.113 .0525617
506.956 .0532374
507.798 .0539888
508.640 .0548238
509.480 .0557520
510.320 .0567848
511.160 .0579356
511.998 .0592183
512.836 .0606482
513.672 .0622415
514.508 .0640164
515.344 .0659915
516.178 .0681840
517.012 .0706152
517.845 .0733049
518.677 .0762728
519.508 .0795338
520.339 .0830953
521.169 .0869605
521.998 .0911086
522.826 .0955057
523.654 .1000989
524.481 .1048224
525.307 .1095996
526.133 .1143395
526.958 .1189484
527.782 .1233313
528.605 .1273995
529.428 .1310741
530.250 .1342847
531.072 .1369825
531.892 .1391261
532.712 .1406899
533.532 .1416610
534.350 .1420334
535.168 .1418080
535.986 .1409875
536.802 .1395790
537.618 .1375932
538.434 .1350418
539.249 .1319598
540.063 .1283948
540.876 .1244108
541.689 .1200838
542.501 .1154981
543.313 .1107481
544.124 .1059292
544.934 .1011339
545.744 .0964438
546.553 .0919286
547.361 .0876473
548.169 .0836352
548.976 .0799184
549.783 .0765066
550.589 .0733972
551.395 .0705758
552.200 .0680221
553.004 .0657118
553.808 .0636202
554.611 .0617244
555.414 .0600047
556.216 .0584413
557.018 .0570149
557.819 .0557085
558.619 .0545065
559.419 .0533954
560.218 .0523651
561.017 .0514044
561.815 .0505052
562.613 .0496609
563.410 .0488660
564.207 .0481147
565.003 .0474027
565.799 .0467255
566.594 .0460781
567.388 .0454564
568.182 .0448570
568.976 .0442766
569.769 .0437136
570.562 .0431671
571.354 .0426368
572.145 .0421231
572.936 .0416268
573.727 .0411479
574.517 .0406865
575.307 .0402426
576.096 .0398158
576.885 .0394052
577.673 .0390107
578.461 .0386319
579.248 .0382686
580.035 .0379212
580.821 .0375904
581.607 .0372766
582.392 .0369803
583.177 .0367018
583.962 .0364413
584.746 .0361989
585.529 .0359741
586.313 .0357664
587.095 .0355754
587.878 .0354005
588.660 .0352408
589.441 .0350953
590.222 .0349632
591.003 .0348436
591.783 .0347354
592.563 .0346373
593.342 .0345481
594.121 .0344665
594.899 .0343915
595.678 .0343220
596.455 .0342571
597.233 .0341959
598.009 .0341379
598.786 .0340824
599.562 .0340290
600.338 .0339772
601.113 .0339267
601.888 .0338542
602.663 .0338064
603.437 .0337593
604.211 .0337129
604.984 .0336673
605.757 .0336224
606.530 .0335783
607.302 .0335348
608.074 .0334921
608.845 .0334501
609.616 .0334087
610.387 .0333895
611.158 .0333491
611.928 .0333092
612.697 .0332699
613.467 .0332313
614.236 .0331931
615.004 .0331555
615.773 .0331183
616.541 .0330816
617.308 .0330452
618.076 .0330092
618.843 .0329735
619.609 .0329379
620.375 .0329024
621.141 .0328668
621.907 .0328311
622.672 .0327951
623.437 .0327588
624.202 .0327221
624.966 .0326852
625.730 .0326480
626.493 .0326106
627.257 .0325731
628.020 .0325355
628.782 .0324977
629.545 .0324599
630.307 .0324219
631.068 .0323838
631.830 .0323456
632.591 .0323074
633.352 .0322694
634.112 .0322318
634.872 .0321946
635.632 .0321580
636.392 .0321221
637.151 .0320870
637.910 .0320528
638.668 .0320195
639.427 .0319870
640.185 .0319555
640.943 .0319250
641.700 .0318955
642.457 .0318672
643.214 .0318401
643.971 .0318142
644.727 .0317896
645.483 .0317662
646.239 .0317440
646.994 .0317230
647.750 .0317029
648.505 .0316839
649.259 .0316656
650.014 .0316481
650.768 .0316312
651.521 .0316149
652.275 .0315990
653.028 .0315833
653.781 .0315679
654.534 .0315526
655.286 .0315373
656.039 .0315220
656.791 .0315066
657.542 .0314913
658.294 .0314759
659.045 .0314605
659.796 .0314449
660.546 .0314291
661.297 .0314131
662.047 .0313967
662.796 .0313798
663.546 .0313625
664.295 .0313448
665.044 .0313266
665.793 .0313080
666.542 .0312892
667.290 .0312700
668.038 .0312505
668.786 .0312307
669.533 .0312104
670.281 .0311897
671.028 .0311686
671.774 .0311470
672.521 .0311250
673.267 .0311026
674.013 .0310799
674.759 .0310569
675.505 .0310337
676.250 .0310102
676.995 .0309865
677.740 .0309624
678.484 .0309381
679.229 .0309136
679.973 .0308887
680.717 .0308637
681.460 .0308385
682.204 .0308131
682.947 .0307875
683.690 .0307617
684.433 .0307355
685.175 .0307091
685.917 .0306823
686.659 .0306551
687.401 .0306276
688.142 .0305997
688.884 .0305714
689.625 .0305429
690.365 .0305141
691.106 .0304850
691.846 .0304556
692.586 .0304260
693.326 .0303962
694.066 .0303661
694.805 .0303358
695.545 .0303053
696.284 .0302747
697.022 .0302441
697.761 .0302135
698.499 .0301830
699.237 .0301528
699.975 .0301228
700.713 .0300931
701.450 .0300639
702.187 .0300350
702.924 .0300066
703.661 .0299787
704.397 .0299514
705.133 .0299246
705.869 .0298984
706.605 .0298728
707.341 .0298478
708.076 .0298235
708.811 .0297997
709.546 .0297766
710.281 .0297541
711.015 .0297321
711.749 .0297108
712.483 .0296901
713.217 .0296700
713.950 .0296504
714.684 .0296313
715.417 .0296126
716.150 .0295941
716.882 .0295759
717.615 .0295579
718.347 .0295399
719.079 .0295222
719.811 .0295046
720.542 .0294872
721.273 .0294700
722.005 .0294531
722.735 .0294365
723.466 .0294203
724.196 .0294043
724.927 .0293887
725.656 .0293736
726.386 .0293589
727.116 .0293448
727.845 .0293313
728.574 .0293184
729.303 .0293062
730.031 .0292946
730.760 .0292837
731.488 .0292735
732.216 .0292641
732.944 .0292553
733.671 .0292473
734.398 .0292401
735.125 .0292336
735.852 .0292279
736.579 .0292229
737.305 .0292185
738.031 .0292148
738.757 .0292115
739.483 .0292087
740.208 .0292063
740.933 .0292042
741.658 .0292023
742.383 .0292006
743.108 .0291990
743.832 .0291974
744.556 .0291957
745.280 .0291939
746.004 .0291920
746.727 .0291898
747.450 .0291874
748.173 .0291846
748.896 .0291815
749.618 .0291779
750.340 .0291739
751.062 .0291694
751.784 .0291643
752.506 .0291587
753.227 .0291524
753.948 .0291454
754.669 .0291378
755.389 .0291295
756.110 .0291205
756.830 .0291108
757.550 .0291004
758.269 .0290893
758.989 .0290775
759.708 .0290650
760.427 .0290518
761.146 .0290379
761.864 .0290234
762.582 .0290082
763.300 .0289924
764.018 .0289761
764.736 .0289593
765.453 .0289422
766.170 .0289247
766.887 .0289070
767.603 .0288893
768.320 .0288715
769.036 .0288538
769.751 .0288362
770.467 .0288187
771.182 .0288015
771.897 .0287844
772.612 .0287676
773.327 .0287511
774.041 .0287350
774.755 .0287192
775.469 .0287039
776.183 .0286890
776.896 .0286746
777.609 .0286608
778.322 .0286475
779.035 .0286347
779.747 .0286224
780.459 .0286105
781.171 .0285988
781.882 .0285873
782.594 .0285758
783.305 .0285644
784.016 .0285528
784.726 .0285411
785.436 .0285291
786.147 .0285098
786.856 .0284968
787.566 .0284833
788.275 .0284693
788.984 .0284547
789.693 .0284396
790.401 .0284237
791.110 .0284071
791.818 .0283898
792.525 .0283717
793.233 .0283529
793.940 .0283333
794.647 .0283214
795.353 .0283010
796.060 .0282801
796.766 .0282586
797.472 .0282366
798.177 .0282142
798.883 .0281914
799.588 .0281681
800.292 .0281446
800.997 .0281207
801.701 .0280966
802.405 .0280724
803.109 .0280481
803.812 .0280238
804.515 .0279995
805.218 .0279752
805.921 .0279510
806.623 .0279269
807.325 .0279029
808.027 .0278791
808.728 .0278556
809.429 .0278324
810.130 .0278096
810.831 .0277872
811.531 .0277653
812.231 .0277440
812.931 .0277231
813.630 .0277029
814.330 .0276833
815.029 .0276643
815.727 .0276460
816.426 .0276286
817.124 .0276120
817.821 .0275963
818.519 .0275816
819.216 .0275677
819.913 .0275549
820.609 .0275430
821.306 .0275320
822.002 .0275220
822.697 .0275130
823.393 .0275051
824.088 .0274983
824.783 .0274925
825.477 .0274878
826.171 .0274841
826.865 .0274813
827.559 .0274794
828.252 .0274782
828.945 .0274777
829.638 .0274778
830.330 .0274784
831.023 .0274795
831.714 .0274812
832.406 .0274832
833.097 .0274855
833.788 .0274882
834.479 .0274910
835.169 .0274941
835.859 .0274973
836.548 .0275007
837.238 .0275044
837.927 .0275082
838.615 .0275123
839.304 .0275165
839.992 .0275209
840.680 .0275254
841.367 .0275300
842.054 .0275345
842.741 .0275391
843.428 .0275435
844.114 .0275480
844.800 .0275523
845.485 .0275565
846.170 .0275605
846.855 .0275642
847.540 .0275675
848.224 .0275703
848.908 .0275726
849.592 .0275742
850.275 .0275753
850.958 .0275757
851.641 .0275755
852.323 .0275746
853.005 .0275732
853.687 .0275712
854.368 .0275685
855.049 .0275653
855.730 .0275614
856.410 .0275570
857.090 .0275520
857.769 .0275466
858.449 .0275407
859.128 .0275345
859.806 .0275280
860.485 .0275213
861.163 .0275145
861.840 .0275075
862.518 .0275004
863.195 .0274934
863.871 .0274863
864.548 .0274793
865.224 .0274723
865.899 .0274654
866.574 .0274586
867.249 .0274519
867.924 .0274453
868.598 .0274388
869.272 .0274323
869.946 .0274257
870.619 .0274191
871.292 .0274124
871.964 .0274056
872.636 .0273987
873.308 .0273916
873.979 .0273844
874.651 .0273770
875.321 .0273694
875.992 .0273618
876.662 .0273540
877.331 .0273462
878.001 .0273384
878.670 .0273305
879.338 .0273225
880.007 .0273146
880.675 .0273067
881.342 .0272988
882.009 .0272911
882.676 .0272834
883.343 .0272760
884.009 .0272688
884.675 .0272619
885.340 .0272552
886.005 .0272488
886.670 .0272425
887.334 .0272365
887.998 .0272305
888.662 .0272246
889.325 .0272188
889.988 .0272130
890.650 .0272071
891.312 .0272012
891.974 .0271951
892.636 .0271887
893.297 .0271821
893.957 .0271749
894.618 .0271672
895.278 .0271588
895.937 .0271497
896.596 .0271398
897.255 .0271291
897.914 .0271175
898.572 .0271049
899.230 .0270914
899.887 .0270769
900.544 .0270612
901.201 .0270444
901.857 .0270143
902.513 .0269944
903.168 .0269734
903.823 .0269511
904.478 .0269278
905.132 .0269033
905.786 .0268779
906.440 .0268514
907.093 .0268240
907.746 .0267957
908.399 .0267666
909.051 .0267368
909.703 .0267062
910.354 .0266894
911.005 .0266583
911.656 .0266267
912.306 .0265947
912.956 .0265626
913.605 .0265302
914.254 .0264977
914.903 .0264651
915.551 .0264325
916.199 .0263999
916.847 .0263672
917.494 .0263345
918.141 .0263018
918.788 .0262692
919.434 .0262367
920.079 .0262043
920.725 .0261721
921.370 .0261400
922.014 .0261081
922.658 .0260762
923.302 .0260445
923.946 .0260127
924.589 .0259811
925.231 .0259494
925.873 .0259179
926.515 .0258864
927.157 .0258551
927.798 .0258239
928.439 .0257931
929.079 .0257625
929.719 .0257322
930.359 .0257023
930.998 .0256728
931.637 .0256437
932.275 .0256150
932.913 .0255869
933.551 .0255595
934.188 .0255328
934.825 .0255070
935.462 .0254822
936.098 .0254583
936.733 .0254355
937.369 .0254137
938.004 .0253929
938.638 .0253732
939.273 .0253545
939.907 .0253368
940.540 .0253202
941.173 .0253047
941.806 .0252902
942.438 .0252767
943.070 .0252641
943.702 .0252525
944.333 .0252416
944.964 .0252315
945.594 .0252221
946.224 .0252133
946.854 .0252050
947.483 .0251974
948.112 .0251902
948.741 .0251836
949.369 .0251774
949.996 .0251716
950.624 .0251660
951.251 .0251607
951.878 .0251556
952.504 .0251506
953.130 .0251458
953.755 .0251411
954.380 .0251366
955.005 .0251323
955.629 .0251281
956.253 .0251242
956.877 .0251204
957.500 .0251168
958.123 .0251133
958.746 .0251099
959.368 .0251067
959.990 .0251037
960.611 .0251010
961.232 .0250986
961.853 .0250965
962.473 .0250947
963.093 .0250932
963.712 .0250921
964.331 .0250913
964.950 .0250908
965.569 .0250907
966.187 .0250910
966.804 .0250916
967.422 .0250925
968.039 .0250939
968.655 .0250955
969.272 .0250974
969.887 .0250997
970.503 .0251022
971.118 .0251050
971.733 .0251082
972.347 .0251117
972.961 .0251155
973.575 .0251196
974.188 .0251242
974.801 .0251290
975.414 .0251343
976.026 .0251399
976.638 .0251458
977.250 .0251520
977.861 .0251585
978.472 .0251652
979.083 .0251722
979.693 .0251793
980.303 .0251864
980.912 .0251971
981.521 .0252041
982.130 .0252110
982.738 .0252179
983.346 .0252247
983.954 .0252317
984.562 .0252387
985.169 .0252458
985.775 .0252531
986.382 .0252606
986.988 .0252682
987.594 .0252759
988.199 .0252836
988.804 .0252915
989.409 .0252958
990.013 .0253040
990.617 .0253123
991.221 .0253210
991.824 .0253298
992.427 .0253389
993.030 .0253482
993.632 .0253576
994.234 .0253670
994.836 .0253766
995.438 .0253861
996.039 .0253956
996.640 .0254052
997.240 .0254149
997.840 .0254247
998.440 .0254348
999.040 .0254450
999.639 .0254554
1000.238 .0254660
1000.836 .0254766
1001.435 .0254872
1002.033 .0254978
1002.630 .0255083
1003.228 .0255188
1003.825 .0255293
1004.422 .0255397
1005.018 .0255500
1005.614 .0255603
1006.210 .0255705
1006.806 .0255805
1007.401 .0255903
1007.996 .0255999
1008.591 .0256093
1009.186 .0256185
1009.780 .0256277
1010.374 .0256368
1010.967 .0256459
1011.561 .0256552
1012.154 .0256646
1012.746 .0256742
1013.339 .0256839
1013.931 .0256936
1014.523 .0257035
1015.115 .0257133
1015.706 .0257232
1016.298 .0257330
1016.888 .0257427
1017.479 .0257525
1018.069 .0257622
1018.660 .0257720
1019.250 .0257819
1019.839 .0257918
1020.429 .0258018
1021.018 .0258119
1021.607 .0258220
1022.195 .0258323
1022.784 .0258426
1023.372 .0258530
1023.960 .0258635
1024.547 .0258741
1025.135 .0258848
1025.722 .0258956
1026.309 .0259065
1026.896 .0259173
1027.483 .0259281
1028.069 .0259385
1028.655 .0259487
1029.241 .0259586
1029.827 .0259680
1030.412 .0259769
1030.997 .0259853
1031.582 .0259933
1032.167 .0260009
1032.752 .0260079
1033.336 .0260145
1033.921 .0260205
1034.505 .0260260
1035.089 .0260308
1035.672 .0260348
1036.256 .0260381
1036.839 .0260407
1037.422 .0260424
1038.005 .0260433
1038.588 .0260435
1039.171 .0260429
1039.753 .0260416
1040.335 .0260396
1040.918 .0260367
1041.500 .0260330
1042.081 .0260285
1042.663 .0260232
1043.244 .0260170
1043.826 .0260101
1044.407 .0260025
1044.988 .0259943
1045.569 .0259856
1046.150 .0259765
1046.730 .0259669
1047.311 .0259570
1047.891 .0259469
1048.471 .0259364
1049.052 .0259256
1049.632 .0259147
1050.211 .0259035
1050.791 .0258923
1051.371 .0258810
1051.950 .0258696
1052.530 .0258581
1053.109 .0258466
1053.688 .0258349
1054.268 .0258233
1054.847 .0258116
1055.426 .0257999
1056.005 .0257883
1056.583 .0257769
1057.162 .0257656
1057.741 .0257545
1058.319 .0257434
1058.898 .0257322
1059.476 .0257208
1060.055 .0257091
1060.633 .0256969
1061.211 .0256843
1061.790 .0256710
1062.368 .0256573
1062.946 .0256433
1063.524 .0256289
1064.102 .0256144
1064.680 .0255996
1065.258 .0255847
1065.836 .0255696
1066.414 .0255542
1066.992 .0255386
1067.570 .0255227
1068.148 .0255066
1068.726 .0254902
1069.304 .0254737
1069.882 .0254572
1070.460 .0254409
1071.038 .0254248
1071.616 .0254088
1072.194 .0253929
1072.772 .0253770
1073.350 .0253609
1073.928 .0253449
1074.506 .0253288
1075.084 .0253129
1075.662 .0252972
1076.240 .0252821
1076.819 .0252676
1077.397 .0252540
1077.976 .0252414
1078.554 .0252298
1079.133 .0252190
1079.711 .0252090
1080.290 .0251997
1080.869 .0251910
1081.448 .0251830
1082.027 .0251756
1082.606 .0251688
1083.185 .0251625
1083.764 .0251565
1084.343 .0251510
1084.923 .0251457
1085.502 .0251406
1086.082 .0251357
1086.662 .0251309
1087.242 .0251262
1087.822 .0251217
1088.402 .0251175
1088.983 .0251138
1089.563 .0251107
1090.144 .0251080
1090.725 .0251057
1091.306 .0251037
1091.887 .0251022
1092.469 .0251009
1093.050 .0250998
1093.632 .0250990
1094.214 .0250984
1094.796 .0250980
1095.379 .0250979
1095.961 .0250981
1096.544 .0250987
1097.127 .0250995
1097.710 .0251005
1098.294 .0251014
1098.877 .0251021
1099.461 .0251028
1100.046 .0251034
1100.630 .0251041
1101.215 .0251049
1101.800 .0251060
1102.385 .0251077
1102.970 .0251099
1103.556 .0251128
1104.142 .0251164
1104.728 .0251206
1105.315 .0251253
1105.902 .0251304
1106.489 .0251360
1107.077 .0251422
1107.664 .0251493
1108.253 .0251577
1108.841 .0251674
1109.430 .0251787
1110.019 .0251917
1110.609 .0252062
1111.198 .0252223
1111.789 .0252396
1112.379 .0252578
1112.970 .0252768
1113.561 .0252964
1114.153 .0253164
1114.745 .0253370
1115.338 .0253584
1115.931 .0253809
1116.524 .0254047
1117.117 .0254301
1117.712 .0254571
1118.306 .0254859
1118.901 .0255166
1119.496 .0255490
1120.092 .0255835
1120.689 .0256202
1121.285 .0256591
1121.882 .0257007
1122.480 .0257453
1123.078 .0257931
1123.677 .0258444
1124.276 .0258990
1124.875 .0259568
1125.476 .0260171
1126.076 .0260796
1126.677 .0261439
1127.279 .0262095
1127.881 .0262765
1128.484 .0263448
1129.087 .0263710
1129.691 .0264419
1130.295 .0265150
1130.900 .0265903
1131.505 .0266682
1132.111 .0267489
1132.718 .0268322
1133.325 .0269180
1133.933 .0270063
1134.541 .0270965
1135.150 .0271920
1135.760 .0272867
1136.370 .0273810
1136.981 .0275456
1137.592 .0276340
1138.204 .0277277
1138.817 .0278187
1139.431 .0279139
1140.045 .0280125
1140.660 .0281120
1141.275 .0282095
1141.891 .0283159
1142.508 .0284068
1143.126 .0285988
1143.744 .0286222
1144.363 .0286646
1144.983 .0289971
