Measurement Sequence started on: 15-12-46-377
Integration time: 28
Scans to Average: 2 
>>>>>Begin Spectral Data<<<<<
432.689 .0000100
433.621 .0000100
434.552 .0000100
435.482 .0000100
436.410 .0000100
437.337 .0000100
438.262 .0277336
439.187 .0587712
440.110 .0973488
441.031 .1408901
441.952 .1129835
442.871 .1180160
443.789 .1227080
444.705 .1271284
445.621 .1313268
446.535 .1353380
447.447 .1377271
448.359 .1383395
449.269 .1367968
450.178 .1328517
451.086 .1265846
451.993 .1184780
452.898 .1093354
453.803 .1000662
454.706 .0914433
455.608 .0839462
456.508 .0777356
457.408 .0735234
458.306 .0702777
459.204 .0676259
460.100 .0653831
460.995 .0634449
461.888 .0617455
462.781 .0602386
463.673 .0588930
464.563 .0576871
465.452 .0566033
466.340 .0556260
467.228 .0547436
468.114 .0539455
468.999 .0532229
469.882 .0525673
470.765 .0519713
471.647 .0514291
472.528 .0509362
473.407 .0504886
474.286 .0500843
475.163 .0497212
476.040 .0493968
476.915 .0491086
477.790 .0488536
478.663 .0486292
479.535 .0484329
480.407 .0482621
481.277 .0481148
482.147 .0479892
483.015 .0478838
483.883 .0477969
484.749 .0477274
485.615 .0476745
486.479 .0476366
487.343 .0476127
488.206 .0476018
489.067 .0476024
489.928 .0476140
490.788 .0476363
491.647 .0476693
492.505 .0477131
493.362 .0477681
494.218 .0478342
495.073 .0479117
495.928 .0480645
496.781 .0481685
497.634 .0482836
498.486 .0484110
499.337 .0485520
500.187 .0487092
501.036 .0488859
501.884 .0490854
502.731 .0493129
503.578 .0495735
504.424 .0497770
505.268 .0501085
506.113 .0504903
506.956 .0509294
507.798 .0514334
508.640 .0520120
509.480 .0526761
510.320 .0534384
511.160 .0543117
511.998 .0553111
512.836 .0564535
513.672 .0577574
514.508 .0592430
515.344 .0609321
516.178 .0628475
517.012 .0650142
517.845 .0674563
518.677 .0701953
519.508 .0732502
520.339 .0766298
521.169 .0803387
521.998 .0843552
522.826 .0886449
523.654 .0931558
524.481 .0978207
525.307 .1025653
526.133 .1072999
526.958 .1119297
527.782 .1163596
528.605 .1205006
529.428 .1242730
530.250 .1276016
531.072 .1304337
531.892 .1327262
532.712 .1344486
533.532 .1355828
534.350 .1361173
535.168 .1360518
535.986 .1353909
536.802 .1341401
537.618 .1323093
538.434 .1299122
539.249 .1269859
540.063 .1235798
540.876 .1197551
541.689 .1155873
542.501 .1111557
543.313 .1065511
544.124 .1018681
544.934 .0971970
545.744 .0926210
546.553 .0882118
547.361 .0840338
548.169 .0801268
548.976 .0765183
549.783 .0732205
550.589 .0702306
551.395 .0675366
552.200 .0651148
553.004 .0629378
553.808 .0609784
554.611 .0592146
555.414 .0576235
556.216 .0561845
557.018 .0548769
557.819 .0536846
558.619 .0525921
559.419 .0515864
560.218 .0506567
561.017 .0497923
561.815 .0489851
562.613 .0482288
563.410 .0475163
564.207 .0468417
565.003 .0461994
565.799 .0455848
566.594 .0449934
567.388 .0444218
568.182 .0438668
568.976 .0433258
569.769 .0427973
570.562 .0422808
571.354 .0417758
572.145 .0412827
572.936 .0408022
573.727 .0403345
574.517 .0398801
575.307 .0394399
576.096 .0390138
576.885 .0386026
577.673 .0382067
578.461 .0378265
579.248 .0374620
580.035 .0371135
580.821 .0367810
581.607 .0364648
582.392 .0361649
583.177 .0358815
583.962 .0356147
584.746 .0353645
585.529 .0351309
586.313 .0349135
587.095 .0347117
587.878 .0345251
588.660 .0343531
589.441 .0341949
590.222 .0340497
591.003 .0339166
591.783 .0337948
592.563 .0336832
593.342 .0335807
594.121 .0334866
594.899 .0333999
595.678 .0333198
596.455 .0332457
597.233 .0331771
598.009 .0331135
598.786 .0330542
599.562 .0329990
600.338 .0329473
601.113 .0328986
601.888 .0328340
602.663 .0327908
603.437 .0327497
604.211 .0327102
604.984 .0326722
605.757 .0326355
606.530 .0325998
607.302 .0325652
608.074 .0325314
608.845 .0324983
609.616 .0324659
610.387 .0324504
611.158 .0324186
611.928 .0323876
612.697 .0323572
613.467 .0323275
614.236 .0322983
615.004 .0322696
615.773 .0322414
616.541 .0322137
617.308 .0321864
618.076 .0321596
618.843 .0321333
619.609 .0321075
620.375 .0320822
621.141 .0320573
621.907 .0320328
622.672 .0320085
623.437 .0319845
624.202 .0319607
624.966 .0319371
625.730 .0319137
626.493 .0318904
627.257 .0318672
628.020 .0318439
628.782 .0318204
629.545 .0317965
630.307 .0317721
631.068 .0317471
631.830 .0317214
632.591 .0316951
633.352 .0316683
634.112 .0316410
634.872 .0316134
635.632 .0315855
636.392 .0315572
637.151 .0315284
637.910 .0314993
638.668 .0314697
639.427 .0314397
640.185 .0314095
640.943 .0313791
641.700 .0313488
642.457 .0313186
643.214 .0312888
643.971 .0312594
644.727 .0312304
645.483 .0312018
646.239 .0311736
646.994 .0311456
647.750 .0311178
648.505 .0310902
649.259 .0310627
650.014 .0310354
650.768 .0310082
651.521 .0309810
652.275 .0309538
653.028 .0309266
653.781 .0308994
654.534 .0308722
655.286 .0308450
656.039 .0308177
656.791 .0307902
657.542 .0307626
658.294 .0307348
659.045 .0307069
659.796 .0306788
660.546 .0306507
661.297 .0306228
662.047 .0305950
662.796 .0305677
663.546 .0305408
664.295 .0305146
665.044 .0304890
665.793 .0304641
666.542 .0304398
667.290 .0304161
668.038 .0303931
668.786 .0303706
669.533 .0303487
670.281 .0303275
671.028 .0303069
671.774 .0302869
672.521 .0302675
673.267 .0302487
674.013 .0302305
674.759 .0302127
675.505 .0301953
676.250 .0301781
676.995 .0301611
677.740 .0301441
678.484 .0301272
679.229 .0301102
679.973 .0300931
680.717 .0300759
681.460 .0300585
682.204 .0300410
682.947 .0300233
683.690 .0300054
684.433 .0299875
685.175 .0299695
685.917 .0299514
686.659 .0299333
687.401 .0299152
688.142 .0298970
688.884 .0298787
689.625 .0298604
690.365 .0298419
691.106 .0298234
691.846 .0298046
692.586 .0297858
693.326 .0297668
694.066 .0297477
694.805 .0297285
695.545 .0297092
696.284 .0296897
697.022 .0296701
697.761 .0296503
698.499 .0296304
699.237 .0296104
699.975 .0295903
700.713 .0295701
701.450 .0295499
702.187 .0295297
702.924 .0295096
703.661 .0294895
704.397 .0294695
705.133 .0294496
705.869 .0294297
706.605 .0294101
707.341 .0293905
708.076 .0293712
708.811 .0293521
709.546 .0293332
710.281 .0293145
711.015 .0292960
711.749 .0292777
712.483 .0292594
713.217 .0292413
713.950 .0292233
714.684 .0292054
715.417 .0291877
716.150 .0291702
716.882 .0291529
717.615 .0291357
718.347 .0291185
719.079 .0291012
719.811 .0290838
720.542 .0290664
721.273 .0290487
722.005 .0290309
722.735 .0290131
723.466 .0289951
724.196 .0289772
724.927 .0289593
725.656 .0289414
726.386 .0289236
727.116 .0289059
727.845 .0288882
728.574 .0288707
729.303 .0288535
730.031 .0288364
730.760 .0288197
731.488 .0288033
732.216 .0287871
732.944 .0287713
733.671 .0287557
734.398 .0287403
735.125 .0287251
735.852 .0287101
736.579 .0286952
737.305 .0286805
738.031 .0286657
738.757 .0286510
739.483 .0286363
740.208 .0286215
740.933 .0286066
741.658 .0285916
742.383 .0285765
743.108 .0285612
743.832 .0285459
744.556 .0285306
745.280 .0285151
746.004 .0284994
746.727 .0284837
747.450 .0284677
748.173 .0284515
748.896 .0284351
749.618 .0284185
750.340 .0284017
751.062 .0283847
751.784 .0283677
752.506 .0283506
753.227 .0283334
753.948 .0283162
754.669 .0282991
755.389 .0282819
756.110 .0282649
756.830 .0282479
757.550 .0282312
758.269 .0282147
758.989 .0281985
759.708 .0281826
760.427 .0281670
761.146 .0281517
761.864 .0281367
762.582 .0281219
763.300 .0281073
764.018 .0280929
764.736 .0280787
765.453 .0280647
766.170 .0280509
766.887 .0280373
767.603 .0280239
768.320 .0280107
769.036 .0279977
769.751 .0279849
770.467 .0279722
771.182 .0279598
771.897 .0279475
772.612 .0279355
773.327 .0279238
774.041 .0279124
774.755 .0279014
775.469 .0278907
776.183 .0278805
776.896 .0278705
777.609 .0278610
778.322 .0278518
779.035 .0278430
779.747 .0278344
780.459 .0278263
781.171 .0278184
781.882 .0278110
782.594 .0278039
783.305 .0277971
784.016 .0277906
784.726 .0277844
785.436 .0277785
786.147 .0277703
786.856 .0277645
787.566 .0277588
788.275 .0277531
788.984 .0277473
789.693 .0277415
790.401 .0277355
791.110 .0277293
791.818 .0277228
792.525 .0277159
793.233 .0277086
793.940 .0277009
794.647 .0276959
795.353 .0276878
796.060 .0276795
796.766 .0276709
797.472 .0276621
798.177 .0276532
798.883 .0276441
799.588 .0276347
800.292 .0276251
800.997 .0276152
801.701 .0276052
802.405 .0275950
803.109 .0275847
803.812 .0275744
804.515 .0275642
805.218 .0275539
805.921 .0275435
806.623 .0275332
807.325 .0275227
808.027 .0275121
808.728 .0275014
809.429 .0274905
810.130 .0274796
810.831 .0274686
811.531 .0274576
812.231 .0274466
812.931 .0274355
813.630 .0274245
814.330 .0274134
815.029 .0274024
815.727 .0273916
816.426 .0273809
817.124 .0273706
817.821 .0273607
818.519 .0273511
819.216 .0273419
819.913 .0273330
820.609 .0273245
821.306 .0273164
822.002 .0273086
822.697 .0273011
823.393 .0272940
824.088 .0272872
824.783 .0272809
825.477 .0272749
826.171 .0272693
826.865 .0272640
827.559 .0272589
828.252 .0272540
828.945 .0272492
829.638 .0272447
830.330 .0272402
831.023 .0272358
831.714 .0272315
832.406 .0272271
833.097 .0272227
833.788 .0272181
834.479 .0272133
835.169 .0272082
835.859 .0272029
836.548 .0271972
837.238 .0271912
837.927 .0271850
838.615 .0271784
839.304 .0271715
839.992 .0271643
840.680 .0271567
841.367 .0271487
842.054 .0271403
842.741 .0271315
843.428 .0271223
844.114 .0271128
844.800 .0271030
845.485 .0270929
846.170 .0270825
846.855 .0270718
847.540 .0270609
848.224 .0270497
848.908 .0270381
849.592 .0270262
850.275 .0270140
850.958 .0270015
851.641 .0269886
852.323 .0269754
853.005 .0269618
853.687 .0269480
854.368 .0269338
855.049 .0269195
855.730 .0269048
856.410 .0268901
857.090 .0268751
857.769 .0268601
858.449 .0268450
859.128 .0268299
859.806 .0268147
860.485 .0267995
861.163 .0267844
861.840 .0267694
862.518 .0267545
863.195 .0267397
863.871 .0267251
864.548 .0267106
865.224 .0266963
865.899 .0266821
866.574 .0266679
867.249 .0266539
867.924 .0266401
868.598 .0266264
869.272 .0266129
869.946 .0265996
870.619 .0265865
871.292 .0265735
871.964 .0265607
872.636 .0265480
873.308 .0265355
873.979 .0265230
874.651 .0265108
875.321 .0264987
875.992 .0264870
876.662 .0264755
877.331 .0264642
878.001 .0264531
878.670 .0264422
879.338 .0264313
880.007 .0264205
880.675 .0264096
881.342 .0263989
882.009 .0263882
882.676 .0263776
883.343 .0263672
884.009 .0263569
884.675 .0263468
885.340 .0263368
886.005 .0263269
886.670 .0263170
887.334 .0263073
887.998 .0262976
888.662 .0262881
889.325 .0262788
889.988 .0262698
890.650 .0262610
891.312 .0262526
891.974 .0262444
892.636 .0262363
893.297 .0262285
893.957 .0262208
894.618 .0262132
895.278 .0262057
895.937 .0261983
896.596 .0261910
897.255 .0261838
897.914 .0261765
898.572 .0261692
899.230 .0261616
899.887 .0261538
900.544 .0261457
901.201 .0261373
901.857 .0261229
902.513 .0261133
903.168 .0261034
903.823 .0260931
904.478 .0260823
905.132 .0260710
905.786 .0260591
906.440 .0260466
907.093 .0260334
907.746 .0260197
908.399 .0260053
909.051 .0259904
909.703 .0259750
910.354 .0259662
911.005 .0259506
911.656 .0259346
912.306 .0259184
912.956 .0259020
913.605 .0258854
914.254 .0258686
914.903 .0258517
915.551 .0258348
916.199 .0258178
916.847 .0258009
917.494 .0257840
918.141 .0257672
918.788 .0257504
919.434 .0257335
920.079 .0257167
920.725 .0256997
921.370 .0256826
922.014 .0256653
922.658 .0256480
923.302 .0256305
923.946 .0256129
924.589 .0255953
925.231 .0255776
925.873 .0255598
926.515 .0255420
927.157 .0255240
927.798 .0255060
928.439 .0254879
929.079 .0254700
929.719 .0254521
930.359 .0254345
930.998 .0254171
931.637 .0254001
932.275 .0253835
932.913 .0253672
933.551 .0253513
934.188 .0253357
934.825 .0253205
935.462 .0253057
936.098 .0252912
936.733 .0252773
937.369 .0252638
938.004 .0252509
938.638 .0252386
939.273 .0252269
939.907 .0252158
940.540 .0252053
941.173 .0251954
941.806 .0251861
942.438 .0251773
943.070 .0251691
943.702 .0251613
944.333 .0251541
944.964 .0251473
945.594 .0251409
946.224 .0251349
946.854 .0251292
947.483 .0251238
948.112 .0251185
948.741 .0251134
949.369 .0251084
949.996 .0251034
950.624 .0250985
951.251 .0250937
951.878 .0250888
952.504 .0250840
953.130 .0250792
953.755 .0250745
954.380 .0250698
955.005 .0250653
955.629 .0250608
956.253 .0250565
956.877 .0250522
957.500 .0250481
958.123 .0250441
958.746 .0250402
959.368 .0250364
959.990 .0250328
960.611 .0250293
961.232 .0250260
961.853 .0250229
962.473 .0250199
963.093 .0250169
963.712 .0250140
964.331 .0250111
964.950 .0250081
965.569 .0250050
966.187 .0250019
966.804 .0249987
967.422 .0249954
968.039 .0249921
968.655 .0249887
969.272 .0249852
969.887 .0249816
970.503 .0249779
971.118 .0249741
971.733 .0249700
972.347 .0249658
972.961 .0249614
973.575 .0249568
974.188 .0249521
974.801 .0249472
975.414 .0249422
976.026 .0249371
976.638 .0249319
977.250 .0249267
977.861 .0249213
978.472 .0249160
979.083 .0249106
979.693 .0249052
980.303 .0248999
980.912 .0248920
981.521 .0248867
982.130 .0248813
982.738 .0248760
983.346 .0248707
983.954 .0248654
984.562 .0248603
985.169 .0248554
985.775 .0248508
986.382 .0248463
986.988 .0248421
987.594 .0248383
988.199 .0248347
988.804 .0248314
989.409 .0248306
990.013 .0248279
990.617 .0248257
991.221 .0248238
991.824 .0248223
992.427 .0248212
993.030 .0248203
993.632 .0248197
994.234 .0248193
994.836 .0248190
995.438 .0248187
996.039 .0248185
996.640 .0248183
997.240 .0248182
997.840 .0248182
998.440 .0248183
999.040 .0248185
999.639 .0248188
1000.238 .0248192
1000.836 .0248197
1001.435 .0248202
1002.033 .0248209
1002.630 .0248216
1003.228 .0248224
1003.825 .0248232
1004.422 .0248242
1005.018 .0248252
1005.614 .0248262
1006.210 .0248271
1006.806 .0248280
1007.401 .0248288
1007.996 .0248295
1008.591 .0248301
1009.186 .0248306
1009.780 .0248312
1010.374 .0248318
1010.967 .0248326
1011.561 .0248335
1012.154 .0248347
1012.746 .0248361
1013.339 .0248377
1013.931 .0248396
1014.523 .0248417
1015.115 .0248442
1015.706 .0248471
1016.298 .0248503
1016.888 .0248540
1017.479 .0248581
1018.069 .0248628
1018.660 .0248680
1019.250 .0248736
1019.839 .0248796
1020.429 .0248861
1021.018 .0248929
1021.607 .0249002
1022.195 .0249078
1022.784 .0249159
1023.372 .0249244
1023.960 .0249333
1024.547 .0249425
1025.135 .0249522
1025.722 .0249621
1026.309 .0249722
1026.896 .0249824
1027.483 .0249926
1028.069 .0250027
1028.655 .0250126
1029.241 .0250222
1029.827 .0250314
1030.412 .0250403
1030.997 .0250488
1031.582 .0250568
1032.167 .0250642
1032.752 .0250712
1033.336 .0250776
1033.921 .0250834
1034.505 .0250886
1035.089 .0250931
1035.672 .0250970
1036.256 .0251002
1036.839 .0251027
1037.422 .0251047
1038.005 .0251060
1038.588 .0251068
1039.171 .0251070
1039.753 .0251066
1040.335 .0251056
1040.918 .0251040
1041.500 .0251017
1042.081 .0250989
1042.663 .0250956
1043.244 .0250918
1043.826 .0250879
1044.407 .0250838
1044.988 .0250798
1045.569 .0250760
1046.150 .0250723
1046.730 .0250689
1047.311 .0250658
1047.891 .0250628
1048.471 .0250599
1049.052 .0250571
1049.632 .0250545
1050.211 .0250519
1050.791 .0250494
1051.371 .0250470
1051.950 .0250447
1052.530 .0250425
1053.109 .0250403
1053.688 .0250381
1054.268 .0250358
1054.847 .0250332
1055.426 .0250304
1056.005 .0250272
1056.583 .0250238
1057.162 .0250203
1057.741 .0250166
1058.319 .0250131
1058.898 .0250096
1059.476 .0250064
1060.055 .0250034
1060.633 .0250006
1061.211 .0249979
1061.790 .0249953
1062.368 .0249927
1062.946 .0249900
1063.524 .0249871
1064.102 .0249842
1064.680 .0249812
1065.258 .0249781
1065.836 .0249752
1066.414 .0249722
1066.992 .0249694
1067.570 .0249667
1068.148 .0249641
1068.726 .0249616
1069.304 .0249592
1069.882 .0249568
1070.460 .0249546
1071.038 .0249525
1071.616 .0249507
1072.194 .0249493
1072.772 .0249484
1073.350 .0249479
1073.928 .0249478
1074.506 .0249481
1075.084 .0249485
1075.662 .0249490
1076.240 .0249495
1076.819 .0249497
1077.397 .0249496
1077.976 .0249493
1078.554 .0249487
1079.133 .0249480
1079.711 .0249473
1080.290 .0249467
1080.869 .0249462
1081.448 .0249459
1082.027 .0249457
1082.606 .0249455
1083.185 .0249454
1083.764 .0249453
1084.343 .0249453
1084.923 .0249454
1085.502 .0249457
1086.082 .0249464
1086.662 .0249477
1087.242 .0249497
1087.822 .0249524
1088.402 .0249559
1088.983 .0249602
1089.563 .0249652
1090.144 .0249708
1090.725 .0249772
1091.306 .0249843
1091.887 .0249921
1092.469 .0250005
1093.050 .0250095
1093.632 .0250193
1094.214 .0250297
1094.796 .0250407
1095.379 .0250521
1095.961 .0250640
1096.544 .0250762
1097.127 .0250887
1097.710 .0251014
1098.294 .0251145
1098.877 .0251278
1099.461 .0251413
1100.046 .0251551
1100.630 .0251692
1101.215 .0251836
1101.800 .0251982
1102.385 .0252130
1102.970 .0252280
1103.556 .0252432
1104.142 .0252587
1104.728 .0252745
1105.315 .0252908
1105.902 .0253073
1106.489 .0253241
1107.077 .0253412
1107.664 .0253581
1108.253 .0253749
1108.841 .0253914
1109.430 .0254077
1110.019 .0254237
1110.609 .0254398
1111.198 .0254563
1111.789 .0254735
1112.379 .0254918
1112.970 .0255114
1113.561 .0255323
1114.153 .0255545
1114.745 .0255779
1115.338 .0256024
1115.931 .0256280
1116.524 .0256547
1117.117 .0256826
1117.712 .0257121
1118.306 .0257434
1118.901 .0257767
1119.496 .0258125
1120.092 .0258508
1120.689 .0258914
1121.285 .0259340
1121.882 .0259782
1122.480 .0260237
1123.078 .0260700
1123.677 .0261172
1124.276 .0261655
1124.875 .0262152
1125.476 .0262671
1126.076 .0263217
1126.677 .0263798
1127.279 .0264420
1127.881 .0265083
1128.484 .0265787
1129.087 .0266082
1129.691 .0266834
1130.295 .0267621
1130.900 .0268440
1131.505 .0269292
1132.111 .0270180
1132.718 .0271109
1133.325 .0272083
1133.933 .0273110
1134.541 .0274202
1135.150 .0275351
1135.760 .0276536
1136.370 .0277782
1136.981 .0277608
1137.592 .0279078
1138.204 .0280505
1138.817 .0281902
1139.431 .0283325
1140.045 .0284791
1140.660 .0286341
1141.275 .0288012
1141.891 .0289894
1142.508 .0292191
1143.126 .0294285
1143.744 .0295943
1144.363 .0298390
1144.983 .0302295
