Measurement Sequence started on: 15-12-46-377
Integration time: 28
Scans to Average: 2 
>>>>>Begin Spectral Data<<<<<
432.689 .0000100
433.621 .0000100
434.552 .0000100
435.482 .0000100
436.410 .0000100
437.337 .0000100
438.262 .0274819
439.187 .0582513
440.110 .0966363
441.031 .1399537
441.952 .1123888
442.871 .1173451
443.789 .1219496
444.705 .1262762
445.621 .1303759
446.535 .1342875
447.447 .1365921
448.359 .1371372
449.269 .1355394
450.178 .1315526
451.086 .1252526
451.993 .1171181
452.898 .1079434
453.803 .0986338
454.706 .0899611
455.608 .0824088
456.508 .0761436
457.408 .0718773
458.306 .0685898
459.204 .0659171
460.100 .0636694
460.995 .0617400
461.888 .0600574
462.781 .0585742
463.673 .0572542
464.563 .0560730
465.452 .0550120
466.340 .0540558
467.228 .0531935
468.114 .0524164
468.999 .0517156
469.882 .0510837
470.765 .0505136
471.647 .0500001
472.528 .0495385
473.407 .0491243
474.286 .0487540
475.163 .0484252
476.040 .0481343
476.915 .0478787
477.790 .0476555
478.663 .0474628
479.535 .0472987
480.407 .0471615
481.277 .0470496
482.147 .0469611
483.015 .0468940
483.883 .0468463
484.749 .0468161
485.615 .0468019
486.479 .0468022
487.343 .0468157
488.206 .0468425
489.067 .0468819
489.928 .0469345
490.788 .0470010
491.647 .0470825
492.505 .0471797
493.362 .0472935
494.218 .0474239
495.073 .0475709
495.928 .0478499
496.781 .0480380
497.634 .0482419
498.486 .0484623
499.337 .0487009
500.187 .0489597
501.036 .0492420
501.884 .0495518
502.731 .0498936
503.578 .0502723
504.424 .0505381
505.268 .0509905
506.113 .0514934
506.956 .0520513
507.798 .0526723
508.640 .0533650
509.480 .0541414
510.320 .0550150
511.160 .0560019
511.998 .0571203
512.836 .0583895
513.672 .0598288
514.508 .0614588
515.344 .0633005
516.178 .0653743
517.012 .0677018
517.845 .0703040
518.677 .0731991
519.508 .0764023
520.339 .0799196
521.169 .0837509
521.998 .0878673
522.826 .0922297
523.654 .0967746
524.481 .1014286
525.307 .1061062
526.133 .1107146
526.958 .1151593
527.782 .1193522
528.605 .1232131
529.428 .1266741
530.250 .1296723
531.072 .1321686
531.892 .1341247
532.712 .1355180
533.532 .1363299
534.350 .1365515
535.168 .1361793
535.986 .1352188
536.802 .1336768
537.618 .1315680
538.434 .1289102
539.249 .1257509
540.063 .1221440
540.876 .1181639
541.689 .1138924
542.501 .1094175
543.313 .1048304
544.124 .1002208
544.934 .0956673
545.744 .0912391
546.553 .0869917
547.361 .0829753
548.169 .0792160
548.976 .0757378
549.783 .0725468
550.589 .0696443
551.395 .0670193
552.200 .0646547
553.004 .0625246
553.808 .0606041
554.611 .0588680
555.414 .0572932
556.216 .0558562
557.018 .0545369
557.819 .0533192
558.619 .0521900
559.419 .0511394
560.218 .0501604
561.017 .0492463
561.815 .0483926
562.613 .0475953
563.410 .0468489
564.207 .0461470
565.003 .0454835
565.799 .0448514
566.594 .0442459
567.388 .0436631
568.182 .0430997
568.976 .0425538
569.769 .0420240
570.562 .0415104
571.354 .0410128
572.145 .0405321
572.936 .0400689
573.727 .0396237
574.517 .0391968
575.307 .0387879
576.096 .0383960
576.885 .0380207
577.673 .0376615
578.461 .0373181
579.248 .0369898
580.035 .0366764
580.821 .0363773
581.607 .0360926
582.392 .0358226
583.177 .0355677
583.962 .0353280
584.746 .0351039
585.529 .0348953
586.313 .0347021
587.095 .0345236
587.878 .0343592
588.660 .0342080
589.441 .0340688
590.222 .0339405
591.003 .0338221
591.783 .0337125
592.563 .0336110
593.342 .0335170
594.121 .0334300
594.899 .0333493
595.678 .0332743
596.455 .0332043
597.233 .0331388
598.009 .0330770
598.786 .0330182
599.562 .0329618
600.338 .0329072
601.113 .0328542
601.888 .0327790
602.663 .0327291
603.437 .0326804
604.211 .0326332
604.984 .0325876
605.757 .0325435
606.530 .0325011
607.302 .0324603
608.074 .0324212
608.845 .0323836
609.616 .0323474
610.387 .0323322
611.158 .0322976
611.928 .0322642
612.697 .0322318
613.467 .0322003
614.236 .0321697
615.004 .0321400
615.773 .0321113
616.541 .0320834
617.308 .0320563
618.076 .0320299
618.843 .0320041
619.609 .0319787
620.375 .0319536
621.141 .0319286
621.907 .0319037
622.672 .0318788
623.437 .0318538
624.202 .0318289
624.966 .0318039
625.730 .0317790
626.493 .0317540
627.257 .0317290
628.020 .0317039
628.782 .0316787
629.545 .0316535
630.307 .0316282
631.068 .0316030
631.830 .0315778
632.591 .0315525
633.352 .0315272
634.112 .0315018
634.872 .0314762
635.632 .0314506
636.392 .0314247
637.151 .0313988
637.910 .0313729
638.668 .0313470
639.427 .0313214
640.185 .0312961
640.943 .0312711
641.700 .0312466
642.457 .0312224
643.214 .0311986
643.971 .0311750
644.727 .0311516
645.483 .0311284
646.239 .0311054
646.994 .0310826
647.750 .0310598
648.505 .0310372
649.259 .0310146
650.014 .0309922
650.768 .0309700
651.521 .0309479
652.275 .0309260
653.028 .0309042
653.781 .0308824
654.534 .0308605
655.286 .0308385
656.039 .0308160
656.791 .0307931
657.542 .0307696
658.294 .0307454
659.045 .0307206
659.796 .0306952
660.546 .0306695
661.297 .0306435
662.047 .0306174
662.796 .0305911
663.546 .0305647
664.295 .0305383
665.044 .0305118
665.793 .0304851
666.542 .0304584
667.290 .0304317
668.038 .0304052
668.786 .0303789
669.533 .0303531
670.281 .0303280
671.028 .0303036
671.774 .0302799
672.521 .0302571
673.267 .0302350
674.013 .0302136
674.759 .0301929
675.505 .0301729
676.250 .0301533
676.995 .0301343
677.740 .0301156
678.484 .0300972
679.229 .0300791
679.973 .0300612
680.717 .0300434
681.460 .0300258
682.204 .0300083
682.947 .0299908
683.690 .0299734
684.433 .0299560
685.175 .0299386
685.917 .0299211
686.659 .0299035
687.401 .0298856
688.142 .0298675
688.884 .0298492
689.625 .0298307
690.365 .0298120
691.106 .0297932
691.846 .0297742
692.586 .0297552
693.326 .0297362
694.066 .0297172
694.805 .0296983
695.545 .0296794
696.284 .0296606
697.022 .0296419
697.761 .0296233
698.499 .0296048
699.237 .0295863
699.975 .0295678
700.713 .0295492
701.450 .0295306
702.187 .0295118
702.924 .0294928
703.661 .0294737
704.397 .0294543
705.133 .0294346
705.869 .0294146
706.605 .0293943
707.341 .0293737
708.076 .0293528
708.811 .0293315
709.546 .0293100
710.281 .0292883
711.015 .0292664
711.749 .0292443
712.483 .0292222
713.217 .0292001
713.950 .0291781
714.684 .0291560
715.417 .0291341
716.150 .0291123
716.882 .0290907
717.615 .0290693
718.347 .0290482
719.079 .0290275
719.811 .0290072
720.542 .0289873
721.273 .0289678
722.005 .0289489
722.735 .0289304
723.466 .0289124
724.196 .0288950
724.927 .0288781
725.656 .0288617
726.386 .0288460
727.116 .0288309
727.845 .0288163
728.574 .0288023
729.303 .0287887
730.031 .0287757
730.760 .0287631
731.488 .0287508
732.216 .0287390
732.944 .0287275
733.671 .0287163
734.398 .0287055
735.125 .0286949
735.852 .0286846
736.579 .0286744
737.305 .0286643
738.031 .0286544
738.757 .0286445
739.483 .0286348
740.208 .0286253
740.933 .0286159
741.658 .0286067
742.383 .0285978
743.108 .0285889
743.832 .0285802
744.556 .0285715
745.280 .0285627
746.004 .0285538
746.727 .0285448
747.450 .0285356
748.173 .0285264
748.896 .0285170
749.618 .0285075
750.340 .0284980
751.062 .0284883
751.784 .0284786
752.506 .0284687
753.227 .0284586
753.948 .0284483
754.669 .0284378
755.389 .0284271
756.110 .0284162
756.830 .0284052
757.550 .0283940
758.269 .0283825
758.989 .0283709
759.708 .0283590
760.427 .0283469
761.146 .0283346
761.864 .0283221
762.582 .0283093
763.300 .0282964
764.018 .0282833
764.736 .0282701
765.453 .0282568
766.170 .0282434
766.887 .0282299
767.603 .0282164
768.320 .0282030
769.036 .0281896
769.751 .0281764
770.467 .0281635
771.182 .0281508
771.897 .0281384
772.612 .0281264
773.327 .0281147
774.041 .0281035
774.755 .0280926
775.469 .0280821
776.183 .0280721
776.896 .0280624
777.609 .0280532
778.322 .0280443
779.035 .0280359
779.747 .0280277
780.459 .0280199
781.171 .0280123
781.882 .0280049
782.594 .0279976
783.305 .0279903
784.016 .0279830
784.726 .0279756
785.436 .0279679
786.147 .0279549
786.856 .0279462
787.566 .0279370
788.275 .0279275
788.984 .0279174
789.693 .0279068
790.401 .0278957
791.110 .0278840
791.818 .0278717
792.525 .0278588
793.233 .0278453
793.940 .0278313
794.647 .0278231
795.353 .0278085
796.060 .0277935
796.766 .0277781
797.472 .0277625
798.177 .0277465
798.883 .0277302
799.588 .0277137
800.292 .0276968
800.997 .0276797
801.701 .0276623
802.405 .0276448
803.109 .0276272
803.812 .0276094
804.515 .0275915
805.218 .0275735
805.921 .0275554
806.623 .0275370
807.325 .0275184
808.027 .0274996
808.728 .0274805
809.429 .0274613
810.130 .0274420
810.831 .0274226
811.531 .0274034
812.231 .0273843
812.931 .0273653
813.630 .0273466
814.330 .0273281
815.029 .0273099
815.727 .0272921
816.426 .0272746
817.124 .0272577
817.821 .0272412
818.519 .0272253
819.216 .0272100
819.913 .0271954
820.609 .0271814
821.306 .0271682
822.002 .0271557
822.697 .0271440
823.393 .0271330
824.088 .0271227
824.783 .0271131
825.477 .0271042
826.171 .0270959
826.865 .0270881
827.559 .0270808
828.252 .0270740
828.945 .0270677
829.638 .0270617
830.330 .0270561
831.023 .0270508
831.714 .0270458
832.406 .0270410
833.097 .0270364
833.788 .0270319
834.479 .0270276
835.169 .0270234
835.859 .0270193
836.548 .0270153
837.238 .0270114
837.927 .0270076
838.615 .0270038
839.304 .0270000
839.992 .0269962
840.680 .0269923
841.367 .0269884
842.054 .0269845
842.741 .0269807
843.428 .0269768
844.114 .0269731
844.800 .0269694
845.485 .0269658
846.170 .0269621
846.855 .0269585
847.540 .0269547
848.224 .0269509
848.908 .0269468
849.592 .0269426
850.275 .0269381
850.958 .0269334
851.641 .0269284
852.323 .0269232
853.005 .0269177
853.687 .0269120
854.368 .0269059
855.049 .0268995
855.730 .0268929
856.410 .0268860
857.090 .0268788
857.769 .0268714
858.449 .0268638
859.128 .0268561
859.806 .0268483
860.485 .0268405
861.163 .0268328
861.840 .0268251
862.518 .0268176
863.195 .0268103
863.871 .0268031
864.548 .0267961
865.224 .0267894
865.899 .0267828
866.574 .0267764
867.249 .0267703
867.924 .0267644
868.598 .0267587
869.272 .0267534
869.946 .0267482
870.619 .0267433
871.292 .0267386
871.964 .0267341
872.636 .0267298
873.308 .0267257
873.979 .0267218
874.651 .0267180
875.321 .0267144
875.992 .0267110
876.662 .0267077
877.331 .0267045
878.001 .0267013
878.670 .0266982
879.338 .0266950
880.007 .0266918
880.675 .0266885
881.342 .0266851
882.009 .0266817
882.676 .0266783
883.343 .0266748
884.009 .0266714
884.675 .0266680
885.340 .0266646
886.005 .0266613
886.670 .0266580
887.334 .0266549
887.998 .0266518
888.662 .0266488
889.325 .0266458
889.988 .0266428
890.650 .0266398
891.312 .0266367
891.974 .0266335
892.636 .0266302
893.297 .0266267
893.957 .0266230
894.618 .0266190
895.278 .0266147
895.937 .0266100
896.596 .0266048
897.255 .0265990
897.914 .0265926
898.572 .0265853
899.230 .0265774
899.887 .0265686
900.544 .0265590
901.201 .0265486
901.857 .0265289
902.513 .0265162
903.168 .0265025
903.823 .0264879
904.478 .0264721
905.132 .0264554
905.786 .0264377
906.440 .0264191
907.093 .0263997
907.746 .0263796
908.399 .0263588
909.051 .0263375
909.703 .0263156
910.354 .0263034
911.005 .0262812
911.656 .0262585
912.306 .0262355
912.956 .0262123
913.605 .0261888
914.254 .0261651
914.903 .0261414
915.551 .0261177
916.199 .0260939
916.847 .0260701
917.494 .0260461
918.141 .0260221
918.788 .0259979
919.434 .0259736
920.079 .0259492
920.725 .0259246
921.370 .0258999
922.014 .0258751
922.658 .0258501
923.302 .0258250
923.946 .0257996
924.589 .0257740
925.231 .0257482
925.873 .0257221
926.515 .0256958
927.157 .0256694
927.798 .0256428
928.439 .0256162
929.079 .0255897
929.719 .0255631
930.359 .0255367
930.998 .0255104
931.637 .0254843
932.275 .0254584
932.913 .0254328
933.551 .0254076
934.188 .0253830
934.825 .0253590
935.462 .0253357
936.098 .0253131
936.733 .0252913
937.369 .0252703
938.004 .0252500
938.638 .0252305
939.273 .0252118
939.907 .0251939
940.540 .0251769
941.173 .0251606
941.806 .0251453
942.438 .0251307
943.070 .0251170
943.702 .0251039
944.333 .0250915
944.964 .0250796
945.594 .0250681
946.224 .0250570
946.854 .0250461
947.483 .0250355
948.112 .0250250
948.741 .0250146
949.369 .0250043
949.996 .0249940
950.624 .0249836
951.251 .0249731
951.878 .0249623
952.504 .0249514
953.130 .0249403
953.755 .0249290
954.380 .0249176
955.005 .0249062
955.629 .0248948
956.253 .0248835
956.877 .0248723
957.500 .0248613
958.123 .0248505
958.746 .0248400
959.368 .0248298
959.990 .0248200
960.611 .0248106
961.232 .0248018
961.853 .0247934
962.473 .0247856
963.093 .0247784
963.712 .0247718
964.331 .0247658
964.950 .0247604
965.569 .0247556
966.187 .0247515
966.804 .0247481
967.422 .0247453
968.039 .0247431
968.655 .0247414
969.272 .0247401
969.887 .0247392
970.503 .0247387
971.118 .0247384
971.733 .0247384
972.347 .0247387
972.961 .0247391
973.575 .0247396
974.188 .0247402
974.801 .0247407
975.414 .0247412
976.026 .0247414
976.638 .0247414
977.250 .0247411
977.861 .0247404
978.472 .0247394
979.083 .0247381
979.693 .0247366
980.303 .0247350
980.912 .0247318
981.521 .0247301
982.130 .0247283
982.738 .0247264
983.346 .0247246
983.954 .0247228
984.562 .0247212
985.169 .0247198
985.775 .0247188
986.382 .0247183
986.988 .0247182
987.594 .0247187
988.199 .0247198
988.804 .0247214
989.409 .0247244
990.013 .0247270
990.617 .0247302
991.221 .0247339
991.824 .0247383
992.427 .0247432
993.030 .0247487
993.632 .0247549
994.234 .0247615
994.836 .0247687
995.438 .0247762
996.039 .0247841
996.640 .0247922
997.240 .0248004
997.840 .0248088
998.440 .0248174
999.040 .0248261
999.639 .0248349
1000.238 .0248439
1000.836 .0248531
1001.435 .0248624
1002.033 .0248719
1002.630 .0248814
1003.228 .0248909
1003.825 .0249004
1004.422 .0249098
1005.018 .0249191
1005.614 .0249282
1006.210 .0249373
1006.806 .0249461
1007.401 .0249548
1007.996 .0249632
1008.591 .0249715
1009.186 .0249795
1009.780 .0249875
1010.374 .0249953
1010.967 .0250030
1011.561 .0250107
1012.154 .0250183
1012.746 .0250260
1013.339 .0250339
1013.931 .0250418
1014.523 .0250500
1015.115 .0250584
1015.706 .0250671
1016.298 .0250761
1016.888 .0250854
1017.479 .0250950
1018.069 .0251050
1018.660 .0251152
1019.250 .0251258
1019.839 .0251366
1020.429 .0251477
1021.018 .0251589
1021.607 .0251704
1022.195 .0251820
1022.784 .0251938
1023.372 .0252057
1023.960 .0252177
1024.547 .0252299
1025.135 .0252422
1025.722 .0252546
1026.309 .0252671
1026.896 .0252796
1027.483 .0252922
1028.069 .0253048
1028.655 .0253174
1029.241 .0253299
1029.827 .0253424
1030.412 .0253549
1030.997 .0253672
1031.582 .0253794
1032.167 .0253915
1032.752 .0254034
1033.336 .0254150
1033.921 .0254263
1034.505 .0254373
1035.089 .0254479
1035.672 .0254581
1036.256 .0254679
1036.839 .0254773
1037.422 .0254863
1038.005 .0254949
1038.588 .0255029
1039.171 .0255105
1039.753 .0255176
1040.335 .0255241
1040.918 .0255300
1041.500 .0255353
1042.081 .0255400
1042.663 .0255441
1043.244 .0255478
1043.826 .0255509
1044.407 .0255536
1044.988 .0255558
1045.569 .0255575
1046.150 .0255588
1046.730 .0255595
1047.311 .0255596
1047.891 .0255592
1048.471 .0255581
1049.052 .0255563
1049.632 .0255537
1050.211 .0255505
1050.791 .0255465
1051.371 .0255418
1051.950 .0255363
1052.530 .0255300
1053.109 .0255229
1053.688 .0255150
1054.268 .0255064
1054.847 .0254970
1055.426 .0254869
1056.005 .0254763
1056.583 .0254653
1057.162 .0254541
1057.741 .0254427
1058.319 .0254314
1058.898 .0254201
1059.476 .0254090
1060.055 .0253979
1060.633 .0253869
1061.211 .0253761
1061.790 .0253654
1062.368 .0253549
1062.946 .0253446
1063.524 .0253345
1064.102 .0253247
1064.680 .0253151
1065.258 .0253058
1065.836 .0252967
1066.414 .0252879
1066.992 .0252792
1067.570 .0252707
1068.148 .0252625
1068.726 .0252546
1069.304 .0252470
1069.882 .0252397
1070.460 .0252328
1071.038 .0252263
1071.616 .0252202
1072.194 .0252145
1072.772 .0252090
1073.350 .0252040
1073.928 .0251991
1074.506 .0251945
1075.084 .0251901
1075.662 .0251858
1076.240 .0251816
1076.819 .0251774
1077.397 .0251731
1077.976 .0251688
1078.554 .0251643
1079.133 .0251597
1079.711 .0251548
1080.290 .0251496
1080.869 .0251441
1081.448 .0251383
1082.027 .0251322
1082.606 .0251258
1083.185 .0251193
1083.764 .0251127
1084.343 .0251062
1084.923 .0250997
1085.502 .0250935
1086.082 .0250875
1086.662 .0250820
1087.242 .0250770
1087.822 .0250726
1088.402 .0250688
1088.983 .0250657
1089.563 .0250634
1090.144 .0250616
1090.725 .0250605
1091.306 .0250600
1091.887 .0250600
1092.469 .0250603
1093.050 .0250610
1093.632 .0250620
1094.214 .0250632
1094.796 .0250646
1095.379 .0250662
1095.961 .0250680
1096.544 .0250698
1097.127 .0250717
1097.710 .0250735
1098.294 .0250753
1098.877 .0250769
1099.461 .0250784
1100.046 .0250800
1100.630 .0250818
1101.215 .0250838
1101.800 .0250862
1102.385 .0250892
1102.970 .0250928
1103.556 .0250971
1104.142 .0251022
1104.728 .0251080
1105.315 .0251146
1105.902 .0251222
1106.489 .0251309
1107.077 .0251409
1107.664 .0251522
1108.253 .0251650
1108.841 .0251792
1109.430 .0251950
1110.019 .0252122
1110.609 .0252309
1111.198 .0252510
1111.789 .0252725
1112.379 .0252954
1112.970 .0253197
1113.561 .0253456
1114.153 .0253732
1114.745 .0254027
1115.338 .0254342
1115.931 .0254676
1116.524 .0255029
1117.117 .0255399
1117.712 .0255783
1118.306 .0256182
1118.901 .0256594
1119.496 .0257018
1120.092 .0257457
1120.689 .0257911
1121.285 .0258383
1121.882 .0258873
1122.480 .0259383
1123.078 .0259909
1123.677 .0260449
1124.276 .0261002
1124.875 .0261564
1125.476 .0262134
1126.076 .0262715
1126.677 .0263309
1127.279 .0263919
1127.881 .0264552
1128.484 .0265211
1129.087 .0265477
1129.691 .0266178
1130.295 .0266915
1130.900 .0267687
1131.505 .0268497
1132.111 .0269347
1132.718 .0270239
1133.325 .0271182
1133.933 .0272180
1134.541 .0273227
1135.150 .0274351
1135.760 .0275521
1136.370 .0276843
1136.981 .0276446
1137.592 .0277764
1138.204 .0279154
1138.817 .0280555
1139.431 .0282023
1140.045 .0283557
1140.660 .0285179
1141.275 .0286975
1141.891 .0288946
1142.508 .0290701
1143.126 .0293211
1143.744 .0294942
1144.363 .0299646
1144.983 .0301737
