Measurement Sequence started on: 15-12-46-377
Integration time: 28
Scans to Average: 2 
>>>>>Begin Spectral Data<<<<<
432.689 .0000100
433.621 .0000100
434.552 .0000100
435.482 .0000100
436.410 .0000100
437.337 .0000100
438.262 .0281254
439.187 .0596017
440.110 .0988202
441.031 .1430864
441.952 .1149355
442.871 .1200184
443.789 .1247421
444.705 .1291840
445.621 .1333974
446.535 .1374224
447.447 .1398075
448.359 .1403978
449.269 .1388048
450.178 .1347771
451.086 .1283898
451.993 .1201316
452.898 .1108148
453.803 .1013624
454.706 .0925624
455.608 .0849068
456.508 .0785656
457.408 .0742671
458.306 .0709674
459.204 .0682926
460.100 .0660507
460.995 .0641337
461.888 .0624665
462.781 .0609978
463.673 .0596901
464.563 .0585165
465.452 .0574573
466.340 .0564957
467.228 .0556198
468.114 .0548212
468.999 .0540923
469.882 .0534262
470.765 .0528171
471.647 .0522598
472.528 .0517497
473.407 .0512817
474.286 .0508523
475.163 .0504589
476.040 .0500990
476.915 .0497710
477.790 .0494733
478.663 .0492051
479.535 .0489655
480.407 .0487535
481.277 .0485684
482.147 .0484087
483.015 .0482728
483.883 .0481590
484.749 .0480649
485.615 .0479893
486.479 .0479307
487.343 .0478882
488.206 .0478622
489.067 .0478527
489.928 .0478608
490.788 .0478878
491.647 .0479349
492.505 .0480032
493.362 .0480931
494.218 .0482050
495.073 .0483384
495.928 .0486168
496.781 .0488066
497.634 .0490195
498.486 .0492581
499.337 .0495249
500.187 .0498234
501.036 .0501578
501.884 .0505312
502.731 .0509470
503.578 .0514079
504.424 .0517340
505.268 .0522688
506.113 .0528531
506.956 .0534889
507.798 .0541793
508.640 .0549305
509.480 .0557495
510.320 .0566458
511.160 .0576313
511.998 .0587190
512.836 .0599237
513.672 .0612614
514.508 .0627505
515.344 .0644103
516.178 .0662593
517.012 .0683193
517.845 .0706114
518.677 .0731557
519.508 .0759694
520.339 .0790630
521.169 .0824428
521.998 .0860931
522.826 .0899855
523.654 .0940736
524.481 .0982973
525.307 .1025839
526.133 .1068482
526.958 .1110012
527.782 .1149557
528.605 .1186284
529.428 .1219480
530.250 .1248515
531.072 .1272951
531.892 .1292419
532.712 .1306679
533.532 .1315589
534.350 .1319068
535.168 .1317090
535.986 .1309666
536.802 .1296851
537.618 .1278755
538.434 .1255505
539.249 .1227450
540.063 .1195052
540.876 .1158903
541.689 .1119692
542.501 .1078203
543.313 .1035276
544.124 .0991779
544.934 .0948533
545.744 .0906289
546.553 .0865678
547.361 .0827235
548.169 .0791289
548.976 .0758078
549.783 .0727691
550.589 .0700088
551.395 .0675139
552.200 .0652652
553.004 .0632384
553.808 .0614082
554.611 .0597507
555.414 .0582445
556.216 .0568682
557.018 .0556021
557.819 .0544300
558.619 .0533391
559.419 .0523201
560.218 .0513660
561.017 .0504706
561.815 .0496286
562.613 .0488358
563.410 .0480869
564.207 .0473764
565.003 .0466989
565.799 .0460483
566.594 .0454199
567.388 .0448112
568.182 .0442193
568.976 .0436425
569.769 .0430808
570.562 .0425342
571.354 .0420030
572.145 .0414879
572.936 .0409896
573.727 .0405086
574.517 .0400455
575.307 .0396012
576.096 .0391754
576.885 .0387688
577.673 .0383820
578.461 .0380152
579.248 .0376685
580.035 .0373419
580.821 .0370349
581.607 .0367473
582.392 .0364788
583.177 .0362290
583.962 .0359971
584.746 .0357827
585.529 .0355848
586.313 .0354025
587.095 .0352347
587.878 .0350805
588.660 .0349386
589.441 .0348079
590.222 .0346872
591.003 .0345756
591.783 .0344723
592.563 .0343765
593.342 .0342873
594.121 .0342041
594.899 .0341260
595.678 .0340524
596.455 .0339826
597.233 .0339162
598.009 .0338524
598.786 .0337910
599.562 .0337314
600.338 .0336735
601.113 .0336171
601.888 .0335373
602.663 .0334843
603.437 .0334326
604.211 .0333819
604.984 .0333322
605.757 .0332834
606.530 .0332355
607.302 .0331885
608.074 .0331422
608.845 .0330967
609.616 .0330521
610.387 .0330320
611.158 .0329890
611.928 .0329471
612.697 .0329063
613.467 .0328666
614.236 .0328280
615.004 .0327904
615.773 .0327537
616.541 .0327177
617.308 .0326824
618.076 .0326477
618.843 .0326134
619.609 .0325797
620.375 .0325465
621.141 .0325139
621.907 .0324818
622.672 .0324502
623.437 .0324191
624.202 .0323884
624.966 .0323580
625.730 .0323278
626.493 .0322979
627.257 .0322679
628.020 .0322381
628.782 .0322083
629.545 .0321787
630.307 .0321492
631.068 .0321201
631.830 .0320912
632.591 .0320628
633.352 .0320348
634.112 .0320072
634.872 .0319800
635.632 .0319532
636.392 .0319267
637.151 .0319006
637.910 .0318748
638.668 .0318494
639.427 .0318244
640.185 .0317999
640.943 .0317759
641.700 .0317527
642.457 .0317301
643.214 .0317082
643.971 .0316871
644.727 .0316666
645.483 .0316468
646.239 .0316274
646.994 .0316085
647.750 .0315899
648.505 .0315714
649.259 .0315530
650.014 .0315347
650.768 .0315164
651.521 .0314979
652.275 .0314794
653.028 .0314607
653.781 .0314416
654.534 .0314223
655.286 .0314024
656.039 .0313821
656.791 .0313612
657.542 .0313398
658.294 .0313179
659.045 .0312955
659.796 .0312726
660.546 .0312494
661.297 .0312258
662.047 .0312018
662.796 .0311774
663.546 .0311526
664.295 .0311275
665.044 .0311020
665.793 .0310763
666.542 .0310504
667.290 .0310243
668.038 .0309981
668.786 .0309718
669.533 .0309453
670.281 .0309186
671.028 .0308918
671.774 .0308650
672.521 .0308383
673.267 .0308116
674.013 .0307850
674.759 .0307586
675.505 .0307324
676.250 .0307062
676.995 .0306801
677.740 .0306540
678.484 .0306279
679.229 .0306017
679.973 .0305757
680.717 .0305498
681.460 .0305241
682.204 .0304986
682.947 .0304732
683.690 .0304480
684.433 .0304227
685.175 .0303976
685.917 .0303724
686.659 .0303474
687.401 .0303224
688.142 .0302975
688.884 .0302729
689.625 .0302485
690.365 .0302243
691.106 .0302005
691.846 .0301769
692.586 .0301535
693.326 .0301303
694.066 .0301073
694.805 .0300845
695.545 .0300620
696.284 .0300398
697.022 .0300178
697.761 .0299962
698.499 .0299749
699.237 .0299540
699.975 .0299336
700.713 .0299138
701.450 .0298946
702.187 .0298760
702.924 .0298582
703.661 .0298411
704.397 .0298248
705.133 .0298092
705.869 .0297943
706.605 .0297802
707.341 .0297668
708.076 .0297541
708.811 .0297422
709.546 .0297309
710.281 .0297202
711.015 .0297100
711.749 .0297002
712.483 .0296906
713.217 .0296811
713.950 .0296716
714.684 .0296620
715.417 .0296521
716.150 .0296420
716.882 .0296314
717.615 .0296205
718.347 .0296092
719.079 .0295975
719.811 .0295854
720.542 .0295728
721.273 .0295598
722.005 .0295464
722.735 .0295326
723.466 .0295185
724.196 .0295040
724.927 .0294893
725.656 .0294744
726.386 .0294593
727.116 .0294442
727.845 .0294292
728.574 .0294141
729.303 .0293993
730.031 .0293846
730.760 .0293702
731.488 .0293562
732.216 .0293424
732.944 .0293290
733.671 .0293159
734.398 .0293031
735.125 .0292906
735.852 .0292783
736.579 .0292663
737.305 .0292544
738.031 .0292427
738.757 .0292311
739.483 .0292196
740.208 .0292081
740.933 .0291965
741.658 .0291848
742.383 .0291728
743.108 .0291606
743.832 .0291480
744.556 .0291349
745.280 .0291215
746.004 .0291075
746.727 .0290931
747.450 .0290780
748.173 .0290624
748.896 .0290461
749.618 .0290292
750.340 .0290115
751.062 .0289932
751.784 .0289742
752.506 .0289545
753.227 .0289342
753.948 .0289133
754.669 .0288919
755.389 .0288699
756.110 .0288474
756.830 .0288243
757.550 .0288007
758.269 .0287766
758.989 .0287521
759.708 .0287273
760.427 .0287024
761.146 .0286773
761.864 .0286523
762.582 .0286274
763.300 .0286027
764.018 .0285781
764.736 .0285538
765.453 .0285297
766.170 .0285058
766.887 .0284823
767.603 .0284592
768.320 .0284365
769.036 .0284144
769.751 .0283928
770.467 .0283718
771.182 .0283514
771.897 .0283315
772.612 .0283124
773.327 .0282938
774.041 .0282759
774.755 .0282586
775.469 .0282420
776.183 .0282261
776.896 .0282109
777.609 .0281965
778.322 .0281827
779.035 .0281697
779.747 .0281574
780.459 .0281458
781.171 .0281350
781.882 .0281248
782.594 .0281153
783.305 .0281063
784.016 .0280979
784.726 .0280901
785.436 .0280826
786.147 .0280730
786.856 .0280664
787.566 .0280601
788.275 .0280542
788.984 .0280484
789.693 .0280429
790.401 .0280375
791.110 .0280322
791.818 .0280269
792.525 .0280216
793.233 .0280163
793.940 .0280108
794.647 .0280077
795.353 .0280022
796.060 .0279966
796.766 .0279909
797.472 .0279851
798.177 .0279791
798.883 .0279730
799.588 .0279666
800.292 .0279601
800.997 .0279534
801.701 .0279466
802.405 .0279397
803.109 .0279327
803.812 .0279257
804.515 .0279188
805.218 .0279118
805.921 .0279048
806.623 .0278979
807.325 .0278909
808.027 .0278839
808.728 .0278770
809.429 .0278701
810.130 .0278633
810.831 .0278565
811.531 .0278498
812.231 .0278432
812.931 .0278367
813.630 .0278303
814.330 .0278241
815.029 .0278181
815.727 .0278123
816.426 .0278068
817.124 .0278016
817.821 .0277967
818.519 .0277921
819.216 .0277878
819.913 .0277838
820.609 .0277800
821.306 .0277765
822.002 .0277733
822.697 .0277705
823.393 .0277679
824.088 .0277658
824.783 .0277640
825.477 .0277626
826.171 .0277615
826.865 .0277606
827.559 .0277598
828.252 .0277590
828.945 .0277582
829.638 .0277573
830.330 .0277563
831.023 .0277552
831.714 .0277539
832.406 .0277525
833.097 .0277510
833.788 .0277493
834.479 .0277474
835.169 .0277452
835.859 .0277427
836.548 .0277398
837.238 .0277364
837.927 .0277326
838.615 .0277282
839.304 .0277231
839.992 .0277174
840.680 .0277110
841.367 .0277038
842.054 .0276958
842.741 .0276870
843.428 .0276773
844.114 .0276669
844.800 .0276557
845.485 .0276436
846.170 .0276308
846.855 .0276171
847.540 .0276026
848.224 .0275872
848.908 .0275709
849.592 .0275536
850.275 .0275353
850.958 .0275161
851.641 .0274960
852.323 .0274750
853.005 .0274532
853.687 .0274306
854.368 .0274072
855.049 .0273830
855.730 .0273582
856.410 .0273327
857.090 .0273064
857.769 .0272796
858.449 .0272522
859.128 .0272242
859.806 .0271959
860.485 .0271672
861.163 .0271384
861.840 .0271094
862.518 .0270804
863.195 .0270515
863.871 .0270227
864.548 .0269942
865.224 .0269659
865.899 .0269380
866.574 .0269104
867.249 .0268832
867.924 .0268564
868.598 .0268300
869.272 .0268041
869.946 .0267787
870.619 .0267538
871.292 .0267294
871.964 .0267057
872.636 .0266825
873.308 .0266600
873.979 .0266382
874.651 .0266169
875.321 .0265963
875.992 .0265763
876.662 .0265570
877.331 .0265382
878.001 .0265202
878.670 .0265028
879.338 .0264862
880.007 .0264703
880.675 .0264550
881.342 .0264406
882.009 .0264268
882.676 .0264137
883.343 .0264014
884.009 .0263899
884.675 .0263791
885.340 .0263692
886.005 .0263601
886.670 .0263519
887.334 .0263445
887.998 .0263378
888.662 .0263318
889.325 .0263264
889.988 .0263215
890.650 .0263172
891.312 .0263134
891.974 .0263100
892.636 .0263069
893.297 .0263042
893.957 .0263017
894.618 .0262993
895.278 .0262969
895.937 .0262944
896.596 .0262917
897.255 .0262887
897.914 .0262854
898.572 .0262817
899.230 .0262776
899.887 .0262730
900.544 .0262679
901.201 .0262623
901.857 .0262513
902.513 .0262443
903.168 .0262369
903.823 .0262289
904.478 .0262206
905.132 .0262118
905.786 .0262028
906.440 .0261937
907.093 .0261844
907.746 .0261751
908.399 .0261658
909.051 .0261568
909.703 .0261481
910.354 .0261449
911.005 .0261370
911.656 .0261295
912.306 .0261224
912.956 .0261159
913.605 .0261098
914.254 .0261042
914.903 .0260992
915.551 .0260947
916.199 .0260907
916.847 .0260871
917.494 .0260839
918.141 .0260810
918.788 .0260783
919.434 .0260756
920.079 .0260730
920.725 .0260703
921.370 .0260674
922.014 .0260643
922.658 .0260610
923.302 .0260575
923.946 .0260539
924.589 .0260500
925.231 .0260459
925.873 .0260415
926.515 .0260367
927.157 .0260317
927.798 .0260264
928.439 .0260208
929.079 .0260151
929.719 .0260092
930.359 .0260033
930.998 .0259974
931.637 .0259917
932.275 .0259861
932.913 .0259808
933.551 .0259757
934.188 .0259709
934.825 .0259666
935.462 .0259627
936.098 .0259595
936.733 .0259568
937.369 .0259548
938.004 .0259535
938.638 .0259529
939.273 .0259530
939.907 .0259536
940.540 .0259548
941.173 .0259565
941.806 .0259587
942.438 .0259613
943.070 .0259643
943.702 .0259676
944.333 .0259713
944.964 .0259751
945.594 .0259789
946.224 .0259827
946.854 .0259863
947.483 .0259896
948.112 .0259925
948.741 .0259949
949.369 .0259968
949.996 .0259983
950.624 .0259992
951.251 .0259997
951.878 .0259997
952.504 .0259993
953.130 .0259984
953.755 .0259971
954.380 .0259954
955.005 .0259934
955.629 .0259910
956.253 .0259884
956.877 .0259854
957.500 .0259821
958.123 .0259785
958.746 .0259745
959.368 .0259701
959.990 .0259653
960.611 .0259601
961.232 .0259544
961.853 .0259482
962.473 .0259416
963.093 .0259345
963.712 .0259270
964.331 .0259190
964.950 .0259106
965.569 .0259017
966.187 .0258923
966.804 .0258823
967.422 .0258717
968.039 .0258606
968.655 .0258488
969.272 .0258365
969.887 .0258237
970.503 .0258103
971.118 .0257965
971.733 .0257822
972.347 .0257674
972.961 .0257522
973.575 .0257363
974.188 .0257197
974.801 .0257025
975.414 .0256846
976.026 .0256660
976.638 .0256468
977.250 .0256269
977.861 .0256066
978.472 .0255858
979.083 .0255645
979.693 .0255426
980.303 .0255202
980.912 .0254842
981.521 .0254602
982.130 .0254357
982.738 .0254109
983.346 .0253857
983.954 .0253603
984.562 .0253349
985.169 .0253093
985.775 .0252837
986.382 .0252580
986.988 .0252323
987.594 .0252064
988.199 .0251806
988.804 .0251548
989.409 .0251426
990.013 .0251174
990.617 .0250925
991.221 .0250679
991.824 .0250439
992.427 .0250204
993.030 .0249974
993.632 .0249748
994.234 .0249527
994.836 .0249310
995.438 .0249098
996.039 .0248891
996.640 .0248689
997.240 .0248493
997.840 .0248304
998.440 .0248122
999.040 .0247947
999.639 .0247779
1000.238 .0247616
1000.836 .0247459
1001.435 .0247307
1002.033 .0247158
1002.630 .0247013
1003.228 .0246871
1003.825 .0246732
1004.422 .0246595
1005.018 .0246461
1005.614 .0246328
1006.210 .0246197
1006.806 .0246068
1007.401 .0245940
1007.996 .0245813
1008.591 .0245688
1009.186 .0245564
1009.780 .0245442
1010.374 .0245322
1010.967 .0245205
1011.561 .0245090
1012.154 .0244979
1012.746 .0244870
1013.339 .0244765
1013.931 .0244665
1014.523 .0244568
1015.115 .0244475
1015.706 .0244387
1016.298 .0244303
1016.888 .0244223
1017.479 .0244148
1018.069 .0244077
1018.660 .0244012
1019.250 .0243951
1019.839 .0243896
1020.429 .0243846
1021.018 .0243802
1021.607 .0243763
1022.195 .0243731
1022.784 .0243706
1023.372 .0243686
1023.960 .0243671
1024.547 .0243662
1025.135 .0243658
1025.722 .0243659
1026.309 .0243664
1026.896 .0243672
1027.483 .0243684
1028.069 .0243699
1028.655 .0243717
1029.241 .0243737
1029.827 .0243760
1030.412 .0243785
1030.997 .0243811
1031.582 .0243839
1032.167 .0243869
1032.752 .0243901
1033.336 .0243936
1033.921 .0243973
1034.505 .0244013
1035.089 .0244056
1035.672 .0244100
1036.256 .0244147
1036.839 .0244195
1037.422 .0244244
1038.005 .0244295
1038.588 .0244347
1039.171 .0244401
1039.753 .0244458
1040.335 .0244517
1040.918 .0244579
1041.500 .0244646
1042.081 .0244717
1042.663 .0244791
1043.244 .0244870
1043.826 .0244953
1044.407 .0245039
1044.988 .0245129
1045.569 .0245223
1046.150 .0245320
1046.730 .0245421
1047.311 .0245525
1047.891 .0245632
1048.471 .0245743
1049.052 .0245856
1049.632 .0245971
1050.211 .0246087
1050.791 .0246202
1051.371 .0246317
1051.950 .0246429
1052.530 .0246538
1053.109 .0246643
1053.688 .0246745
1054.268 .0246842
1054.847 .0246937
1055.426 .0247028
1056.005 .0247118
1056.583 .0247206
1057.162 .0247292
1057.741 .0247377
1058.319 .0247458
1058.898 .0247536
1059.476 .0247611
1060.055 .0247681
1060.633 .0247748
1061.211 .0247811
1061.790 .0247873
1062.368 .0247934
1062.946 .0247996
1063.524 .0248058
1064.102 .0248123
1064.680 .0248190
1065.258 .0248258
1065.836 .0248328
1066.414 .0248398
1066.992 .0248469
1067.570 .0248542
1068.148 .0248618
1068.726 .0248699
1069.304 .0248786
1069.882 .0248883
1070.460 .0248989
1071.038 .0249105
1071.616 .0249230
1072.194 .0249364
1072.772 .0249504
1073.350 .0249650
1073.928 .0249802
1074.506 .0249958
1075.084 .0250119
1075.662 .0250287
1076.240 .0250463
1076.819 .0250647
1077.397 .0250839
1077.976 .0251040
1078.554 .0251249
1079.133 .0251465
1079.711 .0251688
1080.290 .0251918
1080.869 .0252156
1081.448 .0252402
1082.027 .0252658
1082.606 .0252924
1083.185 .0253202
1083.764 .0253490
1084.343 .0253790
1084.923 .0254100
1085.502 .0254418
1086.082 .0254741
1086.662 .0255069
1087.242 .0255400
1087.822 .0255732
1088.402 .0256066
1088.983 .0256401
1089.563 .0256735
1090.144 .0257069
1090.725 .0257400
1091.306 .0257730
1091.887 .0258055
1092.469 .0258376
1093.050 .0258690
1093.632 .0258999
1094.214 .0259302
1094.796 .0259600
1095.379 .0259893
1095.961 .0260181
1096.544 .0260465
1097.127 .0260746
1097.710 .0261024
1098.294 .0261297
1098.877 .0261565
1099.461 .0261829
1100.046 .0262086
1100.630 .0262338
1101.215 .0262585
1101.800 .0262828
1102.385 .0263070
1102.970 .0263313
1103.556 .0263557
1104.142 .0263806
1104.728 .0264062
1105.315 .0264327
1105.902 .0264600
1106.489 .0264884
1107.077 .0265178
1107.664 .0265483
1108.253 .0265799
1108.841 .0266127
1109.430 .0266469
1110.019 .0266824
1110.609 .0267194
1111.198 .0267578
1111.789 .0267976
1112.379 .0268386
1112.970 .0268807
1113.561 .0269238
1114.153 .0269675
1114.745 .0270119
1115.338 .0270568
1115.931 .0271023
1116.524 .0271487
1117.117 .0271960
1117.712 .0272445
1118.306 .0272942
1118.901 .0273451
1119.496 .0273969
1120.092 .0274497
1120.689 .0275032
1121.285 .0275573
1121.882 .0276118
1122.480 .0276666
1123.078 .0277219
1123.677 .0277778
1124.276 .0278347
1124.875 .0278928
1125.476 .0279525
1126.076 .0280138
1126.677 .0280768
1127.279 .0281417
1127.881 .0282082
1128.484 .0282767
1129.087 .0283062
1129.691 .0283772
1130.295 .0284503
1130.900 .0285258
1131.505 .0286043
1132.111 .0286859
1132.718 .0287706
1133.325 .0288579
1133.933 .0289470
1134.541 .0290488
1135.150 .0291428
1135.760 .0292365
1136.370 .0293184
1136.981 .0293834
1137.592 .0294913
1138.204 .0296024
1138.817 .0297209
1139.431 .0298501
1140.045 .0299828
1140.660 .0301167
1141.275 .0302369
1141.891 .0303423
1142.508 .0307524
1143.126 .0305967
1143.744 .0306522
1144.363 .0303835
1144.983 .0304746
