Measurement Sequence started on: 15-12-46-377
Integration time: 28
Scans to Average: 2 
>>>>>Begin Spectral Data<<<<<
432.689 .0000100
433.621 .0000100
434.552 .0000100
435.482 .0000100
436.410 .0000100
437.337 .0000100
438.262 .0280752
439.187 .0594546
440.110 .0985060
441.031 .1425656
441.952 .1143929
442.871 .1194500
443.789 .1241503
444.705 .1285691
445.621 .1327586
446.535 .1367587
447.447 .1391203
448.359 .1396900
449.269 .1380817
450.178 .1340445
451.086 .1276559
451.993 .1194035
452.898 .1100969
453.803 .1006562
454.706 .0918667
455.608 .0842188
456.508 .0778801
457.408 .0735765
458.306 .0702660
459.204 .0675759
460.100 .0653160
460.995 .0633785
461.888 .0616895
462.781 .0601977
463.673 .0588655
464.563 .0576665
465.452 .0565817
466.340 .0555960
467.228 .0546984
468.114 .0538793
468.999 .0531304
469.882 .0524438
470.765 .0518120
471.647 .0512282
472.528 .0506865
473.407 .0501821
474.286 .0497114
475.163 .0492723
476.040 .0488632
476.915 .0484839
477.790 .0481344
478.663 .0478146
479.535 .0475256
480.407 .0472666
481.277 .0470379
482.147 .0468384
483.015 .0466672
483.883 .0465238
484.749 .0464072
485.615 .0463169
486.479 .0462527
487.343 .0462143
488.206 .0462023
489.067 .0462164
489.928 .0462575
490.788 .0463264
491.647 .0464232
492.505 .0465478
493.362 .0466995
494.218 .0468772
495.073 .0470798
495.928 .0474649
496.781 .0477223
497.634 .0480008
498.486 .0483005
499.337 .0486222
500.187 .0489672
501.036 .0493373
501.884 .0497344
502.731 .0501612
503.578 .0506203
504.424 .0509135
505.268 .0514311
506.113 .0519902
506.956 .0525952
507.798 .0532526
508.640 .0539719
509.480 .0547640
510.320 .0556430
511.160 .0566231
511.998 .0577183
512.836 .0589461
513.672 .0603247
514.508 .0618720
515.344 .0636072
516.178 .0655510
517.012 .0677272
517.845 .0701558
518.677 .0728579
519.508 .0758521
520.339 .0791495
521.169 .0827568
521.998 .0866533
522.826 .0908051
523.654 .0951600
524.481 .0996500
525.307 .1041959
526.133 .1087085
526.958 .1130929
527.782 .1172532
528.605 .1211007
529.428 .1245631
530.250 .1275728
531.072 .1300842
531.892 .1320615
532.712 .1334834
533.532 .1343364
534.350 .1346139
535.168 .1343192
535.986 .1334614
536.802 .1320474
537.618 .1300862
538.434 .1275880
539.249 .1245897
540.063 .1211396
540.876 .1173004
541.689 .1131473
542.501 .1087647
543.313 .1042407
544.124 .0996671
544.934 .0951324
545.744 .0907165
546.553 .0864838
547.361 .0824892
548.169 .0787647
548.976 .0753319
549.783 .0721961
550.589 .0693515
551.395 .0667821
552.200 .0644657
553.004 .0623722
553.808 .0604756
554.611 .0587545
555.414 .0571900
556.216 .0557641
557.018 .0544593
557.819 .0532616
558.619 .0521577
559.419 .0511354
560.218 .0501861
561.017 .0493009
561.815 .0484732
562.613 .0476969
563.410 .0469661
564.207 .0462761
565.003 .0456221
565.799 .0449997
566.594 .0444049
567.388 .0438349
568.182 .0432868
568.976 .0427578
569.769 .0422457
570.562 .0417491
571.354 .0412671
572.145 .0407992
572.936 .0403448
573.727 .0399032
574.517 .0394740
575.307 .0390575
576.096 .0386532
576.885 .0382617
577.673 .0378832
578.461 .0375182
579.248 .0371673
580.035 .0368313
580.821 .0365108
581.607 .0362063
582.392 .0359185
583.177 .0356481
583.962 .0353951
584.746 .0351596
585.529 .0349415
586.313 .0347404
587.095 .0345555
587.878 .0343860
588.660 .0342312
589.441 .0340898
590.222 .0339610
591.003 .0338437
591.783 .0337371
592.563 .0336401
593.342 .0335517
594.121 .0334709
594.899 .0333968
595.678 .0333283
596.455 .0332644
597.233 .0332042
598.009 .0331471
598.786 .0330924
599.562 .0330396
600.338 .0329884
601.113 .0329385
601.888 .0328673
602.663 .0328202
603.437 .0327742
604.211 .0327293
604.984 .0326853
605.757 .0326424
606.530 .0326006
607.302 .0325598
608.074 .0325199
608.845 .0324812
609.616 .0324435
610.387 .0324273
611.158 .0323912
611.928 .0323562
612.697 .0323222
613.467 .0322892
614.236 .0322573
615.004 .0322261
615.773 .0321959
616.541 .0321664
617.308 .0321376
618.076 .0321095
618.843 .0320819
619.609 .0320547
620.375 .0320277
621.141 .0320008
621.907 .0319740
622.672 .0319470
623.437 .0319198
624.202 .0318924
624.966 .0318647
625.730 .0318370
626.493 .0318092
627.257 .0317813
628.020 .0317534
628.782 .0317254
629.545 .0316973
630.307 .0316691
631.068 .0316407
631.830 .0316123
632.591 .0315839
633.352 .0315557
634.112 .0315278
634.872 .0315004
635.632 .0314735
636.392 .0314472
637.151 .0314216
637.910 .0313966
638.668 .0313723
639.427 .0313487
640.185 .0313259
640.943 .0313040
641.700 .0312831
642.457 .0312632
643.214 .0312443
643.971 .0312264
644.727 .0312093
645.483 .0311929
646.239 .0311771
646.994 .0311617
647.750 .0311466
648.505 .0311316
649.259 .0311167
650.014 .0311017
650.768 .0310865
651.521 .0310709
652.275 .0310547
653.028 .0310379
653.781 .0310202
654.534 .0310015
655.286 .0309819
656.039 .0309613
656.791 .0309397
657.542 .0309172
658.294 .0308938
659.045 .0308696
659.796 .0308447
660.546 .0308192
661.297 .0307930
662.047 .0307664
662.796 .0307394
663.546 .0307121
664.295 .0306846
665.044 .0306571
665.793 .0306297
666.542 .0306025
667.290 .0305755
668.038 .0305489
668.786 .0305227
669.533 .0304970
670.281 .0304718
671.028 .0304473
671.774 .0304233
672.521 .0303999
673.267 .0303771
674.013 .0303548
674.759 .0303330
675.505 .0303114
676.250 .0302900
676.995 .0302686
677.740 .0302471
678.484 .0302252
679.229 .0302032
679.973 .0301808
680.717 .0301582
681.460 .0301353
682.204 .0301121
682.947 .0300887
683.690 .0300649
684.433 .0300408
685.175 .0300162
685.917 .0299912
686.659 .0299657
687.401 .0299399
688.142 .0299138
688.884 .0298875
689.625 .0298612
690.365 .0298349
691.106 .0298088
691.846 .0297829
692.586 .0297573
693.326 .0297318
694.066 .0297066
694.805 .0296817
695.545 .0296570
696.284 .0296328
697.022 .0296090
697.761 .0295857
698.499 .0295628
699.237 .0295406
699.975 .0295190
700.713 .0294980
701.450 .0294776
702.187 .0294577
702.924 .0294385
703.661 .0294197
704.397 .0294016
705.133 .0293840
705.869 .0293670
706.605 .0293506
707.341 .0293347
708.076 .0293194
708.811 .0293048
709.546 .0292907
710.281 .0292773
711.015 .0292644
711.749 .0292521
712.483 .0292404
713.217 .0292293
713.950 .0292187
714.684 .0292086
715.417 .0291989
716.150 .0291896
716.882 .0291806
717.615 .0291719
718.347 .0291634
719.079 .0291551
719.811 .0291469
720.542 .0291388
721.273 .0291307
722.005 .0291226
722.735 .0291143
723.466 .0291059
724.196 .0290972
724.927 .0290882
725.656 .0290789
726.386 .0290693
727.116 .0290595
727.845 .0290496
728.574 .0290396
729.303 .0290296
730.031 .0290197
730.760 .0290097
731.488 .0289997
732.216 .0289895
732.944 .0289792
733.671 .0289688
734.398 .0289582
735.125 .0289476
735.852 .0289370
736.579 .0289265
737.305 .0289160
738.031 .0289057
738.757 .0288955
739.483 .0288853
740.208 .0288751
740.933 .0288648
741.658 .0288544
742.383 .0288436
743.108 .0288325
743.832 .0288209
744.556 .0288087
745.280 .0287958
746.004 .0287821
746.727 .0287676
747.450 .0287523
748.173 .0287362
748.896 .0287192
749.618 .0287015
750.340 .0286831
751.062 .0286639
751.784 .0286440
752.506 .0286234
753.227 .0286019
753.948 .0285796
754.669 .0285564
755.389 .0285326
756.110 .0285081
756.830 .0284832
757.550 .0284579
758.269 .0284326
758.989 .0284072
759.708 .0283819
760.427 .0283567
761.146 .0283315
761.864 .0283064
762.582 .0282814
763.300 .0282563
764.018 .0282313
764.736 .0282065
765.453 .0281818
766.170 .0281573
766.887 .0281331
767.603 .0281092
768.320 .0280858
769.036 .0280627
769.751 .0280400
770.467 .0280177
771.182 .0279957
771.897 .0279740
772.612 .0279526
773.327 .0279314
774.041 .0279106
774.755 .0278899
775.469 .0278695
776.183 .0278494
776.896 .0278296
777.609 .0278102
778.322 .0277914
779.035 .0277730
779.747 .0277554
780.459 .0277384
781.171 .0277222
781.882 .0277067
782.594 .0276920
783.305 .0276780
784.016 .0276647
784.726 .0276520
785.436 .0276401
786.147 .0276253
786.856 .0276151
787.566 .0276055
788.275 .0275967
788.984 .0275885
789.693 .0275809
790.401 .0275739
791.110 .0275674
791.818 .0275613
792.525 .0275556
793.233 .0275501
793.940 .0275449
794.647 .0275426
795.353 .0275375
796.060 .0275327
796.766 .0275280
797.472 .0275235
798.177 .0275190
798.883 .0275146
799.588 .0275102
800.292 .0275057
800.997 .0275012
801.701 .0274966
802.405 .0274919
803.109 .0274871
803.812 .0274822
804.515 .0274772
805.218 .0274720
805.921 .0274668
806.623 .0274615
807.325 .0274560
808.027 .0274505
808.728 .0274448
809.429 .0274391
810.130 .0274332
810.831 .0274274
811.531 .0274216
812.231 .0274159
812.931 .0274103
813.630 .0274048
814.330 .0273996
815.029 .0273946
815.727 .0273898
816.426 .0273852
817.124 .0273809
817.821 .0273768
818.519 .0273729
819.216 .0273693
819.913 .0273659
820.609 .0273628
821.306 .0273601
822.002 .0273576
822.697 .0273556
823.393 .0273539
824.088 .0273525
824.783 .0273514
825.477 .0273507
826.171 .0273502
826.865 .0273500
827.559 .0273500
828.252 .0273502
828.945 .0273504
829.638 .0273508
830.330 .0273511
831.023 .0273514
831.714 .0273516
832.406 .0273516
833.097 .0273515
833.788 .0273510
834.479 .0273503
835.169 .0273493
835.859 .0273480
836.548 .0273463
837.238 .0273441
837.927 .0273415
838.615 .0273383
839.304 .0273345
839.992 .0273299
840.680 .0273246
841.367 .0273185
842.054 .0273116
842.741 .0273039
843.428 .0272954
844.114 .0272859
844.800 .0272757
845.485 .0272644
846.170 .0272523
846.855 .0272391
847.540 .0272248
848.224 .0272095
848.908 .0271931
849.592 .0271755
850.275 .0271570
850.958 .0271373
851.641 .0271167
852.323 .0270952
853.005 .0270728
853.687 .0270495
854.368 .0270255
855.049 .0270008
855.730 .0269754
856.410 .0269495
857.090 .0269230
857.769 .0268960
858.449 .0268686
859.128 .0268409
859.806 .0268129
860.485 .0267848
861.163 .0267565
861.840 .0267282
862.518 .0266998
863.195 .0266715
863.871 .0266433
864.548 .0266151
865.224 .0265871
865.899 .0265593
866.574 .0265316
867.249 .0265041
867.924 .0264768
868.598 .0264498
869.272 .0264230
869.946 .0263965
870.619 .0263701
871.292 .0263440
871.964 .0263181
872.636 .0262925
873.308 .0262671
873.979 .0262421
874.651 .0262175
875.321 .0261934
875.992 .0261697
876.662 .0261466
877.331 .0261239
878.001 .0261019
878.670 .0260804
879.338 .0260595
880.007 .0260393
880.675 .0260198
881.342 .0260011
882.009 .0259833
882.676 .0259663
883.343 .0259503
884.009 .0259351
884.675 .0259208
885.340 .0259074
886.005 .0258949
886.670 .0258834
887.334 .0258727
887.998 .0258629
888.662 .0258540
889.325 .0258459
889.988 .0258386
890.650 .0258320
891.312 .0258260
891.974 .0258205
892.636 .0258154
893.297 .0258107
893.957 .0258063
894.618 .0258022
895.278 .0257983
895.937 .0257947
896.596 .0257911
897.255 .0257876
897.914 .0257840
898.572 .0257803
899.230 .0257764
899.887 .0257724
900.544 .0257681
901.201 .0257636
901.857 .0257557
902.513 .0257507
903.168 .0257455
903.823 .0257401
904.478 .0257343
905.132 .0257283
905.786 .0257221
906.440 .0257156
907.093 .0257090
907.746 .0257022
908.399 .0256955
909.051 .0256888
909.703 .0256822
910.354 .0256792
911.005 .0256731
911.656 .0256672
912.306 .0256615
912.956 .0256561
913.605 .0256510
914.254 .0256463
914.903 .0256420
915.551 .0256381
916.199 .0256345
916.847 .0256313
917.494 .0256285
918.141 .0256259
918.788 .0256235
919.434 .0256213
920.079 .0256191
920.725 .0256170
921.370 .0256148
922.014 .0256127
922.658 .0256105
923.302 .0256083
923.946 .0256060
924.589 .0256037
925.231 .0256013
925.873 .0255988
926.515 .0255962
927.157 .0255936
927.798 .0255908
928.439 .0255880
929.079 .0255852
929.719 .0255823
930.359 .0255795
930.998 .0255767
931.637 .0255740
932.275 .0255716
932.913 .0255693
933.551 .0255673
934.188 .0255658
934.825 .0255646
935.462 .0255639
936.098 .0255638
936.733 .0255643
937.369 .0255653
938.004 .0255668
938.638 .0255689
939.273 .0255714
939.907 .0255745
940.540 .0255780
941.173 .0255820
941.806 .0255865
942.438 .0255914
943.070 .0255967
943.702 .0256023
944.333 .0256080
944.964 .0256138
945.594 .0256195
946.224 .0256250
946.854 .0256302
947.483 .0256349
948.112 .0256392
948.741 .0256430
949.369 .0256462
949.996 .0256489
950.624 .0256511
951.251 .0256526
951.878 .0256534
952.504 .0256535
953.130 .0256528
953.755 .0256513
954.380 .0256490
955.005 .0256459
955.629 .0256422
956.253 .0256378
956.877 .0256329
957.500 .0256275
958.123 .0256216
958.746 .0256154
959.368 .0256088
959.990 .0256018
960.611 .0255945
961.232 .0255868
961.853 .0255790
962.473 .0255709
963.093 .0255626
963.712 .0255542
964.331 .0255456
964.950 .0255368
965.569 .0255279
966.187 .0255189
966.804 .0255096
967.422 .0255000
968.039 .0254901
968.655 .0254798
969.272 .0254690
969.887 .0254577
970.503 .0254460
971.118 .0254337
971.733 .0254209
972.347 .0254076
972.961 .0253937
973.575 .0253792
974.188 .0253640
974.801 .0253481
975.414 .0253314
976.026 .0253140
976.638 .0252957
977.250 .0252765
977.861 .0252566
978.472 .0252358
979.083 .0252144
979.693 .0251924
980.303 .0251698
980.912 .0251335
981.521 .0251098
982.130 .0250857
982.738 .0250612
983.346 .0250363
983.954 .0250109
984.562 .0249853
985.169 .0249595
985.775 .0249335
986.382 .0249076
986.988 .0248817
987.594 .0248560
988.199 .0248305
988.804 .0248052
989.409 .0247934
990.013 .0247685
990.617 .0247439
991.221 .0247194
991.824 .0246953
992.427 .0246715
993.030 .0246479
993.632 .0246247
994.234 .0246018
994.836 .0245793
995.438 .0245570
996.039 .0245350
996.640 .0245132
997.240 .0244917
997.840 .0244704
998.440 .0244494
999.040 .0244288
999.639 .0244084
1000.238 .0243883
1000.836 .0243685
1001.435 .0243489
1002.033 .0243296
1002.630 .0243104
1003.228 .0242916
1003.825 .0242729
1004.422 .0242545
1005.018 .0242364
1005.614 .0242186
1006.210 .0242012
1006.806 .0241842
1007.401 .0241674
1007.996 .0241510
1008.591 .0241349
1009.186 .0241191
1009.780 .0241036
1010.374 .0240885
1010.967 .0240738
1011.561 .0240597
1012.154 .0240461
1012.746 .0240331
1013.339 .0240209
1013.931 .0240094
1014.523 .0239985
1015.115 .0239883
1015.706 .0239787
1016.298 .0239697
1016.888 .0239613
1017.479 .0239536
1018.069 .0239467
1018.660 .0239405
1019.250 .0239351
1019.839 .0239304
1020.429 .0239265
1021.018 .0239231
1021.607 .0239203
1022.195 .0239178
1022.784 .0239156
1023.372 .0239138
1023.960 .0239124
1024.547 .0239114
1025.135 .0239109
1025.722 .0239110
1026.309 .0239116
1026.896 .0239127
1027.483 .0239143
1028.069 .0239162
1028.655 .0239184
1029.241 .0239207
1029.827 .0239233
1030.412 .0239260
1030.997 .0239290
1031.582 .0239323
1032.167 .0239359
1032.752 .0239398
1033.336 .0239439
1033.921 .0239482
1034.505 .0239526
1035.089 .0239569
1035.672 .0239612
1036.256 .0239655
1036.839 .0239698
1037.422 .0239741
1038.005 .0239785
1038.588 .0239832
1039.171 .0239882
1039.753 .0239935
1040.335 .0239991
1040.918 .0240052
1041.500 .0240117
1042.081 .0240187
1042.663 .0240261
1043.244 .0240341
1043.826 .0240425
1044.407 .0240516
1044.988 .0240611
1045.569 .0240712
1046.150 .0240817
1046.730 .0240926
1047.311 .0241038
1047.891 .0241153
1048.471 .0241271
1049.052 .0241390
1049.632 .0241510
1050.211 .0241633
1050.791 .0241757
1051.371 .0241883
1051.950 .0242010
1052.530 .0242138
1053.109 .0242267
1053.688 .0242397
1054.268 .0242528
1054.847 .0242660
1055.426 .0242795
1056.005 .0242932
1056.583 .0243071
1057.162 .0243213
1057.741 .0243357
1058.319 .0243501
1058.898 .0243646
1059.476 .0243792
1060.055 .0243937
1060.633 .0244083
1061.211 .0244229
1061.790 .0244377
1062.368 .0244527
1062.946 .0244679
1063.524 .0244831
1064.102 .0244984
1064.680 .0245135
1065.258 .0245284
1065.836 .0245430
1066.414 .0245574
1066.992 .0245716
1067.570 .0245856
1068.148 .0245997
1068.726 .0246138
1069.304 .0246282
1069.882 .0246428
1070.460 .0246576
1071.038 .0246726
1071.616 .0246876
1072.194 .0247027
1072.772 .0247178
1073.350 .0247329
1073.928 .0247479
1074.506 .0247631
1075.084 .0247783
1075.662 .0247935
1076.240 .0248088
1076.819 .0248241
1077.397 .0248394
1077.976 .0248546
1078.554 .0248697
1079.133 .0248847
1079.711 .0248996
1080.290 .0249146
1080.869 .0249298
1081.448 .0249452
1082.027 .0249611
1082.606 .0249774
1083.185 .0249941
1083.764 .0250114
1084.343 .0250291
1084.923 .0250474
1085.502 .0250662
1086.082 .0250855
1086.662 .0251055
1087.242 .0251261
1087.822 .0251473
1088.402 .0251690
1088.983 .0251912
1089.563 .0252135
1090.144 .0252360
1090.725 .0252584
1091.306 .0252808
1091.887 .0253031
1092.469 .0253257
1093.050 .0253486
1093.632 .0253721
1094.214 .0253965
1094.796 .0254217
1095.379 .0254478
1095.961 .0254749
1096.544 .0255028
1097.127 .0255316
1097.710 .0255611
1098.294 .0255913
1098.877 .0256222
1099.461 .0256538
1100.046 .0256862
1100.630 .0257193
1101.215 .0257532
1101.800 .0257879
1102.385 .0258232
1102.970 .0258590
1103.556 .0258954
1104.142 .0259322
1104.728 .0259693
1105.315 .0260064
1105.902 .0260435
1106.489 .0260806
1107.077 .0261177
1107.664 .0261549
1108.253 .0261922
1108.841 .0262296
1109.430 .0262673
1110.019 .0263048
1110.609 .0263422
1111.198 .0263791
1111.789 .0264153
1112.379 .0264506
1112.970 .0264850
1113.561 .0265182
1114.153 .0265503
1114.745 .0265815
1115.338 .0266123
1115.931 .0266426
1116.524 .0266728
1117.117 .0267028
1117.712 .0267328
1118.306 .0267629
1118.901 .0267929
1119.496 .0268231
1120.092 .0268536
1120.689 .0268846
1121.285 .0269162
1121.882 .0269487
1122.480 .0269825
1123.078 .0270179
1123.677 .0270549
1124.276 .0270936
1124.875 .0271340
1125.476 .0271763
1126.076 .0272206
1126.677 .0272671
1127.279 .0273160
1127.881 .0273675
1128.484 .0274217
1129.087 .0274417
1129.691 .0275001
1130.295 .0275619
1130.900 .0276273
1131.505 .0276964
1132.111 .0277692
1132.718 .0278455
1133.325 .0279252
1133.933 .0280082
1134.541 .0280970
1135.150 .0281909
1135.760 .0282823
1136.370 .0283752
1136.981 .0284092
1137.592 .0285191
1138.204 .0286270
1138.817 .0287401
1139.431 .0288563
1140.045 .0289783
1140.660 .0291018
1141.275 .0292265
1141.891 .0293535
1142.508 .0295554
1143.126 .0297409
1143.744 .0297150
1144.363 .0298027
1144.983 .0299118
