Measurement Sequence started on: 15-12-46-377
Integration time: 28
Scans to Average: 2 
>>>>>Begin Spectral Data<<<<<
432.689 .0000100
433.621 .0000100
434.552 .0000100
435.482 .0000100
436.410 .0000100
437.337 .0000100
438.262 .0280519
439.187 .0594403
440.110 .0985924
441.031 .1427250
441.952 .1144841
442.871 .1195330
443.789 .1242194
444.705 .1286163
445.621 .1327761
446.535 .1367379
447.447 .1390561
448.359 .1395800
449.269 .1379219
450.178 .1338357
451.086 .1274006
451.993 .1191046
452.898 .1097594
453.803 .1002846
454.706 .0914642
455.608 .0837872
456.508 .0774204
457.408 .0730889
458.306 .0697517
459.204 .0670382
460.100 .0647569
460.995 .0628022
461.888 .0611032
462.781 .0596090
463.673 .0582817
464.563 .0570928
465.452 .0560188
466.340 .0550412
467.228 .0541466
468.114 .0533249
468.999 .0525695
469.882 .0518738
470.765 .0512330
471.647 .0506431
472.528 .0501009
473.407 .0496025
474.286 .0491445
475.163 .0487244
476.040 .0483393
476.915 .0479868
477.790 .0476657
478.663 .0473744
479.535 .0471123
480.407 .0468792
481.277 .0466744
482.147 .0464971
483.015 .0463466
483.883 .0462210
484.749 .0461190
485.615 .0460394
486.479 .0459802
487.343 .0459401
488.206 .0459184
489.067 .0459146
489.928 .0459287
490.788 .0459621
491.647 .0460162
492.505 .0460925
493.362 .0461934
494.218 .0463204
495.073 .0464741
495.928 .0468024
496.781 .0470232
497.634 .0472683
498.486 .0475361
499.337 .0478252
500.187 .0481360
501.036 .0484700
501.884 .0488290
502.731 .0492170
503.578 .0496380
504.424 .0499120
505.268 .0503940
506.113 .0509194
506.956 .0514915
507.798 .0521144
508.640 .0527950
509.480 .0535413
510.320 .0543643
511.160 .0552765
511.998 .0562935
512.836 .0574327
513.672 .0587139
514.508 .0601576
515.344 .0617852
516.178 .0636193
517.012 .0656859
517.845 .0680097
518.677 .0706168
519.508 .0735280
520.339 .0767565
521.169 .0803069
521.998 .0841589
522.826 .0882768
523.654 .0926062
524.481 .0970780
525.307 .1016135
526.133 .1061224
526.958 .1105133
527.782 .1146950
528.605 .1185864
529.428 .1221146
530.250 .1252131
531.072 .1278343
531.892 .1299386
532.712 .1314984
533.532 .1324968
534.350 .1329238
535.168 .1327772
535.986 .1320580
536.802 .1307697
537.618 .1289199
538.434 .1265235
539.249 .1236195
540.063 .1202578
540.876 .1165037
541.689 .1124353
542.501 .1081361
543.313 .1036949
544.124 .0992019
544.934 .0947411
545.744 .0903862
546.553 .0862002
547.361 .0822376
548.169 .0785318
548.976 .0751090
549.783 .0719797
550.589 .0691416
551.395 .0665815
552.200 .0642773
553.004 .0622005
553.808 .0603246
554.611 .0586257
555.414 .0570811
556.216 .0556696
557.018 .0543734
557.819 .0531785
558.619 .0520721
559.419 .0510447
560.218 .0500894
561.017 .0491979
561.815 .0483647
562.613 .0475828
563.410 .0468457
564.207 .0461472
565.003 .0454824
565.799 .0448456
566.594 .0442330
567.388 .0436426
568.182 .0430724
568.976 .0425208
569.769 .0419878
570.562 .0414727
571.354 .0409748
572.145 .0404935
572.936 .0400278
573.727 .0395766
574.517 .0391398
575.307 .0387171
576.096 .0383085
576.885 .0379144
577.673 .0375357
578.461 .0371727
579.248 .0368260
580.035 .0364963
580.821 .0361835
581.607 .0358876
582.392 .0356083
583.177 .0353451
583.962 .0350974
584.746 .0348649
585.529 .0346474
586.313 .0344446
587.095 .0342562
587.878 .0340820
588.660 .0339213
589.441 .0337738
590.222 .0336389
591.003 .0335157
591.783 .0334032
592.563 .0333003
593.342 .0332060
594.121 .0331191
594.899 .0330387
595.678 .0329639
596.455 .0328939
597.233 .0328282
598.009 .0327660
598.786 .0327070
599.562 .0326507
600.338 .0325970
601.113 .0325454
601.888 .0324747
602.663 .0324276
603.437 .0323822
604.211 .0323382
604.984 .0322956
605.757 .0322545
606.530 .0322147
607.302 .0321763
608.074 .0321392
608.845 .0321034
609.616 .0320689
610.387 .0320548
611.158 .0320222
611.928 .0319907
612.697 .0319604
613.467 .0319312
614.236 .0319031
615.004 .0318759
615.773 .0318497
616.541 .0318243
617.308 .0317997
618.076 .0317758
618.843 .0317525
619.609 .0317298
620.375 .0317076
621.141 .0316857
621.907 .0316641
622.672 .0316426
623.437 .0316211
624.202 .0315995
624.966 .0315778
625.730 .0315559
626.493 .0315339
627.257 .0315116
628.020 .0314892
628.782 .0314666
629.545 .0314437
630.307 .0314206
631.068 .0313971
631.830 .0313731
632.591 .0313486
633.352 .0313235
634.112 .0312978
634.872 .0312717
635.632 .0312451
636.392 .0312182
637.151 .0311911
637.910 .0311638
638.668 .0311364
639.427 .0311089
640.185 .0310812
640.943 .0310534
641.700 .0310254
642.457 .0309972
643.214 .0309688
643.971 .0309402
644.727 .0309113
645.483 .0308824
646.239 .0308533
646.994 .0308242
647.750 .0307952
648.505 .0307662
649.259 .0307373
650.014 .0307086
650.768 .0306802
651.521 .0306519
652.275 .0306238
653.028 .0305959
653.781 .0305682
654.534 .0305406
655.286 .0305132
656.039 .0304861
656.791 .0304592
657.542 .0304325
658.294 .0304062
659.045 .0303802
659.796 .0303545
660.546 .0303292
661.297 .0303043
662.047 .0302798
662.796 .0302556
663.546 .0302317
664.295 .0302081
665.044 .0301850
665.793 .0301622
666.542 .0301399
667.290 .0301179
668.038 .0300964
668.786 .0300754
669.533 .0300547
670.281 .0300346
671.028 .0300148
671.774 .0299956
672.521 .0299768
673.267 .0299585
674.013 .0299408
674.759 .0299236
675.505 .0299069
676.250 .0298909
676.995 .0298754
677.740 .0298604
678.484 .0298459
679.229 .0298319
679.973 .0298184
680.717 .0298054
681.460 .0297927
682.204 .0297803
682.947 .0297682
683.690 .0297563
684.433 .0297446
685.175 .0297328
685.917 .0297210
686.659 .0297091
687.401 .0296969
688.142 .0296843
688.884 .0296714
689.625 .0296580
690.365 .0296441
691.106 .0296296
691.846 .0296146
692.586 .0295989
693.326 .0295827
694.066 .0295659
694.805 .0295486
695.545 .0295308
696.284 .0295126
697.022 .0294940
697.761 .0294751
698.499 .0294561
699.237 .0294369
699.975 .0294176
700.713 .0293983
701.450 .0293791
702.187 .0293600
702.924 .0293410
703.661 .0293221
704.397 .0293033
705.133 .0292847
705.869 .0292661
706.605 .0292476
707.341 .0292291
708.076 .0292107
708.811 .0291924
709.546 .0291741
710.281 .0291560
711.015 .0291378
711.749 .0291197
712.483 .0291015
713.217 .0290831
713.950 .0290645
714.684 .0290456
715.417 .0290264
716.150 .0290068
716.882 .0289870
717.615 .0289668
718.347 .0289465
719.079 .0289259
719.811 .0289052
720.542 .0288842
721.273 .0288630
722.005 .0288416
722.735 .0288200
723.466 .0287983
724.196 .0287765
724.927 .0287547
725.656 .0287331
726.386 .0287117
727.116 .0286904
727.845 .0286694
728.574 .0286485
729.303 .0286279
730.031 .0286074
730.760 .0285870
731.488 .0285669
732.216 .0285470
732.944 .0285274
733.671 .0285081
734.398 .0284890
735.125 .0284702
735.852 .0284516
736.579 .0284332
737.305 .0284149
738.031 .0283969
738.757 .0283791
739.483 .0283616
740.208 .0283445
740.933 .0283276
741.658 .0283111
742.383 .0282949
743.108 .0282790
743.832 .0282634
744.556 .0282482
745.280 .0282334
746.004 .0282188
746.727 .0282046
747.450 .0281907
748.173 .0281771
748.896 .0281637
749.618 .0281504
750.340 .0281372
751.062 .0281240
751.784 .0281109
752.506 .0280977
753.227 .0280846
753.948 .0280715
754.669 .0280585
755.389 .0280456
756.110 .0280328
756.830 .0280199
757.550 .0280072
758.269 .0279944
758.989 .0279816
759.708 .0279688
760.427 .0279558
761.146 .0279427
761.864 .0279295
762.582 .0279162
763.300 .0279029
764.018 .0278897
764.736 .0278766
765.453 .0278636
766.170 .0278509
766.887 .0278383
767.603 .0278261
768.320 .0278140
769.036 .0278023
769.751 .0277908
770.467 .0277795
771.182 .0277685
771.897 .0277578
772.612 .0277474
773.327 .0277375
774.041 .0277280
774.755 .0277189
775.469 .0277102
776.183 .0277021
776.896 .0276944
777.609 .0276873
778.322 .0276806
779.035 .0276744
779.747 .0276688
780.459 .0276635
781.171 .0276586
781.882 .0276542
782.594 .0276502
783.305 .0276465
784.016 .0276431
784.726 .0276401
785.436 .0276375
786.147 .0276349
786.856 .0276329
787.566 .0276312
788.275 .0276297
788.984 .0276282
789.693 .0276268
790.401 .0276254
791.110 .0276239
791.818 .0276222
792.525 .0276204
793.233 .0276184
793.940 .0276161
794.647 .0276142
795.353 .0276115
796.060 .0276086
796.766 .0276054
797.472 .0276018
798.177 .0275979
798.883 .0275936
799.588 .0275889
800.292 .0275838
800.997 .0275782
801.701 .0275721
802.405 .0275655
803.109 .0275586
803.812 .0275511
804.515 .0275433
805.218 .0275350
805.921 .0275262
806.623 .0275170
807.325 .0275074
808.027 .0274974
808.728 .0274869
809.429 .0274761
810.130 .0274649
810.831 .0274534
811.531 .0274415
812.231 .0274294
812.931 .0274169
813.630 .0274042
814.330 .0273912
815.029 .0273780
815.727 .0273645
816.426 .0273510
817.124 .0273373
817.821 .0273236
818.519 .0273100
819.216 .0272964
819.913 .0272829
820.609 .0272695
821.306 .0272564
822.002 .0272435
822.697 .0272308
823.393 .0272185
824.088 .0272066
824.783 .0271950
825.477 .0271837
826.171 .0271728
826.865 .0271622
827.559 .0271519
828.252 .0271419
828.945 .0271320
829.638 .0271223
830.330 .0271128
831.023 .0271034
831.714 .0270942
832.406 .0270849
833.097 .0270757
833.788 .0270665
834.479 .0270571
835.169 .0270476
835.859 .0270379
836.548 .0270279
837.238 .0270177
837.927 .0270072
838.615 .0269963
839.304 .0269850
839.992 .0269734
840.680 .0269614
841.367 .0269489
842.054 .0269360
842.741 .0269227
843.428 .0269089
844.114 .0268947
844.800 .0268800
845.485 .0268648
846.170 .0268491
846.855 .0268330
847.540 .0268164
848.224 .0267993
848.908 .0267818
849.592 .0267639
850.275 .0267456
850.958 .0267269
851.641 .0267078
852.323 .0266882
853.005 .0266684
853.687 .0266482
854.368 .0266278
855.049 .0266071
855.730 .0265862
856.410 .0265652
857.090 .0265441
857.769 .0265228
858.449 .0265015
859.128 .0264800
859.806 .0264585
860.485 .0264370
861.163 .0264156
861.840 .0263942
862.518 .0263731
863.195 .0263521
863.871 .0263315
864.548 .0263110
865.224 .0262909
865.899 .0262711
866.574 .0262516
867.249 .0262326
867.924 .0262141
868.598 .0261961
869.272 .0261787
869.946 .0261619
870.619 .0261457
871.292 .0261300
871.964 .0261148
872.636 .0261001
873.308 .0260859
873.979 .0260722
874.651 .0260591
875.321 .0260464
875.992 .0260344
876.662 .0260229
877.331 .0260120
878.001 .0260016
878.670 .0259917
879.338 .0259824
880.007 .0259736
880.675 .0259654
881.342 .0259580
882.009 .0259512
882.676 .0259452
883.343 .0259400
884.009 .0259356
884.675 .0259320
885.340 .0259292
886.005 .0259272
886.670 .0259260
887.334 .0259255
887.998 .0259259
888.662 .0259270
889.325 .0259288
889.988 .0259312
890.650 .0259341
891.312 .0259375
891.974 .0259412
892.636 .0259452
893.297 .0259494
893.957 .0259537
894.618 .0259581
895.278 .0259626
895.937 .0259670
896.596 .0259713
897.255 .0259753
897.914 .0259789
898.572 .0259819
899.230 .0259844
899.887 .0259862
900.544 .0259872
901.201 .0259875
901.857 .0259841
902.513 .0259824
903.168 .0259798
903.823 .0259763
904.478 .0259718
905.132 .0259665
905.786 .0259603
906.440 .0259534
907.093 .0259459
907.746 .0259379
908.399 .0259296
909.051 .0259211
909.703 .0259125
910.354 .0259081
911.005 .0258998
911.656 .0258916
912.306 .0258835
912.956 .0258757
913.605 .0258680
914.254 .0258607
914.903 .0258537
915.551 .0258471
916.199 .0258409
916.847 .0258349
917.494 .0258293
918.141 .0258239
918.788 .0258187
919.434 .0258136
920.079 .0258086
920.725 .0258035
921.370 .0257984
922.014 .0257932
922.658 .0257879
923.302 .0257823
923.946 .0257764
924.589 .0257703
925.231 .0257639
925.873 .0257572
926.515 .0257502
927.157 .0257428
927.798 .0257352
928.439 .0257272
929.079 .0257189
929.719 .0257102
930.359 .0257011
930.998 .0256918
931.637 .0256823
932.275 .0256725
932.913 .0256628
933.551 .0256530
934.188 .0256434
934.825 .0256339
935.462 .0256248
936.098 .0256159
936.733 .0256073
937.369 .0255990
938.004 .0255911
938.638 .0255835
939.273 .0255765
939.907 .0255700
940.540 .0255641
941.173 .0255588
941.806 .0255541
942.438 .0255498
943.070 .0255459
943.702 .0255422
944.333 .0255386
944.964 .0255349
945.594 .0255313
946.224 .0255276
946.854 .0255238
947.483 .0255199
948.112 .0255158
948.741 .0255117
949.369 .0255072
949.996 .0255025
950.624 .0254973
951.251 .0254917
951.878 .0254855
952.504 .0254788
953.130 .0254717
953.755 .0254641
954.380 .0254563
955.005 .0254482
955.629 .0254400
956.253 .0254317
956.877 .0254232
957.500 .0254145
958.123 .0254057
958.746 .0253967
959.368 .0253875
959.990 .0253782
960.611 .0253689
961.232 .0253595
961.853 .0253501
962.473 .0253408
963.093 .0253316
963.712 .0253224
964.331 .0253133
964.950 .0253041
965.569 .0252950
966.187 .0252857
966.804 .0252764
967.422 .0252670
968.039 .0252574
968.655 .0252477
969.272 .0252378
969.887 .0252277
970.503 .0252173
971.118 .0252067
971.733 .0251957
972.347 .0251844
972.961 .0251727
973.575 .0251605
974.188 .0251478
974.801 .0251347
975.414 .0251210
976.026 .0251069
976.638 .0250922
977.250 .0250770
977.861 .0250613
978.472 .0250451
979.083 .0250284
979.693 .0250112
980.303 .0249935
980.912 .0249652
981.521 .0249465
982.130 .0249275
982.738 .0249082
983.346 .0248886
983.954 .0248689
984.562 .0248490
985.169 .0248292
985.775 .0248095
986.382 .0247899
986.988 .0247706
987.594 .0247514
988.199 .0247326
988.804 .0247140
989.409 .0247058
990.013 .0246878
990.617 .0246702
991.221 .0246529
991.824 .0246360
992.427 .0246195
993.030 .0246033
993.632 .0245875
994.234 .0245721
994.836 .0245570
995.438 .0245421
996.039 .0245275
996.640 .0245131
997.240 .0244991
997.840 .0244854
998.440 .0244721
999.040 .0244593
999.639 .0244470
1000.238 .0244351
1000.836 .0244237
1001.435 .0244126
1002.033 .0244020
1002.630 .0243917
1003.228 .0243818
1003.825 .0243722
1004.422 .0243628
1005.018 .0243538
1005.614 .0243450
1006.210 .0243365
1006.806 .0243281
1007.401 .0243199
1007.996 .0243116
1008.591 .0243035
1009.186 .0242953
1009.780 .0242871
1010.374 .0242791
1010.967 .0242712
1011.561 .0242637
1012.154 .0242566
1012.746 .0242498
1013.339 .0242436
1013.931 .0242378
1014.523 .0242323
1015.115 .0242272
1015.706 .0242223
1016.298 .0242178
1016.888 .0242135
1017.479 .0242097
1018.069 .0242063
1018.660 .0242034
1019.250 .0242010
1019.839 .0241990
1020.429 .0241974
1021.018 .0241960
1021.607 .0241946
1022.195 .0241932
1022.784 .0241918
1023.372 .0241903
1023.960 .0241889
1024.547 .0241878
1025.135 .0241869
1025.722 .0241865
1026.309 .0241864
1026.896 .0241868
1027.483 .0241874
1028.069 .0241883
1028.655 .0241891
1029.241 .0241899
1029.827 .0241907
1030.412 .0241915
1030.997 .0241924
1031.582 .0241934
1032.167 .0241947
1032.752 .0241962
1033.336 .0241980
1033.921 .0241999
1034.505 .0242018
1035.089 .0242036
1035.672 .0242052
1036.256 .0242065
1036.839 .0242075
1037.422 .0242082
1038.005 .0242089
1038.588 .0242095
1039.171 .0242104
1039.753 .0242113
1040.335 .0242125
1040.918 .0242137
1041.500 .0242150
1042.081 .0242161
1042.663 .0242171
1043.244 .0242180
1043.826 .0242188
1044.407 .0242197
1044.988 .0242208
1045.569 .0242224
1046.150 .0242245
1046.730 .0242271
1047.311 .0242304
1047.891 .0242340
1048.471 .0242379
1049.052 .0242420
1049.632 .0242461
1050.211 .0242503
1050.791 .0242545
1051.371 .0242588
1051.950 .0242633
1052.530 .0242680
1053.109 .0242730
1053.688 .0242783
1054.268 .0242840
1054.847 .0242899
1055.426 .0242959
1056.005 .0243022
1056.583 .0243085
1057.162 .0243151
1057.741 .0243218
1058.319 .0243287
1058.898 .0243360
1059.476 .0243435
1060.055 .0243515
1060.633 .0243598
1061.211 .0243684
1061.790 .0243772
1062.368 .0243863
1062.946 .0243956
1063.524 .0244049
1064.102 .0244143
1064.680 .0244238
1065.258 .0244333
1065.836 .0244430
1066.414 .0244527
1066.992 .0244625
1067.570 .0244723
1068.148 .0244823
1068.726 .0244923
1069.304 .0245024
1069.882 .0245126
1070.460 .0245230
1071.038 .0245335
1071.616 .0245443
1072.194 .0245551
1072.772 .0245661
1073.350 .0245771
1073.928 .0245881
1074.506 .0245990
1075.084 .0246099
1075.662 .0246205
1076.240 .0246311
1076.819 .0246416
1077.397 .0246523
1077.976 .0246630
1078.554 .0246739
1079.133 .0246849
1079.711 .0246963
1080.290 .0247079
1080.869 .0247199
1081.448 .0247322
1082.027 .0247450
1082.606 .0247583
1083.185 .0247720
1083.764 .0247863
1084.343 .0248013
1084.923 .0248168
1085.502 .0248330
1086.082 .0248499
1086.662 .0248673
1087.242 .0248854
1087.822 .0249041
1088.402 .0249235
1088.983 .0249435
1089.563 .0249639
1090.144 .0249849
1090.725 .0250065
1091.306 .0250288
1091.887 .0250518
1092.469 .0250755
1093.050 .0251001
1093.632 .0251254
1094.214 .0251513
1094.796 .0251778
1095.379 .0252046
1095.961 .0252317
1096.544 .0252589
1097.127 .0252859
1097.710 .0253129
1098.294 .0253399
1098.877 .0253668
1099.461 .0253937
1100.046 .0254209
1100.630 .0254481
1101.215 .0254756
1101.800 .0255035
1102.385 .0255316
1102.970 .0255602
1103.556 .0255892
1104.142 .0256187
1104.728 .0256490
1105.315 .0256803
1105.902 .0257126
1106.489 .0257461
1107.077 .0257809
1107.664 .0258168
1108.253 .0258537
1108.841 .0258916
1109.430 .0259303
1110.019 .0259697
1110.609 .0260099
1111.198 .0260507
1111.789 .0260922
1112.379 .0261347
1112.970 .0261780
1113.561 .0262223
1114.153 .0262674
1114.745 .0263131
1115.338 .0263593
1115.931 .0264058
1116.524 .0264525
1117.117 .0264995
1117.712 .0265469
1118.306 .0265949
1118.901 .0266436
1119.496 .0266933
1120.092 .0267439
1120.689 .0267956
1121.285 .0268478
1121.882 .0269002
1122.480 .0269524
1123.078 .0270042
1123.677 .0270555
1124.276 .0271063
1124.875 .0271567
1125.476 .0272072
1126.076 .0272582
1126.677 .0273099
1127.279 .0273627
1127.881 .0274168
1128.484 .0274725
1129.087 .0274977
1129.691 .0275550
1130.295 .0276140
1130.900 .0276748
1131.505 .0277380
1132.111 .0278038
1132.718 .0278729
1133.325 .0279461
1133.933 .0280232
1134.541 .0281039
1135.150 .0281876
1135.760 .0282840
1136.370 .0283842
1136.981 .0283278
1137.592 .0284277
1138.204 .0285284
1138.817 .0286323
1139.431 .0287432
1140.045 .0288595
1140.660 .0289900
1141.275 .0291343
1141.891 .0292819
1142.508 .0294182
1143.126 .0295444
1143.744 .0299514
1144.363 .0301164
1144.983 .0299332
