Measurement Sequence started on: 15-12-46-377
Integration time: 28
Scans to Average: 2 
>>>>>Begin Spectral Data<<<<<
432.689 .0000100
433.621 .0000100
434.552 .0000100
435.482 .0000100
436.410 .0000100
437.337 .0000100
438.262 .0285489
439.187 .0605004
440.110 .1002344
441.031 .1450230
441.952 .1162072
442.871 .1213890
443.789 .1262256
444.705 .1307885
445.621 .1351257
446.535 .1392738
447.447 .1417552
448.359 .1424105
449.269 .1408471
450.178 .1368123
451.086 .1303882
451.993 .1220735
452.898 .1126928
453.803 .1031822
454.706 .0943365
455.608 .0866485
456.508 .0802815
457.408 .0759676
458.306 .0726423
459.204 .0699223
460.100 .0676150
460.995 .0656146
461.888 .0638524
462.781 .0622843
463.673 .0608767
464.563 .0596084
465.452 .0584625
466.340 .0574245
467.228 .0564833
468.114 .0556294
468.999 .0548533
469.882 .0541466
470.765 .0535014
471.647 .0529117
472.528 .0523722
473.407 .0518793
474.286 .0514296
475.163 .0510216
476.040 .0506537
476.915 .0503239
477.790 .0500299
478.663 .0497699
479.535 .0495409
480.407 .0493404
481.277 .0491654
482.147 .0490130
483.015 .0488811
483.883 .0487683
484.749 .0486739
485.615 .0485977
486.479 .0485407
487.343 .0485035
488.206 .0484870
489.067 .0484913
489.928 .0485164
490.788 .0485623
491.647 .0486284
492.505 .0487138
493.362 .0488179
494.218 .0489403
495.073 .0490808
495.928 .0493592
496.781 .0495456
497.634 .0497511
498.486 .0499765
499.337 .0502233
500.187 .0504934
501.036 .0507886
501.884 .0511118
502.731 .0514671
503.578 .0518580
504.424 .0521272
505.268 .0525897
506.113 .0531025
506.956 .0536708
507.798 .0543008
508.640 .0550010
509.480 .0557806
510.320 .0566518
511.160 .0576287
511.998 .0587253
512.836 .0599604
513.672 .0613539
514.508 .0629264
515.344 .0647013
516.178 .0667027
517.012 .0689535
517.845 .0714747
518.677 .0742863
519.508 .0774026
520.339 .0808303
521.169 .0845749
521.998 .0886155
522.826 .0929209
523.654 .0974437
524.481 .1021208
525.307 .1068756
526.133 .1116211
526.958 .1162609
527.782 .1206956
528.605 .1248286
529.428 .1285749
530.250 .1318551
531.072 .1346152
531.892 .1368117
532.712 .1384161
533.532 .1394129
534.350 .1398003
535.168 .1395823
535.986 .1387692
536.802 .1373719
537.618 .1354049
538.434 .1328793
539.249 .1298325
540.063 .1263088
540.876 .1223654
541.689 .1180751
542.501 .1135222
543.313 .1087961
544.124 .1039941
544.934 .0992110
545.744 .0945358
546.553 .0900450
547.361 .0858041
548.169 .0818507
548.976 .0782120
549.783 .0748964
550.589 .0718978
551.395 .0691963
552.200 .0667674
553.004 .0645802
553.808 .0626073
554.611 .0608237
555.414 .0592084
556.216 .0577411
557.018 .0564027
557.819 .0551777
558.619 .0540511
559.419 .0530088
560.218 .0520409
561.017 .0511378
561.815 .0502924
562.613 .0494983
563.410 .0487492
564.207 .0480397
565.003 .0473655
565.799 .0467218
566.594 .0461041
567.388 .0455095
568.182 .0449352
568.976 .0443790
569.769 .0438396
570.562 .0433166
571.354 .0428096
572.145 .0423187
572.936 .0418439
573.727 .0413850
574.517 .0409416
575.307 .0405134
576.096 .0400998
576.885 .0397003
577.673 .0393148
578.461 .0389427
579.248 .0385842
580.035 .0382400
580.821 .0379104
581.607 .0375960
582.392 .0372974
583.177 .0370151
583.962 .0367490
584.746 .0364990
585.529 .0362646
586.313 .0360453
587.095 .0358405
587.878 .0356495
588.660 .0354714
589.441 .0353057
590.222 .0351518
591.003 .0350091
591.783 .0348770
592.563 .0347548
593.342 .0346418
594.121 .0345371
594.899 .0344401
595.678 .0343499
596.455 .0342657
597.233 .0341870
598.009 .0341133
598.786 .0340441
599.562 .0339789
600.338 .0339174
601.113 .0338594
601.888 .0337823
602.663 .0337313
603.437 .0336830
604.211 .0336370
604.984 .0335933
605.757 .0335515
606.530 .0335118
607.302 .0334741
608.074 .0334384
608.845 .0334046
609.616 .0333728
610.387 .0333611
611.158 .0333320
611.928 .0333046
612.697 .0332786
613.467 .0332541
614.236 .0332308
615.004 .0332085
615.773 .0331871
616.541 .0331666
617.308 .0331467
618.076 .0331274
618.843 .0331085
619.609 .0330899
620.375 .0330714
621.141 .0330528
621.907 .0330340
622.672 .0330147
623.437 .0329949
624.202 .0329745
624.966 .0329535
625.730 .0329318
626.493 .0329094
627.257 .0328862
628.020 .0328622
628.782 .0328374
629.545 .0328118
630.307 .0327855
631.068 .0327584
631.830 .0327308
632.591 .0327026
633.352 .0326741
634.112 .0326454
634.872 .0326165
635.632 .0325874
636.392 .0325583
637.151 .0325290
637.910 .0324997
638.668 .0324702
639.427 .0324408
640.185 .0324115
640.943 .0323823
641.700 .0323534
642.457 .0323249
643.214 .0322968
643.971 .0322690
644.727 .0322416
645.483 .0322145
646.239 .0321874
646.994 .0321605
647.750 .0321334
648.505 .0321063
649.259 .0320791
650.014 .0320516
650.768 .0320239
651.521 .0319960
652.275 .0319678
653.028 .0319394
653.781 .0319108
654.534 .0318820
655.286 .0318531
656.039 .0318243
656.791 .0317954
657.542 .0317666
658.294 .0317379
659.045 .0317092
659.796 .0316806
660.546 .0316520
661.297 .0316234
662.047 .0315948
662.796 .0315663
663.546 .0315380
664.295 .0315100
665.044 .0314824
665.793 .0314552
666.542 .0314286
667.290 .0314026
668.038 .0313772
668.786 .0313522
669.533 .0313278
670.281 .0313039
671.028 .0312804
671.774 .0312574
672.521 .0312348
673.267 .0312128
674.013 .0311913
674.759 .0311704
675.505 .0311500
676.250 .0311303
676.995 .0311110
677.740 .0310922
678.484 .0310739
679.229 .0310560
679.973 .0310383
680.717 .0310210
681.460 .0310040
682.204 .0309872
682.947 .0309706
683.690 .0309542
684.433 .0309380
685.175 .0309219
685.917 .0309059
686.659 .0308900
687.401 .0308742
688.142 .0308585
688.884 .0308427
689.625 .0308269
690.365 .0308110
691.106 .0307949
691.846 .0307784
692.586 .0307616
693.326 .0307444
694.066 .0307268
694.805 .0307089
695.545 .0306906
696.284 .0306721
697.022 .0306535
697.761 .0306348
698.499 .0306161
699.237 .0305974
699.975 .0305787
700.713 .0305601
701.450 .0305416
702.187 .0305231
702.924 .0305047
703.661 .0304865
704.397 .0304683
705.133 .0304503
705.869 .0304325
706.605 .0304148
707.341 .0303972
708.076 .0303798
708.811 .0303626
709.546 .0303454
710.281 .0303284
711.015 .0303115
711.749 .0302946
712.483 .0302778
713.217 .0302609
713.950 .0302439
714.684 .0302268
715.417 .0302096
716.150 .0301923
716.882 .0301747
717.615 .0301570
718.347 .0301391
719.079 .0301209
719.811 .0301024
720.542 .0300837
721.273 .0300647
722.005 .0300455
722.735 .0300260
723.466 .0300064
724.196 .0299866
724.927 .0299668
725.656 .0299470
726.386 .0299273
727.116 .0299076
727.845 .0298879
728.574 .0298684
729.303 .0298492
730.031 .0298301
730.760 .0298114
731.488 .0297930
732.216 .0297749
732.944 .0297572
733.671 .0297397
734.398 .0297226
735.125 .0297056
735.852 .0296889
736.579 .0296724
737.305 .0296561
738.031 .0296400
738.757 .0296240
739.483 .0296082
740.208 .0295927
740.933 .0295772
741.658 .0295619
742.383 .0295468
743.108 .0295317
743.832 .0295168
744.556 .0295021
745.280 .0294875
746.004 .0294729
746.727 .0294583
747.450 .0294437
748.173 .0294291
748.896 .0294144
749.618 .0293996
750.340 .0293847
751.062 .0293699
751.784 .0293550
752.506 .0293402
753.227 .0293255
753.948 .0293110
754.669 .0292964
755.389 .0292820
756.110 .0292676
756.830 .0292532
757.550 .0292388
758.269 .0292245
758.989 .0292103
759.708 .0291961
760.427 .0291820
761.146 .0291679
761.864 .0291540
762.582 .0291401
763.300 .0291263
764.018 .0291127
764.736 .0290991
765.453 .0290857
766.170 .0290725
766.887 .0290594
767.603 .0290466
768.320 .0290341
769.036 .0290218
769.751 .0290099
770.467 .0289984
771.182 .0289873
771.897 .0289767
772.612 .0289666
773.327 .0289571
774.041 .0289481
774.755 .0289396
775.469 .0289316
776.183 .0289242
776.896 .0289172
777.609 .0289106
778.322 .0289045
779.035 .0288988
779.747 .0288935
780.459 .0288886
781.171 .0288840
781.882 .0288797
782.594 .0288756
783.305 .0288717
784.016 .0288680
784.726 .0288642
785.436 .0288603
786.147 .0288536
786.856 .0288491
787.566 .0288442
788.275 .0288390
788.984 .0288334
789.693 .0288275
790.401 .0288210
791.110 .0288142
791.818 .0288068
792.525 .0287989
793.233 .0287905
793.940 .0287816
794.647 .0287757
795.353 .0287661
796.060 .0287561
796.766 .0287455
797.472 .0287346
798.177 .0287232
798.883 .0287112
799.588 .0286989
800.292 .0286860
800.997 .0286727
801.701 .0286589
802.405 .0286447
803.109 .0286300
803.812 .0286150
804.515 .0285996
805.218 .0285839
805.921 .0285677
806.623 .0285513
807.325 .0285345
808.027 .0285174
808.728 .0285001
809.429 .0284826
810.130 .0284650
810.831 .0284474
811.531 .0284299
812.231 .0284125
812.931 .0283952
813.630 .0283781
814.330 .0283612
815.029 .0283447
815.727 .0283285
816.426 .0283128
817.124 .0282977
817.821 .0282831
818.519 .0282691
819.216 .0282558
819.913 .0282432
820.609 .0282312
821.306 .0282199
822.002 .0282091
822.697 .0281990
823.393 .0281895
824.088 .0281805
824.783 .0281721
825.477 .0281641
826.171 .0281565
826.865 .0281493
827.559 .0281424
828.252 .0281356
828.945 .0281290
829.638 .0281226
830.330 .0281161
831.023 .0281096
831.714 .0281031
832.406 .0280964
833.097 .0280896
833.788 .0280827
834.479 .0280756
835.169 .0280683
835.859 .0280608
836.548 .0280532
837.238 .0280453
837.927 .0280374
838.615 .0280292
839.304 .0280208
839.992 .0280122
840.680 .0280033
841.367 .0279942
842.054 .0279849
842.741 .0279754
843.428 .0279656
844.114 .0279557
844.800 .0279457
845.485 .0279354
846.170 .0279250
846.855 .0279144
847.540 .0279036
848.224 .0278926
848.908 .0278814
849.592 .0278700
850.275 .0278583
850.958 .0278464
851.641 .0278342
852.323 .0278217
853.005 .0278089
853.687 .0277960
854.368 .0277828
855.049 .0277694
855.730 .0277559
856.410 .0277424
857.090 .0277288
857.769 .0277151
858.449 .0277014
859.128 .0276876
859.806 .0276737
860.485 .0276599
861.163 .0276460
861.840 .0276321
862.518 .0276182
863.195 .0276045
863.871 .0275909
864.548 .0275775
865.224 .0275642
865.899 .0275511
866.574 .0275381
867.249 .0275253
867.924 .0275126
868.598 .0275002
869.272 .0274880
869.946 .0274760
870.619 .0274644
871.292 .0274531
871.964 .0274422
872.636 .0274316
873.308 .0274214
873.979 .0274116
874.651 .0274022
875.321 .0273931
875.992 .0273844
876.662 .0273760
877.331 .0273678
878.001 .0273599
878.670 .0273523
879.338 .0273450
880.007 .0273378
880.675 .0273309
881.342 .0273242
882.009 .0273178
882.676 .0273116
883.343 .0273056
884.009 .0272998
884.675 .0272942
885.340 .0272888
886.005 .0272835
886.670 .0272783
887.334 .0272732
887.998 .0272682
888.662 .0272632
889.325 .0272581
889.988 .0272531
890.650 .0272479
891.312 .0272427
891.974 .0272373
892.636 .0272318
893.297 .0272260
893.957 .0272201
894.618 .0272139
895.278 .0272074
895.937 .0272005
896.596 .0271933
897.255 .0271857
897.914 .0271776
898.572 .0271691
899.230 .0271601
899.887 .0271507
900.544 .0271408
901.201 .0271306
901.857 .0271131
902.513 .0271019
903.168 .0270902
903.823 .0270781
904.478 .0270656
905.132 .0270526
905.786 .0270393
906.440 .0270256
907.093 .0270116
907.746 .0269974
908.399 .0269830
909.051 .0269685
909.703 .0269539
910.354 .0269467
911.005 .0269321
911.656 .0269174
912.306 .0269026
912.956 .0268878
913.605 .0268729
914.254 .0268579
914.903 .0268428
915.551 .0268276
916.199 .0268122
916.847 .0267967
917.494 .0267810
918.141 .0267652
918.788 .0267491
919.434 .0267329
920.079 .0267163
920.725 .0266995
921.370 .0266824
922.014 .0266650
922.658 .0266472
923.302 .0266291
923.946 .0266107
924.589 .0265919
925.231 .0265727
925.873 .0265533
926.515 .0265335
927.157 .0265135
927.798 .0264933
928.439 .0264729
929.079 .0264524
929.719 .0264318
930.359 .0264112
930.998 .0263905
931.637 .0263699
932.275 .0263494
932.913 .0263291
933.551 .0263091
934.188 .0262894
934.825 .0262701
935.462 .0262513
936.098 .0262332
936.733 .0262156
937.369 .0261986
938.004 .0261824
938.638 .0261668
939.273 .0261520
939.907 .0261379
940.540 .0261246
941.173 .0261121
941.806 .0261003
942.438 .0260893
943.070 .0260790
943.702 .0260693
944.333 .0260601
944.964 .0260515
945.594 .0260432
946.224 .0260354
946.854 .0260278
947.483 .0260204
948.112 .0260133
948.741 .0260063
949.369 .0259995
949.996 .0259928
950.624 .0259861
951.251 .0259793
951.878 .0259725
952.504 .0259654
953.130 .0259582
953.755 .0259508
954.380 .0259432
955.005 .0259354
955.629 .0259274
956.253 .0259192
956.877 .0259109
957.500 .0259025
958.123 .0258939
958.746 .0258852
959.368 .0258765
959.990 .0258678
960.611 .0258591
961.232 .0258505
961.853 .0258421
962.473 .0258340
963.093 .0258262
963.712 .0258188
964.331 .0258119
964.950 .0258054
965.569 .0257994
966.187 .0257940
966.804 .0257890
967.422 .0257844
968.039 .0257804
968.655 .0257767
969.272 .0257734
969.887 .0257704
970.503 .0257676
971.118 .0257651
971.733 .0257627
972.347 .0257603
972.961 .0257579
973.575 .0257554
974.188 .0257527
974.801 .0257498
975.414 .0257467
976.026 .0257432
976.638 .0257394
977.250 .0257354
977.861 .0257309
978.472 .0257261
979.083 .0257208
979.693 .0257151
980.303 .0257089
980.912 .0256972
981.521 .0256899
982.130 .0256822
982.738 .0256742
983.346 .0256658
983.954 .0256573
984.562 .0256485
985.169 .0256396
985.775 .0256307
986.382 .0256218
986.988 .0256130
987.594 .0256044
988.199 .0255960
988.804 .0255880
989.409 .0255856
990.013 .0255785
990.617 .0255720
991.221 .0255662
991.824 .0255611
992.427 .0255567
993.030 .0255531
993.632 .0255501
994.234 .0255477
994.836 .0255460
995.438 .0255449
996.039 .0255445
996.640 .0255446
997.240 .0255453
997.840 .0255465
998.440 .0255483
999.040 .0255505
999.639 .0255532
1000.238 .0255562
1000.836 .0255594
1001.435 .0255629
1002.033 .0255666
1002.630 .0255704
1003.228 .0255743
1003.825 .0255783
1004.422 .0255824
1005.018 .0255865
1005.614 .0255906
1006.210 .0255947
1006.806 .0255987
1007.401 .0256025
1007.996 .0256061
1008.591 .0256095
1009.186 .0256126
1009.780 .0256154
1010.374 .0256179
1010.967 .0256202
1011.561 .0256222
1012.154 .0256241
1012.746 .0256257
1013.339 .0256272
1013.931 .0256287
1014.523 .0256302
1015.115 .0256318
1015.706 .0256335
1016.298 .0256354
1016.888 .0256375
1017.479 .0256399
1018.069 .0256425
1018.660 .0256454
1019.250 .0256485
1019.839 .0256517
1020.429 .0256553
1021.018 .0256590
1021.607 .0256631
1022.195 .0256674
1022.784 .0256720
1023.372 .0256769
1023.960 .0256821
1024.547 .0256877
1025.135 .0256935
1025.722 .0256996
1026.309 .0257059
1026.896 .0257124
1027.483 .0257191
1028.069 .0257260
1028.655 .0257330
1029.241 .0257402
1029.827 .0257475
1030.412 .0257550
1030.997 .0257625
1031.582 .0257699
1032.167 .0257771
1032.752 .0257839
1033.336 .0257902
1033.921 .0257959
1034.505 .0258007
1035.089 .0258048
1035.672 .0258081
1036.256 .0258106
1036.839 .0258124
1037.422 .0258134
1038.005 .0258136
1038.588 .0258130
1039.171 .0258117
1039.753 .0258095
1040.335 .0258065
1040.918 .0258028
1041.500 .0257985
1042.081 .0257937
1042.663 .0257886
1043.244 .0257833
1043.826 .0257780
1044.407 .0257728
1044.988 .0257676
1045.569 .0257624
1046.150 .0257571
1046.730 .0257518
1047.311 .0257464
1047.891 .0257410
1048.471 .0257355
1049.052 .0257300
1049.632 .0257247
1050.211 .0257195
1050.791 .0257146
1051.371 .0257099
1051.950 .0257052
1052.530 .0257007
1053.109 .0256963
1053.688 .0256918
1054.268 .0256874
1054.847 .0256832
1055.426 .0256793
1056.005 .0256757
1056.583 .0256726
1057.162 .0256700
1057.741 .0256679
1058.319 .0256662
1058.898 .0256648
1059.476 .0256634
1060.055 .0256620
1060.633 .0256602
1061.211 .0256581
1061.790 .0256557
1062.368 .0256528
1062.946 .0256496
1063.524 .0256462
1064.102 .0256424
1064.680 .0256383
1065.258 .0256338
1065.836 .0256289
1066.414 .0256236
1066.992 .0256178
1067.570 .0256117
1068.148 .0256053
1068.726 .0255988
1069.304 .0255924
1069.882 .0255861
1070.460 .0255800
1071.038 .0255741
1071.616 .0255686
1072.194 .0255632
1072.772 .0255580
1073.350 .0255528
1073.928 .0255475
1074.506 .0255421
1075.084 .0255367
1075.662 .0255311
1076.240 .0255255
1076.819 .0255199
1077.397 .0255144
1077.976 .0255090
1078.554 .0255041
1079.133 .0254997
1079.711 .0254959
1080.290 .0254929
1080.869 .0254907
1081.448 .0254893
1082.027 .0254887
1082.606 .0254891
1083.185 .0254903
1083.764 .0254923
1084.343 .0254951
1084.923 .0254987
1085.502 .0255029
1086.082 .0255080
1086.662 .0255138
1087.242 .0255205
1087.822 .0255279
1088.402 .0255361
1088.983 .0255449
1089.563 .0255544
1090.144 .0255645
1090.725 .0255751
1091.306 .0255865
1091.887 .0255985
1092.469 .0256112
1093.050 .0256246
1093.632 .0256388
1094.214 .0256536
1094.796 .0256688
1095.379 .0256844
1095.961 .0257000
1096.544 .0257154
1097.127 .0257305
1097.710 .0257452
1098.294 .0257594
1098.877 .0257734
1099.461 .0257871
1100.046 .0258008
1100.630 .0258144
1101.215 .0258279
1101.800 .0258415
1102.385 .0258552
1102.970 .0258689
1103.556 .0258827
1104.142 .0258967
1104.728 .0259111
1105.315 .0259261
1105.902 .0259417
1106.489 .0259583
1107.077 .0259758
1107.664 .0259941
1108.253 .0260132
1108.841 .0260327
1109.430 .0260529
1110.019 .0260737
1110.609 .0260953
1111.198 .0261178
1111.789 .0261415
1112.379 .0261667
1112.970 .0261935
1113.561 .0262222
1114.153 .0262529
1114.745 .0262856
1115.338 .0263205
1115.931 .0263573
1116.524 .0263963
1117.117 .0264375
1117.712 .0264812
1118.306 .0265277
1118.901 .0265772
1119.496 .0266294
1120.092 .0266844
1120.689 .0267420
1121.285 .0268018
1121.882 .0268637
1122.480 .0269276
1123.078 .0269932
1123.677 .0270605
1124.276 .0271297
1124.875 .0272010
1125.476 .0272749
1126.076 .0273516
1126.677 .0274314
1127.279 .0275140
1127.881 .0275995
1128.484 .0276878
1129.087 .0277268
1129.691 .0278187
1130.295 .0279130
1130.900 .0280095
1131.505 .0281079
1132.111 .0282084
1132.718 .0283106
1133.325 .0284144
1133.933 .0285200
1134.541 .0286268
1135.150 .0287355
1135.760 .0288384
1136.370 .0289453
1136.981 .0291025
1137.592 .0292260
1138.204 .0293486
1138.817 .0294737
1139.431 .0295953
1140.045 .0297155
1140.660 .0298285
1141.275 .0299382
1141.891 .0300592
1142.508 .0301666
1143.126 .0303032
1143.744 .0302269
1144.363 .0304296
1144.983 .0309035
