Measurement Sequence started on: 15-12-46-377
Integration time: 28
Scans to Average: 2 
>>>>>Begin Spectral Data<<<<<
432.689 .0000100
433.621 .0000100
434.552 .0000100
435.482 .0000100
436.410 .0000100
437.337 .0000100
438.262 .0262848
439.187 .0556124
440.110 .0919969
441.031 .1330054
441.952 .1065486
442.871 .1113163
443.789 .1157637
444.705 .1199578
445.621 .1239461
446.535 .1277665
447.447 .1300648
448.359 .1307032
449.269 .1293294
450.178 .1257131
451.086 .1199293
451.993 .1124337
452.898 .1039797
453.803 .0954178
454.706 .0874705
455.608 .0805823
456.508 .0748991
457.408 .0710929
458.306 .0681833
459.204 .0658201
460.100 .0638321
460.995 .0621233
461.888 .0606283
462.781 .0593015
463.673 .0581081
464.563 .0570217
465.452 .0560231
466.340 .0550961
467.228 .0542308
468.114 .0534207
468.999 .0526615
469.882 .0519498
470.765 .0512843
471.647 .0506632
472.528 .0500861
473.407 .0495520
474.286 .0490604
475.163 .0486117
476.040 .0482058
476.915 .0478431
477.790 .0475234
478.663 .0472465
479.535 .0470115
480.407 .0468161
481.277 .0466580
482.147 .0465334
483.015 .0464392
483.883 .0463726
484.749 .0463308
485.615 .0463123
486.479 .0463159
487.343 .0463410
488.206 .0463878
489.067 .0464559
489.928 .0465455
490.788 .0466559
491.647 .0467860
492.505 .0469348
493.362 .0471007
494.218 .0472829
495.073 .0474809
495.928 .0478406
496.781 .0480823
497.634 .0483423
498.486 .0486228
499.337 .0489263
500.187 .0492558
501.036 .0496145
501.884 .0500054
502.731 .0504319
503.578 .0508967
504.424 .0512092
505.268 .0517439
506.113 .0523244
506.956 .0529530
507.798 .0536343
508.640 .0543747
509.480 .0551818
510.320 .0560671
511.160 .0570444
511.998 .0581290
512.836 .0593393
513.672 .0606943
514.508 .0622159
515.344 .0639289
516.178 .0658581
517.012 .0680295
517.845 .0704665
518.677 .0731924
519.508 .0762264
520.339 .0795805
521.169 .0832593
521.998 .0872410
522.826 .0914924
523.654 .0959602
524.481 .1005745
525.307 .1052547
526.133 .1099067
526.958 .1144323
527.782 .1187341
528.605 .1227192
529.428 .1263063
530.250 .1294265
531.072 .1320335
531.892 .1340885
532.712 .1355674
533.532 .1364554
534.350 .1367459
535.168 .1364419
535.986 .1355478
536.802 .1340672
537.618 .1320082
538.434 .1293853
539.249 .1262369
540.063 .1226117
540.876 .1185766
541.689 .1142121
542.501 .1096072
543.313 .1048584
544.124 .1000639
544.934 .0953159
545.744 .0906995
546.553 .0862862
547.361 .0821327
548.169 .0782715
548.976 .0747262
549.783 .0715013
550.589 .0685907
551.395 .0659773
552.200 .0636353
553.004 .0615350
553.808 .0596508
554.611 .0579572
555.414 .0564307
556.216 .0550496
557.018 .0537936
557.819 .0526454
558.619 .0515899
559.419 .0506150
560.218 .0497111
561.017 .0488704
561.815 .0480870
562.613 .0473545
563.410 .0466666
564.207 .0460167
565.003 .0453982
565.799 .0448050
566.594 .0442315
567.388 .0436735
568.182 .0431274
568.976 .0425913
569.769 .0420649
570.562 .0415485
571.354 .0410436
572.145 .0405521
572.936 .0400753
573.727 .0396141
574.517 .0391695
575.307 .0387421
576.096 .0383319
576.885 .0379395
577.673 .0375653
578.461 .0372096
579.248 .0368730
580.035 .0365557
580.821 .0362579
581.607 .0359797
582.392 .0357203
583.177 .0354787
583.962 .0352537
584.746 .0350444
585.529 .0348495
586.313 .0346677
587.095 .0344985
587.878 .0343412
588.660 .0341950
589.441 .0340596
590.222 .0339346
591.003 .0338193
591.783 .0337129
592.563 .0336146
593.342 .0335234
594.121 .0334382
594.899 .0333581
595.678 .0332823
596.455 .0332103
597.233 .0331415
598.009 .0330758
598.786 .0330128
599.562 .0329526
600.338 .0328949
601.113 .0328395
601.888 .0327637
602.663 .0327133
603.437 .0326646
604.211 .0326174
604.984 .0325715
605.757 .0325270
606.530 .0324836
607.302 .0324415
608.074 .0324006
608.845 .0323612
609.616 .0323231
610.387 .0323071
611.158 .0322713
611.928 .0322370
612.697 .0322043
613.467 .0321730
614.236 .0321431
615.004 .0321144
615.773 .0320869
616.541 .0320603
617.308 .0320347
618.076 .0320100
618.843 .0319861
619.609 .0319629
620.375 .0319402
621.141 .0319181
621.907 .0318962
622.672 .0318746
623.437 .0318529
624.202 .0318311
624.966 .0318091
625.730 .0317867
626.493 .0317639
627.257 .0317406
628.020 .0317167
628.782 .0316922
629.545 .0316670
630.307 .0316411
631.068 .0316144
631.830 .0315868
632.591 .0315585
633.352 .0315295
634.112 .0314999
634.872 .0314697
635.632 .0314393
636.392 .0314086
637.151 .0313780
637.910 .0313473
638.668 .0313169
639.427 .0312867
640.185 .0312569
640.943 .0312276
641.700 .0311988
642.457 .0311708
643.214 .0311434
643.971 .0311168
644.727 .0310909
645.483 .0310657
646.239 .0310412
646.994 .0310172
647.750 .0309937
648.505 .0309707
649.259 .0309479
650.014 .0309253
650.768 .0309029
651.521 .0308806
652.275 .0308583
653.028 .0308359
653.781 .0308133
654.534 .0307905
655.286 .0307674
656.039 .0307441
656.791 .0307204
657.542 .0306965
658.294 .0306722
659.045 .0306477
659.796 .0306228
660.546 .0305978
661.297 .0305725
662.047 .0305470
662.796 .0305213
663.546 .0304955
664.295 .0304696
665.044 .0304437
665.793 .0304178
666.542 .0303922
667.290 .0303667
668.038 .0303413
668.786 .0303162
669.533 .0302913
670.281 .0302666
671.028 .0302422
671.774 .0302181
672.521 .0301943
673.267 .0301709
674.013 .0301481
674.759 .0301259
675.505 .0301043
676.250 .0300834
676.995 .0300631
677.740 .0300435
678.484 .0300244
679.229 .0300059
679.973 .0299881
680.717 .0299708
681.460 .0299540
682.204 .0299379
682.947 .0299223
683.690 .0299073
684.433 .0298927
685.175 .0298787
685.917 .0298650
686.659 .0298517
687.401 .0298386
688.142 .0298257
688.884 .0298129
689.625 .0298000
690.365 .0297870
691.106 .0297738
691.846 .0297603
692.586 .0297465
693.326 .0297325
694.066 .0297181
694.805 .0297034
695.545 .0296884
696.284 .0296732
697.022 .0296577
697.761 .0296419
698.499 .0296258
699.237 .0296096
699.975 .0295932
700.713 .0295766
701.450 .0295600
702.187 .0295433
702.924 .0295267
703.661 .0295102
704.397 .0294936
705.133 .0294772
705.869 .0294608
706.605 .0294444
707.341 .0294281
708.076 .0294118
708.811 .0293956
709.546 .0293793
710.281 .0293631
711.015 .0293467
711.749 .0293303
712.483 .0293137
713.217 .0292969
713.950 .0292799
714.684 .0292626
715.417 .0292450
716.150 .0292272
716.882 .0292091
717.615 .0291907
718.347 .0291720
719.079 .0291529
719.811 .0291334
720.542 .0291136
721.273 .0290935
722.005 .0290731
722.735 .0290524
723.466 .0290316
724.196 .0290107
724.927 .0289897
725.656 .0289688
726.386 .0289480
727.116 .0289273
727.845 .0289069
728.574 .0288866
729.303 .0288667
730.031 .0288472
730.760 .0288279
731.488 .0288091
732.216 .0287907
732.944 .0287728
733.671 .0287553
734.398 .0287382
735.125 .0287215
735.852 .0287053
736.579 .0286895
737.305 .0286741
738.031 .0286591
738.757 .0286444
739.483 .0286300
740.208 .0286158
740.933 .0286018
741.658 .0285878
742.383 .0285738
743.108 .0285597
743.832 .0285455
744.556 .0285311
745.280 .0285164
746.004 .0285014
746.727 .0284861
747.450 .0284705
748.173 .0284546
748.896 .0284383
749.618 .0284217
750.340 .0284047
751.062 .0283874
751.784 .0283697
752.506 .0283517
753.227 .0283334
753.948 .0283149
754.669 .0282962
755.389 .0282774
756.110 .0282585
756.830 .0282396
757.550 .0282208
758.269 .0282022
758.989 .0281839
759.708 .0281658
760.427 .0281481
761.146 .0281307
761.864 .0281136
762.582 .0280968
763.300 .0280803
764.018 .0280642
764.736 .0280483
765.453 .0280329
766.170 .0280178
766.887 .0280032
767.603 .0279890
768.320 .0279753
769.036 .0279620
769.751 .0279492
770.467 .0279370
771.182 .0279253
771.897 .0279141
772.612 .0279035
773.327 .0278935
774.041 .0278840
774.755 .0278752
775.469 .0278671
776.183 .0278595
776.896 .0278526
777.609 .0278462
778.322 .0278405
779.035 .0278354
779.747 .0278308
780.459 .0278269
781.171 .0278235
781.882 .0278206
782.594 .0278182
783.305 .0278162
784.016 .0278146
784.726 .0278132
785.436 .0278121
786.147 .0278107
786.856 .0278096
787.566 .0278085
788.275 .0278074
788.984 .0278064
789.693 .0278053
790.401 .0278041
791.110 .0278029
791.818 .0278016
792.525 .0278000
793.233 .0277983
793.940 .0277964
794.647 .0277948
795.353 .0277924
796.060 .0277897
796.766 .0277867
797.472 .0277833
798.177 .0277795
798.883 .0277753
799.588 .0277706
800.292 .0277655
800.997 .0277601
801.701 .0277542
802.405 .0277480
803.109 .0277416
803.812 .0277348
804.515 .0277278
805.218 .0277205
805.921 .0277128
806.623 .0277047
807.325 .0276962
808.027 .0276874
808.728 .0276782
809.429 .0276687
810.130 .0276589
810.831 .0276489
811.531 .0276386
812.231 .0276282
812.931 .0276177
813.630 .0276070
814.330 .0275963
815.029 .0275857
815.727 .0275751
816.426 .0275647
817.124 .0275545
817.821 .0275445
818.519 .0275349
819.216 .0275255
819.913 .0275164
820.609 .0275076
821.306 .0274991
822.002 .0274910
822.697 .0274831
823.393 .0274757
824.088 .0274686
824.783 .0274617
825.477 .0274551
826.171 .0274487
826.865 .0274423
827.559 .0274360
828.252 .0274297
828.945 .0274233
829.638 .0274169
830.330 .0274105
831.023 .0274040
831.714 .0273975
832.406 .0273909
833.097 .0273841
833.788 .0273772
834.479 .0273700
835.169 .0273625
835.859 .0273546
836.548 .0273464
837.238 .0273379
837.927 .0273289
838.615 .0273196
839.304 .0273098
839.992 .0272996
840.680 .0272890
841.367 .0272779
842.054 .0272662
842.741 .0272541
843.428 .0272415
844.114 .0272284
844.800 .0272148
845.485 .0272008
846.170 .0271863
846.855 .0271713
847.540 .0271559
848.224 .0271399
848.908 .0271235
849.592 .0271065
850.275 .0270891
850.958 .0270711
851.641 .0270526
852.323 .0270337
853.005 .0270143
853.687 .0269944
854.368 .0269741
855.049 .0269534
855.730 .0269323
856.410 .0269109
857.090 .0268892
857.769 .0268673
858.449 .0268452
859.128 .0268230
859.806 .0268008
860.485 .0267785
861.163 .0267563
861.840 .0267342
862.518 .0267123
863.195 .0266906
863.871 .0266691
864.548 .0266480
865.224 .0266273
865.899 .0266069
866.574 .0265870
867.249 .0265676
867.924 .0265486
868.598 .0265301
869.272 .0265121
869.946 .0264947
870.619 .0264777
871.292 .0264611
871.964 .0264451
872.636 .0264296
873.308 .0264145
873.979 .0263998
874.651 .0263856
875.321 .0263718
875.992 .0263585
876.662 .0263455
877.331 .0263329
878.001 .0263206
878.670 .0263087
879.338 .0262971
880.007 .0262859
880.675 .0262749
881.342 .0262643
882.009 .0262540
882.676 .0262442
883.343 .0262348
884.009 .0262259
884.675 .0262174
885.340 .0262094
886.005 .0262018
886.670 .0261947
887.334 .0261880
887.998 .0261818
888.662 .0261760
889.325 .0261706
889.988 .0261658
890.650 .0261614
891.312 .0261575
891.974 .0261540
892.636 .0261510
893.297 .0261482
893.957 .0261458
894.618 .0261435
895.278 .0261414
895.937 .0261394
896.596 .0261374
897.255 .0261354
897.914 .0261333
898.572 .0261310
899.230 .0261285
899.887 .0261256
900.544 .0261222
901.201 .0261183
901.857 .0261101
902.513 .0261048
903.168 .0260990
903.823 .0260928
904.478 .0260862
905.132 .0260793
905.786 .0260720
906.440 .0260644
907.093 .0260565
907.746 .0260482
908.399 .0260396
909.051 .0260309
909.703 .0260220
910.354 .0260177
911.005 .0260091
911.656 .0260006
912.306 .0259923
912.956 .0259843
913.605 .0259764
914.254 .0259687
914.903 .0259612
915.551 .0259539
916.199 .0259467
916.847 .0259396
917.494 .0259328
918.141 .0259260
918.788 .0259195
919.434 .0259131
920.079 .0259068
920.725 .0259006
921.370 .0258944
922.014 .0258881
922.658 .0258817
923.302 .0258751
923.946 .0258683
924.589 .0258612
925.231 .0258539
925.873 .0258463
926.515 .0258385
927.157 .0258305
927.798 .0258223
928.439 .0258141
929.079 .0258057
929.719 .0257973
930.359 .0257889
930.998 .0257805
931.637 .0257721
932.275 .0257640
932.913 .0257561
933.551 .0257485
934.188 .0257414
934.825 .0257349
935.462 .0257289
936.098 .0257236
936.733 .0257189
937.369 .0257147
938.004 .0257111
938.638 .0257080
939.273 .0257054
939.907 .0257033
940.540 .0257018
941.173 .0257007
941.806 .0257002
942.438 .0257001
943.070 .0257006
943.702 .0257014
944.333 .0257025
944.964 .0257038
945.594 .0257052
946.224 .0257067
946.854 .0257080
947.483 .0257092
948.112 .0257101
948.741 .0257108
949.369 .0257112
949.996 .0257112
950.624 .0257108
951.251 .0257099
951.878 .0257084
952.504 .0257064
953.130 .0257038
953.755 .0257007
954.380 .0256970
955.005 .0256929
955.629 .0256882
956.253 .0256832
956.877 .0256779
957.500 .0256723
958.123 .0256665
958.746 .0256605
959.368 .0256545
959.990 .0256483
960.611 .0256422
961.232 .0256360
961.853 .0256297
962.473 .0256234
963.093 .0256171
963.712 .0256106
964.331 .0256042
964.950 .0255977
965.569 .0255913
966.187 .0255849
966.804 .0255786
967.422 .0255723
968.039 .0255659
968.655 .0255594
969.272 .0255527
969.887 .0255458
970.503 .0255387
971.118 .0255314
971.733 .0255237
972.347 .0255158
972.961 .0255075
973.575 .0254989
974.188 .0254899
974.801 .0254804
975.414 .0254703
976.026 .0254596
976.638 .0254481
977.250 .0254359
977.861 .0254229
978.472 .0254091
979.083 .0253945
979.693 .0253792
980.303 .0253633
980.912 .0253366
981.521 .0253194
982.130 .0253018
982.738 .0252839
983.346 .0252657
983.954 .0252472
984.562 .0252286
985.169 .0252099
985.775 .0251912
986.382 .0251727
986.988 .0251544
987.594 .0251364
988.199 .0251188
988.804 .0251017
989.409 .0250947
990.013 .0250784
990.617 .0250625
991.221 .0250470
991.824 .0250319
992.427 .0250170
993.030 .0250025
993.632 .0249882
994.234 .0249742
994.836 .0249606
995.438 .0249474
996.039 .0249347
996.640 .0249224
997.240 .0249105
997.840 .0248992
998.440 .0248883
999.040 .0248778
999.639 .0248676
1000.238 .0248577
1000.836 .0248480
1001.435 .0248385
1002.033 .0248291
1002.630 .0248199
1003.228 .0248108
1003.825 .0248017
1004.422 .0247925
1005.018 .0247833
1005.614 .0247739
1006.210 .0247642
1006.806 .0247543
1007.401 .0247440
1007.996 .0247334
1008.591 .0247226
1009.186 .0247116
1009.780 .0247005
1010.374 .0246896
1010.967 .0246789
1011.561 .0246684
1012.154 .0246583
1012.746 .0246486
1013.339 .0246393
1013.931 .0246303
1014.523 .0246218
1015.115 .0246137
1015.706 .0246059
1016.298 .0245986
1016.888 .0245917
1017.479 .0245853
1018.069 .0245793
1018.660 .0245736
1019.250 .0245684
1019.839 .0245635
1020.429 .0245589
1021.018 .0245546
1021.607 .0245506
1022.195 .0245469
1022.784 .0245434
1023.372 .0245404
1023.960 .0245376
1024.547 .0245353
1025.135 .0245335
1025.722 .0245321
1026.309 .0245311
1026.896 .0245304
1027.483 .0245301
1028.069 .0245300
1028.655 .0245301
1029.241 .0245302
1029.827 .0245303
1030.412 .0245304
1030.997 .0245305
1031.582 .0245305
1032.167 .0245305
1032.752 .0245305
1033.336 .0245304
1033.921 .0245302
1034.505 .0245298
1035.089 .0245292
1035.672 .0245285
1036.256 .0245276
1036.839 .0245265
1037.422 .0245253
1038.005 .0245239
1038.588 .0245225
1039.171 .0245210
1039.753 .0245194
1040.335 .0245177
1040.918 .0245159
1041.500 .0245140
1042.081 .0245121
1042.663 .0245103
1043.244 .0245084
1043.826 .0245067
1044.407 .0245051
1044.988 .0245036
1045.569 .0245023
1046.150 .0245012
1046.730 .0245002
1047.311 .0244993
1047.891 .0244985
1048.471 .0244978
1049.052 .0244972
1049.632 .0244966
1050.211 .0244962
1050.791 .0244958
1051.371 .0244954
1051.950 .0244950
1052.530 .0244945
1053.109 .0244940
1053.688 .0244935
1054.268 .0244931
1054.847 .0244929
1055.426 .0244931
1056.005 .0244936
1056.583 .0244947
1057.162 .0244963
1057.741 .0244984
1058.319 .0245010
1058.898 .0245041
1059.476 .0245076
1060.055 .0245115
1060.633 .0245158
1061.211 .0245205
1061.790 .0245256
1062.368 .0245312
1062.946 .0245372
1063.524 .0245436
1064.102 .0245503
1064.680 .0245573
1065.258 .0245644
1065.836 .0245716
1066.414 .0245789
1066.992 .0245863
1067.570 .0245937
1068.148 .0246015
1068.726 .0246097
1069.304 .0246184
1069.882 .0246276
1070.460 .0246375
1071.038 .0246480
1071.616 .0246591
1072.194 .0246706
1072.772 .0246825
1073.350 .0246947
1073.928 .0247071
1074.506 .0247197
1075.084 .0247324
1075.662 .0247451
1076.240 .0247578
1076.819 .0247704
1077.397 .0247828
1077.976 .0247950
1078.554 .0248070
1079.133 .0248187
1079.711 .0248301
1080.290 .0248412
1080.869 .0248521
1081.448 .0248627
1082.027 .0248732
1082.606 .0248835
1083.185 .0248937
1083.764 .0249039
1084.343 .0249141
1084.923 .0249244
1085.502 .0249348
1086.082 .0249454
1086.662 .0249561
1087.242 .0249670
1087.822 .0249781
1088.402 .0249893
1088.983 .0250008
1089.563 .0250126
1090.144 .0250246
1090.725 .0250371
1091.306 .0250500
1091.887 .0250635
1092.469 .0250776
1093.050 .0250926
1093.632 .0251084
1094.214 .0251252
1094.796 .0251431
1095.379 .0251620
1095.961 .0251821
1096.544 .0252035
1097.127 .0252263
1097.710 .0252504
1098.294 .0252758
1098.877 .0253024
1099.461 .0253302
1100.046 .0253591
1100.630 .0253891
1101.215 .0254199
1101.800 .0254516
1102.385 .0254838
1102.970 .0255166
1103.556 .0255497
1104.142 .0255830
1104.728 .0256164
1105.315 .0256498
1105.902 .0256830
1106.489 .0257160
1107.077 .0257488
1107.664 .0257817
1108.253 .0258145
1108.841 .0258475
1109.430 .0258806
1110.019 .0259140
1110.609 .0259477
1111.198 .0259820
1111.789 .0260168
1112.379 .0260522
1112.970 .0260883
1113.561 .0261250
1114.153 .0261624
1114.745 .0262008
1115.338 .0262402
1115.931 .0262810
1116.524 .0263232
1117.117 .0263672
1117.712 .0264129
1118.306 .0264606
1118.901 .0265103
1119.496 .0265618
1120.092 .0266151
1120.689 .0266699
1121.285 .0267263
1121.882 .0267842
1122.480 .0268437
1123.078 .0269049
1123.677 .0269681
1124.276 .0270335
1124.875 .0271010
1125.476 .0271707
1126.076 .0272425
1126.677 .0273164
1127.279 .0273919
1127.881 .0274688
1128.484 .0275470
1129.087 .0275845
1129.691 .0276646
1130.295 .0277461
1130.900 .0278291
1131.505 .0279140
1132.111 .0280009
1132.718 .0280898
1133.325 .0281812
1133.933 .0282755
1134.541 .0283735
1135.150 .0284694
1135.760 .0285621
1136.370 .0286719
1136.981 .0287069
1137.592 .0287978
1138.204 .0288969
1138.817 .0290023
1139.431 .0291209
1140.045 .0292463
1140.660 .0293754
1141.275 .0295188
1141.891 .0296831
1142.508 .0298713
1143.126 .0298972
1143.744 .0298993
1144.363 .0304653
1144.983 .0309951
