Measurement Sequence started on: 15-12-46-377
Integration time: 28
Scans to Average: 2 
>>>>>Begin Spectral Data<<<<<
432.689 .0000100
433.621 .0000100
434.552 .0000100
435.482 .0000100
436.410 .0000100
437.337 .0000100
438.262 .0275114
439.187 .0580581
440.110 .0959177
441.031 .1385429
441.952 .1103339
442.871 .1152009
443.789 .1197366
444.705 .1240121
445.621 .1280738
446.535 .1319557
447.447 .1342354
448.359 .1347729
449.269 .1332000
450.178 .1292798
451.086 .1230933
451.993 .1151233
452.898 .1061611
453.803 .0970978
454.706 .0886878
455.608 .0813943
456.508 .0753661
457.408 .0713040
458.306 .0681757
459.204 .0656162
460.100 .0634471
460.995 .0615716
461.888 .0599222
462.781 .0584560
463.673 .0571421
464.563 .0559586
465.452 .0548882
466.340 .0539169
467.228 .0530327
468.114 .0522258
468.999 .0514883
469.882 .0508134
470.765 .0501957
471.647 .0496314
472.528 .0491179
473.407 .0486531
474.286 .0482353
475.163 .0478631
476.040 .0475339
476.915 .0472453
477.790 .0469946
478.663 .0467789
479.535 .0465957
480.407 .0464428
481.277 .0463177
482.147 .0462188
483.015 .0461442
483.883 .0460929
484.749 .0460636
485.615 .0460555
486.479 .0460678
487.343 .0460993
488.206 .0461493
489.067 .0462170
489.928 .0463013
490.788 .0464018
491.647 .0465179
492.505 .0466495
493.362 .0467961
494.218 .0469572
495.073 .0471331
495.928 .0474476
496.781 .0476604
497.634 .0478886
498.486 .0481323
499.337 .0483925
500.187 .0486699
501.036 .0489673
501.884 .0492874
502.731 .0496353
503.578 .0500158
504.424 .0502767
505.268 .0507275
506.113 .0512265
506.956 .0517793
507.798 .0523924
508.640 .0530717
509.480 .0538262
510.320 .0546669
511.160 .0556073
511.998 .0566624
512.836 .0578518
513.672 .0591944
514.508 .0607134
515.344 .0624311
516.178 .0643703
517.012 .0665526
517.845 .0690013
518.677 .0717377
519.508 .0747809
520.339 .0781425
521.169 .0818297
521.998 .0858231
522.826 .0900911
523.654 .0945791
524.481 .0992178
525.307 .1039237
526.133 .1086028
526.958 .1131517
527.782 .1174715
528.605 .1214708
529.428 .1250698
530.250 .1281969
531.072 .1308069
531.892 .1328610
532.712 .1343358
533.532 .1352193
534.350 .1355101
535.168 .1352125
535.986 .1343349
536.802 .1328829
537.618 .1308660
538.434 .1282957
539.249 .1252073
540.063 .1216467
540.876 .1176803
541.689 .1133868
542.501 .1088552
543.313 .1041826
544.124 .0994713
544.934 .0948151
545.744 .0902967
546.553 .0859861
547.361 .0819399
548.169 .0781881
548.976 .0747504
549.783 .0716309
550.589 .0688218
551.395 .0663035
552.200 .0640491
553.004 .0620266
553.808 .0602083
554.611 .0585687
555.414 .0570839
556.216 .0557324
557.018 .0544953
557.819 .0533558
558.619 .0522990
559.419 .0513133
560.218 .0503899
561.017 .0495199
561.815 .0486974
562.613 .0479172
563.410 .0471735
564.207 .0464612
565.003 .0457763
565.799 .0451147
566.594 .0444735
567.388 .0438502
568.182 .0432435
568.976 .0426528
569.769 .0420787
570.562 .0415220
571.354 .0409833
572.145 .0404641
572.936 .0399645
573.727 .0394843
574.517 .0390230
575.307 .0385806
576.096 .0381566
576.885 .0377512
577.673 .0373651
578.461 .0369987
579.248 .0366528
580.035 .0363277
580.821 .0360237
581.607 .0357406
582.392 .0354779
583.177 .0352345
583.962 .0350095
584.746 .0348016
585.529 .0346097
586.313 .0344323
587.095 .0342684
587.878 .0341166
588.660 .0339758
589.441 .0338450
590.222 .0337235
591.003 .0336104
591.783 .0335052
592.563 .0334072
593.342 .0333158
594.121 .0332304
594.899 .0331502
595.678 .0330745
596.455 .0330028
597.233 .0329345
598.009 .0328693
598.786 .0328069
599.562 .0327469
600.338 .0326893
601.113 .0326339
601.888 .0325581
602.663 .0325082
603.437 .0324606
604.211 .0324151
604.984 .0323716
605.757 .0323300
606.530 .0322903
607.302 .0322524
608.074 .0322161
608.845 .0321814
609.616 .0321483
610.387 .0321359
611.158 .0321051
611.928 .0320759
612.697 .0320482
613.467 .0320221
614.236 .0319975
615.004 .0319742
615.773 .0319521
616.541 .0319309
617.308 .0319104
618.076 .0318903
618.843 .0318703
619.609 .0318504
620.375 .0318303
621.141 .0318100
621.907 .0317895
622.672 .0317686
623.437 .0317473
624.202 .0317254
624.966 .0317030
625.730 .0316799
626.493 .0316560
627.257 .0316313
628.020 .0316056
628.782 .0315792
629.545 .0315518
630.307 .0315236
631.068 .0314947
631.830 .0314652
632.591 .0314352
633.352 .0314050
634.112 .0313747
634.872 .0313444
635.632 .0313143
636.392 .0312845
637.151 .0312550
637.910 .0312258
638.668 .0311969
639.427 .0311681
640.185 .0311395
640.943 .0311112
641.700 .0310832
642.457 .0310557
643.214 .0310288
643.971 .0310027
644.727 .0309774
645.483 .0309528
646.239 .0309288
646.994 .0309054
647.750 .0308824
648.505 .0308596
649.259 .0308370
650.014 .0308143
650.768 .0307916
651.521 .0307688
652.275 .0307459
653.028 .0307230
653.781 .0306999
654.534 .0306766
655.286 .0306531
656.039 .0306294
656.791 .0306055
657.542 .0305814
658.294 .0305571
659.045 .0305327
659.796 .0305081
660.546 .0304833
661.297 .0304582
662.047 .0304330
662.796 .0304075
663.546 .0303819
664.295 .0303561
665.044 .0303303
665.793 .0303046
666.542 .0302791
667.290 .0302540
668.038 .0302291
668.786 .0302046
669.533 .0301805
670.281 .0301566
671.028 .0301331
671.774 .0301099
672.521 .0300872
673.267 .0300649
674.013 .0300430
674.759 .0300217
675.505 .0300008
676.250 .0299803
676.995 .0299603
677.740 .0299406
678.484 .0299213
679.229 .0299022
679.973 .0298834
680.717 .0298649
681.460 .0298467
682.204 .0298287
682.947 .0298109
683.690 .0297932
684.433 .0297755
685.175 .0297578
685.917 .0297400
686.659 .0297222
687.401 .0297043
688.142 .0296866
688.884 .0296689
689.625 .0296514
690.365 .0296341
691.106 .0296169
691.846 .0296000
692.586 .0295831
693.326 .0295664
694.066 .0295497
694.805 .0295331
695.545 .0295167
696.284 .0295004
697.022 .0294843
697.761 .0294685
698.499 .0294529
699.237 .0294377
699.975 .0294229
700.713 .0294083
701.450 .0293942
702.187 .0293803
702.924 .0293668
703.661 .0293534
704.397 .0293401
705.133 .0293270
705.869 .0293140
706.605 .0293010
707.341 .0292880
708.076 .0292749
708.811 .0292617
709.546 .0292484
710.281 .0292348
711.015 .0292210
711.749 .0292068
712.483 .0291922
713.217 .0291771
713.950 .0291616
714.684 .0291457
715.417 .0291293
716.150 .0291125
716.882 .0290954
717.615 .0290780
718.347 .0290603
719.079 .0290424
719.811 .0290243
720.542 .0290061
721.273 .0289878
722.005 .0289695
722.735 .0289512
723.466 .0289328
724.196 .0289145
724.927 .0288963
725.656 .0288783
726.386 .0288606
727.116 .0288432
727.845 .0288261
728.574 .0288096
729.303 .0287935
730.031 .0287779
730.760 .0287627
731.488 .0287480
732.216 .0287336
732.944 .0287196
733.671 .0287059
734.398 .0286926
735.125 .0286795
735.852 .0286668
736.579 .0286543
737.305 .0286421
738.031 .0286301
738.757 .0286183
739.483 .0286066
740.208 .0285950
740.933 .0285834
741.658 .0285717
742.383 .0285599
743.108 .0285480
743.832 .0285360
744.556 .0285239
745.280 .0285115
746.004 .0284990
746.727 .0284863
747.450 .0284734
748.173 .0284602
748.896 .0284467
749.618 .0284329
750.340 .0284188
751.062 .0284043
751.784 .0283895
752.506 .0283744
753.227 .0283589
753.948 .0283429
754.669 .0283265
755.389 .0283097
756.110 .0282923
756.830 .0282745
757.550 .0282563
758.269 .0282377
758.989 .0282189
759.708 .0281998
760.427 .0281806
761.146 .0281613
761.864 .0281421
762.582 .0281227
763.300 .0281034
764.018 .0280841
764.736 .0280649
765.453 .0280457
766.170 .0280266
766.887 .0280078
767.603 .0279892
768.320 .0279709
769.036 .0279531
769.751 .0279356
770.467 .0279186
771.182 .0279020
771.897 .0278859
772.612 .0278703
773.327 .0278551
774.041 .0278404
774.755 .0278260
775.469 .0278121
776.183 .0277984
776.896 .0277850
777.609 .0277719
778.322 .0277590
779.035 .0277462
779.747 .0277336
780.459 .0277213
781.171 .0277091
781.882 .0276971
782.594 .0276854
783.305 .0276738
784.016 .0276623
784.726 .0276510
785.436 .0276398
786.147 .0276238
786.856 .0276129
787.566 .0276022
788.275 .0275917
788.984 .0275813
789.693 .0275711
790.401 .0275611
791.110 .0275511
791.818 .0275413
792.525 .0275314
793.233 .0275216
793.940 .0275117
794.647 .0275068
795.353 .0274968
796.060 .0274868
796.766 .0274767
797.472 .0274666
798.177 .0274563
798.883 .0274459
799.588 .0274353
800.292 .0274245
800.997 .0274135
801.701 .0274024
802.405 .0273911
803.109 .0273796
803.812 .0273680
804.515 .0273563
805.218 .0273444
805.921 .0273323
806.623 .0273200
807.325 .0273075
808.027 .0272948
808.728 .0272819
809.429 .0272689
810.130 .0272557
810.831 .0272424
811.531 .0272291
812.231 .0272157
812.931 .0272024
813.630 .0271892
814.330 .0271762
815.029 .0271635
815.727 .0271512
816.426 .0271393
817.124 .0271278
817.821 .0271168
818.519 .0271063
819.216 .0270964
819.913 .0270870
820.609 .0270782
821.306 .0270701
822.002 .0270626
822.697 .0270558
823.393 .0270497
824.088 .0270444
824.783 .0270398
825.477 .0270359
826.171 .0270327
826.865 .0270300
827.559 .0270279
828.252 .0270263
828.945 .0270251
829.638 .0270244
830.330 .0270242
831.023 .0270243
831.714 .0270249
832.406 .0270257
833.097 .0270267
833.788 .0270278
834.479 .0270290
835.169 .0270302
835.859 .0270314
836.548 .0270326
837.238 .0270337
837.927 .0270346
838.615 .0270354
839.304 .0270360
839.992 .0270363
840.680 .0270363
841.367 .0270360
842.054 .0270352
842.741 .0270340
843.428 .0270324
844.114 .0270304
844.800 .0270280
845.485 .0270253
846.170 .0270221
846.855 .0270186
847.540 .0270146
848.224 .0270101
848.908 .0270051
849.592 .0269995
850.275 .0269933
850.958 .0269865
851.641 .0269790
852.323 .0269708
853.005 .0269620
853.687 .0269526
854.368 .0269426
855.049 .0269321
855.730 .0269211
856.410 .0269097
857.090 .0268979
857.769 .0268858
858.449 .0268733
859.128 .0268606
859.806 .0268477
860.485 .0268347
861.163 .0268214
861.840 .0268081
862.518 .0267947
863.195 .0267814
863.871 .0267680
864.548 .0267547
865.224 .0267415
865.899 .0267284
866.574 .0267155
867.249 .0267027
867.924 .0266901
868.598 .0266778
869.272 .0266657
869.946 .0266538
870.619 .0266423
871.292 .0266309
871.964 .0266198
872.636 .0266089
873.308 .0265983
873.979 .0265878
874.651 .0265776
875.321 .0265675
875.992 .0265577
876.662 .0265481
877.331 .0265387
878.001 .0265296
878.670 .0265207
879.338 .0265122
880.007 .0265039
880.675 .0264959
881.342 .0264881
882.009 .0264806
882.676 .0264733
883.343 .0264663
884.009 .0264595
884.675 .0264530
885.340 .0264467
886.005 .0264406
886.670 .0264347
887.334 .0264290
887.998 .0264236
888.662 .0264182
889.325 .0264130
889.988 .0264077
890.650 .0264023
891.312 .0263968
891.974 .0263911
892.636 .0263851
893.297 .0263788
893.957 .0263722
894.618 .0263653
895.278 .0263580
895.937 .0263504
896.596 .0263423
897.255 .0263337
897.914 .0263246
898.572 .0263148
899.230 .0263044
899.887 .0262934
900.544 .0262816
901.201 .0262690
901.857 .0262469
902.513 .0262324
903.168 .0262172
903.823 .0262013
904.478 .0261846
905.132 .0261672
905.786 .0261490
906.440 .0261303
907.093 .0261111
907.746 .0260914
908.399 .0260713
909.051 .0260510
909.703 .0260306
910.354 .0260198
911.005 .0259993
911.656 .0259788
912.306 .0259582
912.956 .0259375
913.605 .0259167
914.254 .0258957
914.903 .0258745
915.551 .0258533
916.199 .0258318
916.847 .0258103
917.494 .0257886
918.141 .0257669
918.788 .0257451
919.434 .0257231
920.079 .0257010
920.725 .0256788
921.370 .0256564
922.014 .0256337
922.658 .0256109
923.302 .0255879
923.946 .0255646
924.589 .0255411
925.231 .0255175
925.873 .0254938
926.515 .0254699
927.157 .0254459
927.798 .0254219
928.439 .0253978
929.079 .0253738
929.719 .0253498
930.359 .0253259
930.998 .0253022
931.637 .0252788
932.275 .0252556
932.913 .0252329
933.551 .0252108
934.188 .0251893
934.825 .0251685
935.462 .0251485
936.098 .0251293
936.733 .0251109
937.369 .0250933
938.004 .0250766
938.638 .0250605
939.273 .0250451
939.907 .0250305
940.540 .0250165
941.173 .0250032
941.806 .0249906
942.438 .0249787
943.070 .0249674
943.702 .0249567
944.333 .0249464
944.964 .0249365
945.594 .0249268
946.224 .0249174
946.854 .0249080
947.483 .0248987
948.112 .0248896
948.741 .0248805
949.369 .0248715
949.996 .0248625
950.624 .0248535
951.251 .0248445
951.878 .0248354
952.504 .0248261
953.130 .0248166
953.755 .0248070
954.380 .0247972
955.005 .0247874
955.629 .0247777
956.253 .0247681
956.877 .0247587
957.500 .0247496
958.123 .0247407
958.746 .0247321
959.368 .0247239
959.990 .0247160
960.611 .0247085
961.232 .0247015
961.853 .0246949
962.473 .0246889
963.093 .0246834
963.712 .0246784
964.331 .0246738
964.950 .0246697
965.569 .0246659
966.187 .0246624
966.804 .0246592
967.422 .0246562
968.039 .0246534
968.655 .0246508
969.272 .0246483
969.887 .0246460
970.503 .0246437
971.118 .0246414
971.733 .0246390
972.347 .0246365
972.961 .0246339
973.575 .0246311
974.188 .0246282
974.801 .0246250
975.414 .0246215
976.026 .0246177
976.638 .0246136
977.250 .0246091
977.861 .0246041
978.472 .0245989
979.083 .0245933
979.693 .0245876
980.303 .0245819
980.912 .0245733
981.521 .0245678
982.130 .0245625
982.738 .0245573
983.346 .0245523
983.954 .0245475
984.562 .0245429
985.169 .0245388
985.775 .0245352
986.382 .0245322
986.988 .0245299
987.594 .0245283
988.199 .0245274
988.804 .0245273
989.409 .0245295
990.013 .0245302
990.617 .0245314
991.221 .0245331
991.824 .0245353
992.427 .0245379
993.030 .0245410
993.632 .0245446
994.234 .0245486
994.836 .0245531
995.438 .0245580
996.039 .0245631
996.640 .0245686
997.240 .0245743
997.840 .0245803
998.440 .0245865
999.040 .0245930
999.639 .0245997
1000.238 .0246067
1000.836 .0246141
1001.435 .0246216
1002.033 .0246294
1002.630 .0246374
1003.228 .0246455
1003.825 .0246536
1004.422 .0246617
1005.018 .0246698
1005.614 .0246778
1006.210 .0246858
1006.806 .0246937
1007.401 .0247017
1007.996 .0247097
1008.591 .0247177
1009.186 .0247258
1009.780 .0247339
1010.374 .0247421
1010.967 .0247503
1011.561 .0247585
1012.154 .0247668
1012.746 .0247753
1013.339 .0247839
1013.931 .0247928
1014.523 .0248019
1015.115 .0248112
1015.706 .0248207
1016.298 .0248303
1016.888 .0248399
1017.479 .0248496
1018.069 .0248594
1018.660 .0248693
1019.250 .0248793
1019.839 .0248896
1020.429 .0249001
1021.018 .0249109
1021.607 .0249219
1022.195 .0249331
1022.784 .0249445
1023.372 .0249560
1023.960 .0249676
1024.547 .0249793
1025.135 .0249912
1025.722 .0250033
1026.309 .0250157
1026.896 .0250284
1027.483 .0250413
1028.069 .0250543
1028.655 .0250675
1029.241 .0250806
1029.827 .0250937
1030.412 .0251066
1030.997 .0251193
1031.582 .0251318
1032.167 .0251443
1032.752 .0251568
1033.336 .0251693
1033.921 .0251817
1034.505 .0251941
1035.089 .0252064
1035.672 .0252183
1036.256 .0252299
1036.839 .0252409
1037.422 .0252513
1038.005 .0252610
1038.588 .0252702
1039.171 .0252788
1039.753 .0252871
1040.335 .0252950
1040.918 .0253026
1041.500 .0253100
1042.081 .0253170
1042.663 .0253237
1043.244 .0253300
1043.826 .0253360
1044.407 .0253416
1044.988 .0253468
1045.569 .0253518
1046.150 .0253566
1046.730 .0253611
1047.311 .0253656
1047.891 .0253698
1048.471 .0253739
1049.052 .0253778
1049.632 .0253812
1050.211 .0253843
1050.791 .0253869
1051.371 .0253890
1051.950 .0253905
1052.530 .0253915
1053.109 .0253921
1053.688 .0253923
1054.268 .0253923
1054.847 .0253922
1055.426 .0253921
1056.005 .0253920
1056.583 .0253920
1057.162 .0253919
1057.741 .0253918
1058.319 .0253915
1058.898 .0253908
1059.476 .0253898
1060.055 .0253884
1060.633 .0253866
1061.211 .0253847
1061.790 .0253825
1062.368 .0253803
1062.946 .0253779
1063.524 .0253754
1064.102 .0253727
1064.680 .0253698
1065.258 .0253666
1065.836 .0253630
1066.414 .0253592
1066.992 .0253553
1067.570 .0253513
1068.148 .0253474
1068.726 .0253437
1069.304 .0253402
1069.882 .0253368
1070.460 .0253335
1071.038 .0253301
1071.616 .0253268
1072.194 .0253235
1072.772 .0253200
1073.350 .0253165
1073.928 .0253131
1074.506 .0253096
1075.084 .0253063
1075.662 .0253032
1076.240 .0253003
1076.819 .0252976
1077.397 .0252951
1077.976 .0252927
1078.554 .0252904
1079.133 .0252885
1079.711 .0252868
1080.290 .0252855
1080.869 .0252846
1081.448 .0252842
1082.027 .0252841
1082.606 .0252844
1083.185 .0252848
1083.764 .0252853
1084.343 .0252859
1084.923 .0252864
1085.502 .0252870
1086.082 .0252879
1086.662 .0252890
1087.242 .0252906
1087.822 .0252928
1088.402 .0252956
1088.983 .0252991
1089.563 .0253033
1090.144 .0253083
1090.725 .0253141
1091.306 .0253206
1091.887 .0253281
1092.469 .0253365
1093.050 .0253458
1093.632 .0253562
1094.214 .0253675
1094.796 .0253797
1095.379 .0253926
1095.961 .0254061
1096.544 .0254201
1097.127 .0254343
1097.710 .0254486
1098.294 .0254628
1098.877 .0254768
1099.461 .0254907
1100.046 .0255044
1100.630 .0255179
1101.215 .0255312
1101.800 .0255444
1102.385 .0255574
1102.970 .0255702
1103.556 .0255829
1104.142 .0255953
1104.728 .0256074
1105.315 .0256191
1105.902 .0256303
1106.489 .0256411
1107.077 .0256517
1107.664 .0256623
1108.253 .0256730
1108.841 .0256839
1109.430 .0256950
1110.019 .0257064
1110.609 .0257180
1111.198 .0257297
1111.789 .0257414
1112.379 .0257529
1112.970 .0257642
1113.561 .0257754
1114.153 .0257865
1114.745 .0257979
1115.338 .0258098
1115.931 .0258225
1116.524 .0258365
1117.117 .0258517
1117.712 .0258686
1118.306 .0258873
1118.901 .0259079
1119.496 .0259305
1120.092 .0259551
1120.689 .0259817
1121.285 .0260106
1121.882 .0260419
1122.480 .0260758
1123.078 .0261123
1123.677 .0261518
1124.276 .0261942
1124.875 .0262394
1125.476 .0262876
1126.076 .0263386
1126.677 .0263925
1127.279 .0264493
1127.881 .0265088
1128.484 .0265713
1129.087 .0265931
1129.691 .0266604
1130.295 .0267310
1130.900 .0268054
1131.505 .0268838
1132.111 .0269665
1132.718 .0270532
1133.325 .0271441
1133.933 .0272396
1134.541 .0273436
1135.150 .0274513
1135.760 .0275509
1136.370 .0276614
1136.981 .0277494
1137.592 .0278629
1138.204 .0279766
1138.817 .0280938
1139.431 .0282221
1140.045 .0283579
1140.660 .0284927
1141.275 .0286367
1141.891 .0287968
1142.508 .0290680
1143.126 .0292124
1143.744 .0290319
1144.363 .0293850
1144.983 .0298536
