Measurement Sequence started on: 15-12-46-377
Integration time: 28
Scans to Average: 2 
>>>>>Begin Spectral Data<<<<<
432.689 .0000100
433.621 .0000100
434.552 .0000100
435.482 .0000100
436.410 .0000100
437.337 .0000100
438.262 .0269803
439.187 .0572195
440.110 .0947645
441.031 .1371134
441.952 .1100484
442.871 .1149684
443.789 .1195559
444.705 .1238808
445.621 .1279903
446.535 .1319220
447.447 .1342833
448.359 .1349229
449.269 .1334729
450.178 .1296935
451.086 .1236603
451.993 .1158424
452.898 .1070161
453.803 .0980635
454.706 .0897339
455.608 .0824936
456.508 .0764980
457.408 .0724403
458.306 .0693202
459.204 .0667752
460.100 .0646263
460.995 .0627753
461.888 .0611548
462.781 .0597205
463.673 .0584379
464.563 .0572825
465.452 .0562357
466.340 .0552832
467.228 .0544140
468.114 .0536190
468.999 .0528915
469.882 .0522251
470.765 .0516137
471.647 .0510533
472.528 .0505387
473.407 .0500653
474.286 .0496292
475.163 .0492267
476.040 .0488542
476.915 .0485095
477.790 .0481893
478.663 .0478917
479.535 .0476152
480.407 .0473582
481.277 .0471193
482.147 .0468976
483.015 .0466922
483.883 .0465030
484.749 .0463303
485.615 .0461751
486.479 .0460383
487.343 .0459217
488.206 .0458273
489.067 .0457568
489.928 .0457124
490.788 .0456964
491.647 .0457106
492.505 .0457573
493.362 .0458380
494.218 .0459543
495.073 .0461073
495.928 .0464737
496.781 .0467227
497.634 .0470094
498.486 .0473335
499.337 .0476949
500.187 .0480941
501.036 .0485321
501.884 .0490100
502.731 .0495300
503.578 .0500946
504.424 .0504660
505.268 .0511039
506.113 .0517919
506.956 .0525325
507.798 .0533289
508.640 .0541875
509.480 .0551148
510.320 .0561209
511.160 .0572184
511.998 .0584228
512.836 .0597523
513.672 .0612251
514.508 .0628625
515.344 .0646872
516.178 .0667210
517.012 .0689879
517.845 .0715090
518.677 .0743060
519.508 .0773962
520.339 .0807909
521.169 .0844937
521.998 .0884829
522.826 .0927241
523.654 .0971639
524.481 .1017280
525.307 .1063310
526.133 .1108759
526.958 .1152666
527.782 .1194110
528.605 .1232242
529.428 .1266341
530.250 .1295797
531.072 .1320242
531.892 .1339339
532.712 .1352852
533.532 .1360681
534.350 .1362754
535.168 .1359063
535.986 .1349632
536.802 .1334488
537.618 .1313715
538.434 .1287448
539.249 .1256080
540.063 .1220110
540.876 .1180206
541.689 .1137219
542.501 .1092093
543.313 .1045829
544.124 .0999399
544.934 .0953666
545.744 .0909395
546.553 .0867196
547.361 .0827529
548.169 .0790604
548.976 .0756585
549.783 .0725510
550.589 .0697288
551.395 .0671764
552.200 .0648742
553.004 .0627972
553.808 .0609231
554.611 .0592291
555.414 .0576937
556.216 .0562961
557.018 .0550172
557.819 .0538401
558.619 .0527500
559.419 .0517339
560.218 .0507816
561.017 .0498854
561.815 .0490404
562.613 .0482415
563.410 .0474840
564.207 .0467638
565.003 .0460774
565.799 .0454202
566.594 .0447888
567.388 .0441806
568.182 .0435936
568.976 .0430261
569.769 .0424775
570.562 .0419475
571.354 .0414364
572.145 .0409447
572.936 .0404728
573.727 .0400210
574.517 .0395894
575.307 .0391775
576.096 .0387845
576.885 .0384099
577.673 .0380528
578.461 .0377123
579.248 .0373881
580.035 .0370799
580.821 .0367875
581.607 .0365109
582.392 .0362501
583.177 .0360049
583.962 .0357748
584.746 .0355594
585.529 .0353579
586.313 .0351696
587.095 .0349937
587.878 .0348294
588.660 .0346762
589.441 .0345336
590.222 .0344013
591.003 .0342791
591.783 .0341667
592.563 .0340633
593.342 .0339682
594.121 .0338806
594.899 .0337995
595.678 .0337240
596.455 .0336529
597.233 .0335855
598.009 .0335211
598.786 .0334591
599.562 .0333993
600.338 .0333416
601.113 .0332859
601.888 .0332088
602.663 .0331581
603.437 .0331095
604.211 .0330628
604.984 .0330180
605.757 .0329750
606.530 .0329337
607.302 .0328940
608.074 .0328560
608.845 .0328195
609.616 .0327846
610.387 .0327717
611.158 .0327391
611.928 .0327080
612.697 .0326784
613.467 .0326503
614.236 .0326236
615.004 .0325981
615.773 .0325737
616.541 .0325502
617.308 .0325271
618.076 .0325044
618.843 .0324818
619.609 .0324592
620.375 .0324363
621.141 .0324132
621.907 .0323896
622.672 .0323655
623.437 .0323410
624.202 .0323158
624.966 .0322899
625.730 .0322633
626.493 .0322361
627.257 .0322081
628.020 .0321793
628.782 .0321499
629.545 .0321197
630.307 .0320889
631.068 .0320574
631.830 .0320255
632.591 .0319932
633.352 .0319607
634.112 .0319282
634.872 .0318959
635.632 .0318639
636.392 .0318322
637.151 .0318012
637.910 .0317707
638.668 .0317410
639.427 .0317119
640.185 .0316836
640.943 .0316561
641.700 .0316295
642.457 .0316039
643.214 .0315794
643.971 .0315560
644.727 .0315337
645.483 .0315125
646.239 .0314923
646.994 .0314731
647.750 .0314546
648.505 .0314370
649.259 .0314200
650.014 .0314035
650.768 .0313875
651.521 .0313719
652.275 .0313565
653.028 .0313413
653.781 .0313262
654.534 .0313110
655.286 .0312957
656.039 .0312802
656.791 .0312643
657.542 .0312480
658.294 .0312312
659.045 .0312138
659.796 .0311957
660.546 .0311769
661.297 .0311575
662.047 .0311376
662.796 .0311172
663.546 .0310965
664.295 .0310755
665.044 .0310543
665.793 .0310329
666.542 .0310114
667.290 .0309899
668.038 .0309684
668.786 .0309469
669.533 .0309254
670.281 .0309042
671.028 .0308831
671.774 .0308624
672.521 .0308419
673.267 .0308218
674.013 .0308021
674.759 .0307826
675.505 .0307636
676.250 .0307447
676.995 .0307262
677.740 .0307078
678.484 .0306896
679.229 .0306715
679.973 .0306534
680.717 .0306353
681.460 .0306172
682.204 .0305990
682.947 .0305806
683.690 .0305620
684.433 .0305433
685.175 .0305242
685.917 .0305049
686.659 .0304853
687.401 .0304653
688.142 .0304449
688.884 .0304241
689.625 .0304029
690.365 .0303814
691.106 .0303597
691.846 .0303377
692.586 .0303155
693.326 .0302932
694.066 .0302707
694.805 .0302483
695.545 .0302258
696.284 .0302036
697.022 .0301815
697.761 .0301598
698.499 .0301385
699.237 .0301176
699.975 .0300973
700.713 .0300775
701.450 .0300581
702.187 .0300392
702.924 .0300207
703.661 .0300025
704.397 .0299847
705.133 .0299672
705.869 .0299501
706.605 .0299333
707.341 .0299167
708.076 .0299003
708.811 .0298841
709.546 .0298679
710.281 .0298517
711.015 .0298354
711.749 .0298189
712.483 .0298023
713.217 .0297854
713.950 .0297683
714.684 .0297508
715.417 .0297330
716.150 .0297148
716.882 .0296962
717.615 .0296773
718.347 .0296581
719.079 .0296388
719.811 .0296194
720.542 .0296000
721.273 .0295807
722.005 .0295616
722.735 .0295427
723.466 .0295240
724.196 .0295057
724.927 .0294876
725.656 .0294700
726.386 .0294530
727.116 .0294367
727.845 .0294212
728.574 .0294066
729.303 .0293929
730.031 .0293803
730.760 .0293685
731.488 .0293576
732.216 .0293475
732.944 .0293382
733.671 .0293296
734.398 .0293217
735.125 .0293145
735.852 .0293080
736.579 .0293022
737.305 .0292969
738.031 .0292921
738.757 .0292878
739.483 .0292838
740.208 .0292801
740.933 .0292766
741.658 .0292732
742.383 .0292697
743.108 .0292662
743.832 .0292624
744.556 .0292583
745.280 .0292538
746.004 .0292487
746.727 .0292430
747.450 .0292368
748.173 .0292299
748.896 .0292224
749.618 .0292142
750.340 .0292054
751.062 .0291959
751.784 .0291858
752.506 .0291749
753.227 .0291633
753.948 .0291511
754.669 .0291382
755.389 .0291246
756.110 .0291105
756.830 .0290959
757.550 .0290809
758.269 .0290654
758.989 .0290497
759.708 .0290337
760.427 .0290174
761.146 .0290010
761.864 .0289843
762.582 .0289675
763.300 .0289505
764.018 .0289334
764.736 .0289161
765.453 .0288986
766.170 .0288811
766.887 .0288635
767.603 .0288459
768.320 .0288284
769.036 .0288109
769.751 .0287936
770.467 .0287765
771.182 .0287596
771.897 .0287429
772.612 .0287265
773.327 .0287105
774.041 .0286947
774.755 .0286794
775.469 .0286645
776.183 .0286499
776.896 .0286358
777.609 .0286220
778.322 .0286086
779.035 .0285955
779.747 .0285828
780.459 .0285704
781.171 .0285583
781.882 .0285465
782.594 .0285351
783.305 .0285239
784.016 .0285130
784.726 .0285022
785.436 .0284916
786.147 .0284753
786.856 .0284646
787.566 .0284540
788.275 .0284434
788.984 .0284329
789.693 .0284225
790.401 .0284120
791.110 .0284016
791.818 .0283911
792.525 .0283807
793.233 .0283703
793.940 .0283598
794.647 .0283549
795.353 .0283445
796.060 .0283342
796.766 .0283238
797.472 .0283135
798.177 .0283031
798.883 .0282926
799.588 .0282821
800.292 .0282716
800.997 .0282610
801.701 .0282503
802.405 .0282397
803.109 .0282291
803.812 .0282185
804.515 .0282078
805.218 .0281969
805.921 .0281860
806.623 .0281748
807.325 .0281634
808.027 .0281519
808.728 .0281401
809.429 .0281283
810.130 .0281164
810.831 .0281044
811.531 .0280924
812.231 .0280805
812.931 .0280686
813.630 .0280570
814.330 .0280455
815.029 .0280345
815.727 .0280238
816.426 .0280136
817.124 .0280039
817.821 .0279947
818.519 .0279860
819.216 .0279778
819.913 .0279701
820.609 .0279629
821.306 .0279563
822.002 .0279503
822.697 .0279448
823.393 .0279400
824.088 .0279357
824.783 .0279319
825.477 .0279287
826.171 .0279259
826.865 .0279235
827.559 .0279216
828.252 .0279202
828.945 .0279191
829.638 .0279186
830.330 .0279184
831.023 .0279187
831.714 .0279193
832.406 .0279201
833.097 .0279212
833.788 .0279224
834.479 .0279237
835.169 .0279251
835.859 .0279265
836.548 .0279280
837.238 .0279294
837.927 .0279307
838.615 .0279317
839.304 .0279324
839.992 .0279327
840.680 .0279325
841.367 .0279317
842.054 .0279304
842.741 .0279284
843.428 .0279258
844.114 .0279225
844.800 .0279185
845.485 .0279136
846.170 .0279079
846.855 .0279012
847.540 .0278936
848.224 .0278850
848.908 .0278754
849.592 .0278648
850.275 .0278532
850.958 .0278407
851.641 .0278272
852.323 .0278130
853.005 .0277979
853.687 .0277820
854.368 .0277656
855.049 .0277484
855.730 .0277308
856.410 .0277127
857.090 .0276942
857.769 .0276754
858.449 .0276563
859.128 .0276370
859.806 .0276176
860.485 .0275981
861.163 .0275785
861.840 .0275589
862.518 .0275394
863.195 .0275198
863.871 .0275002
864.548 .0274807
865.224 .0274612
865.899 .0274418
866.574 .0274226
867.249 .0274035
867.924 .0273846
868.598 .0273660
869.272 .0273475
869.946 .0273293
870.619 .0273114
871.292 .0272936
871.964 .0272762
872.636 .0272590
873.308 .0272423
873.979 .0272260
874.651 .0272101
875.321 .0271948
875.992 .0271800
876.662 .0271657
877.331 .0271518
878.001 .0271384
878.670 .0271254
879.338 .0271129
880.007 .0271008
880.675 .0270891
881.342 .0270779
882.009 .0270671
882.676 .0270567
883.343 .0270468
884.009 .0270373
884.675 .0270281
885.340 .0270192
886.005 .0270106
886.670 .0270022
887.334 .0269941
887.998 .0269863
888.662 .0269786
889.325 .0269712
889.988 .0269640
890.650 .0269569
891.312 .0269499
891.974 .0269430
892.636 .0269362
893.297 .0269294
893.957 .0269226
894.618 .0269158
895.278 .0269090
895.937 .0269022
896.596 .0268952
897.255 .0268882
897.914 .0268810
898.572 .0268736
899.230 .0268660
899.887 .0268581
900.544 .0268500
901.201 .0268415
901.857 .0268276
902.513 .0268184
903.168 .0268090
903.823 .0267994
904.478 .0267895
905.132 .0267795
905.786 .0267692
906.440 .0267588
907.093 .0267481
907.746 .0267373
908.399 .0267262
909.051 .0267149
909.703 .0267035
910.354 .0266976
911.005 .0266862
911.656 .0266746
912.306 .0266630
912.956 .0266514
913.605 .0266398
914.254 .0266282
914.903 .0266165
915.551 .0266048
916.199 .0265931
916.847 .0265813
917.494 .0265694
918.141 .0265575
918.788 .0265456
919.434 .0265337
920.079 .0265219
920.725 .0265100
921.370 .0264982
922.014 .0264863
922.658 .0264744
923.302 .0264625
923.946 .0264505
924.589 .0264385
925.231 .0264264
925.873 .0264144
926.515 .0264024
927.157 .0263905
927.798 .0263788
928.439 .0263671
929.079 .0263557
929.719 .0263445
930.359 .0263335
930.998 .0263229
931.637 .0263125
932.275 .0263026
932.913 .0262931
933.551 .0262841
934.188 .0262757
934.825 .0262678
935.462 .0262606
936.098 .0262539
936.733 .0262478
937.369 .0262423
938.004 .0262374
938.638 .0262330
939.273 .0262291
939.907 .0262258
940.540 .0262229
941.173 .0262205
941.806 .0262185
942.438 .0262168
943.070 .0262154
943.702 .0262142
944.333 .0262132
944.964 .0262122
945.594 .0262113
946.224 .0262103
946.854 .0262093
947.483 .0262082
948.112 .0262070
948.741 .0262057
949.369 .0262042
949.996 .0262025
950.624 .0262007
951.251 .0261987
951.878 .0261964
952.504 .0261937
953.130 .0261907
953.755 .0261874
954.380 .0261835
955.005 .0261793
955.629 .0261745
956.253 .0261693
956.877 .0261637
957.500 .0261577
958.123 .0261514
958.746 .0261447
959.368 .0261379
959.990 .0261308
960.611 .0261237
961.232 .0261165
961.853 .0261093
962.473 .0261020
963.093 .0260947
963.712 .0260875
964.331 .0260803
964.950 .0260731
965.569 .0260661
966.187 .0260592
966.804 .0260523
967.422 .0260456
968.039 .0260390
968.655 .0260323
969.272 .0260257
969.887 .0260190
970.503 .0260122
971.118 .0260054
971.733 .0259985
972.347 .0259915
972.961 .0259843
973.575 .0259770
974.188 .0259695
974.801 .0259617
975.414 .0259535
976.026 .0259449
976.638 .0259357
977.250 .0259259
977.861 .0259155
978.472 .0259044
979.083 .0258926
979.693 .0258801
980.303 .0258668
980.912 .0258434
981.521 .0258284
982.130 .0258127
982.738 .0257963
983.346 .0257793
983.954 .0257619
984.562 .0257441
985.169 .0257260
985.775 .0257079
986.382 .0256898
986.988 .0256719
987.594 .0256542
988.199 .0256369
988.804 .0256199
989.409 .0256129
990.013 .0255968
990.617 .0255811
991.221 .0255658
991.824 .0255511
992.427 .0255368
993.030 .0255232
993.632 .0255101
994.234 .0254976
994.836 .0254857
995.438 .0254743
996.039 .0254635
996.640 .0254531
997.240 .0254433
997.840 .0254340
998.440 .0254252
999.040 .0254169
999.639 .0254091
1000.238 .0254016
1000.836 .0253945
1001.435 .0253876
1002.033 .0253810
1002.630 .0253745
1003.228 .0253681
1003.825 .0253616
1004.422 .0253551
1005.018 .0253484
1005.614 .0253417
1006.210 .0253348
1006.806 .0253277
1007.401 .0253204
1007.996 .0253131
1008.591 .0253056
1009.186 .0252981
1009.780 .0252905
1010.374 .0252831
1010.967 .0252758
1011.561 .0252688
1012.154 .0252620
1012.746 .0252556
1013.339 .0252497
1013.931 .0252443
1014.523 .0252394
1015.115 .0252351
1015.706 .0252314
1016.298 .0252283
1016.888 .0252258
1017.479 .0252239
1018.069 .0252226
1018.660 .0252220
1019.250 .0252220
1019.839 .0252225
1020.429 .0252235
1021.018 .0252251
1021.607 .0252270
1022.195 .0252294
1022.784 .0252322
1023.372 .0252354
1023.960 .0252390
1024.547 .0252431
1025.135 .0252477
1025.722 .0252526
1026.309 .0252579
1026.896 .0252636
1027.483 .0252694
1028.069 .0252755
1028.655 .0252816
1029.241 .0252876
1029.827 .0252936
1030.412 .0252994
1030.997 .0253051
1031.582 .0253105
1032.167 .0253158
1032.752 .0253208
1033.336 .0253255
1033.921 .0253299
1034.505 .0253340
1035.089 .0253377
1035.672 .0253410
1036.256 .0253440
1036.839 .0253465
1037.422 .0253487
1038.005 .0253507
1038.588 .0253525
1039.171 .0253541
1039.753 .0253557
1040.335 .0253571
1040.918 .0253584
1041.500 .0253595
1042.081 .0253604
1042.663 .0253611
1043.244 .0253615
1043.826 .0253617
1044.407 .0253616
1044.988 .0253615
1045.569 .0253613
1046.150 .0253611
1046.730 .0253610
1047.311 .0253610
1047.891 .0253612
1048.471 .0253616
1049.052 .0253624
1049.632 .0253635
1050.211 .0253652
1050.791 .0253674
1051.371 .0253703
1051.950 .0253738
1052.530 .0253778
1053.109 .0253825
1053.688 .0253876
1054.268 .0253931
1054.847 .0253990
1055.426 .0254051
1056.005 .0254116
1056.583 .0254183
1057.162 .0254254
1057.741 .0254328
1058.319 .0254404
1058.898 .0254482
1059.476 .0254561
1060.055 .0254642
1060.633 .0254724
1061.211 .0254808
1061.790 .0254893
1062.368 .0254979
1062.946 .0255069
1063.524 .0255162
1064.102 .0255258
1064.680 .0255356
1065.258 .0255457
1065.836 .0255558
1066.414 .0255659
1066.992 .0255758
1067.570 .0255855
1068.148 .0255949
1068.726 .0256041
1069.304 .0256130
1069.882 .0256217
1070.460 .0256302
1071.038 .0256384
1071.616 .0256466
1072.194 .0256545
1072.772 .0256623
1073.350 .0256699
1073.928 .0256775
1074.506 .0256851
1075.084 .0256928
1075.662 .0257009
1076.240 .0257095
1076.819 .0257186
1077.397 .0257282
1077.976 .0257382
1078.554 .0257486
1079.133 .0257592
1079.711 .0257701
1080.290 .0257813
1080.869 .0257926
1081.448 .0258042
1082.027 .0258161
1082.606 .0258282
1083.185 .0258408
1083.764 .0258537
1084.343 .0258672
1084.923 .0258812
1085.502 .0258956
1086.082 .0259105
1086.662 .0259261
1087.242 .0259424
1087.822 .0259594
1088.402 .0259772
1088.983 .0259957
1089.563 .0260147
1090.144 .0260341
1090.725 .0260537
1091.306 .0260736
1091.887 .0260936
1092.469 .0261137
1093.050 .0261338
1093.632 .0261539
1094.214 .0261742
1094.796 .0261947
1095.379 .0262154
1095.961 .0262363
1096.544 .0262573
1097.127 .0262784
1097.710 .0262994
1098.294 .0263203
1098.877 .0263413
1099.461 .0263623
1100.046 .0263835
1100.630 .0264051
1101.215 .0264269
1101.800 .0264491
1102.385 .0264718
1102.970 .0264947
1103.556 .0265179
1104.142 .0265411
1104.728 .0265643
1105.315 .0265874
1105.902 .0266104
1106.489 .0266335
1107.077 .0266570
1107.664 .0266810
1108.253 .0267059
1108.841 .0267318
1109.430 .0267590
1110.019 .0267877
1110.609 .0268179
1111.198 .0268496
1111.789 .0268829
1112.379 .0269176
1112.970 .0269536
1113.561 .0269909
1114.153 .0270294
1114.745 .0270692
1115.338 .0271104
1115.931 .0271527
1116.524 .0271962
1117.117 .0272408
1117.712 .0272860
1118.306 .0273319
1118.901 .0273781
1119.496 .0274243
1120.092 .0274706
1120.689 .0275169
1121.285 .0275632
1121.882 .0276097
1122.480 .0276566
1123.078 .0277041
1123.677 .0277524
1124.276 .0278015
1124.875 .0278516
1125.476 .0279027
1126.076 .0279549
1126.677 .0280083
1127.279 .0280630
1127.881 .0281194
1128.484 .0281775
1129.087 .0282036
1129.691 .0282637
1130.295 .0283260
1130.900 .0283907
1131.505 .0284583
1132.111 .0285288
1132.718 .0286026
1133.325 .0286795
1133.933 .0287596
1134.541 .0288476
1135.150 .0289412
1135.760 .0290332
1136.370 .0291229
1136.981 .0290665
1137.592 .0291890
1138.204 .0293134
1138.817 .0294389
1139.431 .0295729
1140.045 .0297131
1140.660 .0298579
1141.275 .0300034
1141.891 .0301525
1142.508 .0304290
1143.126 .0306386
1143.744 .0306474
1144.363 .0306228
1144.983 .0307879
