Measurement Sequence started on: 15-12-46-377
Integration time: 28
Scans to Average: 2 
>>>>>Begin Spectral Data<<<<<
432.689 .0000100
433.621 .0000100
434.552 .0000100
435.482 .0000100
436.410 .0000100
437.337 .0000100
438.262 .0282785
439.187 .0598581
440.110 .0990915
441.031 .1433687
441.952 .1149547
442.871 .1200880
443.789 .1248740
444.705 .1293826
445.621 .1336633
446.535 .1377530
447.447 .1401905
448.359 .1408237
449.269 .1392678
450.178 .1352714
451.086 .1289174
451.993 .1206973
452.898 .1114255
453.803 .1020250
454.706 .0932787
455.608 .0856728
456.508 .0793682
457.408 .0750910
458.306 .0717887
459.204 .0690852
460.100 .0667956
460.995 .0648147
461.888 .0630756
462.781 .0615320
463.673 .0601497
464.563 .0589054
465.452 .0577799
466.340 .0567577
467.228 .0558276
468.114 .0549797
468.999 .0542059
469.882 .0534997
470.765 .0528544
471.647 .0522653
472.528 .0517286
473.407 .0512415
474.286 .0508011
475.163 .0504057
476.040 .0500531
476.915 .0497407
477.790 .0494657
478.663 .0492254
479.535 .0490171
480.407 .0488381
481.277 .0486856
482.147 .0485568
483.015 .0484497
483.883 .0483619
484.749 .0482917
485.615 .0482381
486.479 .0481996
487.343 .0481754
488.206 .0481649
489.067 .0481676
489.928 .0481837
490.788 .0482138
491.647 .0482586
492.505 .0483193
493.362 .0483974
494.218 .0484941
495.073 .0486115
495.928 .0488712
496.781 .0490506
497.634 .0492560
498.486 .0494888
499.337 .0497504
500.187 .0500418
501.036 .0503655
501.884 .0507233
502.731 .0511179
503.578 .0515514
504.424 .0518533
505.268 .0523553
506.113 .0529057
506.956 .0535090
507.798 .0541714
508.640 .0548990
509.480 .0557006
510.320 .0565859
511.160 .0575666
511.998 .0586567
512.836 .0598740
513.672 .0612367
514.508 .0627675
515.344 .0644892
516.178 .0664240
517.012 .0685982
517.845 .0710380
518.677 .0737636
519.508 .0767932
520.339 .0801375
521.169 .0837972
521.998 .0877483
522.826 .0919571
523.654 .0963685
524.481 .1009139
525.307 .1055137
526.133 .1100765
526.958 .1145050
527.782 .1187098
528.605 .1226059
529.428 .1261181
530.250 .1291818
531.072 .1317503
531.892 .1337828
532.712 .1352547
533.532 .1361527
534.350 .1364679
535.168 .1361974
535.986 .1353468
536.802 .1339198
537.618 .1319252
538.434 .1293814
539.249 .1263285
540.063 .1228165
540.876 .1189126
541.689 .1146943
542.501 .1102471
543.313 .1056664
544.124 .1010492
544.934 .0964820
545.744 .0920427
546.553 .0877975
547.361 .0837971
548.169 .0800730
548.976 .0766476
549.783 .0735248
550.589 .0706981
551.395 .0681512
552.200 .0658614
553.004 .0638016
553.808 .0619477
554.611 .0602778
555.414 .0587695
556.216 .0574018
557.018 .0561541
557.819 .0550094
558.619 .0539526
559.419 .0529712
560.218 .0520541
561.017 .0511916
561.815 .0503761
562.613 .0496022
563.410 .0488637
564.207 .0481560
565.003 .0474747
565.799 .0468147
566.594 .0461724
567.388 .0455452
568.182 .0449312
568.976 .0443295
569.769 .0437404
570.562 .0431655
571.354 .0426056
572.145 .0420629
572.936 .0415390
573.727 .0410349
574.517 .0405515
575.307 .0400892
576.096 .0396473
576.885 .0392253
577.673 .0388229
578.461 .0384397
579.248 .0380752
580.035 .0377295
580.821 .0374025
581.607 .0370942
582.392 .0368049
583.177 .0365344
583.962 .0362823
584.746 .0360478
585.529 .0358301
586.313 .0356277
587.095 .0354392
587.878 .0352633
588.660 .0350986
589.441 .0349441
590.222 .0347992
591.003 .0346634
591.783 .0345366
592.563 .0344185
593.342 .0343089
594.121 .0342074
594.899 .0341135
595.678 .0340263
596.455 .0339451
597.233 .0338690
598.009 .0337972
598.786 .0337288
599.562 .0336633
600.338 .0336003
601.113 .0335393
601.888 .0334539
602.663 .0333971
603.437 .0333419
604.211 .0332881
604.984 .0332356
605.757 .0331842
606.530 .0331337
607.302 .0330840
608.074 .0330350
608.845 .0329866
609.616 .0329387
610.387 .0329166
611.158 .0328703
611.928 .0328250
612.697 .0327809
613.467 .0327382
614.236 .0326970
615.004 .0326576
615.773 .0326199
616.541 .0325839
617.308 .0325496
618.076 .0325167
618.843 .0324853
619.609 .0324553
620.375 .0324265
621.141 .0323990
621.907 .0323728
622.672 .0323478
623.437 .0323240
624.202 .0323013
624.966 .0322794
625.730 .0322582
626.493 .0322375
627.257 .0322173
628.020 .0321974
628.782 .0321777
629.545 .0321583
630.307 .0321390
631.068 .0321199
631.830 .0321009
632.591 .0320820
633.352 .0320631
634.112 .0320441
634.872 .0320250
635.632 .0320059
636.392 .0319868
637.151 .0319676
637.910 .0319484
638.668 .0319292
639.427 .0319100
640.185 .0318909
640.943 .0318718
641.700 .0318529
642.457 .0318342
643.214 .0318157
643.971 .0317974
644.727 .0317792
645.483 .0317611
646.239 .0317430
646.994 .0317247
647.750 .0317061
648.505 .0316870
649.259 .0316673
650.014 .0316472
650.768 .0316264
651.521 .0316053
652.275 .0315836
653.028 .0315616
653.781 .0315390
654.534 .0315158
655.286 .0314920
656.039 .0314674
656.791 .0314419
657.542 .0314157
658.294 .0313885
659.045 .0313606
659.796 .0313320
660.546 .0313027
661.297 .0312728
662.047 .0312422
662.796 .0312110
663.546 .0311791
664.295 .0311466
665.044 .0311137
665.793 .0310803
666.542 .0310466
667.290 .0310127
668.038 .0309787
668.786 .0309446
669.533 .0309104
670.281 .0308762
671.028 .0308420
671.774 .0308079
672.521 .0307740
673.267 .0307404
674.013 .0307072
674.759 .0306745
675.505 .0306422
676.250 .0306104
676.995 .0305791
677.740 .0305483
678.484 .0305181
679.229 .0304884
679.973 .0304592
680.717 .0304306
681.460 .0304027
682.204 .0303754
682.947 .0303488
683.690 .0303227
684.433 .0302972
685.175 .0302721
685.917 .0302475
686.659 .0302232
687.401 .0301994
688.142 .0301760
688.884 .0301531
689.625 .0301305
690.365 .0301084
691.106 .0300867
691.846 .0300654
692.586 .0300443
693.326 .0300235
694.066 .0300029
694.805 .0299825
695.545 .0299624
696.284 .0299425
697.022 .0299230
697.761 .0299038
698.499 .0298851
699.237 .0298668
699.975 .0298490
700.713 .0298316
701.450 .0298148
702.187 .0297985
702.924 .0297826
703.661 .0297673
704.397 .0297525
705.133 .0297381
705.869 .0297242
706.605 .0297107
707.341 .0296977
708.076 .0296851
708.811 .0296728
709.546 .0296609
710.281 .0296493
711.015 .0296380
711.749 .0296271
712.483 .0296164
713.217 .0296060
713.950 .0295957
714.684 .0295856
715.417 .0295754
716.150 .0295651
716.882 .0295547
717.615 .0295440
718.347 .0295331
719.079 .0295221
719.811 .0295108
720.542 .0294993
721.273 .0294877
722.005 .0294761
722.735 .0294644
723.466 .0294527
724.196 .0294410
724.927 .0294294
725.656 .0294179
726.386 .0294064
727.116 .0293951
727.845 .0293838
728.574 .0293726
729.303 .0293615
730.031 .0293506
730.760 .0293398
731.488 .0293292
732.216 .0293187
732.944 .0293085
733.671 .0292986
734.398 .0292888
735.125 .0292792
735.852 .0292697
736.579 .0292601
737.305 .0292504
738.031 .0292403
738.757 .0292299
739.483 .0292190
740.208 .0292075
740.933 .0291954
741.658 .0291828
742.383 .0291695
743.108 .0291556
743.832 .0291411
744.556 .0291259
745.280 .0291100
746.004 .0290933
746.727 .0290758
747.450 .0290574
748.173 .0290381
748.896 .0290180
749.618 .0289970
750.340 .0289753
751.062 .0289529
751.784 .0289299
752.506 .0289065
753.227 .0288827
753.948 .0288585
754.669 .0288342
755.389 .0288096
756.110 .0287849
756.830 .0287600
757.550 .0287349
758.269 .0287097
758.989 .0286843
759.708 .0286588
760.427 .0286331
761.146 .0286073
761.864 .0285815
762.582 .0285556
763.300 .0285298
764.018 .0285042
764.736 .0284787
765.453 .0284534
766.170 .0284283
766.887 .0284034
767.603 .0283787
768.320 .0283542
769.036 .0283299
769.751 .0283058
770.467 .0282820
771.182 .0282585
771.897 .0282355
772.612 .0282130
773.327 .0281912
774.041 .0281701
774.755 .0281498
775.469 .0281303
776.183 .0281117
776.896 .0280941
777.609 .0280773
778.322 .0280615
779.035 .0280466
779.747 .0280326
780.459 .0280195
781.171 .0280072
781.882 .0279958
782.594 .0279852
783.305 .0279753
784.016 .0279662
784.726 .0279577
785.436 .0279498
786.147 .0279399
786.856 .0279331
787.566 .0279265
788.275 .0279203
788.984 .0279141
789.693 .0279081
790.401 .0279019
791.110 .0278957
791.818 .0278893
792.525 .0278827
793.233 .0278758
793.940 .0278687
794.647 .0278642
795.353 .0278567
796.060 .0278490
796.766 .0278411
797.472 .0278330
798.177 .0278247
798.883 .0278160
799.588 .0278070
800.292 .0277976
800.997 .0277880
801.701 .0277780
802.405 .0277679
803.109 .0277575
803.812 .0277471
804.515 .0277366
805.218 .0277261
805.921 .0277156
806.623 .0277052
807.325 .0276949
808.027 .0276848
808.728 .0276749
809.429 .0276653
810.130 .0276560
810.831 .0276471
811.531 .0276387
812.231 .0276307
812.931 .0276232
813.630 .0276162
814.330 .0276096
815.029 .0276036
815.727 .0275981
816.426 .0275932
817.124 .0275889
817.821 .0275851
818.519 .0275821
819.216 .0275796
819.913 .0275778
820.609 .0275765
821.306 .0275759
822.002 .0275758
822.697 .0275762
823.393 .0275772
824.088 .0275788
824.783 .0275809
825.477 .0275835
826.171 .0275866
826.865 .0275900
827.559 .0275939
828.252 .0275981
828.945 .0276025
829.638 .0276072
830.330 .0276120
831.023 .0276169
831.714 .0276219
832.406 .0276268
833.097 .0276315
833.788 .0276361
834.479 .0276404
835.169 .0276444
835.859 .0276481
836.548 .0276514
837.238 .0276543
837.927 .0276567
838.615 .0276586
839.304 .0276598
839.992 .0276604
840.680 .0276603
841.367 .0276594
842.054 .0276579
842.741 .0276557
843.428 .0276529
844.114 .0276494
844.800 .0276451
845.485 .0276400
846.170 .0276340
846.855 .0276269
847.540 .0276189
848.224 .0276098
848.908 .0275996
849.592 .0275886
850.275 .0275766
850.958 .0275639
851.641 .0275502
852.323 .0275358
853.005 .0275204
853.687 .0275041
854.368 .0274869
855.049 .0274688
855.730 .0274498
856.410 .0274301
857.090 .0274096
857.769 .0273885
858.449 .0273667
859.128 .0273444
859.806 .0273214
860.485 .0272977
861.163 .0272734
861.840 .0272486
862.518 .0272234
863.195 .0271978
863.871 .0271721
864.548 .0271463
865.224 .0271205
865.899 .0270947
866.574 .0270690
867.249 .0270433
867.924 .0270176
868.598 .0269921
869.272 .0269667
869.946 .0269416
870.619 .0269169
871.292 .0268925
871.964 .0268687
872.636 .0268454
873.308 .0268227
873.979 .0268005
874.651 .0267788
875.321 .0267576
875.992 .0267368
876.662 .0267165
877.331 .0266966
878.001 .0266772
878.670 .0266581
879.338 .0266394
880.007 .0266210
880.675 .0266030
881.342 .0265854
882.009 .0265681
882.676 .0265512
883.343 .0265345
884.009 .0265183
884.675 .0265023
885.340 .0264867
886.005 .0264714
886.670 .0264563
887.334 .0264416
887.998 .0264271
888.662 .0264127
889.325 .0263986
889.988 .0263846
890.650 .0263707
891.312 .0263570
891.974 .0263434
892.636 .0263298
893.297 .0263163
893.957 .0263028
894.618 .0262893
895.278 .0262757
895.937 .0262619
896.596 .0262479
897.255 .0262334
897.914 .0262186
898.572 .0262033
899.230 .0261875
899.887 .0261712
900.544 .0261544
901.201 .0261372
901.857 .0261089
902.513 .0260905
903.168 .0260717
903.823 .0260526
904.478 .0260332
905.132 .0260134
905.786 .0259934
906.440 .0259732
907.093 .0259528
907.746 .0259323
908.399 .0259117
909.051 .0258910
909.703 .0258705
910.354 .0258611
911.005 .0258410
911.656 .0258211
912.306 .0258016
912.956 .0257825
913.605 .0257638
914.254 .0257456
914.903 .0257278
915.551 .0257105
916.199 .0256936
916.847 .0256771
917.494 .0256610
918.141 .0256453
918.788 .0256299
919.434 .0256149
920.079 .0256002
920.725 .0255858
921.370 .0255716
922.014 .0255577
922.658 .0255439
923.302 .0255302
923.946 .0255167
924.589 .0255032
925.231 .0254899
925.873 .0254766
926.515 .0254636
927.157 .0254507
927.798 .0254380
928.439 .0254254
929.079 .0254131
929.719 .0254010
930.359 .0253891
930.998 .0253777
931.637 .0253668
932.275 .0253564
932.913 .0253467
933.551 .0253378
934.188 .0253298
934.825 .0253227
935.462 .0253164
936.098 .0253112
936.733 .0253069
937.369 .0253035
938.004 .0253011
938.638 .0252998
939.273 .0252994
939.907 .0253002
940.540 .0253020
941.173 .0253048
941.806 .0253085
942.438 .0253130
943.070 .0253183
943.702 .0253242
944.333 .0253307
944.964 .0253377
945.594 .0253450
946.224 .0253528
946.854 .0253610
947.483 .0253694
948.112 .0253780
948.741 .0253868
949.369 .0253956
949.996 .0254044
950.624 .0254132
951.251 .0254218
951.878 .0254304
952.504 .0254389
953.130 .0254472
953.755 .0254554
954.380 .0254634
955.005 .0254711
955.629 .0254786
956.253 .0254856
956.877 .0254923
957.500 .0254986
958.123 .0255046
958.746 .0255104
959.368 .0255160
959.990 .0255215
960.611 .0255270
961.232 .0255323
961.853 .0255375
962.473 .0255425
963.093 .0255473
963.712 .0255520
964.331 .0255564
964.950 .0255606
965.569 .0255648
966.187 .0255689
966.804 .0255730
967.422 .0255770
968.039 .0255810
968.655 .0255849
969.272 .0255886
969.887 .0255921
970.503 .0255952
971.118 .0255981
971.733 .0256007
972.347 .0256030
972.961 .0256051
973.575 .0256069
974.188 .0256084
974.801 .0256096
975.414 .0256103
976.026 .0256107
976.638 .0256105
977.250 .0256097
977.861 .0256084
978.472 .0256065
979.083 .0256042
979.693 .0256014
980.303 .0255983
980.912 .0255915
981.521 .0255877
982.130 .0255835
982.738 .0255789
983.346 .0255740
983.954 .0255686
984.562 .0255627
985.169 .0255566
985.775 .0255502
986.382 .0255435
986.988 .0255369
987.594 .0255302
988.199 .0255235
988.804 .0255168
989.409 .0255140
990.013 .0255075
990.617 .0255010
991.221 .0254944
991.824 .0254879
992.427 .0254814
993.030 .0254750
993.632 .0254687
994.234 .0254626
994.836 .0254568
995.438 .0254513
996.039 .0254460
996.640 .0254411
997.240 .0254363
997.840 .0254317
998.440 .0254272
999.040 .0254227
999.639 .0254182
1000.238 .0254137
1000.836 .0254093
1001.435 .0254048
1002.033 .0254004
1002.630 .0253959
1003.228 .0253914
1003.825 .0253869
1004.422 .0253823
1005.018 .0253775
1005.614 .0253725
1006.210 .0253673
1006.806 .0253619
1007.401 .0253563
1007.996 .0253506
1008.591 .0253447
1009.186 .0253388
1009.780 .0253328
1010.374 .0253268
1010.967 .0253207
1011.561 .0253147
1012.154 .0253085
1012.746 .0253023
1013.339 .0252960
1013.931 .0252895
1014.523 .0252829
1015.115 .0252761
1015.706 .0252692
1016.298 .0252620
1016.888 .0252548
1017.479 .0252474
1018.069 .0252398
1018.660 .0252322
1019.250 .0252243
1019.839 .0252163
1020.429 .0252082
1021.018 .0251998
1021.607 .0251913
1022.195 .0251827
1022.784 .0251740
1023.372 .0251652
1023.960 .0251565
1024.547 .0251479
1025.135 .0251394
1025.722 .0251311
1026.309 .0251229
1026.896 .0251147
1027.483 .0251065
1028.069 .0250982
1028.655 .0250898
1029.241 .0250812
1029.827 .0250724
1030.412 .0250634
1030.997 .0250543
1031.582 .0250451
1032.167 .0250359
1032.752 .0250266
1033.336 .0250173
1033.921 .0250079
1034.505 .0249984
1035.089 .0249888
1035.672 .0249790
1036.256 .0249691
1036.839 .0249589
1037.422 .0249487
1038.005 .0249383
1038.588 .0249277
1039.171 .0249169
1039.753 .0249059
1040.335 .0248947
1040.918 .0248833
1041.500 .0248714
1042.081 .0248591
1042.663 .0248464
1043.244 .0248332
1043.826 .0248197
1044.407 .0248058
1044.988 .0247916
1045.569 .0247771
1046.150 .0247624
1046.730 .0247476
1047.311 .0247326
1047.891 .0247176
1048.471 .0247025
1049.052 .0246873
1049.632 .0246720
1050.211 .0246567
1050.791 .0246413
1051.371 .0246259
1051.950 .0246104
1052.530 .0245948
1053.109 .0245791
1053.688 .0245634
1054.268 .0245476
1054.847 .0245318
1055.426 .0245160
1056.005 .0245003
1056.583 .0244847
1057.162 .0244692
1057.741 .0244538
1058.319 .0244385
1058.898 .0244234
1059.476 .0244085
1060.055 .0243938
1060.633 .0243794
1061.211 .0243653
1061.790 .0243517
1062.368 .0243387
1062.946 .0243263
1063.524 .0243144
1064.102 .0243031
1064.680 .0242923
1065.258 .0242818
1065.836 .0242718
1066.414 .0242620
1066.992 .0242525
1067.570 .0242433
1068.148 .0242345
1068.726 .0242261
1069.304 .0242182
1069.882 .0242107
1070.460 .0242036
1071.038 .0241968
1071.616 .0241904
1072.194 .0241843
1072.772 .0241784
1073.350 .0241728
1073.928 .0241675
1074.506 .0241625
1075.084 .0241579
1075.662 .0241537
1076.240 .0241500
1076.819 .0241469
1077.397 .0241445
1077.976 .0241428
1078.554 .0241419
1079.133 .0241418
1079.711 .0241426
1080.290 .0241443
1080.869 .0241470
1081.448 .0241507
1082.027 .0241553
1082.606 .0241609
1083.185 .0241675
1083.764 .0241750
1084.343 .0241834
1084.923 .0241927
1085.502 .0242029
1086.082 .0242138
1086.662 .0242256
1087.242 .0242381
1087.822 .0242512
1088.402 .0242648
1088.983 .0242787
1089.563 .0242930
1090.144 .0243074
1090.725 .0243221
1091.306 .0243371
1091.887 .0243525
1092.469 .0243684
1093.050 .0243849
1093.632 .0244021
1094.214 .0244198
1094.796 .0244379
1095.379 .0244563
1095.961 .0244748
1096.544 .0244932
1097.127 .0245115
1097.710 .0245295
1098.294 .0245472
1098.877 .0245647
1099.461 .0245817
1100.046 .0245985
1100.630 .0246151
1101.215 .0246315
1101.800 .0246475
1102.385 .0246635
1102.970 .0246796
1103.556 .0246958
1104.142 .0247125
1104.728 .0247300
1105.315 .0247486
1105.902 .0247687
1106.489 .0247904
1107.077 .0248141
1107.664 .0248398
1108.253 .0248676
1108.841 .0248976
1109.430 .0249298
1110.019 .0249639
1110.609 .0249999
1111.198 .0250377
1111.789 .0250771
1112.379 .0251179
1112.970 .0251601
1113.561 .0252035
1114.153 .0252482
1114.745 .0252942
1115.338 .0253413
1115.931 .0253901
1116.524 .0254406
1117.117 .0254930
1117.712 .0255473
1118.306 .0256036
1118.901 .0256618
1119.496 .0257215
1120.092 .0257827
1120.689 .0258451
1121.285 .0259088
1121.882 .0259740
1122.480 .0260407
1123.078 .0261091
1123.677 .0261796
1124.276 .0262522
1124.875 .0263269
1125.476 .0264037
1126.076 .0264823
1126.677 .0265623
1127.279 .0266438
1127.881 .0267268
1128.484 .0268118
1129.087 .0268478
1129.691 .0269358
1130.295 .0270273
1130.900 .0271228
1131.505 .0272230
1132.111 .0273281
1132.718 .0274384
1133.325 .0275540
1133.933 .0276759
1134.541 .0278019
1135.150 .0279322
1135.760 .0280647
1136.370 .0282100
1136.981 .0281921
1137.592 .0283386
1138.204 .0284986
1138.817 .0286726
1139.431 .0288613
1140.045 .0290582
1140.660 .0292576
1141.275 .0294679
1141.891 .0297144
1142.508 .0298964
1143.126 .0300887
1143.744 .0302213
1144.363 .0306490
1144.983 .0317379
