Measurement Sequence started on: 15-12-46-377
Integration time: 28
Scans to Average: 2 
>>>>>Begin Spectral Data<<<<<
432.689 .0000100
433.621 .0000100
434.552 .0000100
435.482 .0000100
436.410 .0000100
437.337 .0000100
438.262 .0265021
439.187 .0561719
440.110 .0930518
441.031 .1346850
441.952 .1082483
442.871 .1131193
443.789 .1176662
444.705 .1219557
445.621 .1260314
446.535 .1299290
447.447 .1322802
448.359 .1329402
449.269 .1315491
450.178 .1278725
451.086 .1219866
451.993 .1143539
452.898 .1057350
453.803 .0969955
454.706 .0888684
455.608 .0818081
456.508 .0759644
457.408 .0720156
458.306 .0689758
459.204 .0664916
460.100 .0643878
460.995 .0625679
461.888 .0609683
462.781 .0595476
463.673 .0582720
464.563 .0571179
465.452 .0560641
466.340 .0550934
467.228 .0541921
468.114 .0533505
468.999 .0525614
469.882 .0518221
470.765 .0511300
471.647 .0504849
472.528 .0498869
473.407 .0493353
474.286 .0488295
475.163 .0483688
476.040 .0479505
476.915 .0475731
477.790 .0472339
478.663 .0469308
479.535 .0466616
480.407 .0464251
481.277 .0462198
482.147 .0460445
483.015 .0458977
483.883 .0457778
484.749 .0456829
485.615 .0456118
486.479 .0455621
487.343 .0455321
488.206 .0455209
489.067 .0455269
489.928 .0455486
490.788 .0455861
491.647 .0456385
492.505 .0457065
493.362 .0457913
494.218 .0458943
495.073 .0460170
495.928 .0462799
496.781 .0464622
497.634 .0466694
498.486 .0469019
499.337 .0471604
500.187 .0474469
501.036 .0477628
501.884 .0481103
502.731 .0484932
503.578 .0489155
504.424 .0492129
505.268 .0497064
506.113 .0502483
506.956 .0508416
507.798 .0514906
508.640 .0522012
509.480 .0529798
510.320 .0538373
511.160 .0547848
511.998 .0558365
512.836 .0570087
513.672 .0583191
514.508 .0597880
515.344 .0614368
516.178 .0632864
517.012 .0653602
517.845 .0676801
518.677 .0702689
519.508 .0731455
520.339 .0763243
521.169 .0798107
521.998 .0835895
522.826 .0876304
523.654 .0918880
524.481 .0962981
525.307 .1007865
526.133 .1052623
526.958 .1096341
527.782 .1138066
528.605 .1176908
529.428 .1212070
530.250 .1242887
531.072 .1268880
531.892 .1289664
532.712 .1304962
533.532 .1314662
534.350 .1318698
535.168 .1317092
535.986 .1309851
536.802 .1297032
537.618 .1278692
538.434 .1254957
539.249 .1226134
540.063 .1192692
540.876 .1155219
541.689 .1114468
542.501 .1071272
543.313 .1026576
544.124 .0981306
544.934 .0936360
545.744 .0892560
546.553 .0850605
547.361 .0811025
548.169 .0774156
548.976 .0740219
549.783 .0709310
550.589 .0681361
551.395 .0656223
552.200 .0633658
553.004 .0613425
553.808 .0595256
554.611 .0578908
555.414 .0564151
556.216 .0550787
557.018 .0538612
557.819 .0527450
558.619 .0517158
559.419 .0507607
560.218 .0498700
561.017 .0490358
561.815 .0482511
562.613 .0475100
563.410 .0468063
564.207 .0461355
565.003 .0454927
565.799 .0448730
566.594 .0442718
567.388 .0436861
568.182 .0431135
568.976 .0425528
569.769 .0420035
570.562 .0414664
571.354 .0409427
572.145 .0404338
572.936 .0399410
573.727 .0394647
574.517 .0390058
575.307 .0385646
576.096 .0381407
576.885 .0377340
577.673 .0373442
578.461 .0369714
579.248 .0366160
580.035 .0362786
580.821 .0359594
581.607 .0356587
582.392 .0353769
583.177 .0351139
583.962 .0348697
584.746 .0346437
585.529 .0344351
586.313 .0342429
587.095 .0340662
587.878 .0339036
588.660 .0337542
589.441 .0336169
590.222 .0334909
591.003 .0333752
591.783 .0332691
592.563 .0331717
593.342 .0330825
594.121 .0330008
594.899 .0329260
595.678 .0328573
596.455 .0327940
597.233 .0327353
598.009 .0326807
598.786 .0326293
599.562 .0325806
600.338 .0325341
601.113 .0324895
601.888 .0324275
602.663 .0323867
603.437 .0323474
604.211 .0323095
604.984 .0322727
605.757 .0322371
606.530 .0322026
607.302 .0321691
608.074 .0321366
608.845 .0321050
609.616 .0320744
610.387 .0320613
611.158 .0320322
611.928 .0320039
612.697 .0319765
613.467 .0319499
614.236 .0319240
615.004 .0318989
615.773 .0318744
616.541 .0318505
617.308 .0318271
618.076 .0318041
618.843 .0317814
619.609 .0317589
620.375 .0317366
621.141 .0317142
621.907 .0316918
622.672 .0316691
623.437 .0316462
624.202 .0316229
624.966 .0315991
625.730 .0315746
626.493 .0315495
627.257 .0315235
628.020 .0314966
628.782 .0314687
629.545 .0314398
630.307 .0314101
631.068 .0313795
631.830 .0313481
632.591 .0313162
633.352 .0312838
634.112 .0312510
634.872 .0312178
635.632 .0311842
636.392 .0311504
637.151 .0311162
637.910 .0310818
638.668 .0310473
639.427 .0310129
640.185 .0309788
640.943 .0309451
641.700 .0309122
642.457 .0308802
643.214 .0308491
643.971 .0308190
644.727 .0307898
645.483 .0307616
646.239 .0307341
646.994 .0307073
647.750 .0306811
648.505 .0306554
649.259 .0306302
650.014 .0306055
650.768 .0305812
651.521 .0305573
652.275 .0305339
653.028 .0305109
653.781 .0304881
654.534 .0304656
655.286 .0304432
656.039 .0304208
656.791 .0303982
657.542 .0303754
658.294 .0303523
659.045 .0303289
659.796 .0303053
660.546 .0302815
661.297 .0302577
662.047 .0302339
662.796 .0302102
663.546 .0301867
664.295 .0301635
665.044 .0301407
665.793 .0301182
666.542 .0300961
667.290 .0300745
668.038 .0300533
668.786 .0300325
669.533 .0300121
670.281 .0299921
671.028 .0299725
671.774 .0299533
672.521 .0299347
673.267 .0299166
674.013 .0298991
674.759 .0298822
675.505 .0298660
676.250 .0298503
676.995 .0298351
677.740 .0298202
678.484 .0298056
679.229 .0297913
679.973 .0297772
680.717 .0297633
681.460 .0297497
682.204 .0297364
682.947 .0297233
683.690 .0297104
684.433 .0296978
685.175 .0296852
685.917 .0296727
686.659 .0296602
687.401 .0296475
688.142 .0296347
688.884 .0296215
689.625 .0296081
690.365 .0295942
691.106 .0295800
691.846 .0295653
692.586 .0295501
693.326 .0295346
694.066 .0295186
694.805 .0295025
695.545 .0294862
696.284 .0294698
697.022 .0294534
697.761 .0294370
698.499 .0294204
699.237 .0294038
699.975 .0293871
700.713 .0293704
701.450 .0293536
702.187 .0293368
702.924 .0293202
703.661 .0293036
704.397 .0292873
705.133 .0292712
705.869 .0292554
706.605 .0292398
707.341 .0292243
708.076 .0292088
708.811 .0291934
709.546 .0291780
710.281 .0291625
711.015 .0291468
711.749 .0291309
712.483 .0291147
713.217 .0290983
713.950 .0290815
714.684 .0290644
715.417 .0290471
716.150 .0290295
716.882 .0290117
717.615 .0289936
718.347 .0289753
719.079 .0289566
719.811 .0289376
720.542 .0289181
721.273 .0288982
722.005 .0288780
722.735 .0288574
723.466 .0288366
724.196 .0288157
724.927 .0287948
725.656 .0287739
726.386 .0287532
727.116 .0287327
727.845 .0287123
728.574 .0286920
729.303 .0286719
730.031 .0286520
730.760 .0286322
731.488 .0286126
732.216 .0285931
732.944 .0285738
733.671 .0285547
734.398 .0285359
735.125 .0285173
735.852 .0284992
736.579 .0284814
737.305 .0284641
738.031 .0284472
738.757 .0284307
739.483 .0284145
740.208 .0283987
740.933 .0283831
741.658 .0283678
742.383 .0283526
743.108 .0283376
743.832 .0283227
744.556 .0283078
745.280 .0282930
746.004 .0282780
746.727 .0282629
747.450 .0282476
748.173 .0282321
748.896 .0282164
749.618 .0282006
750.340 .0281845
751.062 .0281684
751.784 .0281521
752.506 .0281356
753.227 .0281190
753.948 .0281021
754.669 .0280850
755.389 .0280678
756.110 .0280505
756.830 .0280332
757.550 .0280160
758.269 .0279989
758.989 .0279820
759.708 .0279652
760.427 .0279486
761.146 .0279322
761.864 .0279159
762.582 .0278999
763.300 .0278841
764.018 .0278685
764.736 .0278533
765.453 .0278384
766.170 .0278239
766.887 .0278097
767.603 .0277958
768.320 .0277823
769.036 .0277692
769.751 .0277565
770.467 .0277443
771.182 .0277325
771.897 .0277212
772.612 .0277104
773.327 .0277001
774.041 .0276902
774.755 .0276808
775.469 .0276717
776.183 .0276630
776.896 .0276548
777.609 .0276470
778.322 .0276396
779.035 .0276326
779.747 .0276261
780.459 .0276200
781.171 .0276143
781.882 .0276089
782.594 .0276039
783.305 .0275992
784.016 .0275949
784.726 .0275909
785.436 .0275871
786.147 .0275824
786.856 .0275793
787.566 .0275764
788.275 .0275738
788.984 .0275714
789.693 .0275692
790.401 .0275671
791.110 .0275652
791.818 .0275633
792.525 .0275615
793.233 .0275597
793.940 .0275579
794.647 .0275571
795.353 .0275551
796.060 .0275531
796.766 .0275510
797.472 .0275488
798.177 .0275464
798.883 .0275438
799.588 .0275408
800.292 .0275374
800.997 .0275337
801.701 .0275295
802.405 .0275250
803.109 .0275201
803.812 .0275148
804.515 .0275091
805.218 .0275030
805.921 .0274963
806.623 .0274893
807.325 .0274817
808.027 .0274737
808.728 .0274654
809.429 .0274567
810.130 .0274478
810.831 .0274388
811.531 .0274297
812.231 .0274205
812.931 .0274114
813.630 .0274023
814.330 .0273933
815.029 .0273845
815.727 .0273759
816.426 .0273676
817.124 .0273596
817.821 .0273521
818.519 .0273450
819.216 .0273383
819.913 .0273319
820.609 .0273260
821.306 .0273204
822.002 .0273152
822.697 .0273103
823.393 .0273058
824.088 .0273016
824.783 .0272978
825.477 .0272944
826.171 .0272912
826.865 .0272882
827.559 .0272854
828.252 .0272828
828.945 .0272802
829.638 .0272777
830.330 .0272751
831.023 .0272726
831.714 .0272699
832.406 .0272672
833.097 .0272642
833.788 .0272611
834.479 .0272577
835.169 .0272541
835.859 .0272502
836.548 .0272460
837.238 .0272415
837.927 .0272366
838.615 .0272315
839.304 .0272260
839.992 .0272200
840.680 .0272137
841.367 .0272068
842.054 .0271995
842.741 .0271915
843.428 .0271829
844.114 .0271738
844.800 .0271639
845.485 .0271534
846.170 .0271421
846.855 .0271301
847.540 .0271173
848.224 .0271036
848.908 .0270890
849.592 .0270736
850.275 .0270572
850.958 .0270400
851.641 .0270219
852.323 .0270031
853.005 .0269835
853.687 .0269632
854.368 .0269424
855.049 .0269210
855.730 .0268992
856.410 .0268770
857.090 .0268544
857.769 .0268314
858.449 .0268082
859.128 .0267847
859.806 .0267610
860.485 .0267373
861.163 .0267136
861.840 .0266900
862.518 .0266667
863.195 .0266437
863.871 .0266211
864.548 .0265989
865.224 .0265772
865.899 .0265560
866.574 .0265352
867.249 .0265148
867.924 .0264950
868.598 .0264756
869.272 .0264568
869.946 .0264385
870.619 .0264208
871.292 .0264035
871.964 .0263868
872.636 .0263705
873.308 .0263546
873.979 .0263390
874.651 .0263237
875.321 .0263088
875.992 .0262942
876.662 .0262798
877.331 .0262657
878.001 .0262518
878.670 .0262381
879.338 .0262244
880.007 .0262106
880.675 .0261968
881.342 .0261830
882.009 .0261692
882.676 .0261556
883.343 .0261421
884.009 .0261290
884.675 .0261162
885.340 .0261037
886.005 .0260915
886.670 .0260796
887.334 .0260680
887.998 .0260565
888.662 .0260454
889.325 .0260345
889.988 .0260240
890.650 .0260139
891.312 .0260043
891.974 .0259952
892.636 .0259865
893.297 .0259781
893.957 .0259700
894.618 .0259622
895.278 .0259544
895.937 .0259467
896.596 .0259390
897.255 .0259312
897.914 .0259234
898.572 .0259153
899.230 .0259070
899.887 .0258983
900.544 .0258892
901.201 .0258796
901.857 .0258622
902.513 .0258510
903.168 .0258393
903.823 .0258269
904.478 .0258140
905.132 .0258005
905.786 .0257864
906.440 .0257717
907.093 .0257564
907.746 .0257406
908.399 .0257242
909.051 .0257075
909.703 .0256905
910.354 .0256818
911.005 .0256648
911.656 .0256478
912.306 .0256308
912.956 .0256139
913.605 .0255973
914.254 .0255809
914.903 .0255649
915.551 .0255494
916.199 .0255343
916.847 .0255197
917.494 .0255057
918.141 .0254920
918.788 .0254788
919.434 .0254658
920.079 .0254531
920.725 .0254405
921.370 .0254280
922.014 .0254155
922.658 .0254031
923.302 .0253907
923.946 .0253782
924.589 .0253656
925.231 .0253529
925.873 .0253400
926.515 .0253269
927.157 .0253136
927.798 .0253001
928.439 .0252864
929.079 .0252726
929.719 .0252590
930.359 .0252455
930.998 .0252322
931.637 .0252192
932.275 .0252067
932.913 .0251945
933.551 .0251830
934.188 .0251719
934.825 .0251616
935.462 .0251519
936.098 .0251431
936.733 .0251351
937.369 .0251280
938.004 .0251218
938.638 .0251166
939.273 .0251124
939.907 .0251091
940.540 .0251067
941.173 .0251054
941.806 .0251050
942.438 .0251055
943.070 .0251069
943.702 .0251092
944.333 .0251122
944.964 .0251158
945.594 .0251198
946.224 .0251241
946.854 .0251286
947.483 .0251331
948.112 .0251376
948.741 .0251419
949.369 .0251460
949.996 .0251498
950.624 .0251531
951.251 .0251558
951.878 .0251580
952.504 .0251597
953.130 .0251607
953.755 .0251613
954.380 .0251614
955.005 .0251613
955.629 .0251611
956.253 .0251608
956.877 .0251604
957.500 .0251601
958.123 .0251597
958.746 .0251594
959.368 .0251592
959.990 .0251590
960.611 .0251591
961.232 .0251594
961.853 .0251600
962.473 .0251611
963.093 .0251627
963.712 .0251647
964.331 .0251671
964.950 .0251700
965.569 .0251732
966.187 .0251767
966.804 .0251805
967.422 .0251846
968.039 .0251891
968.655 .0251938
969.272 .0251987
969.887 .0252039
970.503 .0252091
971.118 .0252144
971.733 .0252195
972.347 .0252245
972.961 .0252291
973.575 .0252334
974.188 .0252373
974.801 .0252408
975.414 .0252437
976.026 .0252462
976.638 .0252481
977.250 .0252495
977.861 .0252503
978.472 .0252507
979.083 .0252506
979.693 .0252501
980.303 .0252493
980.912 .0252465
981.521 .0252450
982.130 .0252433
982.738 .0252412
983.346 .0252390
983.954 .0252366
984.562 .0252340
985.169 .0252314
985.775 .0252287
986.382 .0252261
986.988 .0252234
987.594 .0252208
988.199 .0252183
988.804 .0252158
989.409 .0252152
990.013 .0252129
990.617 .0252108
991.221 .0252087
991.824 .0252068
992.427 .0252051
993.030 .0252035
993.632 .0252022
994.234 .0252011
994.836 .0252002
995.438 .0251995
996.039 .0251991
996.640 .0251988
997.240 .0251987
997.840 .0251987
998.440 .0251990
999.040 .0251993
999.639 .0251998
1000.238 .0252004
1000.836 .0252012
1001.435 .0252021
1002.033 .0252031
1002.630 .0252043
1003.228 .0252057
1003.825 .0252072
1004.422 .0252088
1005.018 .0252105
1005.614 .0252121
1006.210 .0252136
1006.806 .0252150
1007.401 .0252162
1007.996 .0252171
1008.591 .0252180
1009.186 .0252187
1009.780 .0252195
1010.374 .0252202
1010.967 .0252210
1011.561 .0252218
1012.154 .0252225
1012.746 .0252231
1013.339 .0252236
1013.931 .0252239
1014.523 .0252239
1015.115 .0252238
1015.706 .0252236
1016.298 .0252234
1016.888 .0252232
1017.479 .0252231
1018.069 .0252230
1018.660 .0252230
1019.250 .0252231
1019.839 .0252231
1020.429 .0252232
1021.018 .0252234
1021.607 .0252236
1022.195 .0252239
1022.784 .0252245
1023.372 .0252253
1023.960 .0252264
1024.547 .0252277
1025.135 .0252293
1025.722 .0252310
1026.309 .0252329
1026.896 .0252348
1027.483 .0252367
1028.069 .0252386
1028.655 .0252405
1029.241 .0252423
1029.827 .0252439
1030.412 .0252454
1030.997 .0252467
1031.582 .0252479
1032.167 .0252488
1032.752 .0252495
1033.336 .0252500
1033.921 .0252501
1034.505 .0252497
1035.089 .0252490
1035.672 .0252477
1036.256 .0252459
1036.839 .0252435
1037.422 .0252404
1038.005 .0252366
1038.588 .0252321
1039.171 .0252270
1039.753 .0252211
1040.335 .0252146
1040.918 .0252075
1041.500 .0251998
1042.081 .0251917
1042.663 .0251831
1043.244 .0251740
1043.826 .0251645
1044.407 .0251546
1044.988 .0251444
1045.569 .0251339
1046.150 .0251231
1046.730 .0251123
1047.311 .0251013
1047.891 .0250902
1048.471 .0250790
1049.052 .0250677
1049.632 .0250563
1050.211 .0250448
1050.791 .0250332
1051.371 .0250214
1051.950 .0250096
1052.530 .0249977
1053.109 .0249858
1053.688 .0249739
1054.268 .0249622
1054.847 .0249507
1055.426 .0249395
1056.005 .0249286
1056.583 .0249181
1057.162 .0249079
1057.741 .0248981
1058.319 .0248886
1058.898 .0248793
1059.476 .0248703
1060.055 .0248615
1060.633 .0248529
1061.211 .0248445
1061.790 .0248364
1062.368 .0248286
1062.946 .0248210
1063.524 .0248135
1064.102 .0248062
1064.680 .0247990
1065.258 .0247919
1065.836 .0247848
1066.414 .0247779
1066.992 .0247710
1067.570 .0247642
1068.148 .0247576
1068.726 .0247511
1069.304 .0247448
1069.882 .0247386
1070.460 .0247324
1071.038 .0247262
1071.616 .0247199
1072.194 .0247134
1072.772 .0247066
1073.350 .0246996
1073.928 .0246923
1074.506 .0246846
1075.084 .0246768
1075.662 .0246687
1076.240 .0246603
1076.819 .0246517
1077.397 .0246427
1077.976 .0246335
1078.554 .0246241
1079.133 .0246144
1079.711 .0246046
1080.290 .0245948
1080.869 .0245853
1081.448 .0245761
1082.027 .0245673
1082.606 .0245590
1083.185 .0245512
1083.764 .0245439
1084.343 .0245371
1084.923 .0245308
1085.502 .0245251
1086.082 .0245200
1086.662 .0245156
1087.242 .0245120
1087.822 .0245091
1088.402 .0245072
1088.983 .0245061
1089.563 .0245058
1090.144 .0245062
1090.725 .0245073
1091.306 .0245091
1091.887 .0245118
1092.469 .0245155
1093.050 .0245204
1093.632 .0245266
1094.214 .0245343
1094.796 .0245436
1095.379 .0245544
1095.961 .0245666
1096.544 .0245802
1097.127 .0245948
1097.710 .0246102
1098.294 .0246261
1098.877 .0246425
1099.461 .0246592
1100.046 .0246764
1100.630 .0246938
1101.215 .0247117
1101.800 .0247299
1102.385 .0247484
1102.970 .0247671
1103.556 .0247858
1104.142 .0248046
1104.728 .0248232
1105.315 .0248417
1105.902 .0248603
1106.489 .0248792
1107.077 .0248985
1107.664 .0249186
1108.253 .0249398
1108.841 .0249620
1109.430 .0249853
1110.019 .0250099
1110.609 .0250356
1111.198 .0250624
1111.789 .0250902
1112.379 .0251190
1112.970 .0251487
1113.561 .0251794
1114.153 .0252109
1114.745 .0252433
1115.338 .0252767
1115.931 .0253109
1116.524 .0253461
1117.117 .0253822
1117.712 .0254194
1118.306 .0254576
1118.901 .0254969
1119.496 .0255371
1120.092 .0255784
1120.689 .0256204
1121.285 .0256635
1121.882 .0257077
1122.480 .0257532
1123.078 .0258004
1123.677 .0258498
1124.276 .0259016
1124.875 .0259560
1125.476 .0260134
1126.076 .0260736
1126.677 .0261367
1127.279 .0262024
1127.881 .0262703
1128.484 .0263401
1129.087 .0263683
1129.691 .0264403
1130.295 .0265142
1130.900 .0265898
1131.505 .0266672
1132.111 .0267462
1132.718 .0268269
1133.325 .0269093
1133.933 .0269923
1134.541 .0270745
1135.150 .0271593
1135.760 .0272464
1136.370 .0273392
1136.981 .0275172
1137.592 .0276306
1138.204 .0277427
1138.817 .0278485
1139.431 .0279488
1140.045 .0280450
1140.660 .0281361
1141.275 .0282300
1141.891 .0282943
1142.508 .0283130
1143.126 .0284333
1143.744 .0285519
1144.363 .0287555
1144.983 .0281237
