Measurement Sequence started on: 15-12-46-377
Integration time: 28
Scans to Average: 2 
>>>>>Begin Spectral Data<<<<<
432.689 .0000100
433.621 .0000100
434.552 .0000100
435.482 .0000100
436.410 .0000100
437.337 .0000100
438.262 .0288915
439.187 .0611104
440.110 .1011815
441.031 .1463636
441.952 .1173034
442.871 .1225091
443.789 .1273517
444.705 .1319055
445.621 .1362228
446.535 .1403427
447.447 .1427753
448.359 .1433689
449.269 .1417292
450.178 .1376014
451.086 .1310676
451.993 .1226296
452.898 .1131187
453.803 .1034743
454.706 .0944977
455.608 .0866863
456.508 .0802074
457.408 .0758052
458.306 .0724060
459.204 .0696303
460.100 .0672883
460.995 .0652731
461.888 .0635125
462.781 .0619561
463.673 .0605668
464.563 .0593165
465.452 .0581836
466.340 .0571520
467.228 .0562103
468.114 .0553495
468.999 .0545632
469.882 .0538449
470.765 .0531897
471.647 .0525928
472.528 .0520495
473.407 .0515548
474.286 .0511046
475.163 .0506953
476.040 .0503230
476.915 .0499848
477.790 .0496786
478.663 .0494029
479.535 .0491573
480.407 .0489407
481.277 .0487521
482.147 .0485898
483.015 .0484516
483.883 .0483353
484.749 .0482389
485.615 .0481605
486.479 .0480989
487.343 .0480535
488.206 .0480249
489.067 .0480131
489.928 .0480196
490.788 .0480463
491.647 .0480946
492.505 .0481660
493.362 .0482622
494.218 .0483840
495.073 .0485327
495.928 .0488556
496.781 .0490753
497.634 .0493228
498.486 .0495983
499.337 .0499021
500.187 .0502359
501.036 .0506015
501.884 .0510016
502.731 .0514409
503.578 .0519231
504.424 .0522518
505.268 .0528129
506.113 .0534299
506.956 .0541074
507.798 .0548501
508.640 .0556639
509.480 .0565565
510.320 .0575382
511.160 .0586213
511.998 .0598206
512.836 .0611564
513.672 .0626497
514.508 .0643244
515.344 .0662046
516.178 .0683147
517.012 .0706789
517.845 .0733200
518.677 .0762570
519.508 .0795034
520.339 .0830625
521.169 .0869305
521.998 .0910770
522.826 .0954619
523.654 .1000264
524.481 .1046976
525.307 .1093938
526.133 .1140266
526.958 .1185007
527.782 .1227258
528.605 .1266172
529.428 .1301032
530.250 .1331162
531.072 .1356105
531.892 .1375451
532.712 .1388962
533.532 .1396520
534.350 .1398087
535.168 .1393686
535.986 .1383429
536.802 .1367422
537.618 .1345836
538.434 .1318876
539.249 .1287002
540.063 .1250728
540.876 .1210727
541.689 .1167782
542.501 .1122740
543.313 .1076472
544.124 .1029908
544.934 .0983887
545.744 .0939179
546.553 .0896401
547.361 .0856073
548.169 .0818490
548.976 .0783886
549.783 .0752301
550.589 .0723652
551.395 .0697757
552.200 .0674379
553.004 .0653205
553.808 .0633971
554.611 .0616428
555.414 .0600372
556.216 .0585603
557.018 .0571957
557.819 .0559296
558.619 .0547514
559.419 .0536518
560.218 .0526248
561.017 .0516629
561.815 .0507605
562.613 .0499110
563.410 .0491081
564.207 .0483456
565.003 .0476181
565.799 .0469190
566.594 .0462436
567.388 .0455881
568.182 .0449499
568.976 .0443273
569.769 .0437203
570.562 .0431293
571.354 .0425553
572.145 .0419991
572.936 .0414612
573.727 .0409416
574.517 .0404405
575.307 .0399580
576.096 .0394943
576.885 .0390500
577.673 .0386260
578.461 .0382229
579.248 .0378414
580.035 .0374826
580.821 .0371468
581.607 .0368340
582.392 .0365440
583.177 .0362763
583.962 .0360303
584.746 .0358053
585.529 .0356002
586.313 .0354135
587.095 .0352442
587.878 .0350905
588.660 .0349509
589.441 .0348240
590.222 .0347086
591.003 .0346035
591.783 .0345079
592.563 .0344208
593.342 .0343411
594.121 .0342682
594.899 .0342012
595.678 .0341392
596.455 .0340815
597.233 .0340272
598.009 .0339756
598.786 .0339263
599.562 .0338788
600.338 .0338327
601.113 .0337877
601.888 .0337231
602.663 .0336805
603.437 .0336388
604.211 .0335981
604.984 .0335581
605.757 .0335187
606.530 .0334799
607.302 .0334416
608.074 .0334035
608.845 .0333659
609.616 .0333288
610.387 .0333114
611.158 .0332751
611.928 .0332394
612.697 .0332043
613.467 .0331700
614.236 .0331365
615.004 .0331036
615.773 .0330715
616.541 .0330399
617.308 .0330088
618.076 .0329781
618.843 .0329476
619.609 .0329173
620.375 .0328869
621.141 .0328564
621.907 .0328256
622.672 .0327945
623.437 .0327629
624.202 .0327309
624.966 .0326984
625.730 .0326655
626.493 .0326321
627.257 .0325981
628.020 .0325633
628.782 .0325279
629.545 .0324916
630.307 .0324545
631.068 .0324165
631.830 .0323779
632.591 .0323386
633.352 .0322988
634.112 .0322587
634.872 .0322186
635.632 .0321785
636.392 .0321386
637.151 .0320991
637.910 .0320601
638.668 .0320217
639.427 .0319841
640.185 .0319475
640.943 .0319119
641.700 .0318774
642.457 .0318441
643.214 .0318122
643.971 .0317816
644.727 .0317525
645.483 .0317248
646.239 .0316985
646.994 .0316736
647.750 .0316498
648.505 .0316270
649.259 .0316052
650.014 .0315841
650.768 .0315636
651.521 .0315435
652.275 .0315238
653.028 .0315043
653.781 .0314850
654.534 .0314659
655.286 .0314468
656.039 .0314276
656.791 .0314083
657.542 .0313887
658.294 .0313689
659.045 .0313488
659.796 .0313285
660.546 .0313078
661.297 .0312868
662.047 .0312655
662.796 .0312438
663.546 .0312219
664.295 .0311998
665.044 .0311776
665.793 .0311553
666.542 .0311332
667.290 .0311112
668.038 .0310895
668.786 .0310682
669.533 .0310472
670.281 .0310266
671.028 .0310061
671.774 .0309859
672.521 .0309660
673.267 .0309462
674.013 .0309266
674.759 .0309073
675.505 .0308881
676.250 .0308693
676.995 .0308506
677.740 .0308321
678.484 .0308137
679.229 .0307954
679.973 .0307770
680.717 .0307585
681.460 .0307399
682.204 .0307210
682.947 .0307020
683.690 .0306826
684.433 .0306628
685.175 .0306427
685.917 .0306221
686.659 .0306012
687.401 .0305799
688.142 .0305582
688.884 .0305361
689.625 .0305135
690.365 .0304904
691.106 .0304668
691.846 .0304425
692.586 .0304175
693.326 .0303918
694.066 .0303653
694.805 .0303382
695.545 .0303107
696.284 .0302828
697.022 .0302546
697.761 .0302264
698.499 .0301982
699.237 .0301699
699.975 .0301416
700.713 .0301133
701.450 .0300850
702.187 .0300567
702.924 .0300284
703.661 .0300002
704.397 .0299723
705.133 .0299447
705.869 .0299176
706.605 .0298908
707.341 .0298645
708.076 .0298386
708.811 .0298132
709.546 .0297881
710.281 .0297635
711.015 .0297392
711.749 .0297152
712.483 .0296915
713.217 .0296680
713.950 .0296447
714.684 .0296216
715.417 .0295987
716.150 .0295759
716.882 .0295533
717.615 .0295308
718.347 .0295084
719.079 .0294862
719.811 .0294641
720.542 .0294422
721.273 .0294203
722.005 .0293986
722.735 .0293770
723.466 .0293556
724.196 .0293346
724.927 .0293140
725.656 .0292940
726.386 .0292746
727.116 .0292559
727.845 .0292380
728.574 .0292209
729.303 .0292045
730.031 .0291890
730.760 .0291742
731.488 .0291603
732.216 .0291471
732.944 .0291348
733.671 .0291234
734.398 .0291128
735.125 .0291029
735.852 .0290939
736.579 .0290855
737.305 .0290778
738.031 .0290706
738.757 .0290640
739.483 .0290577
740.208 .0290518
740.933 .0290461
741.658 .0290407
742.383 .0290355
743.108 .0290305
743.832 .0290256
744.556 .0290210
745.280 .0290165
746.004 .0290122
746.727 .0290079
747.450 .0290036
748.173 .0289992
748.896 .0289947
749.618 .0289900
750.340 .0289851
751.062 .0289801
751.784 .0289747
752.506 .0289692
753.227 .0289633
753.948 .0289572
754.669 .0289506
755.389 .0289436
756.110 .0289362
756.830 .0289283
757.550 .0289199
758.269 .0289111
758.989 .0289018
759.708 .0288921
760.427 .0288818
761.146 .0288711
761.864 .0288599
762.582 .0288481
763.300 .0288358
764.018 .0288231
764.736 .0288101
765.453 .0287968
766.170 .0287834
766.887 .0287699
767.603 .0287564
768.320 .0287429
769.036 .0287294
769.751 .0287160
770.467 .0287026
771.182 .0286893
771.897 .0286761
772.612 .0286632
773.327 .0286505
774.041 .0286381
774.755 .0286260
775.469 .0286142
776.183 .0286026
776.896 .0285912
777.609 .0285800
778.322 .0285690
779.035 .0285582
779.747 .0285475
780.459 .0285369
781.171 .0285264
781.882 .0285159
782.594 .0285052
783.305 .0284944
784.016 .0284833
784.726 .0284718
785.436 .0284601
786.147 .0284414
786.856 .0284288
787.566 .0284159
788.275 .0284028
788.984 .0283893
789.693 .0283754
790.401 .0283610
791.110 .0283461
791.818 .0283307
792.525 .0283147
793.233 .0282982
793.940 .0282812
794.647 .0282712
795.353 .0282536
796.060 .0282355
796.766 .0282171
797.472 .0281981
798.177 .0281787
798.883 .0281588
799.588 .0281384
800.292 .0281175
800.997 .0280963
801.701 .0280746
802.405 .0280526
803.109 .0280303
803.812 .0280076
804.515 .0279845
805.218 .0279611
805.921 .0279373
806.623 .0279133
807.325 .0278891
808.027 .0278648
808.728 .0278405
809.429 .0278162
810.130 .0277920
810.831 .0277679
811.531 .0277439
812.231 .0277200
812.931 .0276962
813.630 .0276725
814.330 .0276490
815.029 .0276258
815.727 .0276031
816.426 .0275808
817.124 .0275592
817.821 .0275383
818.519 .0275181
819.216 .0274987
819.913 .0274802
820.609 .0274625
821.306 .0274457
822.002 .0274300
822.697 .0274152
823.393 .0274016
824.088 .0273891
824.783 .0273776
825.477 .0273673
826.171 .0273580
826.865 .0273496
827.559 .0273422
828.252 .0273356
828.945 .0273299
829.638 .0273251
830.330 .0273211
831.023 .0273178
831.714 .0273152
832.406 .0273131
833.097 .0273116
833.788 .0273105
834.479 .0273098
835.169 .0273094
835.859 .0273093
836.548 .0273095
837.238 .0273099
837.927 .0273106
838.615 .0273115
839.304 .0273125
839.992 .0273136
840.680 .0273147
841.367 .0273159
842.054 .0273169
842.741 .0273178
843.428 .0273185
844.114 .0273191
844.800 .0273194
845.485 .0273195
846.170 .0273194
846.855 .0273190
847.540 .0273183
848.224 .0273173
848.908 .0273161
849.592 .0273145
850.275 .0273127
850.958 .0273105
851.641 .0273081
852.323 .0273053
853.005 .0273022
853.687 .0272989
854.368 .0272952
855.049 .0272913
855.730 .0272870
856.410 .0272825
857.090 .0272778
857.769 .0272727
858.449 .0272673
859.128 .0272616
859.806 .0272556
860.485 .0272492
861.163 .0272425
861.840 .0272357
862.518 .0272286
863.195 .0272214
863.871 .0272141
864.548 .0272068
865.224 .0271995
865.899 .0271921
866.574 .0271847
867.249 .0271773
867.924 .0271699
868.598 .0271626
869.272 .0271554
869.946 .0271483
870.619 .0271414
871.292 .0271347
871.964 .0271282
872.636 .0271219
873.308 .0271159
873.979 .0271102
874.651 .0271048
875.321 .0270999
875.992 .0270953
876.662 .0270912
877.331 .0270875
878.001 .0270843
878.670 .0270814
879.338 .0270788
880.007 .0270767
880.675 .0270748
881.342 .0270733
882.009 .0270720
882.676 .0270711
883.343 .0270705
884.009 .0270702
884.675 .0270701
885.340 .0270701
886.005 .0270703
886.670 .0270706
887.334 .0270710
887.998 .0270714
888.662 .0270719
889.325 .0270723
889.988 .0270727
890.650 .0270730
891.312 .0270731
891.974 .0270729
892.636 .0270724
893.297 .0270716
893.957 .0270703
894.618 .0270685
895.278 .0270661
895.937 .0270630
896.596 .0270591
897.255 .0270543
897.914 .0270485
898.572 .0270416
899.230 .0270334
899.887 .0270240
900.544 .0270133
901.201 .0270013
901.857 .0269771
902.513 .0269616
903.168 .0269447
903.823 .0269265
904.478 .0269069
905.132 .0268859
905.786 .0268636
906.440 .0268400
907.093 .0268152
907.746 .0267893
908.399 .0267625
909.051 .0267349
909.703 .0267065
910.354 .0266910
911.005 .0266622
911.656 .0266329
912.306 .0266033
912.956 .0265733
913.605 .0265432
914.254 .0265131
914.903 .0264829
915.551 .0264528
916.199 .0264230
916.847 .0263932
917.494 .0263637
918.141 .0263344
918.788 .0263051
919.434 .0262760
920.079 .0262469
920.725 .0262178
921.370 .0261886
922.014 .0261594
922.658 .0261302
923.302 .0261010
923.946 .0260717
924.589 .0260423
925.231 .0260129
925.873 .0259834
926.515 .0259537
927.157 .0259240
927.798 .0258941
928.439 .0258642
929.079 .0258342
929.719 .0258043
930.359 .0257746
930.998 .0257450
931.637 .0257156
932.275 .0256866
932.913 .0256579
933.551 .0256297
934.188 .0256018
934.825 .0255745
935.462 .0255477
936.098 .0255216
936.733 .0254961
937.369 .0254715
938.004 .0254476
938.638 .0254246
939.273 .0254025
939.907 .0253813
940.540 .0253609
941.173 .0253414
941.806 .0253227
942.438 .0253047
943.070 .0252875
943.702 .0252709
944.333 .0252551
944.964 .0252399
945.594 .0252253
946.224 .0252113
946.854 .0251980
947.483 .0251851
948.112 .0251728
948.741 .0251609
949.369 .0251494
949.996 .0251383
950.624 .0251274
951.251 .0251169
951.878 .0251066
952.504 .0250965
953.130 .0250867
953.755 .0250772
954.380 .0250679
955.005 .0250590
955.629 .0250504
956.253 .0250420
956.877 .0250339
957.500 .0250259
958.123 .0250181
958.746 .0250105
959.368 .0250031
959.990 .0249959
960.611 .0249891
961.232 .0249826
961.853 .0249764
962.473 .0249707
963.093 .0249652
963.712 .0249599
964.331 .0249549
964.950 .0249500
965.569 .0249453
966.187 .0249407
966.804 .0249363
967.422 .0249320
968.039 .0249280
968.655 .0249243
969.272 .0249207
969.887 .0249173
970.503 .0249141
971.118 .0249110
971.733 .0249080
972.347 .0249051
972.961 .0249022
973.575 .0248995
974.188 .0248968
974.801 .0248943
975.414 .0248919
976.026 .0248896
976.638 .0248875
977.250 .0248855
977.861 .0248835
978.472 .0248817
979.083 .0248799
979.693 .0248783
980.303 .0248768
980.912 .0248752
981.521 .0248743
982.130 .0248737
982.738 .0248734
983.346 .0248734
983.954 .0248739
984.562 .0248749
985.169 .0248764
985.775 .0248784
986.382 .0248811
986.988 .0248844
987.594 .0248884
988.199 .0248930
988.804 .0248984
989.409 .0249035
990.013 .0249100
990.617 .0249172
991.221 .0249252
991.824 .0249340
992.427 .0249435
993.030 .0249538
993.632 .0249647
994.234 .0249763
994.836 .0249883
995.438 .0250007
996.039 .0250134
996.640 .0250264
997.240 .0250396
997.840 .0250530
998.440 .0250667
999.040 .0250805
999.639 .0250945
1000.238 .0251087
1000.836 .0251229
1001.435 .0251370
1002.033 .0251511
1002.630 .0251650
1003.228 .0251787
1003.825 .0251921
1004.422 .0252054
1005.018 .0252185
1005.614 .0252315
1006.210 .0252444
1006.806 .0252573
1007.401 .0252702
1007.996 .0252830
1008.591 .0252958
1009.186 .0253085
1009.780 .0253211
1010.374 .0253334
1010.967 .0253457
1011.561 .0253581
1012.154 .0253705
1012.746 .0253831
1013.339 .0253960
1013.931 .0254092
1014.523 .0254228
1015.115 .0254366
1015.706 .0254506
1016.298 .0254647
1016.888 .0254789
1017.479 .0254932
1018.069 .0255075
1018.660 .0255219
1019.250 .0255365
1019.839 .0255512
1020.429 .0255662
1021.018 .0255811
1021.607 .0255961
1022.195 .0256109
1022.784 .0256255
1023.372 .0256397
1023.960 .0256534
1024.547 .0256667
1025.135 .0256795
1025.722 .0256919
1026.309 .0257040
1026.896 .0257159
1027.483 .0257275
1028.069 .0257387
1028.655 .0257495
1029.241 .0257598
1029.827 .0257694
1030.412 .0257782
1030.997 .0257864
1031.582 .0257939
1032.167 .0258007
1032.752 .0258071
1033.336 .0258131
1033.921 .0258188
1034.505 .0258243
1035.089 .0258295
1035.672 .0258345
1036.256 .0258391
1036.839 .0258432
1037.422 .0258469
1038.005 .0258502
1038.588 .0258531
1039.171 .0258557
1039.753 .0258580
1040.335 .0258600
1040.918 .0258617
1041.500 .0258630
1042.081 .0258640
1042.663 .0258645
1043.244 .0258644
1043.826 .0258637
1044.407 .0258624
1044.988 .0258605
1045.569 .0258580
1046.150 .0258550
1046.730 .0258517
1047.311 .0258479
1047.891 .0258437
1048.471 .0258393
1049.052 .0258347
1049.632 .0258298
1050.211 .0258248
1050.791 .0258194
1051.371 .0258138
1051.950 .0258079
1052.530 .0258016
1053.109 .0257948
1053.688 .0257875
1054.268 .0257798
1054.847 .0257716
1055.426 .0257631
1056.005 .0257542
1056.583 .0257451
1057.162 .0257358
1057.741 .0257264
1058.319 .0257169
1058.898 .0257072
1059.476 .0256974
1060.055 .0256874
1060.633 .0256774
1061.211 .0256672
1061.790 .0256571
1062.368 .0256471
1062.946 .0256372
1063.524 .0256274
1064.102 .0256178
1064.680 .0256082
1065.258 .0255985
1065.836 .0255887
1066.414 .0255784
1066.992 .0255677
1067.570 .0255566
1068.148 .0255449
1068.726 .0255329
1069.304 .0255206
1069.882 .0255083
1070.460 .0254963
1071.038 .0254846
1071.616 .0254734
1072.194 .0254627
1072.772 .0254524
1073.350 .0254426
1073.928 .0254332
1074.506 .0254242
1075.084 .0254154
1075.662 .0254069
1076.240 .0253986
1076.819 .0253907
1077.397 .0253831
1077.976 .0253758
1078.554 .0253688
1079.133 .0253621
1079.711 .0253554
1080.290 .0253486
1080.869 .0253416
1081.448 .0253344
1082.027 .0253268
1082.606 .0253189
1083.185 .0253108
1083.764 .0253025
1084.343 .0252942
1084.923 .0252860
1085.502 .0252780
1086.082 .0252703
1086.662 .0252630
1087.242 .0252558
1087.822 .0252489
1088.402 .0252420
1088.983 .0252352
1089.563 .0252283
1090.144 .0252215
1090.725 .0252147
1091.306 .0252082
1091.887 .0252021
1092.469 .0251966
1093.050 .0251919
1093.632 .0251880
1094.214 .0251850
1094.796 .0251827
1095.379 .0251810
1095.961 .0251798
1096.544 .0251791
1097.127 .0251790
1097.710 .0251796
1098.294 .0251811
1098.877 .0251837
1099.461 .0251874
1100.046 .0251923
1100.630 .0251984
1101.215 .0252055
1101.800 .0252135
1102.385 .0252221
1102.970 .0252311
1103.556 .0252407
1104.142 .0252508
1104.728 .0252616
1105.315 .0252733
1105.902 .0252860
1106.489 .0252999
1107.077 .0253150
1107.664 .0253314
1108.253 .0253488
1108.841 .0253671
1109.430 .0253861
1110.019 .0254056
1110.609 .0254255
1111.198 .0254458
1111.789 .0254664
1112.379 .0254874
1112.970 .0255087
1113.561 .0255302
1114.153 .0255519
1114.745 .0255737
1115.338 .0255956
1115.931 .0256175
1116.524 .0256396
1117.117 .0256617
1117.712 .0256841
1118.306 .0257069
1118.901 .0257306
1119.496 .0257551
1120.092 .0257810
1120.689 .0258084
1121.285 .0258374
1121.882 .0258683
1122.480 .0259014
1123.078 .0259369
1123.677 .0259748
1124.276 .0260153
1124.875 .0260582
1125.476 .0261036
1126.076 .0261513
1126.677 .0262012
1127.279 .0262533
1127.881 .0263075
1128.484 .0263641
1129.087 .0263829
1129.691 .0264434
1130.295 .0265071
1130.900 .0265745
1131.505 .0266458
1132.111 .0267212
1132.718 .0268009
1133.325 .0268852
1133.933 .0269754
1134.541 .0270676
1135.150 .0271648
1135.760 .0272643
1136.370 .0273833
1136.981 .0274502
1137.592 .0275547
1138.204 .0276648
1138.817 .0277804
1139.431 .0279026
1140.045 .0280288
1140.660 .0281563
1141.275 .0282993
1141.891 .0284775
1142.508 .0285484
1143.126 .0287105
1143.744 .0288029
1144.363 .0293812
1144.983 .0301810
