Measurement Sequence started on: 15-12-46-377
Integration time: 28
Scans to Average: 2 
>>>>>Begin Spectral Data<<<<<
432.689 .0000100
433.621 .0000100
434.552 .0000100
435.482 .0000100
436.410 .0000100
437.337 .0000100
438.262 .0289994
439.187 .0614259
440.110 .1017425
441.031 .1471756
441.952 .1175574
442.871 .1227100
443.789 .1275014
444.705 .1320063
445.621 .1362783
446.535 .1403575
447.447 .1427463
448.359 .1432861
449.269 .1415799
450.178 .1373728
451.086 .1307504
451.993 .1222198
452.898 .1126194
453.803 .1029021
454.706 .0938761
455.608 .0860433
456.508 .0795718
457.408 .0752049
458.306 .0718626
459.204 .0691541
460.100 .0668811
460.995 .0649323
461.888 .0632348
462.781 .0617378
463.673 .0604035
464.563 .0592072
465.452 .0581293
466.340 .0571543
467.228 .0562704
468.114 .0554665
468.999 .0547329
469.882 .0540603
470.765 .0534397
471.647 .0528642
472.528 .0523303
473.407 .0518332
474.286 .0513718
475.163 .0509454
476.040 .0505538
476.915 .0501970
477.790 .0498743
478.663 .0495847
479.535 .0493268
480.407 .0490978
481.277 .0488939
482.147 .0487122
483.015 .0485501
483.883 .0484060
484.749 .0482794
485.615 .0481708
486.479 .0480818
487.343 .0480138
488.206 .0479683
489.067 .0479456
489.928 .0479461
490.788 .0479696
491.647 .0480146
492.505 .0480807
493.362 .0481673
494.218 .0482744
495.073 .0484035
495.928 .0486880
496.781 .0488817
497.634 .0491028
498.486 .0493521
499.337 .0496309
500.187 .0499388
501.036 .0502760
501.884 .0506432
502.731 .0510412
503.578 .0514718
504.424 .0517554
505.268 .0522446
506.113 .0527760
506.956 .0533547
507.798 .0539873
508.640 .0546820
509.480 .0554506
510.320 .0563055
511.160 .0572602
511.998 .0583300
512.836 .0595338
513.672 .0608919
514.508 .0624284
515.344 .0641695
516.178 .0661437
517.012 .0683816
517.845 .0709113
518.677 .0737572
519.508 .0769387
520.339 .0804643
521.169 .0843330
521.998 .0885170
522.826 .0929801
523.654 .0976648
524.481 .1025006
525.307 .1074098
526.133 .1123000
526.958 .1170713
527.782 .1216252
528.605 .1258684
529.428 .1297156
530.250 .1330885
531.072 .1359317
531.892 .1381967
532.712 .1398547
533.532 .1408877
534.350 .1412845
535.168 .1410480
535.986 .1401868
536.802 .1387080
537.618 .1366257
538.434 .1339612
539.249 .1307600
540.063 .1270746
540.876 .1229742
541.689 .1185396
542.501 .1138559
543.313 .1090192
544.124 .1041279
544.934 .0992758
545.744 .0945485
546.553 .0900204
547.361 .0857543
548.169 .0817896
548.976 .0781545
549.783 .0748549
550.589 .0718828
551.395 .0692201
552.200 .0668367
553.004 .0646987
553.808 .0627773
554.611 .0610469
555.414 .0594835
556.216 .0580655
557.018 .0567726
557.819 .0555882
558.619 .0544970
559.419 .0534855
560.218 .0525423
561.017 .0516565
561.815 .0508205
562.613 .0500267
563.410 .0492696
564.207 .0485435
565.003 .0478434
565.799 .0471641
566.594 .0465021
567.388 .0458551
568.182 .0452217
568.976 .0446020
569.769 .0439966
570.562 .0434073
571.354 .0428354
572.145 .0422822
572.936 .0417486
573.727 .0412348
574.517 .0407407
575.307 .0402657
576.096 .0398095
576.885 .0393715
577.673 .0389515
578.461 .0385500
579.248 .0381675
580.035 .0378041
580.821 .0374601
581.607 .0371357
582.392 .0368307
583.177 .0365451
583.962 .0362781
584.746 .0360289
585.529 .0357968
586.313 .0355806
587.095 .0353793
587.878 .0351922
588.660 .0350182
589.441 .0348565
590.222 .0347065
591.003 .0345676
591.783 .0344389
592.563 .0343198
593.342 .0342097
594.121 .0341078
594.899 .0340134
595.678 .0339258
596.455 .0338442
597.233 .0337681
598.009 .0336970
598.786 .0336304
599.562 .0335680
600.338 .0335093
601.113 .0334542
601.888 .0333818
602.663 .0333336
603.437 .0332880
604.211 .0332449
604.984 .0332041
605.757 .0331653
606.530 .0331286
607.302 .0330937
608.074 .0330607
608.845 .0330296
609.616 .0330002
610.387 .0329889
611.158 .0329620
611.928 .0329368
612.697 .0329131
613.467 .0328910
614.236 .0328704
615.004 .0328511
615.773 .0328332
616.541 .0328164
617.308 .0328007
618.076 .0327859
618.843 .0327718
619.609 .0327582
620.375 .0327450
621.141 .0327319
621.907 .0327185
622.672 .0327048
623.437 .0326904
624.202 .0326752
624.966 .0326591
625.730 .0326417
626.493 .0326231
627.257 .0326030
628.020 .0325814
628.782 .0325580
629.545 .0325329
630.307 .0325059
631.068 .0324771
631.830 .0324466
632.591 .0324143
633.352 .0323803
634.112 .0323450
634.872 .0323083
635.632 .0322705
636.392 .0322316
637.151 .0321919
637.910 .0321516
638.668 .0321107
639.427 .0320694
640.185 .0320280
640.943 .0319867
641.700 .0319456
642.457 .0319050
643.214 .0318649
643.971 .0318255
644.727 .0317868
645.483 .0317489
646.239 .0317116
646.994 .0316751
647.750 .0316392
648.505 .0316041
649.259 .0315695
650.014 .0315355
650.768 .0315020
651.521 .0314690
652.275 .0314363
653.028 .0314039
653.781 .0313717
654.534 .0313396
655.286 .0313075
656.039 .0312754
656.791 .0312433
657.542 .0312112
658.294 .0311791
659.045 .0311470
659.796 .0311149
660.546 .0310829
661.297 .0310510
662.047 .0310194
662.796 .0309879
663.546 .0309568
664.295 .0309260
665.044 .0308958
665.793 .0308662
666.542 .0308373
667.290 .0308093
668.038 .0307822
668.786 .0307561
669.533 .0307309
670.281 .0307068
671.028 .0306837
671.774 .0306618
672.521 .0306410
673.267 .0306214
674.013 .0306029
674.759 .0305855
675.505 .0305693
676.250 .0305542
676.995 .0305400
677.740 .0305269
678.484 .0305145
679.229 .0305029
679.973 .0304920
680.717 .0304816
681.460 .0304717
682.204 .0304622
682.947 .0304530
683.690 .0304439
684.433 .0304348
685.175 .0304257
685.917 .0304165
686.659 .0304072
687.401 .0303977
688.142 .0303881
688.884 .0303782
689.625 .0303682
690.365 .0303578
691.106 .0303472
691.846 .0303363
692.586 .0303251
693.326 .0303136
694.066 .0303018
694.805 .0302898
695.545 .0302777
696.284 .0302656
697.022 .0302534
697.761 .0302412
698.499 .0302291
699.237 .0302168
699.975 .0302046
700.713 .0301922
701.450 .0301798
702.187 .0301672
702.924 .0301544
703.661 .0301414
704.397 .0301282
705.133 .0301147
705.869 .0301010
706.605 .0300870
707.341 .0300727
708.076 .0300581
708.811 .0300432
709.546 .0300279
710.281 .0300123
711.015 .0299962
711.749 .0299797
712.483 .0299626
713.217 .0299450
713.950 .0299269
714.684 .0299082
715.417 .0298890
716.150 .0298692
716.882 .0298488
717.615 .0298277
718.347 .0298060
719.079 .0297836
719.811 .0297604
720.542 .0297367
721.273 .0297122
722.005 .0296872
722.735 .0296618
723.466 .0296358
724.196 .0296095
724.927 .0295827
725.656 .0295556
726.386 .0295282
727.116 .0295005
727.845 .0294727
728.574 .0294448
729.303 .0294169
730.031 .0293891
730.760 .0293614
731.488 .0293340
732.216 .0293067
732.944 .0292797
733.671 .0292530
734.398 .0292266
735.125 .0292005
735.852 .0291749
736.579 .0291498
737.305 .0291252
738.031 .0291013
738.757 .0290779
739.483 .0290552
740.208 .0290331
740.933 .0290116
741.658 .0289906
742.383 .0289701
743.108 .0289502
743.832 .0289307
744.556 .0289115
745.280 .0288927
746.004 .0288742
746.727 .0288558
747.450 .0288376
748.173 .0288194
748.896 .0288014
749.618 .0287834
750.340 .0287654
751.062 .0287475
751.784 .0287296
752.506 .0287117
753.227 .0286938
753.948 .0286759
754.669 .0286578
755.389 .0286397
756.110 .0286215
756.830 .0286033
757.550 .0285851
758.269 .0285669
758.989 .0285488
759.708 .0285307
760.427 .0285127
761.146 .0284948
761.864 .0284771
762.582 .0284595
763.300 .0284421
764.018 .0284251
764.736 .0284084
765.453 .0283922
766.170 .0283766
766.887 .0283617
767.603 .0283475
768.320 .0283341
769.036 .0283216
769.751 .0283099
770.467 .0282992
771.182 .0282894
771.897 .0282807
772.612 .0282729
773.327 .0282662
774.041 .0282605
774.755 .0282559
775.469 .0282523
776.183 .0282496
776.896 .0282480
777.609 .0282474
778.322 .0282477
779.035 .0282488
779.747 .0282508
780.459 .0282535
781.171 .0282569
781.882 .0282606
782.594 .0282647
783.305 .0282690
784.016 .0282735
784.726 .0282780
785.436 .0282825
786.147 .0282886
786.856 .0282927
787.566 .0282967
788.275 .0283004
788.984 .0283038
789.693 .0283068
790.401 .0283094
791.110 .0283116
791.818 .0283135
792.525 .0283149
793.233 .0283161
793.940 .0283169
794.647 .0283163
795.353 .0283168
796.060 .0283168
796.766 .0283164
797.472 .0283156
798.177 .0283143
798.883 .0283125
799.588 .0283103
800.292 .0283077
800.997 .0283047
801.701 .0283014
802.405 .0282976
803.109 .0282932
803.812 .0282884
804.515 .0282829
805.218 .0282767
805.921 .0282698
806.623 .0282623
807.325 .0282541
808.027 .0282453
808.728 .0282359
809.429 .0282260
810.130 .0282154
810.831 .0282043
811.531 .0281926
812.231 .0281803
812.931 .0281675
813.630 .0281541
814.330 .0281403
815.029 .0281262
815.727 .0281118
816.426 .0280972
817.124 .0280826
817.821 .0280679
818.519 .0280532
819.216 .0280386
819.913 .0280240
820.609 .0280096
821.306 .0279954
822.002 .0279815
822.697 .0279678
823.393 .0279545
824.088 .0279416
824.783 .0279289
825.477 .0279166
826.171 .0279044
826.865 .0278924
827.559 .0278804
828.252 .0278686
828.945 .0278567
829.638 .0278449
830.330 .0278331
831.023 .0278213
831.714 .0278094
832.406 .0277974
833.097 .0277853
833.788 .0277729
834.479 .0277603
835.169 .0277473
835.859 .0277339
836.548 .0277201
837.238 .0277058
837.927 .0276911
838.615 .0276760
839.304 .0276605
839.992 .0276445
840.680 .0276281
841.367 .0276114
842.054 .0275943
842.741 .0275768
843.428 .0275590
844.114 .0275409
844.800 .0275224
845.485 .0275035
846.170 .0274841
846.855 .0274643
847.540 .0274441
848.224 .0274233
848.908 .0274021
849.592 .0273805
850.275 .0273584
850.958 .0273358
851.641 .0273128
852.323 .0272892
853.005 .0272652
853.687 .0272407
854.368 .0272159
855.049 .0271907
855.730 .0271651
856.410 .0271393
857.090 .0271133
857.769 .0270871
858.449 .0270607
859.128 .0270341
859.806 .0270074
860.485 .0269805
861.163 .0269536
861.840 .0269267
862.518 .0268999
863.195 .0268732
863.871 .0268468
864.548 .0268205
865.224 .0267946
865.899 .0267689
866.574 .0267436
867.249 .0267186
867.924 .0266941
868.598 .0266701
869.272 .0266467
869.946 .0266240
870.619 .0266020
871.292 .0265808
871.964 .0265604
872.636 .0265408
873.308 .0265220
873.979 .0265041
874.651 .0264870
875.321 .0264709
875.992 .0264556
876.662 .0264412
877.331 .0264277
878.001 .0264150
878.670 .0264032
879.338 .0263923
880.007 .0263822
880.675 .0263729
881.342 .0263646
882.009 .0263571
882.676 .0263506
883.343 .0263449
884.009 .0263400
884.675 .0263360
885.340 .0263327
886.005 .0263302
886.670 .0263285
887.334 .0263275
887.998 .0263273
888.662 .0263277
889.325 .0263289
889.988 .0263307
890.650 .0263330
891.312 .0263359
891.974 .0263392
892.636 .0263429
893.297 .0263469
893.957 .0263512
894.618 .0263557
895.278 .0263604
895.937 .0263651
896.596 .0263698
897.255 .0263744
897.914 .0263788
898.572 .0263828
899.230 .0263865
899.887 .0263896
900.544 .0263922
901.201 .0263943
901.857 .0263939
902.513 .0263940
903.168 .0263933
903.823 .0263920
904.478 .0263898
905.132 .0263870
905.786 .0263834
906.440 .0263792
907.093 .0263743
907.746 .0263690
908.399 .0263633
909.051 .0263572
909.703 .0263509
910.354 .0263474
911.005 .0263412
911.656 .0263351
912.306 .0263289
912.956 .0263228
913.605 .0263168
914.254 .0263110
914.903 .0263055
915.551 .0263002
916.199 .0262952
916.847 .0262905
917.494 .0262860
918.141 .0262818
918.788 .0262777
919.434 .0262739
920.079 .0262703
920.725 .0262668
921.370 .0262634
922.014 .0262600
922.658 .0262567
923.302 .0262534
923.946 .0262499
924.589 .0262463
925.231 .0262426
925.873 .0262387
926.515 .0262347
927.157 .0262305
927.798 .0262263
928.439 .0262220
929.079 .0262177
929.719 .0262134
930.359 .0262091
930.998 .0262047
931.637 .0262005
932.275 .0261962
932.913 .0261920
933.551 .0261880
934.188 .0261843
934.825 .0261810
935.462 .0261781
936.098 .0261756
936.733 .0261736
937.369 .0261721
938.004 .0261710
938.638 .0261702
939.273 .0261699
939.907 .0261700
940.540 .0261704
941.173 .0261713
941.806 .0261725
942.438 .0261740
943.070 .0261757
943.702 .0261777
944.333 .0261798
944.964 .0261818
945.594 .0261838
946.224 .0261856
946.854 .0261871
947.483 .0261884
948.112 .0261893
948.741 .0261898
949.369 .0261901
949.996 .0261900
950.624 .0261895
951.251 .0261886
951.878 .0261873
952.504 .0261855
953.130 .0261832
953.755 .0261805
954.380 .0261772
955.005 .0261735
955.629 .0261694
956.253 .0261648
956.877 .0261598
957.500 .0261543
958.123 .0261483
958.746 .0261420
959.368 .0261352
959.990 .0261280
960.611 .0261204
961.232 .0261124
961.853 .0261041
962.473 .0260954
963.093 .0260863
963.712 .0260769
964.331 .0260671
964.950 .0260570
965.569 .0260466
966.187 .0260360
966.804 .0260251
967.422 .0260139
968.039 .0260026
968.655 .0259910
969.272 .0259791
969.887 .0259667
970.503 .0259540
971.118 .0259408
971.733 .0259271
972.347 .0259129
972.961 .0258981
973.575 .0258829
974.188 .0258672
974.801 .0258511
975.414 .0258344
976.026 .0258172
976.638 .0257994
977.250 .0257808
977.861 .0257615
978.472 .0257414
979.083 .0257206
979.693 .0256991
980.303 .0256769
980.912 .0256407
981.521 .0256173
982.130 .0255936
982.738 .0255694
983.346 .0255449
983.954 .0255198
984.562 .0254944
985.169 .0254686
985.775 .0254426
986.382 .0254165
986.988 .0253904
987.594 .0253645
988.199 .0253389
988.804 .0253135
989.409 .0253021
990.013 .0252775
990.617 .0252533
991.221 .0252293
991.824 .0252057
992.427 .0251824
993.030 .0251595
993.632 .0251371
994.234 .0251153
994.836 .0250942
995.438 .0250738
996.039 .0250542
996.640 .0250353
997.240 .0250171
997.840 .0249996
998.440 .0249826
999.040 .0249661
999.639 .0249501
1000.238 .0249345
1000.836 .0249194
1001.435 .0249048
1002.033 .0248907
1002.630 .0248770
1003.228 .0248636
1003.825 .0248506
1004.422 .0248378
1005.018 .0248251
1005.614 .0248126
1006.210 .0248001
1006.806 .0247877
1007.401 .0247754
1007.996 .0247632
1008.591 .0247512
1009.186 .0247393
1009.780 .0247278
1010.374 .0247164
1010.967 .0247053
1011.561 .0246944
1012.154 .0246836
1012.746 .0246731
1013.339 .0246628
1013.931 .0246527
1014.523 .0246429
1015.115 .0246333
1015.706 .0246240
1016.298 .0246150
1016.888 .0246062
1017.479 .0245977
1018.069 .0245894
1018.660 .0245814
1019.250 .0245736
1019.839 .0245662
1020.429 .0245591
1021.018 .0245524
1021.607 .0245462
1022.195 .0245404
1022.784 .0245350
1023.372 .0245300
1023.960 .0245255
1024.547 .0245212
1025.135 .0245174
1025.722 .0245139
1026.309 .0245107
1026.896 .0245079
1027.483 .0245053
1028.069 .0245031
1028.655 .0245011
1029.241 .0244992
1029.827 .0244975
1030.412 .0244960
1030.997 .0244945
1031.582 .0244931
1032.167 .0244920
1032.752 .0244910
1033.336 .0244902
1033.921 .0244897
1034.505 .0244892
1035.089 .0244889
1035.672 .0244886
1036.256 .0244882
1036.839 .0244876
1037.422 .0244870
1038.005 .0244861
1038.588 .0244851
1039.171 .0244840
1039.753 .0244828
1040.335 .0244816
1040.918 .0244803
1041.500 .0244790
1042.081 .0244776
1042.663 .0244761
1043.244 .0244746
1043.826 .0244732
1044.407 .0244718
1044.988 .0244706
1045.569 .0244696
1046.150 .0244688
1046.730 .0244682
1047.311 .0244679
1047.891 .0244677
1048.471 .0244677
1049.052 .0244676
1049.632 .0244675
1050.211 .0244674
1050.791 .0244672
1051.371 .0244670
1051.950 .0244668
1052.530 .0244666
1053.109 .0244666
1053.688 .0244666
1054.268 .0244668
1054.847 .0244673
1055.426 .0244679
1056.005 .0244689
1056.583 .0244701
1057.162 .0244717
1057.741 .0244737
1058.319 .0244761
1058.898 .0244789
1059.476 .0244820
1060.055 .0244855
1060.633 .0244892
1061.211 .0244931
1061.790 .0244973
1062.368 .0245016
1062.946 .0245062
1063.524 .0245109
1064.102 .0245159
1064.680 .0245210
1065.258 .0245264
1065.836 .0245319
1066.414 .0245377
1066.992 .0245437
1067.570 .0245501
1068.148 .0245569
1068.726 .0245641
1069.304 .0245718
1069.882 .0245801
1070.460 .0245889
1071.038 .0245983
1071.616 .0246079
1072.194 .0246179
1072.772 .0246281
1073.350 .0246383
1073.928 .0246486
1074.506 .0246588
1075.084 .0246690
1075.662 .0246794
1076.240 .0246899
1076.819 .0247006
1077.397 .0247116
1077.976 .0247230
1078.554 .0247346
1079.133 .0247466
1079.711 .0247591
1080.290 .0247720
1080.869 .0247856
1081.448 .0247999
1082.027 .0248151
1082.606 .0248313
1083.185 .0248485
1083.764 .0248669
1084.343 .0248865
1084.923 .0249072
1085.502 .0249290
1086.082 .0249518
1086.662 .0249755
1087.242 .0250000
1087.822 .0250251
1088.402 .0250508
1088.983 .0250770
1089.563 .0251037
1090.144 .0251308
1090.725 .0251583
1091.306 .0251862
1091.887 .0252146
1092.469 .0252433
1093.050 .0252725
1093.632 .0253021
1094.214 .0253321
1094.796 .0253626
1095.379 .0253936
1095.961 .0254251
1096.544 .0254571
1097.127 .0254897
1097.710 .0255229
1098.294 .0255566
1098.877 .0255909
1099.461 .0256257
1100.046 .0256611
1100.630 .0256969
1101.215 .0257332
1101.800 .0257699
1102.385 .0258069
1102.970 .0258442
1103.556 .0258818
1104.142 .0259196
1104.728 .0259578
1105.315 .0259964
1105.902 .0260353
1106.489 .0260749
1107.077 .0261149
1107.664 .0261556
1108.253 .0261967
1108.841 .0262384
1109.430 .0262804
1110.019 .0263228
1110.609 .0263656
1111.198 .0264085
1111.789 .0264517
1112.379 .0264951
1112.970 .0265388
1113.561 .0265827
1114.153 .0266267
1114.745 .0266709
1115.338 .0267151
1115.931 .0267594
1116.524 .0268038
1117.117 .0268483
1117.712 .0268932
1118.306 .0269386
1118.901 .0269848
1119.496 .0270320
1120.092 .0270804
1120.689 .0271302
1121.285 .0271816
1121.882 .0272348
1122.480 .0272898
1123.078 .0273469
1123.677 .0274060
1124.276 .0274674
1124.875 .0275312
1125.476 .0275976
1126.076 .0276667
1126.677 .0277388
1127.279 .0278137
1127.881 .0278913
1128.484 .0279715
1129.087 .0280053
1129.691 .0280895
1130.295 .0281759
1130.900 .0282642
1131.505 .0283544
1132.111 .0284467
1132.718 .0285410
1133.325 .0286373
1133.933 .0287354
1134.541 .0288388
1135.150 .0289487
1135.760 .0290512
1136.370 .0291495
1136.981 .0293155
1137.592 .0294264
1138.204 .0295303
1138.817 .0296282
1139.431 .0297307
1140.045 .0298383
1140.660 .0299449
1141.275 .0300514
1141.891 .0301576
1142.508 .0303633
1143.126 .0306131
1143.744 .0304776
1144.363 .0304373
1144.983 .0305446
