Measurement Sequence started on: 15-12-46-377
Integration time: 28
Scans to Average: 2 
>>>>>Begin Spectral Data<<<<<
432.689 .0000100
433.621 .0000100
434.552 .0000100
435.482 .0000100
436.410 .0000100
437.337 .0000100
438.262 .0294222
439.187 .0622085
440.110 .1029388
441.031 .1488303
441.952 .1190616
442.871 .1243391
443.789 .1292502
444.705 .1338709
445.621 .1382532
446.535 .1424383
447.447 .1449080
448.359 .1455090
449.269 .1438425
450.178 .1396516
451.086 .1330191
451.993 .1244575
452.898 .1148110
453.803 .1050359
454.706 .0959442
455.608 .0880382
456.508 .0814838
457.408 .0770377
458.306 .0736033
459.204 .0707931
460.100 .0684151
460.995 .0663635
461.888 .0645654
462.781 .0629727
463.673 .0615473
464.563 .0602627
465.452 .0590980
466.340 .0580369
467.228 .0570670
468.114 .0561802
468.999 .0553698
469.882 .0546296
470.765 .0539550
471.647 .0533413
472.528 .0527845
473.407 .0522813
474.286 .0518280
475.163 .0514216
476.040 .0510587
476.915 .0507361
477.790 .0504503
478.663 .0501987
479.535 .0499782
480.407 .0497863
481.277 .0496204
482.147 .0494783
483.015 .0493573
483.883 .0492564
484.749 .0491742
485.615 .0491096
486.479 .0490627
487.343 .0490332
488.206 .0490214
489.067 .0490278
489.928 .0490531
490.788 .0490984
491.647 .0491644
492.505 .0492519
493.362 .0493614
494.218 .0494935
495.073 .0496486
495.928 .0499682
496.781 .0501833
497.634 .0504227
498.486 .0506868
499.337 .0509770
500.187 .0512947
501.036 .0516420
501.884 .0520208
502.731 .0524339
503.578 .0528842
504.424 .0531847
505.268 .0537035
506.113 .0542693
506.956 .0548855
507.798 .0555570
508.640 .0562902
509.480 .0570940
510.320 .0579794
511.160 .0589608
511.998 .0600540
512.836 .0612783
513.672 .0626547
514.508 .0642065
515.344 .0659571
516.178 .0679316
517.012 .0701571
517.845 .0726580
518.677 .0754568
519.508 .0785737
520.339 .0820237
521.169 .0858135
521.998 .0899206
522.826 .0943100
523.654 .0989262
524.481 .1037000
525.307 .1085478
526.133 .1133762
526.958 .1180850
527.782 .1225763
528.605 .1267564
529.428 .1305408
530.250 .1338558
531.072 .1366496
531.892 .1388762
532.712 .1405089
533.532 .1415309
534.350 .1419335
535.168 .1417181
535.986 .1408943
536.802 .1394676
537.618 .1374447
538.434 .1348377
539.249 .1316858
540.063 .1280390
540.876 .1239660
541.689 .1195458
542.501 .1148695
543.313 .1100353
544.124 .1051424
544.934 .1002838
545.744 .0955460
546.553 .0910024
547.361 .0867120
548.169 .0827102
548.976 .0790247
549.783 .0756619
550.589 .0726166
551.395 .0698719
552.200 .0674022
553.004 .0651750
553.808 .0631635
554.611 .0613432
555.414 .0596928
556.216 .0581923
557.018 .0568221
557.819 .0555659
558.619 .0544098
559.419 .0533411
560.218 .0523484
561.017 .0514228
561.815 .0505571
562.613 .0497440
563.410 .0489773
564.207 .0482523
565.003 .0475636
565.799 .0469059
566.594 .0462749
567.388 .0456672
568.182 .0450800
568.976 .0445112
569.769 .0439594
570.562 .0434241
571.354 .0429050
572.145 .0424022
572.936 .0419156
573.727 .0414455
574.517 .0409915
575.307 .0405534
576.096 .0401307
576.885 .0397238
577.673 .0393327
578.461 .0389581
579.248 .0386008
580.035 .0382612
580.821 .0379395
581.607 .0376356
582.392 .0373497
583.177 .0370816
583.962 .0368312
584.746 .0365981
585.529 .0363818
586.313 .0361817
587.095 .0359969
587.878 .0358265
588.660 .0356694
589.441 .0355246
590.222 .0353908
591.003 .0352669
591.783 .0351521
592.563 .0350453
593.342 .0349458
594.121 .0348527
594.899 .0347654
595.678 .0346831
596.455 .0346051
597.233 .0345308
598.009 .0344598
598.786 .0343917
599.562 .0343262
600.338 .0342633
601.113 .0342029
601.888 .0341202
602.663 .0340655
603.437 .0340131
604.211 .0339628
604.984 .0339144
605.757 .0338680
606.530 .0338234
607.302 .0337805
608.074 .0337395
608.845 .0337002
609.616 .0336626
610.387 .0336478
611.158 .0336128
611.928 .0335794
612.697 .0335475
613.467 .0335169
614.236 .0334876
615.004 .0334595
615.773 .0334325
616.541 .0334064
617.308 .0333812
618.076 .0333568
618.843 .0333331
619.609 .0333098
620.375 .0332870
621.141 .0332644
621.907 .0332420
622.672 .0332197
623.437 .0331974
624.202 .0331750
624.966 .0331523
625.730 .0331294
626.493 .0331061
627.257 .0330822
628.020 .0330578
628.782 .0330328
629.545 .0330072
630.307 .0329810
631.068 .0329543
631.830 .0329272
632.591 .0328997
633.352 .0328720
634.112 .0328439
634.872 .0328155
635.632 .0327868
636.392 .0327579
637.151 .0327286
637.910 .0326991
638.668 .0326693
639.427 .0326395
640.185 .0326096
640.943 .0325797
641.700 .0325500
642.457 .0325205
643.214 .0324912
643.971 .0324622
644.727 .0324334
645.483 .0324048
646.239 .0323763
646.994 .0323479
647.750 .0323197
648.505 .0322914
649.259 .0322632
650.014 .0322351
650.768 .0322069
651.521 .0321788
652.275 .0321507
653.028 .0321226
653.781 .0320944
654.534 .0320662
655.286 .0320379
656.039 .0320095
656.791 .0319810
657.542 .0319525
658.294 .0319239
659.045 .0318953
659.796 .0318667
660.546 .0318381
661.297 .0318095
662.047 .0317809
662.796 .0317524
663.546 .0317240
664.295 .0316960
665.044 .0316683
665.793 .0316411
666.542 .0316144
667.290 .0315883
668.038 .0315626
668.786 .0315375
669.533 .0315127
670.281 .0314882
671.028 .0314641
671.774 .0314403
672.521 .0314169
673.267 .0313940
674.013 .0313716
674.759 .0313498
675.505 .0313286
676.250 .0313079
676.995 .0312878
677.740 .0312682
678.484 .0312490
679.229 .0312303
679.973 .0312119
680.717 .0311938
681.460 .0311760
682.204 .0311583
682.947 .0311408
683.690 .0311234
684.433 .0311061
685.175 .0310888
685.917 .0310714
686.659 .0310541
687.401 .0310368
688.142 .0310193
688.884 .0310017
689.625 .0309838
690.365 .0309656
691.106 .0309470
691.846 .0309280
692.586 .0309087
693.326 .0308891
694.066 .0308693
694.805 .0308494
695.545 .0308295
696.284 .0308097
697.022 .0307901
697.761 .0307705
698.499 .0307511
699.237 .0307318
699.975 .0307126
700.713 .0306937
701.450 .0306748
702.187 .0306562
702.924 .0306378
703.661 .0306197
704.397 .0306018
705.133 .0305842
705.869 .0305669
706.605 .0305498
707.341 .0305329
708.076 .0305162
708.811 .0304996
709.546 .0304830
710.281 .0304663
711.015 .0304495
711.749 .0304325
712.483 .0304151
713.217 .0303975
713.950 .0303794
714.684 .0303610
715.417 .0303423
716.150 .0303232
716.882 .0303038
717.615 .0302841
718.347 .0302640
719.079 .0302436
719.811 .0302229
720.542 .0302019
721.273 .0301806
722.005 .0301593
722.735 .0301378
723.466 .0301164
724.196 .0300952
724.927 .0300742
725.656 .0300536
726.386 .0300333
727.116 .0300134
727.845 .0299940
728.574 .0299750
729.303 .0299567
730.031 .0299389
730.760 .0299218
731.488 .0299053
732.216 .0298895
732.944 .0298742
733.671 .0298596
734.398 .0298455
735.125 .0298321
735.852 .0298193
736.579 .0298070
737.305 .0297954
738.031 .0297843
738.757 .0297737
739.483 .0297635
740.208 .0297536
740.933 .0297439
741.658 .0297343
742.383 .0297246
743.108 .0297149
743.832 .0297050
744.556 .0296949
745.280 .0296845
746.004 .0296739
746.727 .0296630
747.450 .0296518
748.173 .0296401
748.896 .0296281
749.618 .0296156
750.340 .0296027
751.062 .0295894
751.784 .0295758
752.506 .0295617
753.227 .0295474
753.948 .0295327
754.669 .0295177
755.389 .0295024
756.110 .0294870
756.830 .0294714
757.550 .0294558
758.269 .0294404
758.989 .0294251
759.708 .0294100
760.427 .0293950
761.146 .0293802
761.864 .0293654
762.582 .0293506
763.300 .0293356
764.018 .0293207
764.736 .0293056
765.453 .0292907
766.170 .0292758
766.887 .0292611
767.603 .0292466
768.320 .0292324
769.036 .0292185
769.751 .0292048
770.467 .0291913
771.182 .0291781
771.897 .0291651
772.612 .0291524
773.327 .0291400
774.041 .0291279
774.755 .0291162
775.469 .0291050
776.183 .0290941
776.896 .0290838
777.609 .0290740
778.322 .0290648
779.035 .0290560
779.747 .0290477
780.459 .0290399
781.171 .0290324
781.882 .0290252
782.594 .0290181
783.305 .0290110
784.016 .0290039
784.726 .0289967
785.436 .0289893
786.147 .0289772
786.856 .0289691
787.566 .0289609
788.275 .0289525
788.984 .0289438
789.693 .0289347
790.401 .0289253
791.110 .0289154
791.818 .0289050
792.525 .0288941
793.233 .0288828
793.940 .0288710
794.647 .0288645
795.353 .0288525
796.060 .0288404
796.766 .0288282
797.472 .0288159
798.177 .0288036
798.883 .0287914
799.588 .0287791
800.292 .0287670
800.997 .0287549
801.701 .0287429
802.405 .0287310
803.109 .0287192
803.812 .0287074
804.515 .0286956
805.218 .0286838
805.921 .0286719
806.623 .0286599
807.325 .0286477
808.027 .0286354
808.728 .0286229
809.429 .0286102
810.130 .0285974
810.831 .0285845
811.531 .0285713
812.231 .0285580
812.931 .0285446
813.630 .0285310
814.330 .0285175
815.029 .0285040
815.727 .0284907
816.426 .0284777
817.124 .0284649
817.821 .0284524
818.519 .0284402
819.216 .0284283
819.913 .0284166
820.609 .0284053
821.306 .0283943
822.002 .0283837
822.697 .0283735
823.393 .0283638
824.088 .0283546
824.783 .0283458
825.477 .0283374
826.171 .0283294
826.865 .0283217
827.559 .0283143
828.252 .0283071
828.945 .0283002
829.638 .0282937
830.330 .0282874
831.023 .0282813
831.714 .0282754
832.406 .0282695
833.097 .0282637
833.788 .0282577
834.479 .0282516
835.169 .0282455
835.859 .0282392
836.548 .0282329
837.238 .0282265
837.927 .0282200
838.615 .0282135
839.304 .0282069
839.992 .0281999
840.680 .0281927
841.367 .0281852
842.054 .0281773
842.741 .0281691
843.428 .0281607
844.114 .0281520
844.800 .0281432
845.485 .0281342
846.170 .0281250
846.855 .0281154
847.540 .0281056
848.224 .0280954
848.908 .0280848
849.592 .0280738
850.275 .0280624
850.958 .0280506
851.641 .0280385
852.323 .0280261
853.005 .0280134
853.687 .0280005
854.368 .0279873
855.049 .0279739
855.730 .0279603
856.410 .0279466
857.090 .0279329
857.769 .0279192
858.449 .0279057
859.128 .0278923
859.806 .0278791
860.485 .0278661
861.163 .0278533
861.840 .0278408
862.518 .0278286
863.195 .0278165
863.871 .0278048
864.548 .0277932
865.224 .0277820
865.899 .0277710
866.574 .0277602
867.249 .0277498
867.924 .0277395
868.598 .0277295
869.272 .0277197
869.946 .0277101
870.619 .0277006
871.292 .0276913
871.964 .0276821
872.636 .0276730
873.308 .0276640
873.979 .0276551
874.651 .0276464
875.321 .0276379
875.992 .0276296
876.662 .0276215
877.331 .0276135
878.001 .0276055
878.670 .0275977
879.338 .0275898
880.007 .0275820
880.675 .0275743
881.342 .0275665
882.009 .0275588
882.676 .0275512
883.343 .0275436
884.009 .0275361
884.675 .0275287
885.340 .0275214
886.005 .0275141
886.670 .0275069
887.334 .0274997
887.998 .0274928
888.662 .0274859
889.325 .0274792
889.988 .0274727
890.650 .0274662
891.312 .0274598
891.974 .0274535
892.636 .0274471
893.297 .0274407
893.957 .0274343
894.618 .0274277
895.278 .0274209
895.937 .0274138
896.596 .0274066
897.255 .0273989
897.914 .0273910
898.572 .0273826
899.230 .0273737
899.887 .0273644
900.544 .0273546
901.201 .0273443
901.857 .0273263
902.513 .0273146
903.168 .0273023
903.823 .0272894
904.478 .0272760
905.132 .0272619
905.786 .0272473
906.440 .0272321
907.093 .0272165
907.746 .0272003
908.399 .0271837
909.051 .0271667
909.703 .0271495
910.354 .0271403
911.005 .0271227
911.656 .0271050
912.306 .0270871
912.956 .0270691
913.605 .0270511
914.254 .0270331
914.903 .0270151
915.551 .0269973
916.199 .0269795
916.847 .0269617
917.494 .0269440
918.141 .0269264
918.788 .0269087
919.434 .0268910
920.079 .0268732
920.725 .0268553
921.370 .0268373
922.014 .0268192
922.658 .0268009
923.302 .0267824
923.946 .0267636
924.589 .0267446
925.231 .0267254
925.873 .0267059
926.515 .0266863
927.157 .0266665
927.798 .0266466
928.439 .0266267
929.079 .0266068
929.719 .0265871
930.359 .0265675
930.998 .0265480
931.637 .0265288
932.275 .0265097
932.913 .0264909
933.551 .0264725
934.188 .0264544
934.825 .0264367
935.462 .0264196
936.098 .0264030
936.733 .0263870
937.369 .0263716
938.004 .0263567
938.638 .0263425
939.273 .0263287
939.907 .0263156
940.540 .0263029
941.173 .0262908
941.806 .0262792
942.438 .0262680
943.070 .0262572
943.702 .0262468
944.333 .0262367
944.964 .0262267
945.594 .0262168
946.224 .0262070
946.854 .0261972
947.483 .0261872
948.112 .0261772
948.741 .0261671
949.369 .0261568
949.996 .0261464
950.624 .0261359
951.251 .0261253
951.878 .0261146
952.504 .0261038
953.130 .0260930
953.755 .0260822
954.380 .0260715
955.005 .0260608
955.629 .0260503
956.253 .0260399
956.877 .0260297
957.500 .0260196
958.123 .0260098
958.746 .0260002
959.368 .0259909
959.990 .0259820
960.611 .0259734
961.232 .0259652
961.853 .0259575
962.473 .0259501
963.093 .0259432
963.712 .0259366
964.331 .0259305
964.950 .0259248
965.569 .0259195
966.187 .0259146
966.804 .0259101
967.422 .0259059
968.039 .0259020
968.655 .0258982
969.272 .0258946
969.887 .0258910
970.503 .0258873
971.118 .0258837
971.733 .0258799
972.347 .0258759
972.961 .0258718
973.575 .0258676
974.188 .0258631
974.801 .0258584
975.414 .0258535
976.026 .0258484
976.638 .0258430
977.250 .0258373
977.861 .0258315
978.472 .0258254
979.083 .0258191
979.693 .0258127
980.303 .0258061
980.912 .0257954
981.521 .0257886
982.130 .0257817
982.738 .0257746
983.346 .0257676
983.954 .0257605
984.562 .0257536
985.169 .0257467
985.775 .0257401
986.382 .0257338
986.988 .0257278
987.594 .0257222
988.199 .0257171
988.804 .0257123
989.409 .0257117
990.013 .0257079
990.617 .0257045
991.221 .0257019
991.824 .0256999
992.427 .0256986
993.030 .0256981
993.632 .0256983
994.234 .0256991
994.836 .0257006
995.438 .0257025
996.039 .0257050
996.640 .0257079
997.240 .0257113
997.840 .0257150
998.440 .0257192
999.040 .0257238
999.639 .0257286
1000.238 .0257338
1000.836 .0257392
1001.435 .0257448
1002.033 .0257505
1002.630 .0257562
1003.228 .0257620
1003.825 .0257677
1004.422 .0257735
1005.018 .0257794
1005.614 .0257852
1006.210 .0257912
1006.806 .0257971
1007.401 .0258030
1007.996 .0258089
1008.591 .0258148
1009.186 .0258206
1009.780 .0258263
1010.374 .0258319
1010.967 .0258374
1011.561 .0258429
1012.154 .0258483
1012.746 .0258537
1013.339 .0258590
1013.931 .0258643
1014.523 .0258695
1015.115 .0258747
1015.706 .0258797
1016.298 .0258846
1016.888 .0258895
1017.479 .0258944
1018.069 .0258992
1018.660 .0259042
1019.250 .0259093
1019.839 .0259145
1020.429 .0259200
1021.018 .0259256
1021.607 .0259315
1022.195 .0259375
1022.784 .0259436
1023.372 .0259498
1023.960 .0259562
1024.547 .0259627
1025.135 .0259694
1025.722 .0259763
1026.309 .0259835
1026.896 .0259908
1027.483 .0259984
1028.069 .0260060
1028.655 .0260136
1029.241 .0260210
1029.827 .0260283
1030.412 .0260354
1030.997 .0260420
1031.582 .0260484
1032.167 .0260544
1032.752 .0260602
1033.336 .0260656
1033.921 .0260707
1034.505 .0260754
1035.089 .0260796
1035.672 .0260833
1036.256 .0260863
1036.839 .0260885
1037.422 .0260899
1038.005 .0260906
1038.588 .0260906
1039.171 .0260899
1039.753 .0260887
1040.335 .0260870
1040.918 .0260850
1041.500 .0260826
1042.081 .0260799
1042.663 .0260770
1043.244 .0260737
1043.826 .0260700
1044.407 .0260661
1044.988 .0260619
1045.569 .0260575
1046.150 .0260531
1046.730 .0260486
1047.311 .0260443
1047.891 .0260400
1048.471 .0260360
1049.052 .0260320
1049.632 .0260283
1050.211 .0260246
1050.791 .0260211
1051.371 .0260177
1051.950 .0260145
1052.530 .0260115
1053.109 .0260088
1053.688 .0260064
1054.268 .0260043
1054.847 .0260026
1055.426 .0260012
1056.005 .0260002
1056.583 .0259995
1057.162 .0259992
1057.741 .0259992
1058.319 .0259993
1058.898 .0259995
1059.476 .0259996
1060.055 .0259996
1060.633 .0259992
1061.211 .0259986
1061.790 .0259975
1062.368 .0259961
1062.946 .0259945
1063.524 .0259927
1064.102 .0259907
1064.680 .0259886
1065.258 .0259864
1065.836 .0259839
1066.414 .0259812
1066.992 .0259781
1067.570 .0259746
1068.148 .0259709
1068.726 .0259670
1069.304 .0259630
1069.882 .0259592
1070.460 .0259555
1071.038 .0259520
1071.616 .0259488
1072.194 .0259457
1072.772 .0259425
1073.350 .0259389
1073.928 .0259349
1074.506 .0259302
1075.084 .0259248
1075.662 .0259188
1076.240 .0259123
1076.819 .0259054
1077.397 .0258983
1077.976 .0258912
1078.554 .0258843
1079.133 .0258777
1079.711 .0258713
1080.290 .0258650
1080.869 .0258590
1081.448 .0258530
1082.027 .0258472
1082.606 .0258417
1083.185 .0258365
1083.764 .0258317
1084.343 .0258274
1084.923 .0258236
1085.502 .0258205
1086.082 .0258179
1086.662 .0258159
1087.242 .0258145
1087.822 .0258135
1088.402 .0258130
1088.983 .0258129
1089.563 .0258132
1090.144 .0258141
1090.725 .0258155
1091.306 .0258176
1091.887 .0258204
1092.469 .0258240
1093.050 .0258284
1093.632 .0258337
1094.214 .0258400
1094.796 .0258471
1095.379 .0258550
1095.961 .0258636
1096.544 .0258730
1097.127 .0258830
1097.710 .0258936
1098.294 .0259046
1098.877 .0259162
1099.461 .0259281
1100.046 .0259404
1100.630 .0259533
1101.215 .0259669
1101.800 .0259812
1102.385 .0259963
1102.970 .0260120
1103.556 .0260285
1104.142 .0260455
1104.728 .0260630
1105.315 .0260807
1105.902 .0260985
1106.489 .0261163
1107.077 .0261340
1107.664 .0261519
1108.253 .0261699
1108.841 .0261883
1109.430 .0262071
1110.019 .0262264
1110.609 .0262464
1111.198 .0262671
1111.789 .0262884
1112.379 .0263103
1112.970 .0263329
1113.561 .0263561
1114.153 .0263800
1114.745 .0264047
1115.338 .0264304
1115.931 .0264573
1116.524 .0264858
1117.117 .0265160
1117.712 .0265481
1118.306 .0265823
1118.901 .0266186
1119.496 .0266570
1120.092 .0266974
1120.689 .0267397
1121.285 .0267836
1121.882 .0268290
1122.480 .0268758
1123.078 .0269241
1123.677 .0269740
1124.276 .0270257
1124.875 .0270791
1125.476 .0271344
1126.076 .0271914
1126.677 .0272503
1127.279 .0273109
1127.881 .0273731
1128.484 .0274366
1129.087 .0274662
1129.691 .0275319
1130.295 .0275992
1130.900 .0276682
1131.505 .0277392
1132.111 .0278128
1132.718 .0278896
1133.325 .0279711
1133.933 .0280571
1134.541 .0281432
1135.150 .0282375
1135.760 .0283404
1136.370 .0284699
1136.981 .0284124
1137.592 .0284891
1138.204 .0285717
1138.817 .0286597
1139.431 .0287550
1140.045 .0288671
1140.660 .0290012
1141.275 .0291791
1141.891 .0293593
1142.508 .0294252
1143.126 .0297264
1143.744 .0300450
1144.363 .0308796
1144.983 .0301669
