Measurement Sequence started on: 15-12-46-377
Integration time: 28
Scans to Average: 2 
>>>>>Begin Spectral Data<<<<<
432.689 .0000100
433.621 .0000100
434.552 .0000100
435.482 .0000100
436.410 .0000100
437.337 .0000100
438.262 .0260074
439.187 .0551332
440.110 .0912786
441.031 .1320007
441.952 .1057204
442.871 .1104274
443.789 .1148149
444.705 .1189508
445.621 .1228814
446.535 .1266432
447.447 .1288939
448.359 .1294907
449.269 .1280809
450.178 .1244370
451.086 .1186322
451.993 .1111210
452.898 .1026525
453.803 .0940764
454.706 .0861130
455.608 .0792082
456.508 .0735098
457.408 .0696840
458.306 .0667636
459.204 .0643989
460.100 .0624162
460.995 .0607214
461.888 .0592491
462.781 .0579553
463.673 .0568056
464.563 .0557760
465.452 .0548468
466.340 .0540032
467.228 .0532339
468.114 .0525310
468.999 .0518872
469.882 .0512973
470.765 .0507560
471.647 .0502596
472.528 .0498055
473.407 .0493906
474.286 .0490127
475.163 .0486703
476.040 .0483611
476.915 .0480841
477.790 .0478376
478.663 .0476203
479.535 .0474310
480.407 .0472684
481.277 .0471304
482.147 .0470150
483.015 .0469206
483.883 .0468453
484.749 .0467878
485.615 .0467473
486.479 .0467237
487.343 .0467165
488.206 .0467263
489.067 .0467527
489.928 .0467957
490.788 .0468554
491.647 .0469315
492.505 .0470234
493.362 .0471312
494.218 .0472552
495.073 .0473962
495.928 .0476747
496.781 .0478661
497.634 .0480784
498.486 .0483130
499.337 .0485704
500.187 .0488514
501.036 .0491576
501.884 .0494908
502.731 .0498542
503.578 .0502517
504.424 .0505250
505.268 .0509905
506.113 .0515036
506.956 .0520696
507.798 .0526935
508.640 .0533813
509.480 .0541402
510.320 .0549797
511.160 .0559109
511.998 .0569484
512.836 .0581093
513.672 .0594117
514.508 .0608790
515.344 .0625356
516.178 .0644038
517.012 .0665115
517.845 .0688841
518.677 .0715440
519.508 .0745113
520.339 .0777985
521.169 .0814089
521.998 .0853225
522.826 .0895095
523.654 .0939177
524.481 .0984799
525.307 .1031215
526.133 .1077514
526.958 .1122750
527.782 .1165986
528.605 .1206307
529.428 .1242893
530.250 .1275031
531.072 .1302211
531.892 .1323976
532.712 .1340037
533.532 .1350249
534.350 .1354512
535.168 .1352833
535.986 .1345263
536.802 .1331838
537.618 .1312659
538.434 .1287870
539.249 .1257824
540.063 .1222968
540.876 .1183937
541.689 .1141500
542.501 .1096483
543.313 .1049849
544.124 .1002563
544.934 .0955539
545.744 .0909642
546.553 .0865593
547.361 .0823978
548.169 .0785154
548.976 .0749393
549.783 .0716774
550.589 .0687249
551.395 .0660673
552.200 .0636802
553.004 .0615367
553.808 .0596112
554.611 .0578774
555.414 .0563125
556.216 .0548955
557.018 .0536066
557.819 .0524293
558.619 .0513486
559.419 .0503524
560.218 .0494305
561.017 .0485739
561.815 .0477753
562.613 .0470279
563.410 .0463257
564.207 .0456626
565.003 .0450334
565.799 .0444327
566.594 .0438557
567.388 .0432989
568.182 .0427594
568.976 .0422355
569.769 .0417257
570.562 .0412304
571.354 .0407501
572.145 .0402859
572.936 .0398383
573.727 .0394074
574.517 .0389926
575.307 .0385933
576.096 .0382087
576.885 .0378381
577.673 .0374811
578.461 .0371379
579.248 .0368086
580.035 .0364937
580.821 .0361936
581.607 .0359090
582.392 .0356404
583.177 .0353883
583.962 .0351523
584.746 .0349320
585.529 .0347265
586.313 .0345349
587.095 .0343561
587.878 .0341895
588.660 .0340342
589.441 .0338897
590.222 .0337557
591.003 .0336320
591.783 .0335181
592.563 .0334138
593.342 .0333183
594.121 .0332309
594.899 .0331507
595.678 .0330769
596.455 .0330084
597.233 .0329447
598.009 .0328850
598.786 .0328287
599.562 .0327753
600.338 .0327243
601.113 .0326753
601.888 .0326068
602.663 .0325615
603.437 .0325174
604.211 .0324746
604.984 .0324329
605.757 .0323922
606.530 .0323526
607.302 .0323139
608.074 .0322761
608.845 .0322393
609.616 .0322035
610.387 .0321878
611.158 .0321534
611.928 .0321200
612.697 .0320874
613.467 .0320559
614.236 .0320252
615.004 .0319953
615.773 .0319664
616.541 .0319383
617.308 .0319109
618.076 .0318843
618.843 .0318585
619.609 .0318333
620.375 .0318087
621.141 .0317846
621.907 .0317609
622.672 .0317374
623.437 .0317140
624.202 .0316906
624.966 .0316669
625.730 .0316429
626.493 .0316185
627.257 .0315937
628.020 .0315684
628.782 .0315427
629.545 .0315164
630.307 .0314897
631.068 .0314626
631.830 .0314350
632.591 .0314070
633.352 .0313785
634.112 .0313497
634.872 .0313204
635.632 .0312906
636.392 .0312605
637.151 .0312300
637.910 .0311993
638.668 .0311685
639.427 .0311377
640.185 .0311071
640.943 .0310769
641.700 .0310471
642.457 .0310179
643.214 .0309893
643.971 .0309612
644.727 .0309337
645.483 .0309068
646.239 .0308805
646.994 .0308546
647.750 .0308293
648.505 .0308046
649.259 .0307803
650.014 .0307565
650.768 .0307332
651.521 .0307101
652.275 .0306874
653.028 .0306649
653.781 .0306425
654.534 .0306201
655.286 .0305977
656.039 .0305750
656.791 .0305521
657.542 .0305288
658.294 .0305051
659.045 .0304810
659.796 .0304565
660.546 .0304317
661.297 .0304067
662.047 .0303815
662.796 .0303562
663.546 .0303308
664.295 .0303054
665.044 .0302799
665.793 .0302545
666.542 .0302293
667.290 .0302044
668.038 .0301800
668.786 .0301560
669.533 .0301326
670.281 .0301097
671.028 .0300875
671.774 .0300658
672.521 .0300445
673.267 .0300237
674.013 .0300032
674.759 .0299830
675.505 .0299632
676.250 .0299437
676.995 .0299246
677.740 .0299057
678.484 .0298870
679.229 .0298685
679.973 .0298499
680.717 .0298314
681.460 .0298128
682.204 .0297940
682.947 .0297749
683.690 .0297556
684.433 .0297360
685.175 .0297161
685.917 .0296959
686.659 .0296755
687.401 .0296549
688.142 .0296342
688.884 .0296134
689.625 .0295926
690.365 .0295719
691.106 .0295513
691.846 .0295310
692.586 .0295107
693.326 .0294907
694.066 .0294707
694.805 .0294510
695.545 .0294314
696.284 .0294121
697.022 .0293929
697.761 .0293740
698.499 .0293553
699.237 .0293369
699.975 .0293187
700.713 .0293008
701.450 .0292831
702.187 .0292657
702.924 .0292484
703.661 .0292312
704.397 .0292142
705.133 .0291973
705.869 .0291805
706.605 .0291637
707.341 .0291471
708.076 .0291305
708.811 .0291141
709.546 .0290978
710.281 .0290816
711.015 .0290655
711.749 .0290495
712.483 .0290335
713.217 .0290176
713.950 .0290016
714.684 .0289858
715.417 .0289699
716.150 .0289539
716.882 .0289379
717.615 .0289218
718.347 .0289056
719.079 .0288892
719.811 .0288726
720.542 .0288558
721.273 .0288389
722.005 .0288218
722.735 .0288047
723.466 .0287876
724.196 .0287706
724.927 .0287538
725.656 .0287370
726.386 .0287204
727.116 .0287040
727.845 .0286878
728.574 .0286717
729.303 .0286558
730.031 .0286401
730.760 .0286247
731.488 .0286096
732.216 .0285949
732.944 .0285805
733.671 .0285665
734.398 .0285529
735.125 .0285396
735.852 .0285268
736.579 .0285142
737.305 .0285020
738.031 .0284901
738.757 .0284784
739.483 .0284670
740.208 .0284556
740.933 .0284443
741.658 .0284331
742.383 .0284219
743.108 .0284107
743.832 .0283995
744.556 .0283885
745.280 .0283775
746.004 .0283667
746.727 .0283561
747.450 .0283454
748.173 .0283349
748.896 .0283243
749.618 .0283136
750.340 .0283029
751.062 .0282920
751.784 .0282809
752.506 .0282697
753.227 .0282582
753.948 .0282466
754.669 .0282347
755.389 .0282226
756.110 .0282102
756.830 .0281974
757.550 .0281844
758.269 .0281710
758.989 .0281574
759.708 .0281436
760.427 .0281294
761.146 .0281150
761.864 .0281003
762.582 .0280853
763.300 .0280700
764.018 .0280545
764.736 .0280388
765.453 .0280230
766.170 .0280072
766.887 .0279913
767.603 .0279755
768.320 .0279599
769.036 .0279444
769.751 .0279293
770.467 .0279145
771.182 .0278999
771.897 .0278857
772.612 .0278718
773.327 .0278583
774.041 .0278451
774.755 .0278323
775.469 .0278198
776.183 .0278077
776.896 .0277961
777.609 .0277848
778.322 .0277740
779.035 .0277636
779.747 .0277536
780.459 .0277440
781.171 .0277347
781.882 .0277257
782.594 .0277170
783.305 .0277086
784.016 .0277004
784.726 .0276924
785.436 .0276846
786.147 .0276736
786.856 .0276660
787.566 .0276584
788.275 .0276508
788.984 .0276432
789.693 .0276355
790.401 .0276276
791.110 .0276196
791.818 .0276114
792.525 .0276029
793.233 .0275940
793.940 .0275847
794.647 .0275786
795.353 .0275686
796.060 .0275582
796.766 .0275473
797.472 .0275361
798.177 .0275245
798.883 .0275125
799.588 .0275002
800.292 .0274874
800.997 .0274744
801.701 .0274610
802.405 .0274473
803.109 .0274332
803.812 .0274190
804.515 .0274044
805.218 .0273897
805.921 .0273747
806.623 .0273595
807.325 .0273441
808.027 .0273285
808.728 .0273127
809.429 .0272967
810.130 .0272806
810.831 .0272644
811.531 .0272482
812.231 .0272319
812.931 .0272155
813.630 .0271992
814.330 .0271829
815.029 .0271666
815.727 .0271504
816.426 .0271344
817.124 .0271185
817.821 .0271028
818.519 .0270873
819.216 .0270720
819.913 .0270570
820.609 .0270422
821.306 .0270278
822.002 .0270138
822.697 .0270003
823.393 .0269872
824.088 .0269748
824.783 .0269630
825.477 .0269517
826.171 .0269409
826.865 .0269307
827.559 .0269210
828.252 .0269116
828.945 .0269027
829.638 .0268943
830.330 .0268862
831.023 .0268785
831.714 .0268712
832.406 .0268641
833.097 .0268573
833.788 .0268507
834.479 .0268442
835.169 .0268379
835.859 .0268316
836.548 .0268255
837.238 .0268193
837.927 .0268132
838.615 .0268071
839.304 .0268008
839.992 .0267944
840.680 .0267879
841.367 .0267812
842.054 .0267744
842.741 .0267674
843.428 .0267603
844.114 .0267532
844.800 .0267460
845.485 .0267388
846.170 .0267314
846.855 .0267239
847.540 .0267162
848.224 .0267081
848.908 .0266998
849.592 .0266912
850.275 .0266823
850.958 .0266731
851.641 .0266636
852.323 .0266538
853.005 .0266437
853.687 .0266333
854.368 .0266226
855.049 .0266114
855.730 .0265998
856.410 .0265877
857.090 .0265753
857.769 .0265626
858.449 .0265496
859.128 .0265365
859.806 .0265233
860.485 .0265100
861.163 .0264967
861.840 .0264834
862.518 .0264703
863.195 .0264573
863.871 .0264445
864.548 .0264319
865.224 .0264197
865.899 .0264078
866.574 .0263962
867.249 .0263850
867.924 .0263741
868.598 .0263635
869.272 .0263532
869.946 .0263433
870.619 .0263337
871.292 .0263245
871.964 .0263157
872.636 .0263073
873.308 .0262993
873.979 .0262917
874.651 .0262845
875.321 .0262777
875.992 .0262712
876.662 .0262649
877.331 .0262589
878.001 .0262532
878.670 .0262476
879.338 .0262421
880.007 .0262369
880.675 .0262318
881.342 .0262270
882.009 .0262224
882.676 .0262181
883.343 .0262141
884.009 .0262104
884.675 .0262071
885.340 .0262042
886.005 .0262016
886.670 .0261995
887.334 .0261978
887.998 .0261965
888.662 .0261957
889.325 .0261952
889.988 .0261952
890.650 .0261956
891.312 .0261963
891.974 .0261972
892.636 .0261983
893.297 .0261994
893.957 .0262006
894.618 .0262018
895.278 .0262028
895.937 .0262037
896.596 .0262044
897.255 .0262047
897.914 .0262047
898.572 .0262043
899.230 .0262033
899.887 .0262017
900.544 .0261994
901.201 .0261965
901.857 .0261886
902.513 .0261837
903.168 .0261780
903.823 .0261716
904.478 .0261644
905.132 .0261565
905.786 .0261479
906.440 .0261385
907.093 .0261285
907.746 .0261179
908.399 .0261067
909.051 .0260950
909.703 .0260830
910.354 .0260762
911.005 .0260639
911.656 .0260514
912.306 .0260387
912.956 .0260260
913.605 .0260131
914.254 .0260002
914.903 .0259873
915.551 .0259744
916.199 .0259614
916.847 .0259484
917.494 .0259354
918.141 .0259222
918.788 .0259089
919.434 .0258954
920.079 .0258817
920.725 .0258677
921.370 .0258534
922.014 .0258389
922.658 .0258242
923.302 .0258093
923.946 .0257941
924.589 .0257788
925.231 .0257632
925.873 .0257473
926.515 .0257312
927.157 .0257147
927.798 .0256980
928.439 .0256811
929.079 .0256640
929.719 .0256467
930.359 .0256294
930.998 .0256121
931.637 .0255948
932.275 .0255776
932.913 .0255604
933.551 .0255434
934.188 .0255266
934.825 .0255100
935.462 .0254936
936.098 .0254777
936.733 .0254622
937.369 .0254472
938.004 .0254329
938.638 .0254192
939.273 .0254062
939.907 .0253938
940.540 .0253820
941.173 .0253708
941.806 .0253602
942.438 .0253501
943.070 .0253405
943.702 .0253313
944.333 .0253227
944.964 .0253145
945.594 .0253066
946.224 .0252989
946.854 .0252914
947.483 .0252840
948.112 .0252765
948.741 .0252690
949.369 .0252614
949.996 .0252537
950.624 .0252460
951.251 .0252381
951.878 .0252302
952.504 .0252221
953.130 .0252140
953.755 .0252057
954.380 .0251971
955.005 .0251884
955.629 .0251795
956.253 .0251703
956.877 .0251609
957.500 .0251514
958.123 .0251418
958.746 .0251320
959.368 .0251222
959.990 .0251124
960.611 .0251024
961.232 .0250925
961.853 .0250825
962.473 .0250726
963.093 .0250627
963.712 .0250530
964.331 .0250433
964.950 .0250338
965.569 .0250245
966.187 .0250153
966.804 .0250062
967.422 .0249973
968.039 .0249884
968.655 .0249794
969.272 .0249704
969.887 .0249613
970.503 .0249520
971.118 .0249425
971.733 .0249327
972.347 .0249225
972.961 .0249119
973.575 .0249009
974.188 .0248894
974.801 .0248774
975.414 .0248650
976.026 .0248520
976.638 .0248385
977.250 .0248246
977.861 .0248104
978.472 .0247957
979.083 .0247807
979.693 .0247653
980.303 .0247496
980.912 .0247249
981.521 .0247089
982.130 .0246928
982.738 .0246766
983.346 .0246604
983.954 .0246444
984.562 .0246285
985.169 .0246130
985.775 .0245979
986.382 .0245832
986.988 .0245690
987.594 .0245553
988.199 .0245421
988.804 .0245295
989.409 .0245254
990.013 .0245136
990.617 .0245026
991.221 .0244921
991.824 .0244823
992.427 .0244732
993.030 .0244647
993.632 .0244568
994.234 .0244493
994.836 .0244422
995.438 .0244355
996.039 .0244291
996.640 .0244231
997.240 .0244175
997.840 .0244122
998.440 .0244074
999.040 .0244031
999.639 .0243991
1000.238 .0243954
1000.836 .0243920
1001.435 .0243888
1002.033 .0243856
1002.630 .0243826
1003.228 .0243795
1003.825 .0243765
1004.422 .0243736
1005.018 .0243708
1005.614 .0243680
1006.210 .0243653
1006.806 .0243625
1007.401 .0243597
1007.996 .0243567
1008.591 .0243536
1009.186 .0243504
1009.780 .0243472
1010.374 .0243440
1010.967 .0243409
1011.561 .0243379
1012.154 .0243351
1012.746 .0243325
1013.339 .0243300
1013.931 .0243276
1014.523 .0243252
1015.115 .0243229
1015.706 .0243207
1016.298 .0243186
1016.888 .0243167
1017.479 .0243151
1018.069 .0243137
1018.660 .0243126
1019.250 .0243117
1019.839 .0243112
1020.429 .0243109
1021.018 .0243110
1021.607 .0243115
1022.195 .0243124
1022.784 .0243138
1023.372 .0243159
1023.960 .0243186
1024.547 .0243220
1025.135 .0243261
1025.722 .0243308
1026.309 .0243361
1026.896 .0243418
1027.483 .0243478
1028.069 .0243540
1028.655 .0243604
1029.241 .0243670
1029.827 .0243737
1030.412 .0243805
1030.997 .0243873
1031.582 .0243941
1032.167 .0244008
1032.752 .0244074
1033.336 .0244137
1033.921 .0244197
1034.505 .0244255
1035.089 .0244309
1035.672 .0244361
1036.256 .0244411
1036.839 .0244460
1037.422 .0244508
1038.005 .0244555
1038.588 .0244601
1039.171 .0244644
1039.753 .0244683
1040.335 .0244718
1040.918 .0244749
1041.500 .0244775
1042.081 .0244796
1042.663 .0244814
1043.244 .0244829
1043.826 .0244842
1044.407 .0244851
1044.988 .0244859
1045.569 .0244863
1046.150 .0244864
1046.730 .0244864
1047.311 .0244861
1047.891 .0244857
1048.471 .0244853
1049.052 .0244852
1049.632 .0244853
1050.211 .0244858
1050.791 .0244868
1051.371 .0244882
1051.950 .0244901
1052.530 .0244921
1053.109 .0244945
1053.688 .0244969
1054.268 .0244995
1054.847 .0245020
1055.426 .0245047
1056.005 .0245074
1056.583 .0245102
1057.162 .0245131
1057.741 .0245162
1058.319 .0245192
1058.898 .0245224
1059.476 .0245254
1060.055 .0245284
1060.633 .0245312
1061.211 .0245340
1061.790 .0245367
1062.368 .0245394
1062.946 .0245422
1063.524 .0245451
1064.102 .0245481
1064.680 .0245512
1065.258 .0245544
1065.836 .0245577
1066.414 .0245609
1066.992 .0245640
1067.570 .0245669
1068.148 .0245696
1068.726 .0245721
1069.304 .0245746
1069.882 .0245770
1070.460 .0245794
1071.038 .0245820
1071.616 .0245848
1072.194 .0245878
1072.772 .0245911
1073.350 .0245946
1073.928 .0245985
1074.506 .0246026
1075.084 .0246070
1075.662 .0246119
1076.240 .0246173
1076.819 .0246232
1077.397 .0246299
1077.976 .0246372
1078.554 .0246453
1079.133 .0246541
1079.711 .0246637
1080.290 .0246741
1080.869 .0246852
1081.448 .0246971
1082.027 .0247096
1082.606 .0247229
1083.185 .0247367
1083.764 .0247510
1084.343 .0247658
1084.923 .0247807
1085.502 .0247958
1086.082 .0248108
1086.662 .0248256
1087.242 .0248401
1087.822 .0248543
1088.402 .0248682
1088.983 .0248816
1089.563 .0248947
1090.144 .0249074
1090.725 .0249200
1091.306 .0249323
1091.887 .0249446
1092.469 .0249569
1093.050 .0249695
1093.632 .0249823
1094.214 .0249956
1094.796 .0250094
1095.379 .0250239
1095.961 .0250390
1096.544 .0250548
1097.127 .0250712
1097.710 .0250881
1098.294 .0251054
1098.877 .0251230
1099.461 .0251409
1100.046 .0251589
1100.630 .0251771
1101.215 .0251954
1101.800 .0252137
1102.385 .0252320
1102.970 .0252502
1103.556 .0252682
1104.142 .0252860
1104.728 .0253036
1105.315 .0253210
1105.902 .0253386
1106.489 .0253563
1107.077 .0253746
1107.664 .0253935
1108.253 .0254133
1108.841 .0254340
1109.430 .0254557
1110.019 .0254782
1110.609 .0255015
1111.198 .0255255
1111.789 .0255502
1112.379 .0255757
1112.970 .0256020
1113.561 .0256288
1114.153 .0256563
1114.745 .0256847
1115.338 .0257137
1115.931 .0257437
1116.524 .0257749
1117.117 .0258072
1117.712 .0258410
1118.306 .0258764
1118.901 .0259137
1119.496 .0259533
1120.092 .0259954
1120.689 .0260404
1121.285 .0260884
1121.882 .0261399
1122.480 .0261951
1123.078 .0262541
1123.677 .0263174
1124.276 .0263848
1124.875 .0264561
1125.476 .0265313
1126.076 .0266099
1126.677 .0266916
1127.279 .0267760
1127.881 .0268627
1128.484 .0269515
1129.087 .0269885
1129.691 .0270800
1130.295 .0271728
1130.900 .0272668
1131.505 .0273616
1132.111 .0274569
1132.718 .0275522
1133.325 .0276472
1133.933 .0277421
1134.541 .0278329
1135.150 .0279239
1135.760 .0280134
1136.370 .0281045
1136.981 .0284328
1137.592 .0285317
1138.204 .0286256
1138.817 .0287149
1139.431 .0287939
1140.045 .0288633
1140.660 .0289207
1141.275 .0289704
1141.891 .0290287
1142.508 .0289789
1143.126 .0290497
1143.744 .0290745
1144.363 .0291893
1144.983 .0296697
