Measurement Sequence started on: 15-12-46-377
Integration time: 28
Scans to Average: 2 
>>>>>Begin Spectral Data<<<<<
432.689 .0000100
433.621 .0000100
434.552 .0000100
435.482 .0000100
436.410 .0000100
437.337 .0000100
438.262 .0276317
439.187 .0584206
440.110 .0966578
441.031 .1397505
441.952 .1113974
442.871 .1162690
443.789 .1207960
444.705 .1250506
445.621 .1290814
446.535 .1329266
447.447 .1351601
448.359 .1356370
449.269 .1339842
450.178 .1299606
451.086 .1236471
451.993 .1155281
452.898 .1063993
453.803 .0971619
454.706 .0885810
455.608 .0811290
456.508 .0749627
457.408 .0707901
458.306 .0675794
459.204 .0649635
460.100 .0627599
460.995 .0608661
461.888 .0592121
462.781 .0577524
463.673 .0564510
464.563 .0552825
465.452 .0542274
466.340 .0532693
467.228 .0523968
468.114 .0516016
468.999 .0508772
469.882 .0502180
470.765 .0496195
471.647 .0490776
472.528 .0485880
473.407 .0481468
474.286 .0477509
475.163 .0473978
476.040 .0470848
476.915 .0468105
477.790 .0465727
478.663 .0463706
479.535 .0462025
480.407 .0460673
481.277 .0459627
482.147 .0458868
483.015 .0458366
483.883 .0458092
484.749 .0458015
485.615 .0458114
486.479 .0458373
487.343 .0458783
488.206 .0459344
489.067 .0460053
489.928 .0460909
490.788 .0461919
491.647 .0463083
492.505 .0464401
493.362 .0465871
494.218 .0467493
495.073 .0469268
495.928 .0472510
496.781 .0474714
497.634 .0477092
498.486 .0479663
499.337 .0482439
500.187 .0485440
501.036 .0488690
501.884 .0492218
502.731 .0496052
503.578 .0500224
504.424 .0503034
505.268 .0507839
506.113 .0513084
506.956 .0518824
507.798 .0525109
508.640 .0532013
509.480 .0539633
510.320 .0548087
511.160 .0557505
511.998 .0568042
512.836 .0579880
513.672 .0593210
514.508 .0608259
515.344 .0625263
516.178 .0644476
517.012 .0666175
517.845 .0690624
518.677 .0718021
519.508 .0748535
520.339 .0782253
521.169 .0819208
521.998 .0859179
522.826 .0901848
523.654 .0946692
524.481 .0993045
525.307 .1040144
526.133 .1087115
526.958 .1132984
527.782 .1176807
528.605 .1217666
529.428 .1254743
530.250 .1287268
531.072 .1314726
531.892 .1336665
532.712 .1352820
533.532 .1363009
534.350 .1367124
535.168 .1365152
535.986 .1357197
536.802 .1343352
537.618 .1323749
538.434 .1298532
539.249 .1268086
540.063 .1232868
540.876 .1193512
541.689 .1150761
542.501 .1105467
543.313 .1058541
544.124 .1010976
544.934 .0963686
545.744 .0917532
546.553 .0873243
547.361 .0831459
548.169 .0792537
548.976 .0756730
549.783 .0724089
550.589 .0694547
551.395 .0667939
552.200 .0644025
553.004 .0622499
553.808 .0603088
554.611 .0585557
555.414 .0569713
556.216 .0555358
557.018 .0542325
557.819 .0530457
558.619 .0519612
559.419 .0509644
560.218 .0500432
561.017 .0491844
561.815 .0483784
562.613 .0476175
563.410 .0468943
564.207 .0462029
565.003 .0455395
565.799 .0449011
566.594 .0442850
567.388 .0436902
568.182 .0431154
568.976 .0425589
569.769 .0420194
570.562 .0414959
571.354 .0409877
572.145 .0404934
572.936 .0400130
573.727 .0395457
574.517 .0390919
575.307 .0386530
576.096 .0382294
576.885 .0378225
577.673 .0374335
578.461 .0370631
579.248 .0367117
580.035 .0363794
580.821 .0360661
581.607 .0357712
582.392 .0354945
583.177 .0352356
583.962 .0349936
584.746 .0347685
585.529 .0345599
586.313 .0343670
587.095 .0341894
587.878 .0340265
588.660 .0338772
589.441 .0337408
590.222 .0336165
591.003 .0335032
591.783 .0333999
592.563 .0333054
593.342 .0332187
594.121 .0331387
594.899 .0330645
595.678 .0329956
596.455 .0329310
597.233 .0328706
598.009 .0328137
598.786 .0327599
599.562 .0327088
600.338 .0326603
601.113 .0326137
601.888 .0325493
602.663 .0325062
603.437 .0324640
604.211 .0324227
604.984 .0323821
605.757 .0323421
606.530 .0323026
607.302 .0322637
608.074 .0322252
608.845 .0321872
609.616 .0321498
610.387 .0321315
611.158 .0320948
611.928 .0320586
612.697 .0320230
613.467 .0319878
614.236 .0319530
615.004 .0319187
615.773 .0318849
616.541 .0318516
617.308 .0318192
618.076 .0317876
618.843 .0317570
619.609 .0317275
620.375 .0316991
621.141 .0316718
621.907 .0316455
622.672 .0316199
623.437 .0315952
624.202 .0315710
624.966 .0315474
625.730 .0315243
626.493 .0315018
627.257 .0314797
628.020 .0314580
628.782 .0314367
629.545 .0314157
630.307 .0313947
631.068 .0313737
631.830 .0313524
632.591 .0313307
633.352 .0313086
634.112 .0312860
634.872 .0312627
635.632 .0312387
636.392 .0312139
637.151 .0311884
637.910 .0311622
638.668 .0311354
639.427 .0311081
640.185 .0310806
640.943 .0310530
641.700 .0310254
642.457 .0309979
643.214 .0309706
643.971 .0309434
644.727 .0309164
645.483 .0308896
646.239 .0308631
646.994 .0308368
647.750 .0308112
648.505 .0307862
649.259 .0307622
650.014 .0307390
650.768 .0307166
651.521 .0306950
652.275 .0306740
653.028 .0306534
653.781 .0306331
654.534 .0306129
655.286 .0305926
656.039 .0305723
656.791 .0305518
657.542 .0305312
658.294 .0305104
659.045 .0304894
659.796 .0304681
660.546 .0304464
661.297 .0304244
662.047 .0304019
662.796 .0303789
663.546 .0303554
664.295 .0303313
665.044 .0303067
665.793 .0302816
666.542 .0302560
667.290 .0302302
668.038 .0302042
668.786 .0301782
669.533 .0301523
670.281 .0301268
671.028 .0301016
671.774 .0300769
672.521 .0300528
673.267 .0300292
674.013 .0300061
674.759 .0299835
675.505 .0299612
676.250 .0299395
676.995 .0299181
677.740 .0298973
678.484 .0298769
679.229 .0298571
679.973 .0298377
680.717 .0298188
681.460 .0298002
682.204 .0297819
682.947 .0297636
683.690 .0297452
684.433 .0297266
685.175 .0297077
685.917 .0296885
686.659 .0296690
687.401 .0296492
688.142 .0296292
688.884 .0296090
689.625 .0295887
690.365 .0295683
691.106 .0295477
691.846 .0295270
692.586 .0295061
693.326 .0294850
694.066 .0294637
694.805 .0294423
695.545 .0294209
696.284 .0293995
697.022 .0293782
697.761 .0293572
698.499 .0293364
699.237 .0293159
699.975 .0292959
700.713 .0292764
701.450 .0292573
702.187 .0292387
702.924 .0292206
703.661 .0292029
704.397 .0291856
705.133 .0291688
705.869 .0291523
706.605 .0291361
707.341 .0291201
708.076 .0291043
708.811 .0290887
709.546 .0290731
710.281 .0290577
711.015 .0290424
711.749 .0290271
712.483 .0290118
713.217 .0289965
713.950 .0289809
714.684 .0289651
715.417 .0289490
716.150 .0289326
716.882 .0289158
717.615 .0288985
718.347 .0288809
719.079 .0288629
719.811 .0288446
720.542 .0288259
721.273 .0288069
722.005 .0287876
722.735 .0287681
723.466 .0287483
724.196 .0287285
724.927 .0287086
725.656 .0286889
726.386 .0286695
727.116 .0286503
727.845 .0286316
728.574 .0286133
729.303 .0285954
730.031 .0285781
730.760 .0285612
731.488 .0285449
732.216 .0285292
732.944 .0285141
733.671 .0284997
734.398 .0284859
735.125 .0284727
735.852 .0284599
736.579 .0284475
737.305 .0284354
738.031 .0284235
738.757 .0284117
739.483 .0284001
740.208 .0283886
740.933 .0283773
741.658 .0283661
742.383 .0283552
743.108 .0283445
743.832 .0283338
744.556 .0283234
745.280 .0283130
746.004 .0283028
746.727 .0282926
747.450 .0282826
748.173 .0282726
748.896 .0282626
749.618 .0282527
750.340 .0282427
751.062 .0282327
751.784 .0282227
752.506 .0282126
753.227 .0282026
753.948 .0281925
754.669 .0281824
755.389 .0281723
756.110 .0281620
756.830 .0281517
757.550 .0281410
758.269 .0281301
758.989 .0281188
759.708 .0281070
760.427 .0280949
761.146 .0280823
761.864 .0280692
762.582 .0280557
763.300 .0280417
764.018 .0280273
764.736 .0280124
765.453 .0279971
766.170 .0279814
766.887 .0279653
767.603 .0279488
768.320 .0279322
769.036 .0279154
769.751 .0278985
770.467 .0278816
771.182 .0278649
771.897 .0278485
772.612 .0278325
773.327 .0278169
774.041 .0278020
774.755 .0277877
775.469 .0277741
776.183 .0277612
776.896 .0277490
777.609 .0277376
778.322 .0277269
779.035 .0277170
779.747 .0277079
780.459 .0276995
781.171 .0276918
781.882 .0276848
782.594 .0276784
783.305 .0276725
784.016 .0276671
784.726 .0276619
785.436 .0276569
786.147 .0276494
786.856 .0276441
787.566 .0276387
788.275 .0276332
788.984 .0276273
789.693 .0276210
790.401 .0276143
791.110 .0276070
791.818 .0275991
792.525 .0275905
793.233 .0275814
793.940 .0275715
794.647 .0275645
795.353 .0275538
796.060 .0275426
796.766 .0275308
797.472 .0275186
798.177 .0275059
798.883 .0274928
799.588 .0274794
800.292 .0274657
800.997 .0274517
801.701 .0274375
802.405 .0274233
803.109 .0274089
803.812 .0273944
804.515 .0273798
805.218 .0273650
805.921 .0273501
806.623 .0273351
807.325 .0273200
808.027 .0273048
808.728 .0272896
809.429 .0272743
810.130 .0272590
810.831 .0272436
811.531 .0272283
812.231 .0272128
812.931 .0271972
813.630 .0271815
814.330 .0271657
815.029 .0271497
815.727 .0271337
816.426 .0271178
817.124 .0271020
817.821 .0270863
818.519 .0270709
819.216 .0270557
819.913 .0270408
820.609 .0270262
821.306 .0270119
822.002 .0269979
822.697 .0269845
823.393 .0269715
824.088 .0269590
824.783 .0269471
825.477 .0269357
826.171 .0269249
826.865 .0269145
827.559 .0269047
828.252 .0268954
828.945 .0268865
829.638 .0268781
830.330 .0268700
831.023 .0268622
831.714 .0268548
832.406 .0268475
833.097 .0268403
833.788 .0268332
834.479 .0268259
835.169 .0268186
835.859 .0268112
836.548 .0268037
837.238 .0267961
837.927 .0267885
838.615 .0267808
839.304 .0267729
839.992 .0267649
840.680 .0267567
841.367 .0267483
842.054 .0267397
842.741 .0267309
843.428 .0267219
844.114 .0267127
844.800 .0267034
845.485 .0266940
846.170 .0266844
846.855 .0266746
847.540 .0266646
848.224 .0266543
848.908 .0266438
849.592 .0266329
850.275 .0266218
850.958 .0266103
851.641 .0265986
852.323 .0265866
853.005 .0265742
853.687 .0265616
854.368 .0265486
855.049 .0265353
855.730 .0265217
856.410 .0265080
857.090 .0264941
857.769 .0264801
858.449 .0264661
859.128 .0264521
859.806 .0264381
860.485 .0264240
861.163 .0264101
861.840 .0263962
862.518 .0263824
863.195 .0263688
863.871 .0263555
864.548 .0263425
865.224 .0263299
865.899 .0263177
866.574 .0263059
867.249 .0262946
867.924 .0262836
868.598 .0262729
869.272 .0262626
869.946 .0262525
870.619 .0262428
871.292 .0262335
871.964 .0262245
872.636 .0262159
873.308 .0262077
873.979 .0261998
874.651 .0261923
875.321 .0261851
875.992 .0261782
876.662 .0261715
877.331 .0261651
878.001 .0261589
878.670 .0261529
879.338 .0261472
880.007 .0261418
880.675 .0261367
881.342 .0261318
882.009 .0261272
882.676 .0261229
883.343 .0261188
884.009 .0261150
884.675 .0261115
885.340 .0261084
886.005 .0261058
886.670 .0261035
887.334 .0261017
887.998 .0261004
888.662 .0260995
889.325 .0260989
889.988 .0260987
890.650 .0260987
891.312 .0260991
891.974 .0260997
892.636 .0261006
893.297 .0261017
893.957 .0261030
894.618 .0261044
895.278 .0261058
895.937 .0261072
896.596 .0261084
897.255 .0261092
897.914 .0261097
898.572 .0261097
899.230 .0261091
899.887 .0261080
900.544 .0261062
901.201 .0261038
901.857 .0260967
902.513 .0260922
903.168 .0260869
903.823 .0260808
904.478 .0260738
905.132 .0260658
905.786 .0260570
906.440 .0260473
907.093 .0260368
907.746 .0260255
908.399 .0260136
909.051 .0260011
909.703 .0259880
910.354 .0259803
911.005 .0259670
911.656 .0259534
912.306 .0259396
912.956 .0259256
913.605 .0259115
914.254 .0258974
914.903 .0258833
915.551 .0258692
916.199 .0258553
916.847 .0258416
917.494 .0258279
918.141 .0258144
918.788 .0258010
919.434 .0257876
920.079 .0257742
920.725 .0257609
921.370 .0257475
922.014 .0257340
922.658 .0257205
923.302 .0257070
923.946 .0256934
924.589 .0256797
925.231 .0256660
925.873 .0256523
926.515 .0256384
927.157 .0256245
927.798 .0256104
928.439 .0255961
929.079 .0255817
929.719 .0255672
930.359 .0255526
930.998 .0255381
931.637 .0255235
932.275 .0255091
932.913 .0254949
933.551 .0254808
934.188 .0254671
934.825 .0254537
935.462 .0254406
936.098 .0254279
936.733 .0254157
937.369 .0254038
938.004 .0253925
938.638 .0253817
939.273 .0253715
939.907 .0253619
940.540 .0253529
941.173 .0253444
941.806 .0253365
942.438 .0253289
943.070 .0253216
943.702 .0253145
944.333 .0253075
944.964 .0253006
945.594 .0252937
946.224 .0252867
946.854 .0252797
947.483 .0252725
948.112 .0252651
948.741 .0252575
949.369 .0252496
949.996 .0252414
950.624 .0252327
951.251 .0252237
951.878 .0252144
952.504 .0252047
953.130 .0251947
953.755 .0251844
954.380 .0251740
955.005 .0251634
955.629 .0251526
956.253 .0251417
956.877 .0251306
957.500 .0251193
958.123 .0251079
958.746 .0250965
959.368 .0250850
959.990 .0250736
960.611 .0250624
961.232 .0250515
961.853 .0250409
962.473 .0250307
963.093 .0250208
963.712 .0250112
964.331 .0250020
964.950 .0249932
965.569 .0249847
966.187 .0249764
966.804 .0249685
967.422 .0249607
968.039 .0249530
968.655 .0249455
969.272 .0249380
969.887 .0249305
970.503 .0249230
971.118 .0249155
971.733 .0249078
972.347 .0249001
972.961 .0248923
973.575 .0248843
974.188 .0248760
974.801 .0248675
975.414 .0248587
976.026 .0248495
976.638 .0248399
977.250 .0248298
977.861 .0248193
978.472 .0248083
979.083 .0247969
979.693 .0247850
980.303 .0247728
980.912 .0247529
981.521 .0247398
982.130 .0247263
982.738 .0247124
983.346 .0246983
983.954 .0246841
984.562 .0246699
985.169 .0246558
985.775 .0246419
986.382 .0246284
986.988 .0246152
987.594 .0246026
988.199 .0245904
988.804 .0245786
989.409 .0245744
990.013 .0245635
990.617 .0245530
991.221 .0245430
991.824 .0245333
992.427 .0245241
993.030 .0245153
993.632 .0245070
994.234 .0244989
994.836 .0244912
995.438 .0244837
996.039 .0244764
996.640 .0244692
997.240 .0244623
997.840 .0244556
998.440 .0244491
999.040 .0244429
999.639 .0244370
1000.238 .0244314
1000.836 .0244262
1001.435 .0244212
1002.033 .0244165
1002.630 .0244120
1003.228 .0244076
1003.825 .0244035
1004.422 .0243994
1005.018 .0243953
1005.614 .0243912
1006.210 .0243870
1006.806 .0243827
1007.401 .0243783
1007.996 .0243737
1008.591 .0243691
1009.186 .0243644
1009.780 .0243597
1010.374 .0243551
1010.967 .0243506
1011.561 .0243463
1012.154 .0243422
1012.746 .0243384
1013.339 .0243348
1013.931 .0243315
1014.523 .0243285
1015.115 .0243258
1015.706 .0243233
1016.298 .0243212
1016.888 .0243194
1017.479 .0243179
1018.069 .0243168
1018.660 .0243160
1019.250 .0243155
1019.839 .0243152
1020.429 .0243152
1021.018 .0243154
1021.607 .0243159
1022.195 .0243166
1022.784 .0243175
1023.372 .0243187
1023.960 .0243202
1024.547 .0243220
1025.135 .0243241
1025.722 .0243264
1026.309 .0243289
1026.896 .0243315
1027.483 .0243342
1028.069 .0243370
1028.655 .0243398
1029.241 .0243427
1029.827 .0243456
1030.412 .0243484
1030.997 .0243510
1031.582 .0243534
1032.167 .0243555
1032.752 .0243573
1033.336 .0243587
1033.921 .0243597
1034.505 .0243605
1035.089 .0243611
1035.672 .0243616
1036.256 .0243620
1036.839 .0243623
1037.422 .0243624
1038.005 .0243624
1038.588 .0243621
1039.171 .0243616
1039.753 .0243609
1040.335 .0243599
1040.918 .0243588
1041.500 .0243577
1042.081 .0243567
1042.663 .0243558
1043.244 .0243551
1043.826 .0243546
1044.407 .0243542
1044.988 .0243539
1045.569 .0243535
1046.150 .0243531
1046.730 .0243526
1047.311 .0243522
1047.891 .0243520
1048.471 .0243520
1049.052 .0243523
1049.632 .0243532
1050.211 .0243546
1050.791 .0243565
1051.371 .0243588
1051.950 .0243615
1052.530 .0243643
1053.109 .0243673
1053.688 .0243704
1054.268 .0243735
1054.847 .0243765
1055.426 .0243796
1056.005 .0243827
1056.583 .0243858
1057.162 .0243888
1057.741 .0243918
1058.319 .0243948
1058.898 .0243975
1059.476 .0244001
1060.055 .0244024
1060.633 .0244044
1061.211 .0244062
1061.790 .0244078
1062.368 .0244093
1062.946 .0244108
1063.524 .0244123
1064.102 .0244139
1064.680 .0244157
1065.258 .0244176
1065.836 .0244196
1066.414 .0244216
1066.992 .0244236
1067.570 .0244254
1068.148 .0244271
1068.726 .0244286
1069.304 .0244301
1069.882 .0244315
1070.460 .0244330
1071.038 .0244348
1071.616 .0244370
1072.194 .0244396
1072.772 .0244427
1073.350 .0244463
1073.928 .0244504
1074.506 .0244548
1075.084 .0244598
1075.662 .0244652
1076.240 .0244711
1076.819 .0244776
1077.397 .0244847
1077.976 .0244922
1078.554 .0245003
1079.133 .0245088
1079.711 .0245175
1080.290 .0245264
1080.869 .0245354
1081.448 .0245444
1082.027 .0245534
1082.606 .0245625
1083.185 .0245718
1083.764 .0245814
1084.343 .0245913
1084.923 .0246018
1085.502 .0246127
1086.082 .0246243
1086.662 .0246366
1087.242 .0246495
1087.822 .0246631
1088.402 .0246773
1088.983 .0246921
1089.563 .0247073
1090.144 .0247231
1090.725 .0247391
1091.306 .0247555
1091.887 .0247722
1092.469 .0247892
1093.050 .0248064
1093.632 .0248240
1094.214 .0248418
1094.796 .0248600
1095.379 .0248785
1095.961 .0248972
1096.544 .0249161
1097.127 .0249351
1097.710 .0249542
1098.294 .0249735
1098.877 .0249929
1099.461 .0250124
1100.046 .0250321
1100.630 .0250518
1101.215 .0250714
1101.800 .0250907
1102.385 .0251095
1102.970 .0251275
1103.556 .0251448
1104.142 .0251612
1104.728 .0251770
1105.315 .0251925
1105.902 .0252079
1106.489 .0252238
1107.077 .0252402
1107.664 .0252574
1108.253 .0252755
1108.841 .0252944
1109.430 .0253139
1110.019 .0253338
1110.609 .0253543
1111.198 .0253752
1111.789 .0253968
1112.379 .0254193
1112.970 .0254430
1113.561 .0254679
1114.153 .0254942
1114.745 .0255219
1115.338 .0255507
1115.931 .0255807
1116.524 .0256116
1117.117 .0256432
1117.712 .0256757
1118.306 .0257094
1118.901 .0257447
1119.496 .0257820
1120.092 .0258217
1120.689 .0258640
1121.285 .0259089
1121.882 .0259564
1122.480 .0260061
1123.078 .0260578
1123.677 .0261115
1124.276 .0261669
1124.875 .0262242
1125.476 .0262833
1126.076 .0263446
1126.677 .0264083
1127.279 .0264745
1127.881 .0265433
1128.484 .0266147
1129.087 .0266438
1129.691 .0267188
1130.295 .0267962
1130.900 .0268761
1131.505 .0269589
1132.111 .0270447
1132.718 .0271338
1133.325 .0272267
1133.933 .0273249
1134.541 .0274271
1135.150 .0275340
1135.760 .0276388
1136.370 .0277541
1136.981 .0278277
1137.592 .0279426
1138.204 .0280586
1138.817 .0281770
1139.431 .0283035
1140.045 .0284359
1140.660 .0285704
1141.275 .0287148
1141.891 .0289033
1142.508 .0290543
1143.126 .0292239
1143.744 .0292151
1144.363 .0295611
1144.983 .0307868
