Measurement Sequence started on: 15-12-46-377
Integration time: 28
Scans to Average: 2 
>>>>>Begin Spectral Data<<<<<
432.689 .0000100
433.621 .0000100
434.552 .0000100
435.482 .0000100
436.410 .0000100
437.337 .0000100
438.262 .0291642
439.187 .0619012
440.110 .1025896
441.031 .1485348
441.952 .1192062
442.871 .1244768
443.789 .1293732
444.705 .1339710
445.621 .1383224
446.535 .1424654
447.447 .1448951
448.359 .1454457
449.269 .1437181
450.178 .1394526
451.086 .1327314
451.993 .1240649
452.898 .1142992
453.803 .1043929
454.706 .0951655
455.608 .0871276
456.508 .0804526
457.408 .0758942
458.306 .0723728
459.204 .0694954
460.100 .0670676
460.995 .0649790
461.888 .0631568
462.781 .0615513
463.673 .0601267
464.563 .0588561
465.452 .0577190
466.340 .0566977
467.228 .0557775
468.114 .0549467
468.999 .0541947
469.882 .0535116
470.765 .0528890
471.647 .0523192
472.528 .0517967
473.407 .0513161
474.286 .0508738
475.163 .0504673
476.040 .0500948
476.915 .0497543
477.790 .0494443
478.663 .0491630
479.535 .0489090
480.407 .0486809
481.277 .0484772
482.147 .0482965
483.015 .0481378
483.883 .0480004
484.749 .0478841
485.615 .0477892
486.479 .0477166
487.343 .0476666
488.206 .0476399
489.067 .0476366
489.928 .0476572
490.788 .0477021
491.647 .0477719
492.505 .0478671
493.362 .0479879
494.218 .0481347
495.073 .0483074
495.928 .0486596
496.781 .0488949
497.634 .0491534
498.486 .0494349
499.337 .0497398
500.187 .0500692
501.036 .0504245
501.884 .0508084
502.731 .0512236
503.578 .0516737
504.424 .0519669
505.268 .0524815
506.113 .0530407
506.956 .0536494
507.798 .0543145
508.640 .0550449
509.480 .0558513
510.320 .0567490
511.160 .0577539
511.998 .0588842
512.836 .0601602
513.672 .0616027
514.508 .0632354
515.344 .0650838
516.178 .0671728
517.012 .0695303
517.845 .0721824
518.677 .0751544
519.508 .0784643
520.339 .0821198
521.169 .0861227
521.998 .0904467
522.826 .0950515
523.654 .0998767
524.481 .1048450
525.307 .1098700
526.133 .1148513
526.958 .1196836
527.782 .1242645
528.605 .1284982
529.428 .1323026
530.250 .1356029
531.072 .1383499
531.892 .1405040
532.712 .1420383
533.532 .1429413
534.350 .1432057
535.168 .1428331
535.986 .1418293
536.802 .1402006
537.618 .1379621
538.434 .1351315
539.249 .1317526
540.063 .1278822
540.876 .1235936
541.689 .1189749
542.501 .1141185
543.313 .1091263
544.124 .1041029
544.934 .0991434
545.744 .0943331
546.553 .0897418
547.361 .0854284
548.169 .0814259
548.976 .0777557
549.783 .0744237
550.589 .0714205
551.395 .0687281
552.200 .0663191
553.004 .0641626
553.808 .0622312
554.611 .0604990
555.414 .0589425
556.216 .0575393
557.018 .0562684
557.819 .0551117
558.619 .0540522
559.419 .0530764
560.218 .0521725
561.017 .0513292
561.815 .0505381
562.613 .0497924
563.410 .0490855
564.207 .0484119
565.003 .0477672
565.799 .0471459
566.594 .0465436
567.388 .0459571
568.182 .0453836
568.976 .0448210
569.769 .0442685
570.562 .0437261
571.354 .0431938
572.145 .0426728
572.936 .0421638
573.727 .0416678
574.517 .0411855
575.307 .0407180
576.096 .0402654
576.885 .0398281
577.673 .0394067
578.461 .0390016
579.248 .0386134
580.035 .0382429
580.821 .0378907
581.607 .0375571
582.392 .0372426
583.177 .0369472
583.962 .0366705
584.746 .0364119
585.529 .0361708
586.313 .0359460
587.095 .0357364
587.878 .0355412
588.660 .0353597
589.441 .0351912
590.222 .0350352
591.003 .0348911
591.783 .0347582
592.563 .0346358
593.342 .0345230
594.121 .0344187
594.899 .0343221
595.678 .0342323
596.455 .0341481
597.233 .0340690
598.009 .0339943
598.786 .0339234
599.562 .0338560
600.338 .0337916
601.113 .0337299
601.888 .0336447
602.663 .0335882
603.437 .0335337
604.211 .0334810
604.984 .0334299
605.757 .0333805
606.530 .0333324
607.302 .0332857
608.074 .0332401
608.845 .0331959
609.616 .0331530
610.387 .0331351
611.158 .0330950
611.928 .0330566
612.697 .0330201
613.467 .0329855
614.236 .0329531
615.004 .0329228
615.773 .0328946
616.541 .0328683
617.308 .0328438
618.076 .0328210
618.843 .0327998
619.609 .0327800
620.375 .0327616
621.141 .0327444
621.907 .0327283
622.672 .0327129
623.437 .0326982
624.202 .0326839
624.966 .0326697
625.730 .0326554
626.493 .0326408
627.257 .0326257
628.020 .0326098
628.782 .0325931
629.545 .0325755
630.307 .0325568
631.068 .0325372
631.830 .0325165
632.591 .0324948
633.352 .0324721
634.112 .0324485
634.872 .0324242
635.632 .0323991
636.392 .0323733
637.151 .0323469
637.910 .0323200
638.668 .0322927
639.427 .0322652
640.185 .0322375
640.943 .0322099
641.700 .0321825
642.457 .0321552
643.214 .0321282
643.971 .0321015
644.727 .0320750
645.483 .0320486
646.239 .0320223
646.994 .0319958
647.750 .0319692
648.505 .0319422
649.259 .0319149
650.014 .0318871
650.768 .0318587
651.521 .0318297
652.275 .0317999
653.028 .0317694
653.781 .0317380
654.534 .0317057
655.286 .0316725
656.039 .0316382
656.791 .0316029
657.542 .0315666
658.294 .0315294
659.045 .0314915
659.796 .0314529
660.546 .0314139
661.297 .0313747
662.047 .0313352
662.796 .0312959
663.546 .0312566
664.295 .0312177
665.044 .0311791
665.793 .0311411
666.542 .0311036
667.290 .0310670
668.038 .0310312
668.786 .0309963
669.533 .0309625
670.281 .0309298
671.028 .0308981
671.774 .0308676
672.521 .0308382
673.267 .0308101
674.013 .0307830
674.759 .0307571
675.505 .0307323
676.250 .0307086
676.995 .0306858
677.740 .0306638
678.484 .0306427
679.229 .0306221
679.973 .0306021
680.717 .0305825
681.460 .0305634
682.204 .0305446
682.947 .0305262
683.690 .0305080
684.433 .0304901
685.175 .0304725
685.917 .0304551
686.659 .0304380
687.401 .0304211
688.142 .0304045
688.884 .0303882
689.625 .0303722
690.365 .0303564
691.106 .0303409
691.846 .0303257
692.586 .0303106
693.326 .0302958
694.066 .0302811
694.805 .0302667
695.545 .0302527
696.284 .0302390
697.022 .0302257
697.761 .0302130
698.499 .0302008
699.237 .0301891
699.975 .0301779
700.713 .0301671
701.450 .0301568
702.187 .0301468
702.924 .0301371
703.661 .0301278
704.397 .0301188
705.133 .0301101
705.869 .0301017
706.605 .0300935
707.341 .0300856
708.076 .0300777
708.811 .0300698
709.546 .0300618
710.281 .0300536
711.015 .0300451
711.749 .0300364
712.483 .0300272
713.217 .0300175
713.950 .0300073
714.684 .0299966
715.417 .0299852
716.150 .0299733
716.882 .0299607
717.615 .0299474
718.347 .0299336
719.079 .0299191
719.811 .0299039
720.542 .0298882
721.273 .0298718
722.005 .0298549
722.735 .0298375
723.466 .0298196
724.196 .0298013
724.927 .0297827
725.656 .0297638
726.386 .0297448
727.116 .0297257
727.845 .0297065
728.574 .0296872
729.303 .0296679
730.031 .0296486
730.760 .0296293
731.488 .0296099
732.216 .0295905
732.944 .0295711
733.671 .0295517
734.398 .0295323
735.125 .0295130
735.852 .0294936
736.579 .0294742
737.305 .0294548
738.031 .0294353
738.757 .0294157
739.483 .0293960
740.208 .0293761
740.933 .0293560
741.658 .0293356
742.383 .0293151
743.108 .0292943
743.832 .0292733
744.556 .0292522
745.280 .0292310
746.004 .0292095
746.727 .0291879
747.450 .0291660
748.173 .0291438
748.896 .0291213
749.618 .0290984
750.340 .0290752
751.062 .0290515
751.784 .0290274
752.506 .0290028
753.227 .0289779
753.948 .0289525
754.669 .0289267
755.389 .0289006
756.110 .0288743
756.830 .0288478
757.550 .0288212
758.269 .0287945
758.989 .0287679
759.708 .0287413
760.427 .0287148
761.146 .0286883
761.864 .0286620
762.582 .0286358
763.300 .0286098
764.018 .0285842
764.736 .0285590
765.453 .0285344
766.170 .0285104
766.887 .0284873
767.603 .0284650
768.320 .0284437
769.036 .0284234
769.751 .0284041
770.467 .0283858
771.182 .0283685
771.897 .0283521
772.612 .0283366
773.327 .0283221
774.041 .0283084
774.755 .0282957
775.469 .0282838
776.183 .0282728
776.896 .0282626
777.609 .0282534
778.322 .0282450
779.035 .0282374
779.747 .0282306
780.459 .0282245
781.171 .0282191
781.882 .0282142
782.594 .0282098
783.305 .0282059
784.016 .0282023
784.726 .0281991
785.436 .0281962
786.147 .0281930
786.856 .0281908
787.566 .0281888
788.275 .0281871
788.984 .0281856
789.693 .0281843
790.401 .0281831
791.110 .0281821
791.818 .0281812
792.525 .0281803
793.233 .0281794
793.940 .0281785
794.647 .0281781
795.353 .0281773
796.060 .0281764
796.766 .0281756
797.472 .0281748
798.177 .0281739
798.883 .0281730
799.588 .0281720
800.292 .0281709
800.997 .0281697
801.701 .0281685
802.405 .0281671
803.109 .0281656
803.812 .0281639
804.515 .0281621
805.218 .0281601
805.921 .0281579
806.623 .0281555
807.325 .0281528
808.027 .0281499
808.728 .0281468
809.429 .0281434
810.130 .0281399
810.831 .0281361
811.531 .0281323
812.231 .0281283
812.931 .0281241
813.630 .0281198
814.330 .0281155
815.029 .0281110
815.727 .0281066
816.426 .0281021
817.124 .0280977
817.821 .0280933
818.519 .0280891
819.216 .0280850
819.913 .0280810
820.609 .0280773
821.306 .0280738
822.002 .0280705
822.697 .0280675
823.393 .0280648
824.088 .0280624
824.783 .0280601
825.477 .0280581
826.171 .0280563
826.865 .0280545
827.559 .0280529
828.252 .0280514
828.945 .0280499
829.638 .0280483
830.330 .0280468
831.023 .0280451
831.714 .0280432
832.406 .0280412
833.097 .0280388
833.788 .0280362
834.479 .0280333
835.169 .0280301
835.859 .0280265
836.548 .0280226
837.238 .0280184
837.927 .0280137
838.615 .0280084
839.304 .0280026
839.992 .0279960
840.680 .0279888
841.367 .0279809
842.054 .0279724
842.741 .0279631
843.428 .0279531
844.114 .0279425
844.800 .0279311
845.485 .0279190
846.170 .0279060
846.855 .0278922
847.540 .0278774
848.224 .0278617
848.908 .0278450
849.592 .0278274
850.275 .0278089
850.958 .0277895
851.641 .0277691
852.323 .0277479
853.005 .0277257
853.687 .0277025
854.368 .0276785
855.049 .0276535
855.730 .0276278
856.410 .0276013
857.090 .0275741
857.769 .0275463
858.449 .0275179
859.128 .0274890
859.806 .0274595
860.485 .0274297
861.163 .0273994
861.840 .0273689
862.518 .0273381
863.195 .0273072
863.871 .0272762
864.548 .0272453
865.224 .0272145
865.899 .0271838
866.574 .0271534
867.249 .0271232
867.924 .0270934
868.598 .0270639
869.272 .0270348
869.946 .0270061
870.619 .0269778
871.292 .0269501
871.964 .0269230
872.636 .0268964
873.308 .0268704
873.979 .0268452
874.651 .0268206
875.321 .0267967
875.992 .0267736
876.662 .0267513
877.331 .0267297
878.001 .0267090
878.670 .0266891
879.338 .0266700
880.007 .0266516
880.675 .0266339
881.342 .0266170
882.009 .0266008
882.676 .0265854
883.343 .0265708
884.009 .0265571
884.675 .0265441
885.340 .0265320
886.005 .0265207
886.670 .0265100
887.334 .0265000
887.998 .0264905
888.662 .0264815
889.325 .0264730
889.988 .0264650
890.650 .0264574
891.312 .0264503
891.974 .0264437
892.636 .0264374
893.297 .0264315
893.957 .0264258
894.618 .0264203
895.278 .0264147
895.937 .0264091
896.596 .0264033
897.255 .0263974
897.914 .0263913
898.572 .0263850
899.230 .0263784
899.887 .0263714
900.544 .0263641
901.201 .0263562
901.857 .0263419
902.513 .0263325
903.168 .0263226
903.823 .0263122
904.478 .0263013
905.132 .0262899
905.786 .0262782
906.440 .0262661
907.093 .0262536
907.746 .0262408
908.399 .0262276
909.051 .0262142
909.703 .0262006
910.354 .0261938
911.005 .0261806
911.656 .0261674
912.306 .0261545
912.956 .0261419
913.605 .0261297
914.254 .0261179
914.903 .0261064
915.551 .0260954
916.199 .0260848
916.847 .0260747
917.494 .0260650
918.141 .0260559
918.788 .0260471
919.434 .0260388
920.079 .0260308
920.725 .0260231
921.370 .0260156
922.014 .0260084
922.658 .0260013
923.302 .0259944
923.946 .0259877
924.589 .0259811
925.231 .0259747
925.873 .0259684
926.515 .0259622
927.157 .0259562
927.798 .0259502
928.439 .0259443
929.079 .0259385
929.719 .0259329
930.359 .0259275
930.998 .0259224
931.637 .0259176
932.275 .0259133
932.913 .0259094
933.551 .0259059
934.188 .0259030
934.825 .0259005
935.462 .0258985
936.098 .0258972
936.733 .0258964
937.369 .0258963
938.004 .0258969
938.638 .0258983
939.273 .0259005
939.907 .0259036
940.540 .0259073
941.173 .0259119
941.806 .0259171
942.438 .0259228
943.070 .0259292
943.702 .0259360
944.333 .0259432
944.964 .0259508
945.594 .0259589
946.224 .0259672
946.854 .0259759
947.483 .0259847
948.112 .0259937
948.741 .0260027
949.369 .0260116
949.996 .0260204
950.624 .0260290
951.251 .0260374
951.878 .0260454
952.504 .0260531
953.130 .0260606
953.755 .0260678
954.380 .0260747
955.005 .0260814
955.629 .0260877
956.253 .0260938
956.877 .0260995
957.500 .0261048
958.123 .0261097
958.746 .0261143
959.368 .0261186
959.990 .0261225
960.611 .0261263
961.232 .0261298
961.853 .0261332
962.473 .0261362
963.093 .0261391
963.712 .0261415
964.331 .0261436
964.950 .0261453
965.569 .0261466
966.187 .0261475
966.804 .0261479
967.422 .0261479
968.039 .0261474
968.655 .0261466
969.272 .0261452
969.887 .0261435
970.503 .0261412
971.118 .0261385
971.733 .0261353
972.347 .0261315
972.961 .0261271
973.575 .0261222
974.188 .0261167
974.801 .0261105
975.414 .0261037
976.026 .0260962
976.638 .0260881
977.250 .0260792
977.861 .0260697
978.472 .0260593
979.083 .0260482
979.693 .0260364
980.303 .0260239
980.912 .0260026
981.521 .0259889
982.130 .0259747
982.738 .0259603
983.346 .0259456
983.954 .0259307
984.562 .0259157
985.169 .0259007
985.775 .0258856
986.382 .0258705
986.988 .0258555
987.594 .0258405
988.199 .0258257
988.804 .0258110
989.409 .0258047
990.013 .0257904
990.617 .0257761
991.221 .0257621
991.824 .0257481
992.427 .0257343
993.030 .0257207
993.632 .0257072
994.234 .0256940
994.836 .0256809
995.438 .0256682
996.039 .0256557
996.640 .0256436
997.240 .0256318
997.840 .0256204
998.440 .0256092
999.040 .0255982
999.639 .0255873
1000.238 .0255765
1000.836 .0255657
1001.435 .0255548
1002.033 .0255438
1002.630 .0255327
1003.228 .0255214
1003.825 .0255098
1004.422 .0254981
1005.018 .0254860
1005.614 .0254737
1006.210 .0254610
1006.806 .0254480
1007.401 .0254347
1007.996 .0254212
1008.591 .0254075
1009.186 .0253938
1009.780 .0253801
1010.374 .0253664
1010.967 .0253529
1011.561 .0253394
1012.154 .0253261
1012.746 .0253128
1013.339 .0252997
1013.931 .0252867
1014.523 .0252737
1015.115 .0252609
1015.706 .0252482
1016.298 .0252355
1016.888 .0252230
1017.479 .0252105
1018.069 .0251982
1018.660 .0251859
1019.250 .0251739
1019.839 .0251620
1020.429 .0251503
1021.018 .0251388
1021.607 .0251276
1022.195 .0251167
1022.784 .0251061
1023.372 .0250957
1023.960 .0250856
1024.547 .0250756
1025.135 .0250660
1025.722 .0250565
1026.309 .0250472
1026.896 .0250381
1027.483 .0250292
1028.069 .0250203
1028.655 .0250113
1029.241 .0250022
1029.827 .0249930
1030.412 .0249835
1030.997 .0249738
1031.582 .0249638
1032.167 .0249535
1032.752 .0249430
1033.336 .0249323
1033.921 .0249214
1034.505 .0249103
1035.089 .0248992
1035.672 .0248879
1036.256 .0248765
1036.839 .0248650
1037.422 .0248534
1038.005 .0248417
1038.588 .0248299
1039.171 .0248181
1039.753 .0248062
1040.335 .0247944
1040.918 .0247827
1041.500 .0247712
1042.081 .0247597
1042.663 .0247485
1043.244 .0247374
1043.826 .0247265
1044.407 .0247159
1044.988 .0247057
1045.569 .0246958
1046.150 .0246864
1046.730 .0246774
1047.311 .0246688
1047.891 .0246606
1048.471 .0246528
1049.052 .0246452
1049.632 .0246379
1050.211 .0246308
1050.791 .0246239
1051.371 .0246171
1051.950 .0246104
1052.530 .0246037
1053.109 .0245971
1053.688 .0245905
1054.268 .0245838
1054.847 .0245771
1055.426 .0245702
1056.005 .0245633
1056.583 .0245564
1057.162 .0245496
1057.741 .0245428
1058.319 .0245361
1058.898 .0245295
1059.476 .0245231
1060.055 .0245167
1060.633 .0245102
1061.211 .0245037
1061.790 .0244971
1062.368 .0244904
1062.946 .0244837
1063.524 .0244771
1064.102 .0244705
1064.680 .0244641
1065.258 .0244577
1065.836 .0244515
1066.414 .0244454
1066.992 .0244394
1067.570 .0244335
1068.148 .0244279
1068.726 .0244225
1069.304 .0244176
1069.882 .0244133
1070.460 .0244096
1071.038 .0244068
1071.616 .0244047
1072.194 .0244034
1072.772 .0244030
1073.350 .0244033
1073.928 .0244042
1074.506 .0244058
1075.084 .0244078
1075.662 .0244105
1076.240 .0244138
1076.819 .0244177
1077.397 .0244224
1077.976 .0244280
1078.554 .0244343
1079.133 .0244416
1079.711 .0244496
1080.290 .0244585
1080.869 .0244682
1081.448 .0244787
1082.027 .0244898
1082.606 .0245018
1083.185 .0245145
1083.764 .0245279
1084.343 .0245422
1084.923 .0245573
1085.502 .0245730
1086.082 .0245896
1086.662 .0246068
1087.242 .0246247
1087.822 .0246431
1088.402 .0246622
1088.983 .0246818
1089.563 .0247019
1090.144 .0247225
1090.725 .0247436
1091.306 .0247653
1091.887 .0247876
1092.469 .0248104
1093.050 .0248339
1093.632 .0248580
1094.214 .0248828
1094.796 .0249082
1095.379 .0249341
1095.961 .0249604
1096.544 .0249871
1097.127 .0250140
1097.710 .0250414
1098.294 .0250691
1098.877 .0250974
1099.461 .0251264
1100.046 .0251563
1100.630 .0251871
1101.215 .0252190
1101.800 .0252518
1102.385 .0252857
1102.970 .0253202
1103.556 .0253556
1104.142 .0253918
1104.728 .0254290
1105.315 .0254672
1105.902 .0255066
1106.489 .0255473
1107.077 .0255893
1107.664 .0256326
1108.253 .0256770
1108.841 .0257221
1109.430 .0257679
1110.019 .0258139
1110.609 .0258599
1111.198 .0259058
1111.789 .0259515
1112.379 .0259972
1112.970 .0260429
1113.561 .0260888
1114.153 .0261347
1114.745 .0261808
1115.338 .0262269
1115.931 .0262729
1116.524 .0263188
1117.117 .0263645
1117.712 .0264102
1118.306 .0264561
1118.901 .0265024
1119.496 .0265494
1120.092 .0265978
1120.689 .0266477
1121.285 .0266991
1121.882 .0267522
1122.480 .0268069
1123.078 .0268631
1123.677 .0269207
1124.276 .0269799
1124.875 .0270409
1125.476 .0271043
1126.076 .0271705
1126.677 .0272401
1127.279 .0273135
1127.881 .0273912
1128.484 .0274733
1129.087 .0275037
1129.691 .0275922
1130.295 .0276852
1130.900 .0277827
1131.505 .0278853
1132.111 .0279933
1132.718 .0281072
1133.325 .0282274
1133.933 .0283543
1134.541 .0284898
1135.150 .0286361
1135.760 .0287851
1136.370 .0289332
1136.981 .0289704
1137.592 .0291343
1138.204 .0292974
1138.817 .0294646
1139.431 .0296411
1140.045 .0298309
1140.660 .0300332
1141.275 .0302444
1141.891 .0304681
1142.508 .0307496
1143.126 .0310968
1143.744 .0312278
1144.363 .0312623
1144.983 .0316189
