Measurement Sequence started on: 15-12-46-377
Integration time: 28
Scans to Average: 2 
>>>>>Begin Spectral Data<<<<<
432.689 .0000100
433.621 .0000100
434.552 .0000100
435.482 .0000100
436.410 .0000100
437.337 .0000100
438.262 .0289169
439.187 .0613112
440.110 .1016456
441.031 .1472034
441.952 .1184841
442.871 .1237854
443.789 .1287193
444.705 .1333608
445.621 .1377587
446.535 .1419506
447.447 .1444426
448.359 .1450743
449.269 .1434477
450.178 .1393038
451.086 .1327213
451.993 .1242050
452.898 .1145890
453.803 .1048208
454.706 .0957094
455.608 .0877594
456.508 .0811428
457.408 .0766073
458.306 .0730814
459.204 .0701822
460.100 .0677180
460.995 .0655820
461.888 .0637026
462.781 .0620344
463.673 .0605428
464.563 .0592028
465.452 .0579945
466.340 .0569007
467.228 .0559081
468.114 .0550068
468.999 .0541881
469.882 .0534449
470.765 .0527709
471.647 .0521603
472.528 .0516076
473.407 .0511086
474.286 .0506593
475.163 .0502566
476.040 .0498971
476.915 .0495782
477.790 .0492963
478.663 .0490488
479.535 .0488331
480.407 .0486465
481.277 .0484869
482.147 .0483523
483.015 .0482404
483.883 .0481496
484.749 .0480783
485.615 .0480257
486.479 .0479912
487.343 .0479746
488.206 .0479754
489.067 .0479934
489.928 .0480288
490.788 .0480820
491.647 .0481533
492.505 .0482438
493.362 .0483538
494.218 .0484845
495.073 .0486363
495.928 .0489436
496.781 .0491509
497.634 .0493806
498.486 .0496330
499.337 .0499090
500.187 .0502094
501.036 .0505353
501.884 .0508890
502.731 .0512732
503.578 .0516904
504.424 .0519672
505.268 .0524447
506.113 .0529656
506.956 .0535342
507.798 .0541558
508.640 .0548382
509.480 .0555903
510.320 .0564243
511.160 .0573530
511.998 .0583935
512.836 .0595652
513.672 .0608881
514.508 .0623852
515.344 .0640806
516.178 .0659980
517.012 .0681622
517.845 .0705958
518.677 .0733188
519.508 .0763460
520.339 .0796825
521.169 .0833273
521.998 .0872560
522.826 .0914281
523.654 .0957848
524.481 .1002512
525.307 .1047419
526.133 .1091629
526.958 .1134181
527.782 .1174164
528.605 .1210774
529.428 .1243345
530.250 .1271284
531.072 .1294228
531.892 .1311913
532.712 .1324154
533.532 .1330874
534.350 .1332050
535.168 .1327698
535.986 .1317886
536.802 .1302691
537.618 .1282241
538.434 .1256695
539.249 .1226439
540.063 .1191981
540.876 .1153968
541.689 .1113206
542.501 .1070581
543.313 .1027018
544.124 .0983447
544.934 .0940712
545.744 .0899509
546.553 .0860372
547.361 .0823729
548.169 .0789776
548.976 .0758583
549.783 .0730119
550.589 .0704240
551.395 .0680738
552.200 .0659388
553.004 .0639928
553.808 .0622116
554.611 .0605767
555.414 .0590706
556.216 .0576771
557.018 .0563820
557.819 .0551750
558.619 .0540454
559.419 .0529845
560.218 .0519856
561.017 .0510418
561.815 .0501478
562.613 .0493009
563.410 .0484969
564.207 .0477325
565.003 .0470042
565.799 .0463080
566.594 .0456412
567.388 .0450021
568.182 .0443883
568.976 .0437975
569.769 .0432285
570.562 .0426807
571.354 .0421525
572.145 .0416432
572.936 .0411522
573.727 .0406786
574.517 .0402222
575.307 .0397823
576.096 .0393586
576.885 .0389511
577.673 .0385601
578.461 .0381858
579.248 .0378286
580.035 .0374889
580.821 .0371668
581.607 .0368622
582.392 .0365752
583.177 .0363053
583.962 .0360517
584.746 .0358139
585.529 .0355911
586.313 .0353823
587.095 .0351868
587.878 .0350043
588.660 .0348343
589.441 .0346765
590.222 .0345306
591.003 .0343962
591.783 .0342728
592.563 .0341596
593.342 .0340557
594.121 .0339599
594.899 .0338711
595.678 .0337883
596.455 .0337104
597.233 .0336368
598.009 .0335670
598.786 .0335006
599.562 .0334375
600.338 .0333775
601.113 .0333203
601.888 .0332425
602.663 .0331912
603.437 .0331418
604.211 .0330943
604.984 .0330485
605.757 .0330043
606.530 .0329617
607.302 .0329208
608.074 .0328815
608.845 .0328440
609.616 .0328080
610.387 .0327938
611.158 .0327601
611.928 .0327278
612.697 .0326969
613.467 .0326674
614.236 .0326391
615.004 .0326120
615.773 .0325859
616.541 .0325608
617.308 .0325365
618.076 .0325128
618.843 .0324896
619.609 .0324669
620.375 .0324444
621.141 .0324220
621.907 .0323998
622.672 .0323774
623.437 .0323549
624.202 .0323321
624.966 .0323090
625.730 .0322854
626.493 .0322614
627.257 .0322369
628.020 .0322121
628.782 .0321870
629.545 .0321615
630.307 .0321356
631.068 .0321094
631.830 .0320828
632.591 .0320559
633.352 .0320287
634.112 .0320014
634.872 .0319741
635.632 .0319468
636.392 .0319197
637.151 .0318929
637.910 .0318667
638.668 .0318409
639.427 .0318157
640.185 .0317909
640.943 .0317665
641.700 .0317426
642.457 .0317191
643.214 .0316959
643.971 .0316732
644.727 .0316508
645.483 .0316287
646.239 .0316069
646.994 .0315853
647.750 .0315640
648.505 .0315427
649.259 .0315216
650.014 .0315004
650.768 .0314791
651.521 .0314576
652.275 .0314359
653.028 .0314139
653.781 .0313915
654.534 .0313687
655.286 .0313453
656.039 .0313214
656.791 .0312969
657.542 .0312717
658.294 .0312459
659.045 .0312194
659.796 .0311923
660.546 .0311645
661.297 .0311361
662.047 .0311071
662.796 .0310775
663.546 .0310475
664.295 .0310169
665.044 .0309859
665.793 .0309545
666.542 .0309229
667.290 .0308912
668.038 .0308594
668.786 .0308278
669.533 .0307964
670.281 .0307653
671.028 .0307345
671.774 .0307041
672.521 .0306741
673.267 .0306445
674.013 .0306154
674.759 .0305869
675.505 .0305591
676.250 .0305321
676.995 .0305059
677.740 .0304806
678.484 .0304561
679.229 .0304325
679.973 .0304096
680.717 .0303874
681.460 .0303658
682.204 .0303448
682.947 .0303244
683.690 .0303045
684.433 .0302850
685.175 .0302660
685.917 .0302474
686.659 .0302289
687.401 .0302106
688.142 .0301923
688.884 .0301740
689.625 .0301555
690.365 .0301367
691.106 .0301178
691.846 .0300985
692.586 .0300789
693.326 .0300590
694.066 .0300387
694.805 .0300181
695.545 .0299973
696.284 .0299762
697.022 .0299551
697.761 .0299340
698.499 .0299130
699.237 .0298921
699.975 .0298715
700.713 .0298511
701.450 .0298310
702.187 .0298112
702.924 .0297918
703.661 .0297727
704.397 .0297541
705.133 .0297361
705.869 .0297186
706.605 .0297017
707.341 .0296854
708.076 .0296698
708.811 .0296548
709.546 .0296403
710.281 .0296263
711.015 .0296128
711.749 .0295997
712.483 .0295870
713.217 .0295745
713.950 .0295623
714.684 .0295503
715.417 .0295383
716.150 .0295264
716.882 .0295144
717.615 .0295023
718.347 .0294901
719.079 .0294777
719.811 .0294651
720.542 .0294522
721.273 .0294390
722.005 .0294255
722.735 .0294116
723.466 .0293974
724.196 .0293829
724.927 .0293681
725.656 .0293532
726.386 .0293382
727.116 .0293232
727.845 .0293082
728.574 .0292932
729.303 .0292784
730.031 .0292636
730.760 .0292489
731.488 .0292343
732.216 .0292199
732.944 .0292058
733.671 .0291918
734.398 .0291782
735.125 .0291648
735.852 .0291517
736.579 .0291388
737.305 .0291262
738.031 .0291137
738.757 .0291014
739.483 .0290893
740.208 .0290773
740.933 .0290655
741.658 .0290537
742.383 .0290419
743.108 .0290302
743.832 .0290183
744.556 .0290062
745.280 .0289940
746.004 .0289815
746.727 .0289687
747.450 .0289556
748.173 .0289422
748.896 .0289284
749.618 .0289142
750.340 .0288995
751.062 .0288843
751.784 .0288686
752.506 .0288523
753.227 .0288354
753.948 .0288179
754.669 .0287999
755.389 .0287813
756.110 .0287621
756.830 .0287423
757.550 .0287219
758.269 .0287009
758.989 .0286792
759.708 .0286569
760.427 .0286340
761.146 .0286106
761.864 .0285866
762.582 .0285622
763.300 .0285374
764.018 .0285123
764.736 .0284871
765.453 .0284617
766.170 .0284364
766.887 .0284111
767.603 .0283859
768.320 .0283610
769.036 .0283364
769.751 .0283123
770.467 .0282886
771.182 .0282657
771.897 .0282434
772.612 .0282220
773.327 .0282015
774.041 .0281819
774.755 .0281633
775.469 .0281456
776.183 .0281289
776.896 .0281131
777.609 .0280982
778.322 .0280842
779.035 .0280711
779.747 .0280589
780.459 .0280475
781.171 .0280369
781.882 .0280270
782.594 .0280178
783.305 .0280090
784.016 .0280006
784.726 .0279924
785.436 .0279844
786.147 .0279725
786.856 .0279645
787.566 .0279565
788.275 .0279484
788.984 .0279402
789.693 .0279318
790.401 .0279234
791.110 .0279147
791.818 .0279060
792.525 .0278971
793.233 .0278882
793.940 .0278793
794.647 .0278746
795.353 .0278659
796.060 .0278574
796.766 .0278490
797.472 .0278407
798.177 .0278325
798.883 .0278243
799.588 .0278162
800.292 .0278082
800.997 .0278003
801.701 .0277926
802.405 .0277851
803.109 .0277777
803.812 .0277704
804.515 .0277632
805.218 .0277561
805.921 .0277491
806.623 .0277420
807.325 .0277350
808.027 .0277280
808.728 .0277211
809.429 .0277143
810.130 .0277077
810.831 .0277014
811.531 .0276952
812.231 .0276892
812.931 .0276834
813.630 .0276776
814.330 .0276719
815.029 .0276664
815.727 .0276608
816.426 .0276555
817.124 .0276502
817.821 .0276452
818.519 .0276404
819.216 .0276360
819.913 .0276319
820.609 .0276281
821.306 .0276248
822.002 .0276220
822.697 .0276196
823.393 .0276178
824.088 .0276165
824.783 .0276157
825.477 .0276154
826.171 .0276155
826.865 .0276159
827.559 .0276166
828.252 .0276175
828.945 .0276186
829.638 .0276197
830.330 .0276208
831.023 .0276218
831.714 .0276228
832.406 .0276236
833.097 .0276242
833.788 .0276246
834.479 .0276248
835.169 .0276248
835.859 .0276245
836.548 .0276240
837.238 .0276233
837.927 .0276222
838.615 .0276208
839.304 .0276191
839.992 .0276170
840.680 .0276144
841.367 .0276115
842.054 .0276081
842.741 .0276043
843.428 .0276001
844.114 .0275954
844.800 .0275903
845.485 .0275846
846.170 .0275782
846.855 .0275712
847.540 .0275635
848.224 .0275551
848.908 .0275461
849.592 .0275363
850.275 .0275258
850.958 .0275147
851.641 .0275028
852.323 .0274902
853.005 .0274768
853.687 .0274626
854.368 .0274476
855.049 .0274318
855.730 .0274152
856.410 .0273978
857.090 .0273797
857.769 .0273610
858.449 .0273415
859.128 .0273215
859.806 .0273008
860.485 .0272797
861.163 .0272582
861.840 .0272364
862.518 .0272143
863.195 .0271921
863.871 .0271698
864.548 .0271476
865.224 .0271254
865.899 .0271033
866.574 .0270813
867.249 .0270594
867.924 .0270376
868.598 .0270160
869.272 .0269945
869.946 .0269733
870.619 .0269524
871.292 .0269318
871.964 .0269114
872.636 .0268914
873.308 .0268717
873.979 .0268524
874.651 .0268333
875.321 .0268145
875.992 .0267961
876.662 .0267778
877.331 .0267599
878.001 .0267422
878.670 .0267247
879.338 .0267074
880.007 .0266903
880.675 .0266735
881.342 .0266569
882.009 .0266406
882.676 .0266245
883.343 .0266089
884.009 .0265936
884.675 .0265788
885.340 .0265645
886.005 .0265506
886.670 .0265371
887.334 .0265240
887.998 .0265113
888.662 .0264988
889.325 .0264867
889.988 .0264749
890.650 .0264634
891.312 .0264521
891.974 .0264410
892.636 .0264301
893.297 .0264193
893.957 .0264086
894.618 .0263978
895.278 .0263869
895.937 .0263758
896.596 .0263643
897.255 .0263526
897.914 .0263404
898.572 .0263279
899.230 .0263148
899.887 .0263013
900.544 .0262872
901.201 .0262725
901.857 .0262474
902.513 .0262310
903.168 .0262139
903.823 .0261962
904.478 .0261777
905.132 .0261586
905.786 .0261389
906.440 .0261188
907.093 .0260981
907.746 .0260771
908.399 .0260558
909.051 .0260344
909.703 .0260128
910.354 .0260023
911.005 .0259811
911.656 .0259601
912.306 .0259393
912.956 .0259189
913.605 .0258989
914.254 .0258794
914.903 .0258603
915.551 .0258417
916.199 .0258236
916.847 .0258059
917.494 .0257887
918.141 .0257719
918.788 .0257555
919.434 .0257395
920.079 .0257240
920.725 .0257089
921.370 .0256943
922.014 .0256801
922.658 .0256662
923.302 .0256527
923.946 .0256394
924.589 .0256264
925.231 .0256137
925.873 .0256011
926.515 .0255888
927.157 .0255766
927.798 .0255647
928.439 .0255530
929.079 .0255415
929.719 .0255302
930.359 .0255191
930.998 .0255082
931.637 .0254977
932.275 .0254875
932.913 .0254777
933.551 .0254684
934.188 .0254598
934.825 .0254518
935.462 .0254446
936.098 .0254381
936.733 .0254324
937.369 .0254275
938.004 .0254233
938.638 .0254200
939.273 .0254174
939.907 .0254157
940.540 .0254149
941.173 .0254149
941.806 .0254159
942.438 .0254176
943.070 .0254201
943.702 .0254232
944.333 .0254270
944.964 .0254314
945.594 .0254363
946.224 .0254416
946.854 .0254473
947.483 .0254534
948.112 .0254598
948.741 .0254664
949.369 .0254733
949.996 .0254803
950.624 .0254874
951.251 .0254944
951.878 .0255013
952.504 .0255081
953.130 .0255147
953.755 .0255211
954.380 .0255272
955.005 .0255330
955.629 .0255386
956.253 .0255440
956.877 .0255490
957.500 .0255538
958.123 .0255583
958.746 .0255626
959.368 .0255667
959.990 .0255705
960.611 .0255743
961.232 .0255780
961.853 .0255816
962.473 .0255851
963.093 .0255886
963.712 .0255920
964.331 .0255952
964.950 .0255983
965.569 .0256011
966.187 .0256037
966.804 .0256060
967.422 .0256079
968.039 .0256096
968.655 .0256110
969.272 .0256121
969.887 .0256129
970.503 .0256135
971.118 .0256139
971.733 .0256139
972.347 .0256136
972.961 .0256129
973.575 .0256118
974.188 .0256102
974.801 .0256081
975.414 .0256055
976.026 .0256024
976.638 .0255988
977.250 .0255947
977.861 .0255902
978.472 .0255851
979.083 .0255797
979.693 .0255737
980.303 .0255672
980.912 .0255556
981.521 .0255478
982.130 .0255396
982.738 .0255311
983.346 .0255223
983.954 .0255134
984.562 .0255044
985.169 .0254954
985.775 .0254865
986.382 .0254777
986.988 .0254690
987.594 .0254604
988.199 .0254520
988.804 .0254437
989.409 .0254405
990.013 .0254326
990.617 .0254250
991.221 .0254177
991.824 .0254107
992.427 .0254039
993.030 .0253974
993.632 .0253910
994.234 .0253847
994.836 .0253784
995.438 .0253722
996.039 .0253661
996.640 .0253601
997.240 .0253544
997.840 .0253490
998.440 .0253440
999.040 .0253394
999.639 .0253353
1000.238 .0253316
1000.836 .0253284
1001.435 .0253254
1002.033 .0253226
1002.630 .0253200
1003.228 .0253173
1003.825 .0253146
1004.422 .0253118
1005.018 .0253088
1005.614 .0253057
1006.210 .0253022
1006.806 .0252986
1007.401 .0252946
1007.996 .0252903
1008.591 .0252857
1009.186 .0252807
1009.780 .0252753
1010.374 .0252696
1010.967 .0252636
1011.561 .0252574
1012.154 .0252511
1012.746 .0252448
1013.339 .0252385
1013.931 .0252323
1014.523 .0252262
1015.115 .0252202
1015.706 .0252142
1016.298 .0252082
1016.888 .0252021
1017.479 .0251958
1018.069 .0251892
1018.660 .0251825
1019.250 .0251756
1019.839 .0251685
1020.429 .0251613
1021.018 .0251540
1021.607 .0251466
1022.195 .0251392
1022.784 .0251318
1023.372 .0251245
1023.960 .0251173
1024.547 .0251103
1025.135 .0251037
1025.722 .0250973
1026.309 .0250914
1026.896 .0250857
1027.483 .0250804
1028.069 .0250753
1028.655 .0250702
1029.241 .0250652
1029.827 .0250601
1030.412 .0250549
1030.997 .0250497
1031.582 .0250444
1032.167 .0250389
1032.752 .0250333
1033.336 .0250275
1033.921 .0250214
1034.505 .0250149
1035.089 .0250081
1035.672 .0250009
1036.256 .0249932
1036.839 .0249852
1037.422 .0249769
1038.005 .0249683
1038.588 .0249596
1039.171 .0249507
1039.753 .0249417
1040.335 .0249325
1040.918 .0249231
1041.500 .0249133
1042.081 .0249032
1042.663 .0248926
1043.244 .0248817
1043.826 .0248703
1044.407 .0248586
1044.988 .0248467
1045.569 .0248346
1046.150 .0248223
1046.730 .0248099
1047.311 .0247973
1047.891 .0247845
1048.471 .0247715
1049.052 .0247583
1049.632 .0247450
1050.211 .0247314
1050.791 .0247178
1051.371 .0247041
1051.950 .0246903
1052.530 .0246765
1053.109 .0246627
1053.688 .0246490
1054.268 .0246354
1054.847 .0246220
1055.426 .0246087
1056.005 .0245956
1056.583 .0245827
1057.162 .0245701
1057.741 .0245579
1058.319 .0245460
1058.898 .0245346
1059.476 .0245236
1060.055 .0245132
1060.633 .0245034
1061.211 .0244943
1061.790 .0244860
1062.368 .0244785
1062.946 .0244716
1063.524 .0244655
1064.102 .0244599
1064.680 .0244548
1065.258 .0244501
1065.836 .0244458
1066.414 .0244419
1066.992 .0244383
1067.570 .0244352
1068.148 .0244325
1068.726 .0244304
1069.304 .0244289
1069.882 .0244280
1070.460 .0244277
1071.038 .0244280
1071.616 .0244290
1072.194 .0244304
1072.772 .0244323
1073.350 .0244346
1073.928 .0244373
1074.506 .0244404
1075.084 .0244438
1075.662 .0244475
1076.240 .0244514
1076.819 .0244554
1077.397 .0244593
1077.976 .0244631
1078.554 .0244666
1079.133 .0244696
1079.711 .0244721
1080.290 .0244740
1080.869 .0244755
1081.448 .0244764
1082.027 .0244771
1082.606 .0244774
1083.185 .0244776
1083.764 .0244777
1084.343 .0244778
1084.923 .0244781
1085.502 .0244787
1086.082 .0244797
1086.662 .0244811
1087.242 .0244832
1087.822 .0244860
1088.402 .0244894
1088.983 .0244937
1089.563 .0244988
1090.144 .0245049
1090.725 .0245120
1091.306 .0245202
1091.887 .0245295
1092.469 .0245402
1093.050 .0245523
1093.632 .0245660
1094.214 .0245811
1094.796 .0245979
1095.379 .0246161
1095.961 .0246358
1096.544 .0246568
1097.127 .0246792
1097.710 .0247029
1098.294 .0247280
1098.877 .0247543
1099.461 .0247820
1100.046 .0248108
1100.630 .0248409
1101.215 .0248722
1101.800 .0249046
1102.385 .0249380
1102.970 .0249724
1103.556 .0250075
1104.142 .0250435
1104.728 .0250802
1105.315 .0251175
1105.902 .0251556
1106.489 .0251941
1107.077 .0252331
1107.664 .0252723
1108.253 .0253117
1108.841 .0253509
1109.430 .0253901
1110.019 .0254291
1110.609 .0254678
1111.198 .0255062
1111.789 .0255445
1112.379 .0255826
1112.970 .0256208
1113.561 .0256591
1114.153 .0256978
1114.745 .0257372
1115.338 .0257775
1115.931 .0258193
1116.524 .0258630
1117.117 .0259088
1117.712 .0259570
1118.306 .0260075
1118.901 .0260605
1119.496 .0261156
1120.092 .0261727
1120.689 .0262314
1121.285 .0262917
1121.882 .0263534
1122.480 .0264168
1123.078 .0264819
1123.677 .0265492
1124.276 .0266189
1124.875 .0266910
1125.476 .0267657
1126.076 .0268430
1126.677 .0269229
1127.279 .0270058
1127.881 .0270916
1128.484 .0271805
1129.087 .0272188
1129.691 .0273132
1130.295 .0274118
1130.900 .0275148
1131.505 .0276224
1132.111 .0277347
1132.718 .0278515
1133.325 .0279728
1133.933 .0280969
1134.541 .0282250
1135.150 .0283567
1135.760 .0284972
1136.370 .0286410
1136.981 .0286493
1137.592 .0287913
1138.204 .0289436
1138.817 .0291076
1139.431 .0292776
1140.045 .0294552
1140.660 .0296433
1141.275 .0298388
1141.891 .0300011
1142.508 .0302074
1143.126 .0304051
1143.744 .0307583
1144.363 .0309546
1144.983 .0300167
