Measurement Sequence started on: 15-12-46-377
Integration time: 28
Scans to Average: 2 
>>>>>Begin Spectral Data<<<<<
432.689 .0000100
433.621 .0000100
434.552 .0000100
435.482 .0000100
436.410 .0000100
437.337 .0000100
438.262 .0276123
439.187 .0582818
440.110 .0964424
441.031 .1395329
441.952 .1123483
442.871 .1174257
443.789 .1221611
444.705 .1266239
445.621 .1308626
446.535 .1349139
447.447 .1373521
448.359 .1380360
449.269 .1365876
450.178 .1327605
451.086 .1266326
451.993 .1186787
452.898 .1096892
453.803 .1005576
454.706 .0920459
455.608 .0846274
456.508 .0784622
457.408 .0742643
458.306 .0710072
459.204 .0683343
460.100 .0660696
460.995 .0641123
461.888 .0623956
462.781 .0608734
463.673 .0595118
464.563 .0582866
465.452 .0571798
466.340 .0561770
467.228 .0552678
468.114 .0544429
468.999 .0536952
469.882 .0530161
470.765 .0523987
471.647 .0518373
472.528 .0513258
473.407 .0508596
474.286 .0504340
475.163 .0500466
476.040 .0496941
476.915 .0493745
477.790 .0490854
478.663 .0488256
479.535 .0485936
480.407 .0483883
481.277 .0482073
482.147 .0480491
483.015 .0479120
483.883 .0477944
484.749 .0476949
485.615 .0476133
486.479 .0475492
487.343 .0475033
488.206 .0474766
489.067 .0474702
489.928 .0474853
490.788 .0475240
491.647 .0475870
492.505 .0476754
493.362 .0477888
494.218 .0479266
495.073 .0480877
495.928 .0484134
496.781 .0486292
497.634 .0488662
498.486 .0491255
499.337 .0494083
500.187 .0497167
501.036 .0500522
501.884 .0504173
502.731 .0508140
503.578 .0512435
504.424 .0515208
505.268 .0520056
506.113 .0525289
506.956 .0530941
507.798 .0537067
508.640 .0543746
509.480 .0551081
510.320 .0559208
511.160 .0568268
511.998 .0578434
512.836 .0589910
513.672 .0602892
514.508 .0617580
515.344 .0634169
516.178 .0652834
517.012 .0673762
517.845 .0697140
518.677 .0723120
519.508 .0751846
520.339 .0783398
521.169 .0817854
521.998 .0855029
522.826 .0894637
523.654 .0936200
524.481 .0979110
525.307 .1022605
526.133 .1065800
526.958 .1107748
527.782 .1147567
528.605 .1184438
529.428 .1217670
530.250 .1246619
531.072 .1270901
531.892 .1290187
532.712 .1304281
533.532 .1313050
534.350 .1316460
535.168 .1314494
535.986 .1307212
536.802 .1294637
537.618 .1276857
538.434 .1253948
539.249 .1226255
540.063 .1194215
540.876 .1158422
541.689 .1119572
542.501 .1078476
543.313 .1036016
544.124 .0993117
544.934 .0950586
545.744 .0909155
546.553 .0869392
547.361 .0831802
548.169 .0796612
548.976 .0763997
549.783 .0733998
550.589 .0706598
551.395 .0681659
552.200 .0659013
553.004 .0638438
553.808 .0619739
554.611 .0602722
555.414 .0587207
556.216 .0573006
557.018 .0559941
557.819 .0547862
558.619 .0536643
559.419 .0526170
560.218 .0516371
561.017 .0507157
561.815 .0498467
562.613 .0490248
563.410 .0482450
564.207 .0475011
565.003 .0467888
565.799 .0461042
566.594 .0454430
567.388 .0448023
568.182 .0441801
568.976 .0435757
569.769 .0429888
570.562 .0424205
571.354 .0418713
572.145 .0413424
572.936 .0408346
573.727 .0403475
574.517 .0398806
575.307 .0394340
576.096 .0390066
576.885 .0385976
577.673 .0382071
578.461 .0378353
579.248 .0374821
580.035 .0371481
580.821 .0368335
581.607 .0365384
582.392 .0362620
583.177 .0360040
583.962 .0357633
584.746 .0355389
585.529 .0353298
586.313 .0351348
587.095 .0349531
587.878 .0347841
588.660 .0346272
589.441 .0344817
590.222 .0343473
591.003 .0342234
591.783 .0341089
592.563 .0340029
593.342 .0339043
594.121 .0338120
594.899 .0337251
595.678 .0336427
596.455 .0335641
597.233 .0334890
598.009 .0334172
598.786 .0333485
599.562 .0332830
600.338 .0332203
601.113 .0331603
601.888 .0330769
602.663 .0330217
603.437 .0329680
604.211 .0329156
604.984 .0328644
605.757 .0328141
606.530 .0327650
607.302 .0327170
608.074 .0326705
608.845 .0326254
609.616 .0325821
610.387 .0325642
611.158 .0325237
611.928 .0324850
612.697 .0324482
613.467 .0324133
614.236 .0323802
615.004 .0323487
615.773 .0323189
616.541 .0322905
617.308 .0322634
618.076 .0322377
618.843 .0322133
619.609 .0321900
620.375 .0321677
621.141 .0321463
621.907 .0321256
622.672 .0321055
623.437 .0320858
624.202 .0320663
624.966 .0320468
625.730 .0320273
626.493 .0320075
627.257 .0319875
628.020 .0319673
628.782 .0319467
629.545 .0319258
630.307 .0319046
631.068 .0318830
631.830 .0318610
632.591 .0318388
633.352 .0318163
634.112 .0317935
634.872 .0317707
635.632 .0317477
636.392 .0317247
637.151 .0317018
637.910 .0316790
638.668 .0316564
639.427 .0316339
640.185 .0316116
640.943 .0315894
641.700 .0315672
642.457 .0315452
643.214 .0315234
643.971 .0315019
644.727 .0314805
645.483 .0314594
646.239 .0314385
646.994 .0314176
647.750 .0313968
648.505 .0313759
649.259 .0313548
650.014 .0313333
650.768 .0313115
651.521 .0312893
652.275 .0312668
653.028 .0312438
653.781 .0312205
654.534 .0311969
655.286 .0311731
656.039 .0311491
656.791 .0311250
657.542 .0311008
658.294 .0310766
659.045 .0310523
659.796 .0310282
660.546 .0310040
661.297 .0309799
662.047 .0309558
662.796 .0309316
663.546 .0309074
664.295 .0308832
665.044 .0308591
665.793 .0308350
666.542 .0308109
667.290 .0307869
668.038 .0307629
668.786 .0307388
669.533 .0307146
670.281 .0306902
671.028 .0306657
671.774 .0306411
672.521 .0306162
673.267 .0305914
674.013 .0305666
674.759 .0305418
675.505 .0305170
676.250 .0304923
676.995 .0304675
677.740 .0304426
678.484 .0304177
679.229 .0303927
679.973 .0303676
680.717 .0303424
681.460 .0303172
682.204 .0302920
682.947 .0302668
683.690 .0302415
684.433 .0302162
685.175 .0301909
685.917 .0301657
686.659 .0301404
687.401 .0301151
688.142 .0300900
688.884 .0300649
689.625 .0300399
690.365 .0300149
691.106 .0299899
691.846 .0299649
692.586 .0299400
693.326 .0299152
694.066 .0298906
694.805 .0298663
695.545 .0298423
696.284 .0298187
697.022 .0297956
697.761 .0297730
698.499 .0297510
699.237 .0297295
699.975 .0297085
700.713 .0296880
701.450 .0296681
702.187 .0296488
702.924 .0296300
703.661 .0296119
704.397 .0295944
705.133 .0295775
705.869 .0295612
706.605 .0295453
707.341 .0295299
708.076 .0295150
708.811 .0295004
709.546 .0294860
710.281 .0294719
711.015 .0294579
711.749 .0294441
712.483 .0294305
713.217 .0294170
713.950 .0294036
714.684 .0293903
715.417 .0293769
716.150 .0293635
716.882 .0293501
717.615 .0293367
718.347 .0293232
719.079 .0293098
719.811 .0292964
720.542 .0292831
721.273 .0292699
722.005 .0292569
722.735 .0292442
723.466 .0292316
724.196 .0292192
724.927 .0292070
725.656 .0291950
726.386 .0291833
727.116 .0291718
727.845 .0291607
728.574 .0291498
729.303 .0291393
730.031 .0291291
730.760 .0291192
731.488 .0291096
732.216 .0291003
732.944 .0290913
733.671 .0290823
734.398 .0290735
735.125 .0290647
735.852 .0290558
736.579 .0290469
737.305 .0290378
738.031 .0290286
738.757 .0290193
739.483 .0290097
740.208 .0290000
740.933 .0289901
741.658 .0289800
742.383 .0289696
743.108 .0289590
743.832 .0289482
744.556 .0289371
745.280 .0289257
746.004 .0289139
746.727 .0289017
747.450 .0288890
748.173 .0288757
748.896 .0288619
749.618 .0288474
750.340 .0288322
751.062 .0288164
751.784 .0288000
752.506 .0287830
753.227 .0287654
753.948 .0287472
754.669 .0287285
755.389 .0287092
756.110 .0286892
756.830 .0286687
757.550 .0286475
758.269 .0286258
758.989 .0286035
759.708 .0285808
760.427 .0285575
761.146 .0285340
761.864 .0285102
762.582 .0284861
763.300 .0284619
764.018 .0284376
764.736 .0284132
765.453 .0283888
766.170 .0283644
766.887 .0283401
767.603 .0283159
768.320 .0282919
769.036 .0282682
769.751 .0282446
770.467 .0282214
771.182 .0281985
771.897 .0281759
772.612 .0281538
773.327 .0281321
774.041 .0281110
774.755 .0280903
775.469 .0280703
776.183 .0280509
776.896 .0280321
777.609 .0280139
778.322 .0279963
779.035 .0279793
779.747 .0279628
780.459 .0279468
781.171 .0279315
781.882 .0279167
782.594 .0279027
783.305 .0278893
784.016 .0278765
784.726 .0278644
785.436 .0278528
786.147 .0278373
786.856 .0278264
787.566 .0278158
788.275 .0278053
788.984 .0277950
789.693 .0277848
790.401 .0277747
791.110 .0277646
791.818 .0277545
792.525 .0277443
793.233 .0277339
793.940 .0277234
794.647 .0277171
795.353 .0277063
796.060 .0276954
796.766 .0276843
797.472 .0276730
798.177 .0276616
798.883 .0276499
799.588 .0276380
800.292 .0276258
800.997 .0276133
801.701 .0276006
802.405 .0275879
803.109 .0275751
803.812 .0275624
804.515 .0275497
805.218 .0275372
805.921 .0275249
806.623 .0275126
807.325 .0275003
808.027 .0274882
808.728 .0274762
809.429 .0274643
810.130 .0274526
810.831 .0274412
811.531 .0274301
812.231 .0274194
812.931 .0274091
813.630 .0273991
814.330 .0273896
815.029 .0273804
815.727 .0273718
816.426 .0273637
817.124 .0273561
817.821 .0273492
818.519 .0273429
819.216 .0273374
819.913 .0273325
820.609 .0273284
821.306 .0273250
822.002 .0273225
822.697 .0273207
823.393 .0273198
824.088 .0273197
824.783 .0273205
825.477 .0273221
826.171 .0273244
826.865 .0273273
827.559 .0273308
828.252 .0273346
828.945 .0273389
829.638 .0273434
830.330 .0273483
831.023 .0273535
831.714 .0273588
832.406 .0273644
833.097 .0273701
833.788 .0273758
834.479 .0273814
835.169 .0273870
835.859 .0273924
836.548 .0273976
837.238 .0274025
837.927 .0274071
838.615 .0274113
839.304 .0274151
839.992 .0274183
840.680 .0274210
841.367 .0274230
842.054 .0274244
842.741 .0274252
843.428 .0274255
844.114 .0274252
844.800 .0274244
845.485 .0274230
846.170 .0274209
846.855 .0274181
847.540 .0274144
848.224 .0274098
848.908 .0274043
849.592 .0273978
850.275 .0273904
850.958 .0273820
851.641 .0273728
852.323 .0273627
853.005 .0273517
853.687 .0273399
854.368 .0273271
855.049 .0273134
855.730 .0272987
856.410 .0272831
857.090 .0272666
857.769 .0272494
858.449 .0272314
859.128 .0272130
859.806 .0271940
860.485 .0271748
861.163 .0271552
861.840 .0271355
862.518 .0271158
863.195 .0270961
863.871 .0270765
864.548 .0270571
865.224 .0270380
865.899 .0270191
866.574 .0270005
867.249 .0269821
867.924 .0269641
868.598 .0269463
869.272 .0269288
869.946 .0269116
870.619 .0268947
871.292 .0268780
871.964 .0268616
872.636 .0268454
873.308 .0268293
873.979 .0268133
874.651 .0267973
875.321 .0267812
875.992 .0267651
876.662 .0267489
877.331 .0267327
878.001 .0267163
878.670 .0266999
879.338 .0266833
880.007 .0266667
880.675 .0266500
881.342 .0266331
882.009 .0266163
882.676 .0265994
883.343 .0265825
884.009 .0265656
884.675 .0265489
885.340 .0265323
886.005 .0265159
886.670 .0264996
887.334 .0264835
887.998 .0264675
888.662 .0264517
889.325 .0264362
889.988 .0264209
890.650 .0264060
891.312 .0263915
891.974 .0263774
892.636 .0263637
893.297 .0263502
893.957 .0263369
894.618 .0263237
895.278 .0263105
895.937 .0262971
896.596 .0262836
897.255 .0262698
897.914 .0262557
898.572 .0262412
899.230 .0262263
899.887 .0262110
900.544 .0261950
901.201 .0261785
901.857 .0261506
902.513 .0261322
903.168 .0261130
903.823 .0260931
904.478 .0260725
905.132 .0260514
905.786 .0260296
906.440 .0260072
907.093 .0259844
907.746 .0259610
908.399 .0259371
909.051 .0259128
909.703 .0258882
910.354 .0258752
911.005 .0258506
911.656 .0258259
912.306 .0258012
912.956 .0257767
913.605 .0257525
914.254 .0257284
914.903 .0257047
915.551 .0256812
916.199 .0256581
916.847 .0256353
917.494 .0256129
918.141 .0255909
918.788 .0255694
919.434 .0255484
920.079 .0255279
920.725 .0255080
921.370 .0254887
922.014 .0254698
922.658 .0254514
923.302 .0254334
923.946 .0254158
924.589 .0253983
925.231 .0253812
925.873 .0253642
926.515 .0253474
927.157 .0253308
927.798 .0253145
928.439 .0252984
929.079 .0252826
929.719 .0252670
930.359 .0252518
930.998 .0252369
931.637 .0252223
932.275 .0252082
932.913 .0251945
933.551 .0251812
934.188 .0251686
934.825 .0251566
935.462 .0251454
936.098 .0251350
936.733 .0251255
937.369 .0251167
938.004 .0251088
938.638 .0251019
939.273 .0250958
939.907 .0250906
940.540 .0250865
941.173 .0250834
941.806 .0250813
942.438 .0250802
943.070 .0250801
943.702 .0250809
944.333 .0250825
944.964 .0250848
945.594 .0250878
946.224 .0250912
946.854 .0250951
947.483 .0250994
948.112 .0251040
948.741 .0251089
949.369 .0251139
949.996 .0251192
950.624 .0251245
951.251 .0251298
951.878 .0251351
952.504 .0251403
953.130 .0251454
953.755 .0251504
954.380 .0251553
955.005 .0251602
955.629 .0251651
956.253 .0251701
956.877 .0251751
957.500 .0251803
958.123 .0251856
958.746 .0251911
959.368 .0251968
959.990 .0252029
960.611 .0252093
961.232 .0252160
961.853 .0252230
962.473 .0252302
963.093 .0252377
963.712 .0252453
964.331 .0252529
964.950 .0252606
965.569 .0252683
966.187 .0252760
966.804 .0252837
967.422 .0252913
968.039 .0252988
968.655 .0253061
969.272 .0253131
969.887 .0253198
970.503 .0253260
971.118 .0253319
971.733 .0253373
972.347 .0253421
972.961 .0253465
973.575 .0253502
974.188 .0253534
974.801 .0253558
975.414 .0253576
976.026 .0253586
976.638 .0253589
977.250 .0253584
977.861 .0253571
978.472 .0253552
979.083 .0253525
979.693 .0253493
980.303 .0253454
980.912 .0253379
981.521 .0253328
982.130 .0253273
982.738 .0253214
983.346 .0253153
983.954 .0253091
984.562 .0253029
985.169 .0252967
985.775 .0252907
986.382 .0252849
986.988 .0252794
987.594 .0252742
988.199 .0252693
988.804 .0252647
989.409 .0252634
990.013 .0252595
990.617 .0252561
991.221 .0252532
991.824 .0252507
992.427 .0252487
993.030 .0252471
993.632 .0252460
994.234 .0252452
994.836 .0252448
995.438 .0252446
996.039 .0252447
996.640 .0252451
997.240 .0252456
997.840 .0252464
998.440 .0252474
999.040 .0252487
999.639 .0252501
1000.238 .0252516
1000.836 .0252531
1001.435 .0252546
1002.033 .0252560
1002.630 .0252572
1003.228 .0252582
1003.825 .0252589
1004.422 .0252592
1005.018 .0252593
1005.614 .0252590
1006.210 .0252583
1006.806 .0252571
1007.401 .0252555
1007.996 .0252533
1008.591 .0252506
1009.186 .0252474
1009.780 .0252436
1010.374 .0252394
1010.967 .0252348
1011.561 .0252297
1012.154 .0252244
1012.746 .0252188
1013.339 .0252131
1013.931 .0252072
1014.523 .0252014
1015.115 .0251955
1015.706 .0251897
1016.298 .0251841
1016.888 .0251786
1017.479 .0251733
1018.069 .0251682
1018.660 .0251635
1019.250 .0251592
1019.839 .0251553
1020.429 .0251517
1021.018 .0251485
1021.607 .0251457
1022.195 .0251432
1022.784 .0251410
1023.372 .0251390
1023.960 .0251374
1024.547 .0251360
1025.135 .0251349
1025.722 .0251340
1026.309 .0251332
1026.896 .0251326
1027.483 .0251320
1028.069 .0251315
1028.655 .0251310
1029.241 .0251304
1029.827 .0251296
1030.412 .0251287
1030.997 .0251275
1031.582 .0251262
1032.167 .0251247
1032.752 .0251228
1033.336 .0251206
1033.921 .0251179
1034.505 .0251148
1035.089 .0251111
1035.672 .0251069
1036.256 .0251019
1036.839 .0250963
1037.422 .0250900
1038.005 .0250830
1038.588 .0250753
1039.171 .0250669
1039.753 .0250577
1040.335 .0250478
1040.918 .0250372
1041.500 .0250258
1042.081 .0250137
1042.663 .0250009
1043.244 .0249873
1043.826 .0249731
1044.407 .0249583
1044.988 .0249430
1045.569 .0249272
1046.150 .0249110
1046.730 .0248944
1047.311 .0248776
1047.891 .0248607
1048.471 .0248436
1049.052 .0248264
1049.632 .0248092
1050.211 .0247919
1050.791 .0247746
1051.371 .0247573
1051.950 .0247399
1052.530 .0247226
1053.109 .0247053
1053.688 .0246881
1054.268 .0246711
1054.847 .0246544
1055.426 .0246379
1056.005 .0246218
1056.583 .0246062
1057.162 .0245908
1057.741 .0245758
1058.319 .0245611
1058.898 .0245466
1059.476 .0245324
1060.055 .0245185
1060.633 .0245049
1061.211 .0244916
1061.790 .0244787
1062.368 .0244661
1062.946 .0244539
1063.524 .0244422
1064.102 .0244307
1064.680 .0244194
1065.258 .0244081
1065.836 .0243969
1066.414 .0243856
1066.992 .0243743
1067.570 .0243630
1068.148 .0243518
1068.726 .0243409
1069.304 .0243302
1069.882 .0243199
1070.460 .0243101
1071.038 .0243008
1071.616 .0242921
1072.194 .0242839
1072.772 .0242763
1073.350 .0242693
1073.928 .0242629
1074.506 .0242572
1075.084 .0242522
1075.662 .0242481
1076.240 .0242448
1076.819 .0242425
1077.397 .0242410
1077.976 .0242405
1078.554 .0242407
1079.133 .0242416
1079.711 .0242428
1080.290 .0242445
1080.869 .0242462
1081.448 .0242481
1082.027 .0242502
1082.606 .0242523
1083.185 .0242546
1083.764 .0242571
1084.343 .0242600
1084.923 .0242633
1085.502 .0242671
1086.082 .0242714
1086.662 .0242763
1087.242 .0242817
1087.822 .0242875
1088.402 .0242938
1088.983 .0243005
1089.563 .0243077
1090.144 .0243154
1090.725 .0243237
1091.306 .0243325
1091.887 .0243420
1092.469 .0243521
1093.050 .0243626
1093.632 .0243737
1094.214 .0243851
1094.796 .0243968
1095.379 .0244088
1095.961 .0244212
1096.544 .0244340
1097.127 .0244475
1097.710 .0244618
1098.294 .0244770
1098.877 .0244933
1099.461 .0245107
1100.046 .0245293
1100.630 .0245493
1101.215 .0245705
1101.800 .0245930
1102.385 .0246166
1102.970 .0246413
1103.556 .0246670
1104.142 .0246936
1104.728 .0247210
1105.315 .0247491
1105.902 .0247779
1106.489 .0248073
1107.077 .0248371
1107.664 .0248675
1108.253 .0248983
1108.841 .0249296
1109.430 .0249615
1110.019 .0249937
1110.609 .0250264
1111.198 .0250599
1111.789 .0250941
1112.379 .0251294
1112.970 .0251659
1113.561 .0252037
1114.153 .0252429
1114.745 .0252836
1115.338 .0253260
1115.931 .0253699
1116.524 .0254157
1117.117 .0254632
1117.712 .0255124
1118.306 .0255635
1118.901 .0256164
1119.496 .0256712
1120.092 .0257279
1120.689 .0257863
1121.285 .0258462
1121.882 .0259077
1122.480 .0259706
1123.078 .0260350
1123.677 .0261011
1124.276 .0261690
1124.875 .0262385
1125.476 .0263099
1126.076 .0263830
1126.677 .0264576
1127.279 .0265338
1127.881 .0266116
1128.484 .0266909
1129.087 .0267285
1129.691 .0268105
1130.295 .0268944
1130.900 .0269805
1131.505 .0270691
1132.111 .0271602
1132.718 .0272544
1133.325 .0273520
1133.933 .0274542
1134.541 .0275512
1135.150 .0276570
1135.760 .0277698
1136.370 .0278940
1136.981 .0278934
1137.592 .0279851
1138.204 .0280903
1138.817 .0282112
1139.431 .0283382
1140.045 .0284782
1140.660 .0286290
1141.275 .0287963
1141.891 .0289990
1142.508 .0289331
1143.126 .0292608
1143.744 .0295474
1144.363 .0299584
1144.983 .0307161
