Measurement Sequence started on: 15-12-46-377
Integration time: 28
Scans to Average: 2 
>>>>>Begin Spectral Data<<<<<
432.689 .0000100
433.621 .0000100
434.552 .0000100
435.482 .0000100
436.410 .0000100
437.337 .0000100
438.262 .0290119
439.187 .0613428
440.110 .1013843
441.031 .1464388
441.952 .1161817
442.871 .1212223
443.789 .1259109
444.705 .1303232
445.621 .1345107
446.535 .1385139
447.447 .1408347
448.359 .1413196
449.269 .1395793
450.178 .1353631
451.086 .1287584
451.993 .1202741
452.898 .1107461
453.803 .1011211
454.706 .0921994
455.608 .0844734
456.508 .0781020
457.408 .0738240
458.306 .0705531
459.204 .0678984
460.100 .0656658
460.995 .0637486
461.888 .0620739
462.781 .0605931
463.673 .0592695
464.563 .0580784
465.452 .0570013
466.340 .0560237
467.228 .0551345
468.114 .0543242
468.999 .0535853
469.882 .0529116
470.765 .0522963
471.647 .0517348
472.528 .0512238
473.407 .0507601
474.286 .0503416
475.163 .0499663
476.040 .0496309
476.915 .0493331
477.790 .0490692
478.663 .0488364
479.535 .0486312
480.407 .0484507
481.277 .0482916
482.147 .0481518
483.015 .0480303
483.883 .0479263
484.749 .0478391
485.615 .0477692
486.479 .0477159
487.343 .0476788
488.206 .0476573
489.067 .0476499
489.928 .0476561
490.788 .0476757
491.647 .0477086
492.505 .0477555
493.362 .0478172
494.218 .0478953
495.073 .0479909
495.928 .0482045
496.781 .0483529
497.634 .0485245
498.486 .0487202
499.337 .0489408
500.187 .0491876
501.036 .0494613
501.884 .0497635
502.731 .0500974
503.578 .0504661
504.424 .0507282
505.268 .0511630
506.113 .0516452
506.956 .0521800
507.798 .0527735
508.640 .0534339
509.480 .0541705
510.320 .0549947
511.160 .0559189
511.998 .0569580
512.836 .0581285
513.672 .0594474
514.508 .0609323
515.344 .0626014
516.178 .0644726
517.012 .0665660
517.845 .0689007
518.677 .0714956
519.508 .0743675
520.339 .0775271
521.169 .0809816
521.998 .0847132
522.826 .0886919
523.654 .0928685
524.481 .0971784
525.307 .1015471
526.133 .1058871
526.958 .1101087
527.782 .1141239
528.605 .1178516
529.428 .1212225
530.250 .1241724
531.072 .1266601
531.892 .1286485
532.712 .1301139
533.532 .1310417
534.350 .1314231
535.168 .1312577
535.986 .1305491
536.802 .1293024
537.618 .1275250
538.434 .1252256
539.249 .1224388
540.063 .1192082
540.876 .1155933
541.689 .1116670
542.501 .1075096
543.313 .1032095
544.124 .0988559
544.934 .0945317
545.744 .0903113
546.553 .0862550
547.361 .0824140
548.169 .0788165
548.976 .0754852
549.783 .0724281
550.589 .0696429
551.395 .0671192
552.200 .0648388
553.004 .0627788
553.808 .0609160
554.611 .0592298
555.414 .0577013
556.216 .0563106
557.018 .0550393
557.819 .0538724
558.619 .0527962
559.419 .0517983
560.218 .0508693
561.017 .0499999
561.815 .0491835
562.613 .0484140
563.410 .0476851
564.207 .0469920
565.003 .0463304
565.799 .0456954
566.594 .0450832
567.388 .0444913
568.182 .0439178
568.976 .0433605
569.769 .0428191
570.562 .0422935
571.354 .0417837
572.145 .0412902
572.936 .0408138
573.727 .0403545
574.517 .0399124
575.307 .0394870
576.096 .0390782
576.885 .0386861
577.673 .0383104
578.461 .0379509
579.248 .0376076
580.035 .0372808
580.821 .0369704
581.607 .0366763
582.392 .0363990
583.177 .0361383
583.962 .0358942
584.746 .0356664
585.529 .0354545
586.313 .0352579
587.095 .0350759
587.878 .0349074
588.660 .0347512
589.441 .0346064
590.222 .0344719
591.003 .0343469
591.783 .0342310
592.563 .0341235
593.342 .0340238
594.121 .0339315
594.899 .0338460
595.678 .0337667
596.455 .0336928
597.233 .0336237
598.009 .0335586
598.786 .0334971
599.562 .0334383
600.338 .0333819
601.113 .0333276
601.888 .0332524
602.663 .0332027
603.437 .0331547
604.211 .0331086
604.984 .0330640
605.757 .0330209
606.530 .0329791
607.302 .0329383
608.074 .0328987
608.845 .0328599
609.616 .0328220
610.387 .0328053
611.158 .0327688
611.928 .0327334
612.697 .0326989
613.467 .0326655
614.236 .0326331
615.004 .0326016
615.773 .0325710
616.541 .0325413
617.308 .0325127
618.076 .0324850
618.843 .0324582
619.609 .0324321
620.375 .0324065
621.141 .0323813
621.907 .0323563
622.672 .0323312
623.437 .0323061
624.202 .0322809
624.966 .0322554
625.730 .0322298
626.493 .0322039
627.257 .0321778
628.020 .0321512
628.782 .0321242
629.545 .0320967
630.307 .0320685
631.068 .0320397
631.830 .0320105
632.591 .0319807
633.352 .0319506
634.112 .0319203
634.872 .0318896
635.632 .0318588
636.392 .0318278
637.151 .0317967
637.910 .0317656
638.668 .0317345
639.427 .0317037
640.185 .0316733
640.943 .0316434
641.700 .0316141
642.457 .0315854
643.214 .0315572
643.971 .0315296
644.727 .0315023
645.483 .0314755
646.239 .0314491
646.994 .0314230
647.750 .0313971
648.505 .0313716
649.259 .0313463
650.014 .0313211
650.768 .0312959
651.521 .0312706
652.275 .0312452
653.028 .0312194
653.781 .0311932
654.534 .0311666
655.286 .0311395
656.039 .0311118
656.791 .0310836
657.542 .0310548
658.294 .0310255
659.045 .0309957
659.796 .0309658
660.546 .0309357
661.297 .0309056
662.047 .0308756
662.796 .0308458
663.546 .0308162
664.295 .0307871
665.044 .0307583
665.793 .0307300
666.542 .0307024
667.290 .0306753
668.038 .0306490
668.786 .0306236
669.533 .0305990
670.281 .0305754
671.028 .0305527
671.774 .0305310
672.521 .0305102
673.267 .0304902
674.013 .0304710
674.759 .0304526
675.505 .0304349
676.250 .0304179
676.995 .0304013
677.740 .0303852
678.484 .0303695
679.229 .0303540
679.973 .0303388
680.717 .0303239
681.460 .0303091
682.204 .0302945
682.947 .0302799
683.690 .0302653
684.433 .0302507
685.175 .0302360
685.917 .0302213
686.659 .0302063
687.401 .0301912
688.142 .0301759
688.884 .0301604
689.625 .0301447
690.365 .0301288
691.106 .0301126
691.846 .0300960
692.586 .0300792
693.326 .0300620
694.066 .0300444
694.805 .0300266
695.545 .0300084
696.284 .0299899
697.022 .0299712
697.761 .0299523
698.499 .0299331
699.237 .0299138
699.975 .0298943
700.713 .0298747
701.450 .0298549
702.187 .0298350
702.924 .0298150
703.661 .0297947
704.397 .0297744
705.133 .0297538
705.869 .0297332
706.605 .0297125
707.341 .0296919
708.076 .0296712
708.811 .0296506
709.546 .0296301
710.281 .0296096
711.015 .0295891
711.749 .0295685
712.483 .0295479
713.217 .0295271
713.950 .0295062
714.684 .0294853
715.417 .0294643
716.150 .0294432
716.882 .0294219
717.615 .0294005
718.347 .0293789
719.079 .0293571
719.811 .0293351
720.542 .0293129
721.273 .0292906
722.005 .0292681
722.735 .0292455
723.466 .0292230
724.196 .0292004
724.927 .0291780
725.656 .0291556
726.386 .0291334
727.116 .0291114
727.845 .0290897
728.574 .0290683
729.303 .0290474
730.031 .0290270
730.760 .0290070
731.488 .0289877
732.216 .0289689
732.944 .0289508
733.671 .0289333
734.398 .0289165
735.125 .0289003
735.852 .0288850
736.579 .0288704
737.305 .0288566
738.031 .0288436
738.757 .0288314
739.483 .0288200
740.208 .0288093
740.933 .0287993
741.658 .0287898
742.383 .0287808
743.108 .0287722
743.832 .0287638
744.556 .0287557
745.280 .0287476
746.004 .0287396
746.727 .0287314
747.450 .0287229
748.173 .0287141
748.896 .0287048
749.618 .0286949
750.340 .0286843
751.062 .0286731
751.784 .0286612
752.506 .0286485
753.227 .0286353
753.948 .0286214
754.669 .0286071
755.389 .0285923
756.110 .0285771
756.830 .0285615
757.550 .0285457
758.269 .0285297
758.989 .0285135
759.708 .0284972
760.427 .0284809
761.146 .0284646
761.864 .0284485
762.582 .0284327
763.300 .0284171
764.018 .0284020
764.736 .0283872
765.453 .0283728
766.170 .0283589
766.887 .0283455
767.603 .0283325
768.320 .0283200
769.036 .0283080
769.751 .0282965
770.467 .0282854
771.182 .0282748
771.897 .0282646
772.612 .0282549
773.327 .0282456
774.041 .0282368
774.755 .0282283
775.469 .0282203
776.183 .0282128
776.896 .0282057
777.609 .0281991
778.322 .0281930
779.035 .0281874
779.747 .0281823
780.459 .0281776
781.171 .0281733
781.882 .0281695
782.594 .0281661
783.305 .0281631
784.016 .0281605
784.726 .0281582
785.436 .0281561
786.147 .0281532
786.856 .0281511
787.566 .0281489
788.275 .0281465
788.984 .0281439
789.693 .0281410
790.401 .0281378
791.110 .0281341
791.818 .0281299
792.525 .0281252
793.233 .0281199
793.940 .0281139
794.647 .0281090
795.353 .0281019
796.060 .0280942
796.766 .0280858
797.472 .0280767
798.177 .0280670
798.883 .0280566
799.588 .0280455
800.292 .0280338
800.997 .0280214
801.701 .0280084
802.405 .0279948
803.109 .0279806
803.812 .0279660
804.515 .0279509
805.218 .0279355
805.921 .0279197
806.623 .0279036
807.325 .0278872
808.027 .0278705
808.728 .0278536
809.429 .0278365
810.130 .0278193
810.831 .0278019
811.531 .0277845
812.231 .0277670
812.931 .0277495
813.630 .0277320
814.330 .0277146
815.029 .0276972
815.727 .0276799
816.426 .0276628
817.124 .0276458
817.821 .0276291
818.519 .0276126
819.216 .0275963
819.913 .0275804
820.609 .0275648
821.306 .0275495
822.002 .0275346
822.697 .0275201
823.393 .0275061
824.088 .0274924
824.783 .0274793
825.477 .0274667
826.171 .0274546
826.865 .0274429
827.559 .0274317
828.252 .0274208
828.945 .0274103
829.638 .0274001
830.330 .0273902
831.023 .0273806
831.714 .0273712
832.406 .0273619
833.097 .0273529
833.788 .0273440
834.479 .0273353
835.169 .0273267
835.859 .0273183
836.548 .0273100
837.238 .0273017
837.927 .0272935
838.615 .0272853
839.304 .0272769
839.992 .0272684
840.680 .0272596
841.367 .0272505
842.054 .0272410
842.741 .0272310
843.428 .0272207
844.114 .0272100
844.800 .0271989
845.485 .0271874
846.170 .0271754
846.855 .0271630
847.540 .0271500
848.224 .0271365
848.908 .0271223
849.592 .0271074
850.275 .0270920
850.958 .0270759
851.641 .0270593
852.323 .0270423
853.005 .0270249
853.687 .0270071
854.368 .0269890
855.049 .0269706
855.730 .0269520
856.410 .0269332
857.090 .0269143
857.769 .0268953
858.449 .0268764
859.128 .0268576
859.806 .0268390
860.485 .0268207
861.163 .0268029
861.840 .0267854
862.518 .0267685
863.195 .0267522
863.871 .0267366
864.548 .0267217
865.224 .0267077
865.899 .0266945
866.574 .0266822
867.249 .0266708
867.924 .0266602
868.598 .0266504
869.272 .0266412
869.946 .0266327
870.619 .0266246
871.292 .0266171
871.964 .0266100
872.636 .0266035
873.308 .0265975
873.979 .0265921
874.651 .0265872
875.321 .0265828
875.992 .0265789
876.662 .0265754
877.331 .0265722
878.001 .0265694
878.670 .0265669
879.338 .0265646
880.007 .0265627
880.675 .0265610
881.342 .0265596
882.009 .0265585
882.676 .0265578
883.343 .0265572
884.009 .0265570
884.675 .0265571
885.340 .0265575
886.005 .0265583
886.670 .0265594
887.334 .0265609
887.998 .0265628
888.662 .0265650
889.325 .0265674
889.988 .0265702
890.650 .0265731
891.312 .0265763
891.974 .0265796
892.636 .0265831
893.297 .0265868
893.957 .0265906
894.618 .0265944
895.278 .0265983
895.937 .0266020
896.596 .0266054
897.255 .0266086
897.914 .0266114
898.572 .0266137
899.230 .0266156
899.887 .0266170
900.544 .0266180
901.201 .0266184
901.857 .0266165
902.513 .0266152
903.168 .0266133
903.823 .0266106
904.478 .0266071
905.132 .0266030
905.786 .0265982
906.440 .0265927
907.093 .0265865
907.746 .0265797
908.399 .0265723
909.051 .0265642
909.703 .0265555
910.354 .0265495
911.005 .0265401
911.656 .0265303
912.306 .0265200
912.956 .0265094
913.605 .0264986
914.254 .0264875
914.903 .0264763
915.551 .0264649
916.199 .0264533
916.847 .0264415
917.494 .0264295
918.141 .0264172
918.788 .0264047
919.434 .0263920
920.079 .0263792
920.725 .0263662
921.370 .0263530
922.014 .0263397
922.658 .0263261
923.302 .0263122
923.946 .0262981
924.589 .0262837
925.231 .0262689
925.873 .0262538
926.515 .0262385
927.157 .0262230
927.798 .0262073
928.439 .0261913
929.079 .0261752
929.719 .0261589
930.359 .0261424
930.998 .0261258
931.637 .0261090
932.275 .0260921
932.913 .0260752
933.551 .0260582
934.188 .0260413
934.825 .0260245
935.462 .0260079
936.098 .0259916
936.733 .0259755
937.369 .0259597
938.004 .0259443
938.638 .0259292
939.273 .0259145
939.907 .0259003
940.540 .0258866
941.173 .0258733
941.806 .0258605
942.438 .0258481
943.070 .0258361
943.702 .0258245
944.333 .0258131
944.964 .0258020
945.594 .0257912
946.224 .0257805
946.854 .0257700
947.483 .0257597
948.112 .0257495
948.741 .0257393
949.369 .0257293
949.996 .0257192
950.624 .0257091
951.251 .0256990
951.878 .0256887
952.504 .0256784
953.130 .0256679
953.755 .0256575
954.380 .0256470
955.005 .0256364
955.629 .0256259
956.253 .0256153
956.877 .0256045
957.500 .0255936
958.123 .0255825
958.746 .0255712
959.368 .0255598
959.990 .0255483
960.611 .0255367
961.232 .0255251
961.853 .0255136
962.473 .0255022
963.093 .0254907
963.712 .0254792
964.331 .0254675
964.950 .0254557
965.569 .0254436
966.187 .0254313
966.804 .0254187
967.422 .0254059
968.039 .0253929
968.655 .0253796
969.272 .0253659
969.887 .0253519
970.503 .0253374
971.118 .0253224
971.733 .0253068
972.347 .0252907
972.961 .0252740
973.575 .0252569
974.188 .0252395
974.801 .0252217
975.414 .0252037
976.026 .0251854
976.638 .0251667
977.250 .0251477
977.861 .0251283
978.472 .0251084
979.083 .0250880
979.693 .0250672
980.303 .0250461
980.912 .0250137
981.521 .0249922
982.130 .0249706
982.738 .0249490
983.346 .0249274
983.954 .0249058
984.562 .0248843
985.169 .0248630
985.775 .0248419
986.382 .0248212
986.988 .0248010
987.594 .0247815
988.199 .0247627
988.804 .0247448
989.409 .0247381
990.013 .0247217
990.617 .0247062
991.221 .0246915
991.824 .0246775
992.427 .0246642
993.030 .0246514
993.632 .0246392
994.234 .0246274
994.836 .0246163
995.438 .0246057
996.039 .0245957
996.640 .0245863
997.240 .0245774
997.840 .0245690
998.440 .0245612
999.040 .0245538
999.639 .0245468
1000.238 .0245404
1000.836 .0245344
1001.435 .0245290
1002.033 .0245242
1002.630 .0245199
1003.228 .0245162
1003.825 .0245129
1004.422 .0245100
1005.018 .0245072
1005.614 .0245046
1006.210 .0245019
1006.806 .0244992
1007.401 .0244965
1007.996 .0244937
1008.591 .0244911
1009.186 .0244887
1009.780 .0244866
1010.374 .0244848
1010.967 .0244834
1011.561 .0244823
1012.154 .0244815
1012.746 .0244810
1013.339 .0244809
1013.931 .0244811
1014.523 .0244817
1015.115 .0244827
1015.706 .0244842
1016.298 .0244863
1016.888 .0244888
1017.479 .0244918
1018.069 .0244952
1018.660 .0244989
1019.250 .0245028
1019.839 .0245069
1020.429 .0245113
1021.018 .0245158
1021.607 .0245207
1022.195 .0245258
1022.784 .0245313
1023.372 .0245371
1023.960 .0245434
1024.547 .0245500
1025.135 .0245571
1025.722 .0245644
1026.309 .0245721
1026.896 .0245801
1027.483 .0245885
1028.069 .0245972
1028.655 .0246063
1029.241 .0246157
1029.827 .0246254
1030.412 .0246354
1030.997 .0246456
1031.582 .0246560
1032.167 .0246666
1032.752 .0246774
1033.336 .0246883
1033.921 .0246993
1034.505 .0247106
1035.089 .0247220
1035.672 .0247336
1036.256 .0247453
1036.839 .0247571
1037.422 .0247687
1038.005 .0247803
1038.588 .0247915
1039.171 .0248026
1039.753 .0248133
1040.335 .0248238
1040.918 .0248341
1041.500 .0248441
1042.081 .0248538
1042.663 .0248634
1043.244 .0248728
1043.826 .0248819
1044.407 .0248909
1044.988 .0248996
1045.569 .0249080
1046.150 .0249163
1046.730 .0249244
1047.311 .0249325
1047.891 .0249405
1048.471 .0249487
1049.052 .0249571
1049.632 .0249656
1050.211 .0249743
1050.791 .0249830
1051.371 .0249918
1051.950 .0250004
1052.530 .0250089
1053.109 .0250170
1053.688 .0250249
1054.268 .0250325
1054.847 .0250399
1055.426 .0250471
1056.005 .0250541
1056.583 .0250611
1057.162 .0250680
1057.741 .0250749
1058.319 .0250816
1058.898 .0250880
1059.476 .0250942
1060.055 .0251000
1060.633 .0251055
1061.211 .0251109
1061.790 .0251162
1062.368 .0251215
1062.946 .0251270
1063.524 .0251326
1064.102 .0251385
1064.680 .0251445
1065.258 .0251507
1065.836 .0251570
1066.414 .0251634
1066.992 .0251701
1067.570 .0251769
1068.148 .0251842
1068.726 .0251921
1069.304 .0252005
1069.882 .0252097
1070.460 .0252195
1071.038 .0252300
1071.616 .0252411
1072.194 .0252528
1072.772 .0252650
1073.350 .0252777
1073.928 .0252909
1074.506 .0253044
1075.084 .0253184
1075.662 .0253328
1076.240 .0253475
1076.819 .0253626
1077.397 .0253780
1077.976 .0253936
1078.554 .0254092
1079.133 .0254249
1079.711 .0254404
1080.290 .0254558
1080.869 .0254710
1081.448 .0254859
1082.027 .0255005
1082.606 .0255148
1083.185 .0255288
1083.764 .0255424
1084.343 .0255557
1084.923 .0255687
1085.502 .0255814
1086.082 .0255939
1086.662 .0256064
1087.242 .0256188
1087.822 .0256313
1088.402 .0256441
1088.983 .0256573
1089.563 .0256711
1090.144 .0256854
1090.725 .0257005
1091.306 .0257163
1091.887 .0257329
1092.469 .0257503
1093.050 .0257685
1093.632 .0257876
1094.214 .0258074
1094.796 .0258280
1095.379 .0258494
1095.961 .0258715
1096.544 .0258943
1097.127 .0259179
1097.710 .0259421
1098.294 .0259670
1098.877 .0259925
1099.461 .0260187
1100.046 .0260454
1100.630 .0260728
1101.215 .0261008
1101.800 .0261293
1102.385 .0261583
1102.970 .0261875
1103.556 .0262170
1104.142 .0262467
1104.728 .0262766
1105.315 .0263065
1105.902 .0263366
1106.489 .0263669
1107.077 .0263972
1107.664 .0264277
1108.253 .0264582
1108.841 .0264885
1109.430 .0265188
1110.019 .0265488
1110.609 .0265787
1111.198 .0266086
1111.789 .0266387
1112.379 .0266692
1112.970 .0267005
1113.561 .0267328
1114.153 .0267662
1114.745 .0268009
1115.338 .0268370
1115.931 .0268742
1116.524 .0269128
1117.117 .0269524
1117.712 .0269930
1118.306 .0270345
1118.901 .0270768
1119.496 .0271200
1120.092 .0271641
1120.689 .0272091
1121.285 .0272551
1121.882 .0273021
1122.480 .0273502
1123.078 .0273991
1123.677 .0274487
1124.276 .0274992
1124.875 .0275508
1125.476 .0276034
1126.076 .0276575
1126.677 .0277133
1127.279 .0277713
1127.881 .0278318
1128.484 .0278949
1129.087 .0279245
1129.691 .0279912
1130.295 .0280604
1130.900 .0281321
1131.505 .0282060
1132.111 .0282822
1132.718 .0283606
1133.325 .0284410
1133.933 .0285228
1134.541 .0286067
1135.150 .0287010
1135.760 .0287842
1136.370 .0288734
1136.981 .0288601
1137.592 .0289743
1138.204 .0290970
1138.817 .0292240
1139.431 .0293509
1140.045 .0294843
1140.660 .0296104
1141.275 .0297349
1141.891 .0298397
1142.508 .0299595
1143.126 .0303120
1143.744 .0300542
1144.363 .0302788
1144.983 .0299566
