Measurement Sequence started on: 15-12-46-377
Integration time: 28
Scans to Average: 2 
>>>>>Begin Spectral Data<<<<<
432.689 .0000100
433.621 .0000100
434.552 .0000100
435.482 .0000100
436.410 .0000100
437.337 .0000100
438.262 .0300030
439.187 .0633985
440.110 .1048714
441.031 .1515418
441.952 .1206936
442.871 .1259474
443.789 .1308212
444.705 .1353947
445.621 .1397235
446.535 .1438513
447.447 .1462288
448.359 .1467007
449.269 .1448606
450.178 .1404481
451.086 .1335494
451.993 .1246878
452.898 .1147268
453.803 .1046453
454.706 .0952727
455.608 .0871233
456.508 .0803683
457.408 .0757796
458.306 .0722389
459.204 .0693507
460.100 .0669152
460.995 .0648251
461.888 .0630044
462.781 .0614017
463.673 .0599777
464.563 .0587072
465.452 .0575695
466.340 .0565491
467.228 .0556348
468.114 .0548173
468.999 .0540887
469.882 .0534413
470.765 .0528668
471.647 .0523583
472.528 .0519097
473.407 .0515153
474.286 .0511693
475.163 .0508679
476.040 .0506061
476.915 .0503800
477.790 .0501855
478.663 .0500189
479.535 .0498763
480.407 .0497541
481.277 .0496491
482.147 .0495587
483.015 .0494810
483.883 .0494150
484.749 .0493602
485.615 .0493173
486.479 .0492870
487.343 .0492697
488.206 .0492666
489.067 .0492785
489.928 .0493059
490.788 .0493497
491.647 .0494106
492.505 .0494896
493.362 .0495883
494.218 .0497076
495.073 .0498493
495.928 .0501485
496.781 .0503535
497.634 .0505846
498.486 .0508430
499.337 .0511292
500.187 .0514442
501.036 .0517887
501.884 .0521640
502.731 .0525730
503.578 .0530197
504.424 .0533229
505.268 .0538398
506.113 .0544063
506.956 .0550268
507.798 .0557071
508.640 .0564548
509.480 .0572801
510.320 .0581940
511.160 .0592097
511.998 .0603424
512.836 .0616101
513.672 .0630295
514.508 .0646205
515.344 .0664038
516.178 .0684006
517.012 .0706342
517.845 .0731272
518.677 .0759008
519.508 .0789745
520.339 .0823568
521.169 .0860513
521.998 .0900359
522.826 .0942759
523.654 .0987131
524.481 .1032795
525.307 .1078956
526.133 .1124687
526.958 .1169011
527.782 .1211011
528.605 .1249814
529.428 .1284685
530.250 .1314945
531.072 .1340150
531.892 .1359947
532.712 .1374112
533.532 .1382472
534.350 .1384957
535.168 .1381567
535.986 .1372357
536.802 .1357347
537.618 .1336659
538.434 .1310422
539.249 .1279025
540.063 .1242980
540.876 .1202985
541.689 .1159830
542.501 .1114384
543.313 .1067592
544.124 .1020425
544.934 .0973749
545.744 .0928362
546.553 .0884895
547.361 .0843895
548.169 .0805667
548.976 .0770414
549.783 .0738190
550.589 .0708987
551.395 .0682666
552.200 .0659006
553.004 .0637733
553.808 .0618609
554.611 .0601381
555.414 .0585833
556.216 .0571750
557.018 .0558914
557.819 .0547157
558.619 .0536325
559.419 .0526286
560.218 .0516948
561.017 .0508214
561.815 .0500021
562.613 .0492303
563.410 .0484997
564.207 .0478042
565.003 .0471391
565.799 .0464989
566.594 .0458793
567.388 .0452766
568.182 .0446889
568.976 .0441149
569.769 .0435549
570.562 .0430102
571.354 .0424826
572.145 .0419736
572.936 .0414836
573.727 .0410127
574.517 .0405610
575.307 .0401279
576.096 .0397127
576.885 .0393154
577.673 .0389358
578.461 .0385737
579.248 .0382297
580.035 .0379045
580.821 .0375985
581.607 .0373120
582.392 .0370448
583.177 .0367963
583.962 .0365655
584.746 .0363510
585.529 .0361517
586.313 .0359661
587.095 .0357932
587.878 .0356318
588.660 .0354811
589.441 .0353407
590.222 .0352102
591.003 .0350889
591.783 .0349764
592.563 .0348718
593.342 .0347744
594.121 .0346834
594.899 .0345979
595.678 .0345171
596.455 .0344402
597.233 .0343666
598.009 .0342960
598.786 .0342280
599.562 .0341622
600.338 .0340987
601.113 .0340373
601.888 .0339517
602.663 .0338952
603.437 .0338406
604.211 .0337877
604.984 .0337365
605.757 .0336868
606.530 .0336388
607.302 .0335923
608.074 .0335473
608.845 .0335040
609.616 .0334625
610.387 .0334464
611.158 .0334079
611.928 .0333715
612.697 .0333371
613.467 .0333047
614.236 .0332743
615.004 .0332457
615.773 .0332189
616.541 .0331937
617.308 .0331701
618.076 .0331479
618.843 .0331269
619.609 .0331071
620.375 .0330882
621.141 .0330701
621.907 .0330525
622.672 .0330353
623.437 .0330182
624.202 .0330011
624.966 .0329837
625.730 .0329659
626.493 .0329475
627.257 .0329283
628.020 .0329084
628.782 .0328875
629.545 .0328655
630.307 .0328424
631.068 .0328182
631.830 .0327928
632.591 .0327663
633.352 .0327386
634.112 .0327099
634.872 .0326801
635.632 .0326493
636.392 .0326176
637.151 .0325853
637.910 .0325524
638.668 .0325190
639.427 .0324854
640.185 .0324516
640.943 .0324179
641.700 .0323842
642.457 .0323507
643.214 .0323174
643.971 .0322844
644.727 .0322516
645.483 .0322190
646.239 .0321868
646.994 .0321549
647.750 .0321234
648.505 .0320922
649.259 .0320614
650.014 .0320309
650.768 .0320007
651.521 .0319705
652.275 .0319405
653.028 .0319105
653.781 .0318804
654.534 .0318501
655.286 .0318196
656.039 .0317890
656.791 .0317582
657.542 .0317273
658.294 .0316964
659.045 .0316656
659.796 .0316348
660.546 .0316042
661.297 .0315737
662.047 .0315435
662.796 .0315134
663.546 .0314837
664.295 .0314543
665.044 .0314254
665.793 .0313969
666.542 .0313691
667.290 .0313420
668.038 .0313157
668.786 .0312902
669.533 .0312656
670.281 .0312418
671.028 .0312188
671.774 .0311966
672.521 .0311753
673.267 .0311549
674.013 .0311352
674.759 .0311163
675.505 .0310983
676.250 .0310810
676.995 .0310644
677.740 .0310485
678.484 .0310333
679.229 .0310186
679.973 .0310045
680.717 .0309907
681.460 .0309773
682.204 .0309641
682.947 .0309511
683.690 .0309382
684.433 .0309252
685.175 .0309123
685.917 .0308992
686.659 .0308860
687.401 .0308727
688.142 .0308592
688.884 .0308455
689.625 .0308316
690.365 .0308175
691.106 .0308031
691.846 .0307884
692.586 .0307734
693.326 .0307581
694.066 .0307425
694.805 .0307266
695.545 .0307103
696.284 .0306939
697.022 .0306772
697.761 .0306603
698.499 .0306433
699.237 .0306260
699.975 .0306085
700.713 .0305907
701.450 .0305726
702.187 .0305541
702.924 .0305352
703.661 .0305159
704.397 .0304962
705.133 .0304762
705.869 .0304559
706.605 .0304353
707.341 .0304142
708.076 .0303927
708.811 .0303707
709.546 .0303481
710.281 .0303250
711.015 .0303013
711.749 .0302770
712.483 .0302522
713.217 .0302269
713.950 .0302012
714.684 .0301751
715.417 .0301486
716.150 .0301218
716.882 .0300948
717.615 .0300675
718.347 .0300400
719.079 .0300125
719.811 .0299850
720.542 .0299575
721.273 .0299301
722.005 .0299027
722.735 .0298755
723.466 .0298484
724.196 .0298215
724.927 .0297949
725.656 .0297687
726.386 .0297429
727.116 .0297175
727.845 .0296926
728.574 .0296682
729.303 .0296443
730.031 .0296209
730.760 .0295979
731.488 .0295754
732.216 .0295534
732.944 .0295320
733.671 .0295113
734.398 .0294913
735.125 .0294722
735.852 .0294539
736.579 .0294366
737.305 .0294202
738.031 .0294048
738.757 .0293902
739.483 .0293766
740.208 .0293638
740.933 .0293519
741.658 .0293408
742.383 .0293304
743.108 .0293207
743.832 .0293115
744.556 .0293030
745.280 .0292949
746.004 .0292872
746.727 .0292798
747.450 .0292727
748.173 .0292658
748.896 .0292588
749.618 .0292518
750.340 .0292447
751.062 .0292373
751.784 .0292296
752.506 .0292215
753.227 .0292131
753.948 .0292042
754.669 .0291948
755.389 .0291850
756.110 .0291748
756.830 .0291642
757.550 .0291532
758.269 .0291420
758.989 .0291304
759.708 .0291186
760.427 .0291068
761.146 .0290948
761.864 .0290829
762.582 .0290709
763.300 .0290591
764.018 .0290473
764.736 .0290357
765.453 .0290244
766.170 .0290134
766.887 .0290027
767.603 .0289924
768.320 .0289825
769.036 .0289731
769.751 .0289642
770.467 .0289558
771.182 .0289480
771.897 .0289406
772.612 .0289337
773.327 .0289271
774.041 .0289207
774.755 .0289146
775.469 .0289087
776.183 .0289029
776.896 .0288972
777.609 .0288914
778.322 .0288857
779.035 .0288800
779.747 .0288742
780.459 .0288683
781.171 .0288623
781.882 .0288559
782.594 .0288492
783.305 .0288421
784.016 .0288344
784.726 .0288262
785.436 .0288174
786.147 .0288016
786.856 .0287912
787.566 .0287802
788.275 .0287686
788.984 .0287565
789.693 .0287438
790.401 .0287305
791.110 .0287166
791.818 .0287020
792.525 .0286868
793.233 .0286708
793.940 .0286541
794.647 .0286442
795.353 .0286265
796.060 .0286081
796.766 .0285891
797.472 .0285694
798.177 .0285491
798.883 .0285281
799.588 .0285066
800.292 .0284845
800.997 .0284618
801.701 .0284386
802.405 .0284148
803.109 .0283906
803.812 .0283660
804.515 .0283409
805.218 .0283153
805.921 .0282893
806.623 .0282629
807.325 .0282361
808.027 .0282089
808.728 .0281814
809.429 .0281539
810.130 .0281262
810.831 .0280986
811.531 .0280711
812.231 .0280438
812.931 .0280169
813.630 .0279903
814.330 .0279642
815.029 .0279386
815.727 .0279138
816.426 .0278897
817.124 .0278664
817.821 .0278440
818.519 .0278225
819.216 .0278018
819.913 .0277821
820.609 .0277633
821.306 .0277455
822.002 .0277286
822.697 .0277127
823.393 .0276979
824.088 .0276840
824.783 .0276713
825.477 .0276595
826.171 .0276487
826.865 .0276388
827.559 .0276298
828.252 .0276216
828.945 .0276142
829.638 .0276075
830.330 .0276014
831.023 .0275961
831.714 .0275913
832.406 .0275871
833.097 .0275834
833.788 .0275803
834.479 .0275776
835.169 .0275754
835.859 .0275736
836.548 .0275722
837.238 .0275711
837.927 .0275702
838.615 .0275696
839.304 .0275691
839.992 .0275688
840.680 .0275686
841.367 .0275685
842.054 .0275685
842.741 .0275686
843.428 .0275688
844.114 .0275691
844.800 .0275693
845.485 .0275696
846.170 .0275696
846.855 .0275695
847.540 .0275691
848.224 .0275684
848.908 .0275674
849.592 .0275659
850.275 .0275640
850.958 .0275617
851.641 .0275589
852.323 .0275557
853.005 .0275520
853.687 .0275480
854.368 .0275435
855.049 .0275387
855.730 .0275335
856.410 .0275280
857.090 .0275222
857.769 .0275162
858.449 .0275098
859.128 .0275032
859.806 .0274964
860.485 .0274894
861.163 .0274822
861.840 .0274751
862.518 .0274680
863.195 .0274610
863.871 .0274544
864.548 .0274481
865.224 .0274422
865.899 .0274367
866.574 .0274317
867.249 .0274271
867.924 .0274229
868.598 .0274192
869.272 .0274159
869.946 .0274129
870.619 .0274102
871.292 .0274079
871.964 .0274058
872.636 .0274039
873.308 .0274022
873.979 .0274006
874.651 .0273991
875.321 .0273976
875.992 .0273961
876.662 .0273945
877.331 .0273929
878.001 .0273910
878.670 .0273888
879.338 .0273863
880.007 .0273835
880.675 .0273803
881.342 .0273767
882.009 .0273727
882.676 .0273682
883.343 .0273634
884.009 .0273582
884.675 .0273526
885.340 .0273466
886.005 .0273402
886.670 .0273335
887.334 .0273264
887.998 .0273191
888.662 .0273115
889.325 .0273037
889.988 .0272957
890.650 .0272875
891.312 .0272791
891.974 .0272705
892.636 .0272618
893.297 .0272527
893.957 .0272434
894.618 .0272336
895.278 .0272235
895.937 .0272129
896.596 .0272017
897.255 .0271899
897.914 .0271772
898.572 .0271636
899.230 .0271491
899.887 .0271336
900.544 .0271170
901.201 .0270992
901.857 .0270676
902.513 .0270469
903.168 .0270251
903.823 .0270023
904.478 .0269785
905.132 .0269537
905.786 .0269280
906.440 .0269014
907.093 .0268740
907.746 .0268457
908.399 .0268167
909.051 .0267869
909.703 .0267565
910.354 .0267404
911.005 .0267096
911.656 .0266785
912.306 .0266472
912.956 .0266158
913.605 .0265843
914.254 .0265528
914.903 .0265214
915.551 .0264900
916.199 .0264587
916.847 .0264275
917.494 .0263965
918.141 .0263658
918.788 .0263353
919.434 .0263053
920.079 .0262756
920.725 .0262463
921.370 .0262173
922.014 .0261885
922.658 .0261599
923.302 .0261313
923.946 .0261028
924.589 .0260742
925.231 .0260458
925.873 .0260174
926.515 .0259891
927.157 .0259611
927.798 .0259333
928.439 .0259057
929.079 .0258783
929.719 .0258512
930.359 .0258244
930.998 .0257978
931.637 .0257716
932.275 .0257459
932.913 .0257209
933.551 .0256966
934.188 .0256731
934.825 .0256505
935.462 .0256287
936.098 .0256079
936.733 .0255879
937.369 .0255688
938.004 .0255505
938.638 .0255331
939.273 .0255167
939.907 .0255012
940.540 .0254868
941.173 .0254735
941.806 .0254613
942.438 .0254502
943.070 .0254401
943.702 .0254309
944.333 .0254226
944.964 .0254151
945.594 .0254084
946.224 .0254023
946.854 .0253968
947.483 .0253920
948.112 .0253878
948.741 .0253842
949.369 .0253810
949.996 .0253784
950.624 .0253761
951.251 .0253741
951.878 .0253723
952.504 .0253707
953.130 .0253692
953.755 .0253680
954.380 .0253669
955.005 .0253662
955.629 .0253659
956.253 .0253660
956.877 .0253665
957.500 .0253675
958.123 .0253689
958.746 .0253706
959.368 .0253728
959.990 .0253753
960.611 .0253782
961.232 .0253815
961.853 .0253853
962.473 .0253896
963.093 .0253944
963.712 .0253997
964.331 .0254054
964.950 .0254115
965.569 .0254177
966.187 .0254242
966.804 .0254307
967.422 .0254373
968.039 .0254439
968.655 .0254506
969.272 .0254572
969.887 .0254639
970.503 .0254706
971.118 .0254773
971.733 .0254839
972.347 .0254904
972.961 .0254967
973.575 .0255028
974.188 .0255086
974.801 .0255141
975.414 .0255192
976.026 .0255240
976.638 .0255284
977.250 .0255323
977.861 .0255359
978.472 .0255390
979.083 .0255418
979.693 .0255443
980.303 .0255464
980.912 .0255490
981.521 .0255508
982.130 .0255525
982.738 .0255541
983.346 .0255557
983.954 .0255573
984.562 .0255588
985.169 .0255603
985.775 .0255619
986.382 .0255635
986.988 .0255652
987.594 .0255671
988.199 .0255691
988.804 .0255714
989.409 .0255733
990.013 .0255761
990.617 .0255790
991.221 .0255820
991.824 .0255852
992.427 .0255883
993.030 .0255915
993.632 .0255947
994.234 .0255980
994.836 .0256014
995.438 .0256049
996.039 .0256086
996.640 .0256125
997.240 .0256165
997.840 .0256205
998.440 .0256245
999.040 .0256285
999.639 .0256322
1000.238 .0256358
1000.836 .0256393
1001.435 .0256427
1002.033 .0256460
1002.630 .0256494
1003.228 .0256529
1003.825 .0256564
1004.422 .0256599
1005.018 .0256635
1005.614 .0256669
1006.210 .0256701
1006.806 .0256731
1007.401 .0256759
1007.996 .0256784
1008.591 .0256808
1009.186 .0256831
1009.780 .0256853
1010.374 .0256875
1010.967 .0256894
1011.561 .0256913
1012.154 .0256928
1012.746 .0256940
1013.339 .0256949
1013.931 .0256954
1014.523 .0256955
1015.115 .0256953
1015.706 .0256949
1016.298 .0256941
1016.888 .0256932
1017.479 .0256920
1018.069 .0256907
1018.660 .0256891
1019.250 .0256873
1019.839 .0256852
1020.429 .0256828
1021.018 .0256802
1021.607 .0256772
1022.195 .0256740
1022.784 .0256704
1023.372 .0256666
1023.960 .0256624
1024.547 .0256580
1025.135 .0256533
1025.722 .0256484
1026.309 .0256432
1026.896 .0256379
1027.483 .0256324
1028.069 .0256268
1028.655 .0256213
1029.241 .0256157
1029.827 .0256102
1030.412 .0256048
1030.997 .0255994
1031.582 .0255942
1032.167 .0255890
1032.752 .0255840
1033.336 .0255790
1033.921 .0255740
1034.505 .0255692
1035.089 .0255644
1035.672 .0255595
1036.256 .0255546
1036.839 .0255496
1037.422 .0255443
1038.005 .0255387
1038.588 .0255326
1039.171 .0255260
1039.753 .0255189
1040.335 .0255112
1040.918 .0255031
1041.500 .0254943
1042.081 .0254851
1042.663 .0254754
1043.244 .0254652
1043.826 .0254544
1044.407 .0254431
1044.988 .0254313
1045.569 .0254190
1046.150 .0254063
1046.730 .0253931
1047.311 .0253796
1047.891 .0253659
1048.471 .0253519
1049.052 .0253378
1049.632 .0253235
1050.211 .0253090
1050.791 .0252943
1051.371 .0252793
1051.950 .0252641
1052.530 .0252486
1053.109 .0252329
1053.688 .0252169
1054.268 .0252007
1054.847 .0251844
1055.426 .0251682
1056.005 .0251519
1056.583 .0251356
1057.162 .0251193
1057.741 .0251031
1058.319 .0250868
1058.898 .0250705
1059.476 .0250541
1060.055 .0250378
1060.633 .0250214
1061.211 .0250051
1061.790 .0249889
1062.368 .0249728
1062.946 .0249570
1063.524 .0249414
1064.102 .0249259
1064.680 .0249107
1065.258 .0248958
1065.836 .0248810
1066.414 .0248665
1066.992 .0248524
1067.570 .0248386
1068.148 .0248254
1068.726 .0248127
1069.304 .0248007
1069.882 .0247894
1070.460 .0247789
1071.038 .0247691
1071.616 .0247602
1072.194 .0247519
1072.772 .0247443
1073.350 .0247373
1073.928 .0247309
1074.506 .0247251
1075.084 .0247198
1075.662 .0247150
1076.240 .0247109
1076.819 .0247074
1077.397 .0247045
1077.976 .0247022
1078.554 .0247004
1079.133 .0246992
1079.711 .0246983
1080.290 .0246978
1080.869 .0246977
1081.448 .0246978
1082.027 .0246983
1082.606 .0246990
1083.185 .0247001
1083.764 .0247013
1084.343 .0247028
1084.923 .0247045
1085.502 .0247064
1086.082 .0247084
1086.662 .0247107
1087.242 .0247133
1087.822 .0247165
1088.402 .0247201
1088.983 .0247245
1089.563 .0247298
1090.144 .0247362
1090.725 .0247436
1091.306 .0247523
1091.887 .0247624
1092.469 .0247739
1093.050 .0247868
1093.632 .0248013
1094.214 .0248173
1094.796 .0248349
1095.379 .0248540
1095.961 .0248744
1096.544 .0248960
1097.127 .0249184
1097.710 .0249414
1098.294 .0249646
1098.877 .0249879
1099.461 .0250111
1100.046 .0250341
1100.630 .0250570
1101.215 .0250800
1101.800 .0251029
1102.385 .0251261
1102.970 .0251494
1103.556 .0251727
1104.142 .0251961
1104.728 .0252193
1105.315 .0252424
1105.902 .0252655
1106.489 .0252888
1107.077 .0253125
1107.664 .0253369
1108.253 .0253625
1108.841 .0253894
1109.430 .0254179
1110.019 .0254482
1110.609 .0254802
1111.198 .0255139
1111.789 .0255493
1112.379 .0255863
1112.970 .0256251
1113.561 .0256657
1114.153 .0257084
1114.745 .0257535
1115.338 .0258012
1115.931 .0258516
1116.524 .0259048
1117.117 .0259606
1117.712 .0260188
1118.306 .0260792
1118.901 .0261414
1119.496 .0262051
1120.092 .0262703
1120.689 .0263367
1121.285 .0264041
1121.882 .0264726
1122.480 .0265422
1123.078 .0266126
1123.677 .0266839
1124.276 .0267560
1124.875 .0268286
1125.476 .0269017
1126.076 .0269753
1126.677 .0270491
1127.279 .0271235
1127.881 .0271985
1128.484 .0272740
1129.087 .0273116
1129.691 .0273872
1130.295 .0274633
1130.900 .0275403
1131.505 .0276180
1132.111 .0276965
1132.718 .0277757
1133.325 .0278559
1133.933 .0279362
1134.541 .0280198
1135.150 .0281066
1135.760 .0281902
1136.370 .0282748
1136.981 .0283224
1137.592 .0284287
1138.204 .0285330
1138.817 .0286426
1139.431 .0287513
1140.045 .0288625
1140.660 .0289704
1141.275 .0290804
1141.891 .0291732
1142.508 .0293421
1143.126 .0295047
1143.744 .0294839
1144.363 .0295746
1144.983 .0291411
