Measurement Sequence started on: 15-12-46-377
Integration time: 28
Scans to Average: 2 
>>>>>Begin Spectral Data<<<<<
432.689 .0000100
433.621 .0000100
434.552 .0000100
435.482 .0000100
436.410 .0000100
437.337 .0000100
438.262 .0263912
439.187 .0559105
440.110 .0925163
441.031 .1337893
441.952 .1063778
442.871 .1110026
443.789 .1153038
444.705 .1193487
445.621 .1231823
446.535 .1268386
447.447 .1289544
448.359 .1293849
449.269 .1277741
450.178 .1238896
451.086 .1178124
451.993 .1100073
452.898 .1012397
453.803 .0923750
454.706 .0841474
455.608 .0770101
456.508 .0711119
457.408 .0671248
458.306 .0640634
459.204 .0615682
460.100 .0594632
460.995 .0576477
461.888 .0560566
462.781 .0546476
463.673 .0533897
464.563 .0522601
465.452 .0512420
466.340 .0503204
467.228 .0494848
468.114 .0487258
468.999 .0480370
469.882 .0474112
470.765 .0468428
471.647 .0463266
472.528 .0458588
473.407 .0454347
474.286 .0450521
475.163 .0447083
476.040 .0444007
476.915 .0441277
477.790 .0438870
478.663 .0436766
479.535 .0434947
480.407 .0433386
481.277 .0432064
482.147 .0430953
483.015 .0430032
483.883 .0429277
484.749 .0428672
485.615 .0428197
486.479 .0427837
487.343 .0427579
488.206 .0427421
489.067 .0427352
489.928 .0427375
490.788 .0427492
491.647 .0427715
492.505 .0428055
493.362 .0428523
494.218 .0429133
495.073 .0429905
495.928 .0431690
496.781 .0432961
497.634 .0434439
498.486 .0436132
499.337 .0438050
500.187 .0440209
501.036 .0442625
501.884 .0445322
502.731 .0448343
503.578 .0451726
504.424 .0454233
505.268 .0458304
506.113 .0462860
506.956 .0467945
507.798 .0473603
508.640 .0479887
509.480 .0486849
510.320 .0494563
511.160 .0503106
511.998 .0512564
512.836 .0523087
513.672 .0534838
514.508 .0548012
515.344 .0562828
516.178 .0579532
517.012 .0598369
517.845 .0619570
518.677 .0643339
519.508 .0669839
520.339 .0699127
521.169 .0731227
521.998 .0765928
522.826 .0802915
523.654 .0841758
524.481 .0881885
525.307 .0922645
526.133 .0963341
526.958 .1003162
527.782 .1041332
528.605 .1077108
529.428 .1109846
530.250 .1138885
531.072 .1163745
531.892 .1184012
532.712 .1199363
533.532 .1209576
534.350 .1214520
535.168 .1214126
535.986 .1208446
536.802 .1197517
537.618 .1181440
538.434 .1160339
539.249 .1134572
540.063 .1104581
540.876 .1070902
541.689 .1034200
542.501 .0995224
543.313 .0954716
544.124 .0913521
544.934 .0872421
545.744 .0832136
546.553 .0793280
547.361 .0756405
548.169 .0721860
548.976 .0689890
549.783 .0660629
550.589 .0634077
551.395 .0610139
552.200 .0588662
553.004 .0569389
553.808 .0552100
554.611 .0536605
555.414 .0522711
556.216 .0510218
557.018 .0498941
557.819 .0488723
558.619 .0479407
559.419 .0470848
560.218 .0462934
561.017 .0455564
561.815 .0448656
562.613 .0442147
563.410 .0435967
564.207 .0430066
565.003 .0424402
565.799 .0418937
566.594 .0413636
567.388 .0408471
568.182 .0403421
568.976 .0398468
569.769 .0393609
570.562 .0388848
571.354 .0384187
572.145 .0379640
572.936 .0375223
573.727 .0370946
574.517 .0366819
575.307 .0362853
576.096 .0359052
576.885 .0355421
577.673 .0351962
578.461 .0348669
579.248 .0345540
580.035 .0342574
580.821 .0339771
581.607 .0337128
582.392 .0334643
583.177 .0332312
583.962 .0330131
584.746 .0328096
585.529 .0326199
586.313 .0324431
587.095 .0322787
587.878 .0321257
588.660 .0319837
589.441 .0318519
590.222 .0317301
591.003 .0316178
591.783 .0315146
592.563 .0314200
593.342 .0313333
594.121 .0312540
594.899 .0311815
595.678 .0311151
596.455 .0310542
597.233 .0309981
598.009 .0309463
598.786 .0308982
599.562 .0308536
600.338 .0308120
601.113 .0307731
601.888 .0307220
602.663 .0306883
603.437 .0306565
604.211 .0306264
604.984 .0305979
605.757 .0305708
606.530 .0305452
607.302 .0305208
608.074 .0304976
608.845 .0304755
609.616 .0304543
610.387 .0304463
611.158 .0304264
611.928 .0304074
612.697 .0303890
613.467 .0303715
614.236 .0303548
615.004 .0303389
615.773 .0303237
616.541 .0303089
617.308 .0302945
618.076 .0302801
618.843 .0302655
619.609 .0302504
620.375 .0302347
621.141 .0302183
621.907 .0302010
622.672 .0301828
623.437 .0301635
624.202 .0301432
624.966 .0301217
625.730 .0300989
626.493 .0300748
627.257 .0300495
628.020 .0300229
628.782 .0299953
629.545 .0299668
630.307 .0299374
631.068 .0299072
631.830 .0298764
632.591 .0298451
633.352 .0298133
634.112 .0297813
634.872 .0297492
635.632 .0297174
636.392 .0296859
637.151 .0296552
637.910 .0296254
638.668 .0295965
639.427 .0295688
640.185 .0295421
640.943 .0295165
641.700 .0294920
642.457 .0294687
643.214 .0294466
643.971 .0294258
644.727 .0294064
645.483 .0293884
646.239 .0293718
646.994 .0293565
647.750 .0293424
648.505 .0293295
649.259 .0293175
650.014 .0293063
650.768 .0292959
651.521 .0292862
652.275 .0292770
653.028 .0292683
653.781 .0292599
654.534 .0292518
655.286 .0292438
656.039 .0292358
656.791 .0292277
657.542 .0292195
658.294 .0292112
659.045 .0292027
659.796 .0291941
660.546 .0291854
661.297 .0291765
662.047 .0291674
662.796 .0291579
663.546 .0291480
664.295 .0291377
665.044 .0291268
665.793 .0291153
666.542 .0291033
667.290 .0290909
668.038 .0290781
668.786 .0290649
669.533 .0290515
670.281 .0290377
671.028 .0290236
671.774 .0290091
672.521 .0289943
673.267 .0289790
674.013 .0289633
674.759 .0289472
675.505 .0289307
676.250 .0289137
676.995 .0288963
677.740 .0288785
678.484 .0288602
679.229 .0288415
679.973 .0288223
680.717 .0288028
681.460 .0287829
682.204 .0287627
682.947 .0287421
683.690 .0287212
684.433 .0286998
685.175 .0286780
685.917 .0286557
686.659 .0286328
687.401 .0286096
688.142 .0285859
688.884 .0285619
689.625 .0285378
690.365 .0285136
691.106 .0284894
691.846 .0284654
692.586 .0284414
693.326 .0284176
694.066 .0283939
694.805 .0283703
695.545 .0283469
696.284 .0283236
697.022 .0283005
697.761 .0282777
698.499 .0282552
699.237 .0282332
699.975 .0282116
700.713 .0281906
701.450 .0281703
702.187 .0281505
702.924 .0281314
703.661 .0281130
704.397 .0280953
705.133 .0280782
705.869 .0280619
706.605 .0280463
707.341 .0280314
708.076 .0280170
708.811 .0280033
709.546 .0279901
710.281 .0279775
711.015 .0279655
711.749 .0279540
712.483 .0279429
713.217 .0279324
713.950 .0279223
714.684 .0279126
715.417 .0279033
716.150 .0278943
716.882 .0278855
717.615 .0278769
718.347 .0278684
719.079 .0278601
719.811 .0278518
720.542 .0278437
721.273 .0278357
722.005 .0278278
722.735 .0278200
723.466 .0278125
724.196 .0278052
724.927 .0277981
725.656 .0277913
726.386 .0277848
727.116 .0277785
727.845 .0277725
728.574 .0277667
729.303 .0277610
730.031 .0277556
730.760 .0277503
731.488 .0277452
732.216 .0277404
732.944 .0277358
733.671 .0277314
734.398 .0277273
735.125 .0277234
735.852 .0277198
736.579 .0277163
737.305 .0277130
738.031 .0277097
738.757 .0277063
739.483 .0277026
740.208 .0276987
740.933 .0276944
741.658 .0276895
742.383 .0276841
743.108 .0276780
743.832 .0276713
744.556 .0276638
745.280 .0276556
746.004 .0276466
746.727 .0276367
747.450 .0276259
748.173 .0276142
748.896 .0276014
749.618 .0275875
750.340 .0275726
751.062 .0275564
751.784 .0275391
752.506 .0275207
753.227 .0275011
753.948 .0274804
754.669 .0274587
755.389 .0274361
756.110 .0274126
756.830 .0273884
757.550 .0273634
758.269 .0273378
758.989 .0273115
759.708 .0272848
760.427 .0272576
761.146 .0272300
761.864 .0272020
762.582 .0271739
763.300 .0271456
764.018 .0271174
764.736 .0270892
765.453 .0270613
766.170 .0270337
766.887 .0270064
767.603 .0269797
768.320 .0269536
769.036 .0269282
769.751 .0269037
770.467 .0268802
771.182 .0268576
771.897 .0268360
772.612 .0268155
773.327 .0267960
774.041 .0267775
774.755 .0267601
775.469 .0267437
776.183 .0267284
776.896 .0267141
777.609 .0267007
778.322 .0266884
779.035 .0266769
779.747 .0266662
780.459 .0266562
781.171 .0266469
781.882 .0266382
782.594 .0266301
783.305 .0266224
784.016 .0266152
784.726 .0266084
785.436 .0266020
786.147 .0265931
786.856 .0265873
787.566 .0265817
788.275 .0265764
788.984 .0265713
789.693 .0265664
790.401 .0265618
791.110 .0265574
791.818 .0265534
792.525 .0265496
793.233 .0265460
793.940 .0265427
794.647 .0265419
795.353 .0265390
796.060 .0265364
796.766 .0265342
797.472 .0265324
798.177 .0265310
798.883 .0265300
799.588 .0265295
800.292 .0265294
800.997 .0265297
801.701 .0265303
802.405 .0265313
803.109 .0265326
803.812 .0265341
804.515 .0265358
805.218 .0265377
805.921 .0265395
806.623 .0265413
807.325 .0265429
808.027 .0265444
808.728 .0265455
809.429 .0265464
810.130 .0265469
810.831 .0265470
811.531 .0265469
812.231 .0265464
812.931 .0265456
813.630 .0265445
814.330 .0265431
815.029 .0265413
815.727 .0265392
816.426 .0265368
817.124 .0265341
817.821 .0265311
818.519 .0265279
819.216 .0265245
819.913 .0265209
820.609 .0265171
821.306 .0265131
822.002 .0265089
822.697 .0265046
823.393 .0265002
824.088 .0264957
824.783 .0264911
825.477 .0264864
826.171 .0264816
826.865 .0264766
827.559 .0264714
828.252 .0264660
828.945 .0264603
829.638 .0264544
830.330 .0264481
831.023 .0264414
831.714 .0264344
832.406 .0264268
833.097 .0264187
833.788 .0264100
834.479 .0264007
835.169 .0263906
835.859 .0263798
836.548 .0263684
837.238 .0263562
837.927 .0263432
838.615 .0263295
839.304 .0263150
839.992 .0262997
840.680 .0262835
841.367 .0262665
842.054 .0262486
842.741 .0262299
843.428 .0262105
844.114 .0261903
844.800 .0261695
845.485 .0261480
846.170 .0261258
846.855 .0261028
847.540 .0260791
848.224 .0260545
848.908 .0260291
849.592 .0260029
850.275 .0259760
850.958 .0259484
851.641 .0259202
852.323 .0258915
853.005 .0258623
853.687 .0258327
854.368 .0258027
855.049 .0257724
855.730 .0257419
856.410 .0257112
857.090 .0256804
857.769 .0256497
858.449 .0256191
859.128 .0255889
859.806 .0255591
860.485 .0255298
861.163 .0255011
861.840 .0254730
862.518 .0254456
863.195 .0254189
863.871 .0253930
864.548 .0253680
865.224 .0253439
865.899 .0253207
866.574 .0252985
867.249 .0252772
867.924 .0252570
868.598 .0252376
869.272 .0252192
869.946 .0252017
870.619 .0251851
871.292 .0251693
871.964 .0251544
872.636 .0251403
873.308 .0251270
873.979 .0251146
874.651 .0251029
875.321 .0250920
875.992 .0250819
876.662 .0250725
877.331 .0250638
878.001 .0250559
878.670 .0250488
879.338 .0250424
880.007 .0250369
880.675 .0250322
881.342 .0250283
882.009 .0250254
882.676 .0250234
883.343 .0250223
884.009 .0250220
884.675 .0250227
885.340 .0250242
886.005 .0250266
886.670 .0250298
887.334 .0250338
887.998 .0250387
888.662 .0250444
889.325 .0250509
889.988 .0250581
890.650 .0250662
891.312 .0250750
891.974 .0250844
892.636 .0250944
893.297 .0251051
893.957 .0251162
894.618 .0251277
895.278 .0251396
895.937 .0251517
896.596 .0251640
897.255 .0251764
897.914 .0251886
898.572 .0252007
899.230 .0252126
899.887 .0252241
900.544 .0252353
901.201 .0252461
901.857 .0252601
902.513 .0252695
903.168 .0252784
903.823 .0252868
904.478 .0252946
905.132 .0253019
905.786 .0253086
906.440 .0253147
907.093 .0253204
907.746 .0253255
908.399 .0253303
909.051 .0253346
909.703 .0253385
910.354 .0253392
911.005 .0253426
911.656 .0253455
912.306 .0253479
912.956 .0253497
913.605 .0253510
914.254 .0253519
914.903 .0253524
915.551 .0253526
916.199 .0253523
916.847 .0253517
917.494 .0253508
918.141 .0253494
918.788 .0253476
919.434 .0253453
920.079 .0253426
920.725 .0253392
921.370 .0253353
922.014 .0253308
922.658 .0253257
923.302 .0253199
923.946 .0253135
924.589 .0253063
925.231 .0252983
925.873 .0252896
926.515 .0252801
927.157 .0252699
927.798 .0252589
928.439 .0252474
929.079 .0252353
929.719 .0252228
930.359 .0252098
930.998 .0251966
931.637 .0251830
932.275 .0251692
932.913 .0251553
933.551 .0251414
934.188 .0251274
934.825 .0251135
935.462 .0250996
936.098 .0250858
936.733 .0250720
937.369 .0250583
938.004 .0250445
938.638 .0250308
939.273 .0250171
939.907 .0250034
940.540 .0249898
941.173 .0249762
941.806 .0249627
942.438 .0249492
943.070 .0249356
943.702 .0249219
944.333 .0249080
944.964 .0248938
945.594 .0248793
946.224 .0248644
946.854 .0248492
947.483 .0248336
948.112 .0248176
948.741 .0248012
949.369 .0247844
949.996 .0247672
950.624 .0247493
951.251 .0247309
951.878 .0247119
952.504 .0246922
953.130 .0246719
953.755 .0246510
954.380 .0246296
955.005 .0246077
955.629 .0245853
956.253 .0245626
956.877 .0245395
957.500 .0245160
958.123 .0244921
958.746 .0244679
959.368 .0244433
959.990 .0244185
960.611 .0243934
961.232 .0243682
961.853 .0243429
962.473 .0243175
963.093 .0242921
963.712 .0242666
964.331 .0242411
964.950 .0242154
965.569 .0241897
966.187 .0241638
966.804 .0241378
967.422 .0241117
968.039 .0240855
968.655 .0240592
969.272 .0240327
969.887 .0240062
970.503 .0239796
971.118 .0239529
971.733 .0239260
972.347 .0238990
972.961 .0238719
973.575 .0238447
974.188 .0238175
974.801 .0237903
975.414 .0237631
976.026 .0237360
976.638 .0237089
977.250 .0236820
977.861 .0236551
978.472 .0236284
979.083 .0236018
979.693 .0235753
980.303 .0235491
980.912 .0235109
981.521 .0234856
982.130 .0234606
982.738 .0234360
983.346 .0234118
983.954 .0233881
984.562 .0233650
985.169 .0233425
985.775 .0233209
986.382 .0233002
986.988 .0232806
987.594 .0232621
988.199 .0232450
988.804 .0232291
989.409 .0232249
990.013 .0232111
990.617 .0231988
991.221 .0231878
991.824 .0231782
992.427 .0231700
993.030 .0231631
993.632 .0231576
994.234 .0231533
994.836 .0231503
995.438 .0231484
996.039 .0231477
996.640 .0231480
997.240 .0231492
997.840 .0231514
998.440 .0231544
999.040 .0231584
999.639 .0231631
1000.238 .0231686
1000.836 .0231748
1001.435 .0231816
1002.033 .0231891
1002.630 .0231970
1003.228 .0232052
1003.825 .0232139
1004.422 .0232227
1005.018 .0232318
1005.614 .0232412
1006.210 .0232507
1006.806 .0232604
1007.401 .0232703
1007.996 .0232804
1008.591 .0232906
1009.186 .0233011
1009.780 .0233118
1010.374 .0233228
1010.967 .0233341
1011.561 .0233458
1012.154 .0233580
1012.746 .0233708
1013.339 .0233842
1013.931 .0233984
1014.523 .0234132
1015.115 .0234289
1015.706 .0234452
1016.298 .0234623
1016.888 .0234801
1017.479 .0234987
1018.069 .0235179
1018.660 .0235378
1019.250 .0235585
1019.839 .0235798
1020.429 .0236018
1021.018 .0236245
1021.607 .0236478
1022.195 .0236716
1022.784 .0236960
1023.372 .0237208
1023.960 .0237460
1024.547 .0237717
1025.135 .0237978
1025.722 .0238243
1026.309 .0238511
1026.896 .0238783
1027.483 .0239057
1028.069 .0239332
1028.655 .0239608
1029.241 .0239883
1029.827 .0240158
1030.412 .0240432
1030.997 .0240704
1031.582 .0240975
1032.167 .0241245
1032.752 .0241514
1033.336 .0241782
1033.921 .0242049
1034.505 .0242314
1035.089 .0242578
1035.672 .0242840
1036.256 .0243099
1036.839 .0243355
1037.422 .0243608
1038.005 .0243858
1038.588 .0244103
1039.171 .0244343
1039.753 .0244577
1040.335 .0244805
1040.918 .0245026
1041.500 .0245238
1042.081 .0245442
1042.663 .0245636
1043.244 .0245820
1043.826 .0245995
1044.407 .0246163
1044.988 .0246322
1045.569 .0246475
1046.150 .0246622
1046.730 .0246762
1047.311 .0246897
1047.891 .0247027
1048.471 .0247153
1049.052 .0247275
1049.632 .0247394
1050.211 .0247511
1050.791 .0247628
1051.371 .0247744
1051.950 .0247860
1052.530 .0247977
1053.109 .0248092
1053.688 .0248206
1054.268 .0248316
1054.847 .0248424
1055.426 .0248529
1056.005 .0248632
1056.583 .0248732
1057.162 .0248830
1057.741 .0248926
1058.319 .0249019
1058.898 .0249111
1059.476 .0249200
1060.055 .0249286
1060.633 .0249369
1061.211 .0249450
1061.790 .0249528
1062.368 .0249605
1062.946 .0249679
1063.524 .0249752
1064.102 .0249821
1064.680 .0249886
1065.258 .0249944
1065.836 .0249996
1066.414 .0250040
1066.992 .0250076
1067.570 .0250104
1068.148 .0250126
1068.726 .0250142
1069.304 .0250153
1069.882 .0250160
1070.460 .0250162
1071.038 .0250158
1071.616 .0250148
1072.194 .0250131
1072.772 .0250107
1073.350 .0250076
1073.928 .0250039
1074.506 .0249998
1075.084 .0249956
1075.662 .0249915
1076.240 .0249874
1076.819 .0249835
1077.397 .0249797
1077.976 .0249758
1078.554 .0249716
1079.133 .0249670
1079.711 .0249620
1080.290 .0249566
1080.869 .0249509
1081.448 .0249450
1082.027 .0249392
1082.606 .0249334
1083.185 .0249277
1083.764 .0249221
1084.343 .0249164
1084.923 .0249104
1085.502 .0249041
1086.082 .0248973
1086.662 .0248901
1087.242 .0248827
1087.822 .0248752
1088.402 .0248678
1088.983 .0248609
1089.563 .0248544
1090.144 .0248485
1090.725 .0248431
1091.306 .0248382
1091.887 .0248337
1092.469 .0248297
1093.050 .0248262
1093.632 .0248232
1094.214 .0248206
1094.796 .0248186
1095.379 .0248170
1095.961 .0248158
1096.544 .0248150
1097.127 .0248145
1097.710 .0248140
1098.294 .0248137
1098.877 .0248135
1099.461 .0248132
1100.046 .0248129
1100.630 .0248126
1101.215 .0248122
1101.800 .0248116
1102.385 .0248111
1102.970 .0248105
1103.556 .0248100
1104.142 .0248099
1104.728 .0248102
1105.315 .0248113
1105.902 .0248134
1106.489 .0248167
1107.077 .0248212
1107.664 .0248269
1108.253 .0248336
1108.841 .0248409
1109.430 .0248486
1110.019 .0248566
1110.609 .0248647
1111.198 .0248728
1111.789 .0248811
1112.379 .0248897
1112.970 .0248989
1113.561 .0249089
1114.153 .0249197
1114.745 .0249314
1115.338 .0249440
1115.931 .0249573
1116.524 .0249714
1117.117 .0249864
1117.712 .0250025
1118.306 .0250198
1118.901 .0250387
1119.496 .0250593
1120.092 .0250817
1120.689 .0251060
1121.285 .0251322
1121.882 .0251599
1122.480 .0251890
1123.078 .0252193
1123.677 .0252504
1124.276 .0252823
1124.875 .0253151
1125.476 .0253487
1126.076 .0253834
1126.677 .0254191
1127.279 .0254562
1127.881 .0254948
1128.484 .0255352
1129.087 .0255518
1129.691 .0255949
1130.295 .0256401
1130.900 .0256874
1131.505 .0257370
1132.111 .0257891
1132.718 .0258442
1133.325 .0259028
1133.933 .0259638
1134.541 .0260251
1135.150 .0260939
1135.760 .0261713
1136.370 .0262557
1136.981 .0262266
1137.592 .0262925
1138.204 .0263699
1138.817 .0264507
1139.431 .0265360
1140.045 .0266302
1140.660 .0267355
1141.275 .0268548
1141.891 .0269445
1142.508 .0269761
1143.126 .0272182
1143.744 .0274912
1144.363 .0277301
1144.983 .0266521
