Measurement Sequence started on: 15-12-46-377
Integration time: 28
Scans to Average: 2 
>>>>>Begin Spectral Data<<<<<
432.689 .0000100
433.621 .0000100
434.552 .0000100
435.482 .0000100
436.410 .0000100
437.337 .0000100
438.262 .0281222
439.187 .0595462
440.110 .0985942
441.031 .1425545
441.952 .1139520
442.871 .1189801
443.789 .1236569
444.705 .1280536
445.621 .1322189
446.535 .1361917
447.447 .1385193
448.359 .1390484
449.269 .1373962
450.178 .1333200
451.086 .1269011
451.993 .1186319
452.898 .1093234
453.803 .0998956
454.706 .0911303
455.608 .0835100
456.508 .0771946
457.408 .0729064
458.306 .0695983
459.204 .0668958
460.100 .0646104
460.995 .0626409
461.888 .0609183
462.781 .0593963
463.673 .0580382
464.563 .0568190
465.452 .0557198
466.340 .0547245
467.228 .0538200
468.114 .0529967
468.999 .0522463
469.882 .0515617
470.765 .0509367
471.647 .0503662
472.528 .0498457
473.407 .0493707
474.286 .0489378
475.163 .0485446
476.040 .0481886
476.915 .0478683
477.790 .0475815
478.663 .0473274
479.535 .0471050
480.407 .0469131
481.277 .0467503
482.147 .0466152
483.015 .0465056
483.883 .0464194
484.749 .0463547
485.615 .0463097
486.479 .0462832
487.343 .0462751
488.206 .0462855
489.067 .0463147
489.928 .0463636
490.788 .0464324
491.647 .0465216
492.505 .0466317
493.362 .0467628
494.218 .0469153
495.073 .0470892
495.928 .0474298
496.781 .0476601
497.634 .0479119
498.486 .0481858
499.337 .0484827
500.187 .0488037
501.036 .0491502
501.884 .0495250
502.731 .0499315
503.578 .0503734
504.424 .0506674
505.268 .0511783
506.113 .0517369
506.956 .0523483
507.798 .0530186
508.640 .0537538
509.480 .0545618
510.320 .0554534
511.160 .0564406
511.998 .0575386
512.836 .0587663
513.672 .0601437
514.508 .0616938
515.344 .0634407
516.178 .0654075
517.012 .0676192
517.845 .0700989
518.677 .0728652
519.508 .0759346
520.339 .0793168
521.169 .0830132
521.998 .0869970
522.826 .0912323
523.654 .0956596
524.481 .1002057
525.307 .1047853
526.133 .1093017
526.958 .1136549
527.782 .1177511
528.605 .1215027
529.428 .1248359
530.250 .1276865
531.072 .1300157
531.892 .1317894
532.712 .1329904
533.532 .1336088
534.350 .1336414
535.168 .1330936
535.986 .1319767
536.802 .1302985
537.618 .1280703
538.434 .1253088
539.249 .1220574
540.063 .1183671
540.876 .1143093
541.689 .1099672
542.501 .1054328
543.313 .1008055
544.124 .0961850
544.934 .0916595
545.744 .0873082
546.553 .0831924
547.361 .0793596
548.169 .0758308
548.976 .0726190
549.783 .0697191
550.589 .0671191
551.395 .0647981
552.200 .0627287
553.004 .0608800
553.808 .0592259
554.611 .0577416
555.414 .0564049
556.216 .0551929
557.018 .0540849
557.819 .0530636
558.619 .0521127
559.419 .0512190
560.218 .0503731
561.017 .0495661
561.815 .0487930
562.613 .0480498
563.410 .0473335
564.207 .0466414
565.003 .0459721
565.799 .0453230
566.594 .0446931
567.388 .0440811
568.182 .0434856
568.976 .0429048
569.769 .0423390
570.562 .0417878
571.354 .0412517
572.145 .0407316
572.936 .0402286
573.727 .0397437
574.517 .0392781
575.307 .0388326
576.096 .0384077
576.885 .0380036
577.673 .0376209
578.461 .0372588
579.248 .0369173
580.035 .0365960
580.821 .0362941
581.607 .0360110
582.392 .0357465
583.177 .0354997
583.962 .0352702
584.746 .0350573
585.529 .0348603
586.313 .0346782
587.095 .0345101
587.878 .0343551
588.660 .0342122
589.441 .0340808
590.222 .0339598
591.003 .0338484
591.783 .0337460
592.563 .0336517
593.342 .0335645
594.121 .0334837
594.899 .0334083
595.678 .0333377
596.455 .0332709
597.233 .0332073
598.009 .0331465
598.786 .0330881
599.562 .0330318
600.338 .0329776
601.113 .0329253
601.888 .0328527
602.663 .0328045
603.437 .0327579
604.211 .0327126
604.984 .0326683
605.757 .0326250
606.530 .0325824
607.302 .0325404
608.074 .0324990
608.845 .0324583
609.616 .0324183
610.387 .0324003
611.158 .0323621
611.928 .0323250
612.697 .0322890
613.467 .0322542
614.236 .0322203
615.004 .0321874
615.773 .0321553
616.541 .0321239
617.308 .0320932
618.076 .0320631
618.843 .0320337
619.609 .0320050
620.375 .0319773
621.141 .0319504
621.907 .0319244
622.672 .0318994
623.437 .0318750
624.202 .0318513
624.966 .0318281
625.730 .0318051
626.493 .0317821
627.257 .0317592
628.020 .0317361
628.782 .0317129
629.545 .0316896
630.307 .0316662
631.068 .0316428
631.830 .0316194
632.591 .0315960
633.352 .0315727
634.112 .0315494
634.872 .0315260
635.632 .0315026
636.392 .0314791
637.151 .0314553
637.910 .0314314
638.668 .0314073
639.427 .0313830
640.185 .0313587
640.943 .0313344
641.700 .0313102
642.457 .0312862
643.214 .0312623
643.971 .0312386
644.727 .0312150
645.483 .0311914
646.239 .0311678
646.994 .0311442
647.750 .0311205
648.505 .0310968
649.259 .0310731
650.014 .0310494
650.768 .0310259
651.521 .0310026
652.275 .0309795
653.028 .0309566
653.781 .0309339
654.534 .0309112
655.286 .0308886
656.039 .0308658
656.791 .0308429
657.542 .0308200
658.294 .0307969
659.045 .0307739
659.796 .0307509
660.546 .0307280
661.297 .0307052
662.047 .0306826
662.796 .0306601
663.546 .0306378
664.295 .0306156
665.044 .0305934
665.793 .0305713
666.542 .0305492
667.290 .0305272
668.038 .0305053
668.786 .0304836
669.533 .0304619
670.281 .0304404
671.028 .0304189
671.774 .0303975
672.521 .0303762
673.267 .0303549
674.013 .0303338
674.759 .0303126
675.505 .0302915
676.250 .0302704
676.995 .0302493
677.740 .0302283
678.484 .0302072
679.229 .0301862
679.973 .0301653
680.717 .0301444
681.460 .0301236
682.204 .0301029
682.947 .0300822
683.690 .0300615
684.433 .0300408
685.175 .0300201
685.917 .0299992
686.659 .0299783
687.401 .0299573
688.142 .0299363
688.884 .0299153
689.625 .0298943
690.365 .0298735
691.106 .0298528
691.846 .0298322
692.586 .0298119
693.326 .0297918
694.066 .0297720
694.805 .0297525
695.545 .0297333
696.284 .0297145
697.022 .0296962
697.761 .0296782
698.499 .0296607
699.237 .0296436
699.975 .0296271
700.713 .0296111
701.450 .0295956
702.187 .0295807
702.924 .0295662
703.661 .0295522
704.397 .0295386
705.133 .0295253
705.869 .0295122
706.605 .0294993
707.341 .0294864
708.076 .0294737
708.811 .0294609
709.546 .0294482
710.281 .0294354
711.015 .0294224
711.749 .0294092
712.483 .0293956
713.217 .0293817
713.950 .0293674
714.684 .0293526
715.417 .0293373
716.150 .0293215
716.882 .0293053
717.615 .0292885
718.347 .0292712
719.079 .0292535
719.811 .0292354
720.542 .0292169
721.273 .0291980
722.005 .0291788
722.735 .0291594
723.466 .0291399
724.196 .0291203
724.927 .0291009
725.656 .0290816
726.386 .0290625
727.116 .0290437
727.845 .0290251
728.574 .0290069
729.303 .0289890
730.031 .0289714
730.760 .0289541
731.488 .0289372
732.216 .0289205
732.944 .0289042
733.671 .0288882
734.398 .0288724
735.125 .0288569
735.852 .0288416
736.579 .0288265
737.305 .0288115
738.031 .0287967
738.757 .0287820
739.483 .0287674
740.208 .0287530
740.933 .0287386
741.658 .0287244
742.383 .0287101
743.108 .0286960
743.832 .0286819
744.556 .0286678
745.280 .0286538
746.004 .0286398
746.727 .0286258
747.450 .0286118
748.173 .0285976
748.896 .0285834
749.618 .0285690
750.340 .0285547
751.062 .0285403
751.784 .0285260
752.506 .0285118
753.227 .0284978
753.948 .0284839
754.669 .0284701
755.389 .0284565
756.110 .0284429
756.830 .0284293
757.550 .0284157
758.269 .0284020
758.989 .0283884
759.708 .0283748
760.427 .0283612
761.146 .0283476
761.864 .0283340
762.582 .0283205
763.300 .0283070
764.018 .0282935
764.736 .0282799
765.453 .0282664
766.170 .0282528
766.887 .0282392
767.603 .0282257
768.320 .0282123
769.036 .0281992
769.751 .0281863
770.467 .0281738
771.182 .0281617
771.897 .0281500
772.612 .0281387
773.327 .0281278
774.041 .0281174
774.755 .0281074
775.469 .0280978
776.183 .0280886
776.896 .0280799
777.609 .0280716
778.322 .0280639
779.035 .0280568
779.747 .0280502
780.459 .0280442
781.171 .0280387
781.882 .0280339
782.594 .0280295
783.305 .0280256
784.016 .0280220
784.726 .0280188
785.436 .0280157
786.147 .0280117
786.856 .0280089
787.566 .0280060
788.275 .0280031
788.984 .0280001
789.693 .0279970
790.401 .0279937
791.110 .0279902
791.818 .0279865
792.525 .0279825
793.233 .0279781
793.940 .0279734
794.647 .0279700
795.353 .0279647
796.060 .0279591
796.766 .0279531
797.472 .0279469
798.177 .0279403
798.883 .0279335
799.588 .0279264
800.292 .0279189
800.997 .0279112
801.701 .0279031
802.405 .0278946
803.109 .0278857
803.812 .0278764
804.515 .0278666
805.218 .0278564
805.921 .0278457
806.623 .0278347
807.325 .0278232
808.027 .0278113
808.728 .0277990
809.429 .0277864
810.130 .0277736
810.831 .0277604
811.531 .0277470
812.231 .0277334
812.931 .0277196
813.630 .0277056
814.330 .0276914
815.029 .0276771
815.727 .0276627
816.426 .0276483
817.124 .0276339
817.821 .0276194
818.519 .0276051
819.216 .0275908
819.913 .0275767
820.609 .0275626
821.306 .0275487
822.002 .0275350
822.697 .0275215
823.393 .0275082
824.088 .0274951
824.783 .0274824
825.477 .0274700
826.171 .0274579
826.865 .0274460
827.559 .0274344
828.252 .0274230
828.945 .0274117
829.638 .0274006
830.330 .0273897
831.023 .0273788
831.714 .0273680
832.406 .0273572
833.097 .0273465
833.788 .0273359
834.479 .0273252
835.169 .0273144
835.859 .0273037
836.548 .0272929
837.238 .0272820
837.927 .0272712
838.615 .0272604
839.304 .0272496
839.992 .0272388
840.680 .0272280
841.367 .0272172
842.054 .0272063
842.741 .0271953
843.428 .0271842
844.114 .0271728
844.800 .0271613
845.485 .0271495
846.170 .0271374
846.855 .0271250
847.540 .0271123
848.224 .0270992
848.908 .0270858
849.592 .0270719
850.275 .0270577
850.958 .0270431
851.641 .0270280
852.323 .0270126
853.005 .0269967
853.687 .0269805
854.368 .0269640
855.049 .0269471
855.730 .0269300
856.410 .0269127
857.090 .0268953
857.769 .0268777
858.449 .0268602
859.128 .0268428
859.806 .0268256
860.485 .0268085
861.163 .0267917
861.840 .0267752
862.518 .0267591
863.195 .0267434
863.871 .0267281
864.548 .0267134
865.224 .0266991
865.899 .0266854
866.574 .0266723
867.249 .0266597
867.924 .0266476
868.598 .0266360
869.272 .0266250
869.946 .0266144
870.619 .0266044
871.292 .0265949
871.964 .0265859
872.636 .0265775
873.308 .0265694
873.979 .0265618
874.651 .0265545
875.321 .0265476
875.992 .0265409
876.662 .0265345
877.331 .0265284
878.001 .0265227
878.670 .0265175
879.338 .0265128
880.007 .0265087
880.675 .0265051
881.342 .0265020
882.009 .0264995
882.676 .0264974
883.343 .0264959
884.009 .0264948
884.675 .0264943
885.340 .0264943
886.005 .0264951
886.670 .0264965
887.334 .0264986
887.998 .0265014
888.662 .0265049
889.325 .0265091
889.988 .0265140
890.650 .0265194
891.312 .0265254
891.974 .0265319
892.636 .0265389
893.297 .0265463
893.957 .0265539
894.618 .0265618
895.278 .0265696
895.937 .0265774
896.596 .0265849
897.255 .0265920
897.914 .0265985
898.572 .0266045
899.230 .0266098
899.887 .0266143
900.544 .0266179
901.201 .0266205
901.857 .0266193
902.513 .0266190
903.168 .0266175
903.823 .0266148
904.478 .0266109
905.132 .0266058
905.786 .0265996
906.440 .0265923
907.093 .0265839
907.746 .0265746
908.399 .0265644
909.051 .0265535
909.703 .0265420
910.354 .0265348
911.005 .0265229
911.656 .0265106
912.306 .0264980
912.956 .0264851
913.605 .0264720
914.254 .0264587
914.903 .0264452
915.551 .0264317
916.199 .0264181
916.847 .0264046
917.494 .0263912
918.141 .0263779
918.788 .0263647
919.434 .0263516
920.079 .0263387
920.725 .0263258
921.370 .0263128
922.014 .0262998
922.658 .0262866
923.302 .0262732
923.946 .0262595
924.589 .0262454
925.231 .0262310
925.873 .0262162
926.515 .0262010
927.157 .0261854
927.798 .0261694
928.439 .0261530
929.079 .0261362
929.719 .0261190
930.359 .0261016
930.998 .0260839
931.637 .0260661
932.275 .0260481
932.913 .0260301
933.551 .0260122
934.188 .0259945
934.825 .0259770
935.462 .0259598
936.098 .0259430
936.733 .0259265
937.369 .0259104
938.004 .0258947
938.638 .0258794
939.273 .0258645
939.907 .0258500
940.540 .0258359
941.173 .0258221
941.806 .0258087
942.438 .0257956
943.070 .0257827
943.702 .0257700
944.333 .0257575
944.964 .0257449
945.594 .0257323
946.224 .0257196
946.854 .0257067
947.483 .0256938
948.112 .0256808
948.741 .0256676
949.369 .0256543
949.996 .0256409
950.624 .0256272
951.251 .0256132
951.878 .0255988
952.504 .0255839
953.130 .0255686
953.755 .0255529
954.380 .0255367
955.005 .0255202
955.629 .0255034
956.253 .0254864
956.877 .0254693
957.500 .0254519
958.123 .0254345
958.746 .0254170
959.368 .0253994
959.990 .0253818
960.611 .0253641
961.232 .0253465
961.853 .0253291
962.473 .0253118
963.093 .0252947
963.712 .0252779
964.331 .0252613
964.950 .0252450
965.569 .0252288
966.187 .0252128
966.804 .0251969
967.422 .0251810
968.039 .0251653
968.655 .0251495
969.272 .0251337
969.887 .0251180
970.503 .0251022
971.118 .0250864
971.733 .0250707
972.347 .0250549
972.961 .0250392
973.575 .0250234
974.188 .0250077
974.801 .0249921
975.414 .0249764
976.026 .0249608
976.638 .0249453
977.250 .0249297
977.861 .0249142
978.472 .0248987
979.083 .0248831
979.693 .0248675
980.303 .0248519
980.912 .0248284
981.521 .0248129
982.130 .0247973
982.738 .0247818
983.346 .0247665
983.954 .0247512
984.562 .0247362
985.169 .0247215
985.775 .0247071
986.382 .0246931
986.988 .0246795
987.594 .0246665
988.199 .0246539
988.804 .0246419
989.409 .0246375
990.013 .0246265
990.617 .0246160
991.221 .0246062
991.824 .0245969
992.427 .0245883
993.030 .0245802
993.632 .0245727
994.234 .0245657
994.836 .0245592
995.438 .0245532
996.039 .0245478
996.640 .0245428
997.240 .0245383
997.840 .0245344
998.440 .0245309
999.040 .0245280
999.639 .0245255
1000.238 .0245235
1000.836 .0245220
1001.435 .0245210
1002.033 .0245205
1002.630 .0245206
1003.228 .0245213
1003.825 .0245224
1004.422 .0245241
1005.018 .0245262
1005.614 .0245287
1006.210 .0245315
1006.806 .0245347
1007.401 .0245380
1007.996 .0245417
1008.591 .0245455
1009.186 .0245496
1009.780 .0245539
1010.374 .0245586
1010.967 .0245636
1011.561 .0245689
1012.154 .0245746
1012.746 .0245806
1013.339 .0245871
1013.931 .0245939
1014.523 .0246012
1015.115 .0246090
1015.706 .0246171
1016.298 .0246257
1016.888 .0246347
1017.479 .0246442
1018.069 .0246542
1018.660 .0246646
1019.250 .0246755
1019.839 .0246870
1020.429 .0246990
1021.018 .0247115
1021.607 .0247244
1022.195 .0247378
1022.784 .0247517
1023.372 .0247659
1023.960 .0247805
1024.547 .0247955
1025.135 .0248107
1025.722 .0248264
1026.309 .0248424
1026.896 .0248588
1027.483 .0248756
1028.069 .0248928
1028.655 .0249102
1029.241 .0249278
1029.827 .0249455
1030.412 .0249633
1030.997 .0249810
1031.582 .0249988
1032.167 .0250165
1032.752 .0250342
1033.336 .0250519
1033.921 .0250696
1034.505 .0250872
1035.089 .0251047
1035.672 .0251220
1036.256 .0251390
1036.839 .0251556
1037.422 .0251717
1038.005 .0251874
1038.588 .0252025
1039.171 .0252172
1039.753 .0252313
1040.335 .0252449
1040.918 .0252580
1041.500 .0252707
1042.081 .0252828
1042.663 .0252946
1043.244 .0253060
1043.826 .0253171
1044.407 .0253280
1044.988 .0253388
1045.569 .0253496
1046.150 .0253604
1046.730 .0253712
1047.311 .0253819
1047.891 .0253925
1048.471 .0254029
1049.052 .0254129
1049.632 .0254226
1050.211 .0254319
1050.791 .0254409
1051.371 .0254495
1051.950 .0254578
1052.530 .0254659
1053.109 .0254739
1053.688 .0254816
1054.268 .0254892
1054.847 .0254966
1055.426 .0255038
1056.005 .0255109
1056.583 .0255179
1057.162 .0255249
1057.741 .0255320
1058.319 .0255394
1058.898 .0255469
1059.476 .0255548
1060.055 .0255628
1060.633 .0255710
1061.211 .0255791
1061.790 .0255870
1062.368 .0255946
1062.946 .0256020
1063.524 .0256089
1064.102 .0256156
1064.680 .0256221
1065.258 .0256285
1065.836 .0256350
1066.414 .0256415
1066.992 .0256482
1067.570 .0256551
1068.148 .0256621
1068.726 .0256691
1069.304 .0256762
1069.882 .0256831
1070.460 .0256901
1071.038 .0256969
1071.616 .0257038
1072.194 .0257106
1072.772 .0257172
1073.350 .0257237
1073.928 .0257298
1074.506 .0257355
1075.084 .0257406
1075.662 .0257451
1076.240 .0257491
1076.819 .0257526
1077.397 .0257558
1077.976 .0257590
1078.554 .0257623
1079.133 .0257658
1079.711 .0257698
1080.290 .0257742
1080.869 .0257791
1081.448 .0257845
1082.027 .0257905
1082.606 .0257970
1083.185 .0258040
1083.764 .0258114
1084.343 .0258192
1084.923 .0258273
1085.502 .0258356
1086.082 .0258439
1086.662 .0258524
1087.242 .0258609
1087.822 .0258695
1088.402 .0258782
1088.983 .0258872
1089.563 .0258966
1090.144 .0259066
1090.725 .0259173
1091.306 .0259289
1091.887 .0259415
1092.469 .0259550
1093.050 .0259695
1093.632 .0259850
1094.214 .0260014
1094.796 .0260187
1095.379 .0260367
1095.961 .0260554
1096.544 .0260747
1097.127 .0260942
1097.710 .0261140
1098.294 .0261337
1098.877 .0261531
1099.461 .0261720
1100.046 .0261903
1100.630 .0262076
1101.215 .0262241
1101.800 .0262396
1102.385 .0262542
1102.970 .0262680
1103.556 .0262812
1104.142 .0262940
1104.728 .0263065
1105.315 .0263189
1105.902 .0263312
1106.489 .0263436
1107.077 .0263560
1107.664 .0263683
1108.253 .0263807
1108.841 .0263930
1109.430 .0264055
1110.019 .0264180
1110.609 .0264307
1111.198 .0264435
1111.789 .0264565
1112.379 .0264697
1112.970 .0264833
1113.561 .0264972
1114.153 .0265115
1114.745 .0265265
1115.338 .0265420
1115.931 .0265584
1116.524 .0265758
1117.117 .0265944
1117.712 .0266147
1118.306 .0266367
1118.901 .0266608
1119.496 .0266871
1120.092 .0267157
1120.689 .0267462
1121.285 .0267784
1121.882 .0268119
1122.480 .0268463
1123.078 .0268811
1123.677 .0269161
1124.276 .0269511
1124.875 .0269863
1125.476 .0270218
1126.076 .0270580
1126.677 .0270950
1127.279 .0271332
1127.881 .0271727
1128.484 .0272138
1129.087 .0272337
1129.691 .0272763
1130.295 .0273208
1130.900 .0273673
1131.505 .0274165
1132.111 .0274691
1132.718 .0275255
1133.325 .0275866
1133.933 .0276525
1134.541 .0277262
1135.150 .0278086
1135.760 .0278873
1136.370 .0279749
1136.981 .0278081
1137.592 .0278946
1138.204 .0279906
1138.817 .0280905
1139.431 .0282063
1140.045 .0283386
1140.660 .0284839
1141.275 .0286476
1141.891 .0288207
1142.508 .0290734
1143.126 .0293606
1143.744 .0293049
1144.363 .0296034
1144.983 .0296564
