Measurement Sequence started on: 15-12-46-377
Integration time: 28
Scans to Average: 2 
>>>>>Begin Spectral Data<<<<<
432.689 .0000100
433.621 .0000100
434.552 .0000100
435.482 .0000100
436.410 .0000100
437.337 .0000100
438.262 .0239886
439.187 .0509378
440.110 .0844231
441.031 .1223042
441.952 .0989087
442.871 .1033940
443.789 .1075751
444.705 .1115152
445.621 .1152575
446.535 .1188359
447.447 .1210127
448.359 .1216511
449.269 .1204233
450.178 .1171111
451.086 .1117772
451.993 .1048371
452.898 .0969795
453.803 .0889904
454.706 .0815408
455.608 .0750505
456.508 .0696645
457.408 .0660060
458.306 .0631916
459.204 .0609013
460.100 .0589782
460.995 .0573322
461.888 .0559013
462.781 .0546437
463.673 .0535268
464.563 .0525271
465.452 .0516266
466.340 .0508106
467.228 .0500677
468.114 .0493897
468.999 .0487695
469.882 .0482021
470.765 .0476821
471.647 .0472050
472.528 .0467663
473.407 .0463618
474.286 .0459879
475.163 .0456422
476.040 .0453225
476.915 .0450280
477.790 .0447579
478.663 .0445122
479.535 .0442903
480.407 .0440917
481.277 .0439160
482.147 .0437620
483.015 .0436294
483.883 .0435175
484.749 .0434254
485.615 .0433534
486.479 .0433011
487.343 .0432693
488.206 .0432585
489.067 .0432687
489.928 .0432999
490.788 .0433519
491.647 .0434241
492.505 .0435154
493.362 .0436256
494.218 .0437549
495.073 .0439034
495.928 .0441997
496.781 .0444023
497.634 .0446274
498.486 .0448762
499.337 .0451492
500.187 .0454467
501.036 .0457687
501.884 .0461156
502.731 .0464893
503.578 .0468917
504.424 .0471565
505.268 .0476146
506.113 .0481141
506.956 .0486609
507.798 .0492619
508.640 .0499249
509.480 .0506571
510.320 .0514679
511.160 .0523660
511.998 .0533625
512.836 .0544700
513.672 .0557034
514.508 .0570816
515.344 .0586272
516.178 .0603620
517.012 .0623105
517.845 .0644944
518.677 .0669356
519.508 .0696491
520.339 .0726383
521.169 .0758996
521.998 .0794055
522.826 .0831166
523.654 .0869781
524.481 .0909253
525.307 .0948885
526.133 .0987908
526.958 .1025560
527.782 .1061091
528.605 .1093828
529.428 .1123186
530.250 .1148633
531.072 .1169791
531.892 .1186310
532.712 .1197931
533.532 .1204506
534.350 .1205962
535.168 .1202298
535.986 .1193565
536.802 .1179840
537.618 .1161286
538.434 .1138093
539.249 .1110661
540.063 .1079488
540.876 .1045179
541.689 .1008411
542.501 .0969887
543.313 .0930353
544.124 .0890560
544.934 .0851211
545.744 .0812941
546.553 .0776275
547.361 .0741669
548.169 .0709387
548.976 .0679641
549.783 .0652503
550.589 .0627933
551.395 .0605781
552.200 .0585852
553.004 .0567891
553.808 .0551667
554.611 .0536973
555.414 .0523622
556.216 .0511457
557.018 .0500323
557.819 .0490096
558.619 .0480677
559.419 .0471987
560.218 .0463962
561.017 .0456527
561.815 .0449630
562.613 .0443207
563.410 .0437189
564.207 .0431515
565.003 .0426132
565.799 .0420981
566.594 .0416015
567.388 .0411199
568.182 .0406503
568.976 .0401901
569.769 .0397383
570.562 .0392943
571.354 .0388578
572.145 .0384295
572.936 .0380095
573.727 .0375983
574.517 .0371971
575.307 .0368068
576.096 .0364277
576.885 .0360609
577.673 .0357074
578.461 .0353674
579.248 .0350419
580.035 .0347318
580.821 .0344372
581.607 .0341585
582.392 .0338962
583.177 .0336502
583.962 .0334202
584.746 .0332061
585.529 .0330072
586.313 .0328227
587.095 .0326519
587.878 .0324938
588.660 .0323477
589.441 .0322127
590.222 .0320883
591.003 .0319734
591.783 .0318676
592.563 .0317701
593.342 .0316802
594.121 .0315972
594.899 .0315206
595.678 .0314496
596.455 .0313837
597.233 .0313223
598.009 .0312648
598.786 .0312107
599.562 .0311594
600.338 .0311103
601.113 .0310631
601.888 .0309965
602.663 .0309525
603.437 .0309096
604.211 .0308679
604.984 .0308274
605.757 .0307883
606.530 .0307505
607.302 .0307143
608.074 .0306797
608.845 .0306468
609.616 .0306157
610.387 .0306046
611.158 .0305766
611.928 .0305504
612.697 .0305262
613.467 .0305038
614.236 .0304835
615.004 .0304651
615.773 .0304485
616.541 .0304337
617.308 .0304206
618.076 .0304089
618.843 .0303986
619.609 .0303895
620.375 .0303813
621.141 .0303739
621.907 .0303670
622.672 .0303605
623.437 .0303540
624.202 .0303473
624.966 .0303401
625.730 .0303324
626.493 .0303239
627.257 .0303146
628.020 .0303044
628.782 .0302932
629.545 .0302811
630.307 .0302679
631.068 .0302536
631.830 .0302383
632.591 .0302218
633.352 .0302043
634.112 .0301856
634.872 .0301659
635.632 .0301452
636.392 .0301235
637.151 .0301010
637.910 .0300778
638.668 .0300539
639.427 .0300294
640.185 .0300046
640.943 .0299794
641.700 .0299540
642.457 .0299286
643.214 .0299031
643.971 .0298775
644.727 .0298518
645.483 .0298261
646.239 .0298001
646.994 .0297739
647.750 .0297474
648.505 .0297207
649.259 .0296937
650.014 .0296665
650.768 .0296393
651.521 .0296121
652.275 .0295850
653.028 .0295581
653.781 .0295313
654.534 .0295047
655.286 .0294783
656.039 .0294520
656.791 .0294259
657.542 .0293999
658.294 .0293740
659.045 .0293483
659.796 .0293227
660.546 .0292973
661.297 .0292719
662.047 .0292468
662.796 .0292218
663.546 .0291972
664.295 .0291730
665.044 .0291493
665.793 .0291262
666.542 .0291038
667.290 .0290820
668.038 .0290609
668.786 .0290404
669.533 .0290206
670.281 .0290015
671.028 .0289831
671.774 .0289656
672.521 .0289491
673.267 .0289335
674.013 .0289192
674.759 .0289059
675.505 .0288938
676.250 .0288827
676.995 .0288726
677.740 .0288635
678.484 .0288551
679.229 .0288474
679.973 .0288403
680.717 .0288339
681.460 .0288280
682.204 .0288227
682.947 .0288177
683.690 .0288131
684.433 .0288088
685.175 .0288046
685.917 .0288006
686.659 .0287967
687.401 .0287929
688.142 .0287890
688.884 .0287850
689.625 .0287808
690.365 .0287764
691.106 .0287716
691.846 .0287665
692.586 .0287610
693.326 .0287551
694.066 .0287488
694.805 .0287421
695.545 .0287350
696.284 .0287276
697.022 .0287198
697.761 .0287117
698.499 .0287030
699.237 .0286939
699.975 .0286843
700.713 .0286740
701.450 .0286633
702.187 .0286519
702.924 .0286399
703.661 .0286272
704.397 .0286138
705.133 .0285996
705.869 .0285846
706.605 .0285689
707.341 .0285522
708.076 .0285347
708.811 .0285162
709.546 .0284969
710.281 .0284766
711.015 .0284554
711.749 .0284333
712.483 .0284102
713.217 .0283863
713.950 .0283615
714.684 .0283360
715.417 .0283097
716.150 .0282828
716.882 .0282554
717.615 .0282274
718.347 .0281990
719.079 .0281702
719.811 .0281410
720.542 .0281115
721.273 .0280819
722.005 .0280521
722.735 .0280224
723.466 .0279928
724.196 .0279635
724.927 .0279345
725.656 .0279059
726.386 .0278779
727.116 .0278505
727.845 .0278236
728.574 .0277974
729.303 .0277719
730.031 .0277472
730.760 .0277233
731.488 .0277004
732.216 .0276783
732.944 .0276573
733.671 .0276372
734.398 .0276182
735.125 .0276002
735.852 .0275832
736.579 .0275673
737.305 .0275525
738.031 .0275386
738.757 .0275257
739.483 .0275137
740.208 .0275025
740.933 .0274920
741.658 .0274822
742.383 .0274731
743.108 .0274645
743.832 .0274565
744.556 .0274490
745.280 .0274422
746.004 .0274358
746.727 .0274300
747.450 .0274245
748.173 .0274194
748.896 .0274146
749.618 .0274100
750.340 .0274057
751.062 .0274016
751.784 .0273979
752.506 .0273944
753.227 .0273913
753.948 .0273885
754.669 .0273862
755.389 .0273842
756.110 .0273826
756.830 .0273813
757.550 .0273803
758.269 .0273795
758.989 .0273790
759.708 .0273787
760.427 .0273785
761.146 .0273783
761.864 .0273780
762.582 .0273776
763.300 .0273771
764.018 .0273764
764.736 .0273755
765.453 .0273745
766.170 .0273733
766.887 .0273720
767.603 .0273705
768.320 .0273689
769.036 .0273671
769.751 .0273652
770.467 .0273632
771.182 .0273610
771.897 .0273587
772.612 .0273564
773.327 .0273539
774.041 .0273514
774.755 .0273489
775.469 .0273463
776.183 .0273437
776.896 .0273409
777.609 .0273382
778.322 .0273353
779.035 .0273324
779.747 .0273293
780.459 .0273260
781.171 .0273225
781.882 .0273185
782.594 .0273141
783.305 .0273092
784.016 .0273037
784.726 .0272975
785.436 .0272906
786.147 .0272770
786.856 .0272682
787.566 .0272586
788.275 .0272482
788.984 .0272369
789.693 .0272246
790.401 .0272114
791.110 .0271971
791.818 .0271819
792.525 .0271658
793.233 .0271488
793.940 .0271309
794.647 .0271201
795.353 .0271010
796.060 .0270812
796.766 .0270606
797.472 .0270392
798.177 .0270173
798.883 .0269947
799.588 .0269716
800.292 .0269479
800.997 .0269237
801.701 .0268990
802.405 .0268737
803.109 .0268479
803.812 .0268215
804.515 .0267945
805.218 .0267670
805.921 .0267390
806.623 .0267105
807.325 .0266816
808.027 .0266524
808.728 .0266229
809.429 .0265933
810.130 .0265636
810.831 .0265338
811.531 .0265042
812.231 .0264747
812.931 .0264455
813.630 .0264166
814.330 .0263882
815.029 .0263602
815.727 .0263328
816.426 .0263060
817.124 .0262800
817.821 .0262548
818.519 .0262304
819.216 .0262070
819.913 .0261846
820.609 .0261633
821.306 .0261430
822.002 .0261238
822.697 .0261057
823.393 .0260886
824.088 .0260727
824.783 .0260580
825.477 .0260443
826.171 .0260319
826.865 .0260205
827.559 .0260101
828.252 .0260009
828.945 .0259926
829.638 .0259853
830.330 .0259790
831.023 .0259736
831.714 .0259692
832.406 .0259656
833.097 .0259629
833.788 .0259610
834.479 .0259597
835.169 .0259590
835.859 .0259588
836.548 .0259591
837.238 .0259598
837.927 .0259610
838.615 .0259625
839.304 .0259644
839.992 .0259667
840.680 .0259692
841.367 .0259721
842.054 .0259751
842.741 .0259783
843.428 .0259815
844.114 .0259848
844.800 .0259881
845.485 .0259914
846.170 .0259947
846.855 .0259979
847.540 .0260010
848.224 .0260041
848.908 .0260070
849.592 .0260098
850.275 .0260123
850.958 .0260147
851.641 .0260170
852.323 .0260191
853.005 .0260212
853.687 .0260232
854.368 .0260253
855.049 .0260273
855.730 .0260294
856.410 .0260314
857.090 .0260335
857.769 .0260357
858.449 .0260379
859.128 .0260403
859.806 .0260429
860.485 .0260457
861.163 .0260489
861.840 .0260523
862.518 .0260560
863.195 .0260599
863.871 .0260639
864.548 .0260680
865.224 .0260721
865.899 .0260762
866.574 .0260802
867.249 .0260842
867.924 .0260881
868.598 .0260920
869.272 .0260957
869.946 .0260993
870.619 .0261028
871.292 .0261060
871.964 .0261089
872.636 .0261116
873.308 .0261140
873.979 .0261162
874.651 .0261179
875.321 .0261193
875.992 .0261203
876.662 .0261208
877.331 .0261208
878.001 .0261203
878.670 .0261191
879.338 .0261174
880.007 .0261151
880.675 .0261122
881.342 .0261088
882.009 .0261049
882.676 .0261005
883.343 .0260956
884.009 .0260902
884.675 .0260843
885.340 .0260779
886.005 .0260710
886.670 .0260636
887.334 .0260556
887.998 .0260471
888.662 .0260381
889.325 .0260285
889.988 .0260184
890.650 .0260077
891.312 .0259965
891.974 .0259848
892.636 .0259725
893.297 .0259597
893.957 .0259463
894.618 .0259324
895.278 .0259177
895.937 .0259024
896.596 .0258865
897.255 .0258697
897.914 .0258522
898.572 .0258339
899.230 .0258148
899.887 .0257949
900.544 .0257740
901.201 .0257523
901.857 .0257159
902.513 .0256918
903.168 .0256667
903.823 .0256408
904.478 .0256139
905.132 .0255861
905.786 .0255574
906.440 .0255280
907.093 .0254979
907.746 .0254672
908.399 .0254360
909.051 .0254043
909.703 .0253723
910.354 .0253554
911.005 .0253233
911.656 .0252910
912.306 .0252586
912.956 .0252262
913.605 .0251937
914.254 .0251611
914.903 .0251287
915.551 .0250962
916.199 .0250639
916.847 .0250317
917.494 .0249995
918.141 .0249675
918.788 .0249356
919.434 .0249039
920.079 .0248723
920.725 .0248408
921.370 .0248095
922.014 .0247784
922.658 .0247474
923.302 .0247166
923.946 .0246860
924.589 .0246556
925.231 .0246254
925.873 .0245956
926.515 .0245659
927.157 .0245366
927.798 .0245077
928.439 .0244790
929.079 .0244508
929.719 .0244230
930.359 .0243957
930.998 .0243689
931.637 .0243428
932.275 .0243174
932.913 .0242929
933.551 .0242693
934.188 .0242467
934.825 .0242252
935.462 .0242047
936.098 .0241853
936.733 .0241670
937.369 .0241497
938.004 .0241335
938.638 .0241183
939.273 .0241043
939.907 .0240914
940.540 .0240797
941.173 .0240690
941.806 .0240594
942.438 .0240508
943.070 .0240430
943.702 .0240361
944.333 .0240298
944.964 .0240242
945.594 .0240192
946.224 .0240148
946.854 .0240110
947.483 .0240078
948.112 .0240051
948.741 .0240029
949.369 .0240012
949.996 .0239999
950.624 .0239989
951.251 .0239983
951.878 .0239979
952.504 .0239979
953.130 .0239983
953.755 .0239991
954.380 .0240004
955.005 .0240024
955.629 .0240049
956.253 .0240080
956.877 .0240117
957.500 .0240161
958.123 .0240210
958.746 .0240266
959.368 .0240329
959.990 .0240398
960.611 .0240475
961.232 .0240560
961.853 .0240651
962.473 .0240751
963.093 .0240856
963.712 .0240969
964.331 .0241087
964.950 .0241210
965.569 .0241338
966.187 .0241471
966.804 .0241609
967.422 .0241751
968.039 .0241897
968.655 .0242045
969.272 .0242196
969.887 .0242348
970.503 .0242501
971.118 .0242653
971.733 .0242803
972.347 .0242952
972.961 .0243098
973.575 .0243241
974.188 .0243379
974.801 .0243513
975.414 .0243642
976.026 .0243763
976.638 .0243877
977.250 .0243983
977.861 .0244080
978.472 .0244169
979.083 .0244250
979.693 .0244323
980.303 .0244389
980.912 .0244455
981.521 .0244507
982.130 .0244554
982.738 .0244597
983.346 .0244637
983.954 .0244674
984.562 .0244711
985.169 .0244748
985.775 .0244786
986.382 .0244826
986.988 .0244870
987.594 .0244916
988.199 .0244966
988.804 .0245019
989.409 .0245066
990.013 .0245125
990.617 .0245187
991.221 .0245253
991.824 .0245321
992.427 .0245392
993.030 .0245466
993.632 .0245544
994.234 .0245625
994.836 .0245711
995.438 .0245799
996.039 .0245890
996.640 .0245984
997.240 .0246079
997.840 .0246176
998.440 .0246273
999.040 .0246371
999.639 .0246467
1000.238 .0246563
1000.836 .0246655
1001.435 .0246746
1002.033 .0246833
1002.630 .0246916
1003.228 .0246993
1003.825 .0247066
1004.422 .0247132
1005.018 .0247191
1005.614 .0247244
1006.210 .0247291
1006.806 .0247331
1007.401 .0247367
1007.996 .0247397
1008.591 .0247424
1009.186 .0247448
1009.780 .0247468
1010.374 .0247486
1010.967 .0247500
1011.561 .0247511
1012.154 .0247519
1012.746 .0247523
1013.339 .0247524
1013.931 .0247522
1014.523 .0247517
1015.115 .0247511
1015.706 .0247503
1016.298 .0247495
1016.888 .0247486
1017.479 .0247476
1018.069 .0247465
1018.660 .0247452
1019.250 .0247438
1019.839 .0247421
1020.429 .0247403
1021.018 .0247383
1021.607 .0247361
1022.195 .0247338
1022.784 .0247314
1023.372 .0247290
1023.960 .0247265
1024.547 .0247240
1025.135 .0247213
1025.722 .0247184
1026.309 .0247152
1026.896 .0247118
1027.483 .0247080
1028.069 .0247038
1028.655 .0246994
1029.241 .0246946
1029.827 .0246897
1030.412 .0246844
1030.997 .0246789
1031.582 .0246731
1032.167 .0246669
1032.752 .0246603
1033.336 .0246532
1033.921 .0246455
1034.505 .0246373
1035.089 .0246284
1035.672 .0246188
1036.256 .0246086
1036.839 .0245976
1037.422 .0245859
1038.005 .0245736
1038.588 .0245605
1039.171 .0245466
1039.753 .0245321
1040.335 .0245170
1040.918 .0245012
1041.500 .0244849
1042.081 .0244682
1042.663 .0244511
1043.244 .0244337
1043.826 .0244161
1044.407 .0243983
1044.988 .0243804
1045.569 .0243624
1046.150 .0243443
1046.730 .0243261
1047.311 .0243077
1047.891 .0242892
1048.471 .0242704
1049.052 .0242515
1049.632 .0242325
1050.211 .0242132
1050.791 .0241938
1051.371 .0241743
1051.950 .0241547
1052.530 .0241350
1053.109 .0241153
1053.688 .0240956
1054.268 .0240759
1054.847 .0240560
1055.426 .0240361
1056.005 .0240160
1056.583 .0239959
1057.162 .0239755
1057.741 .0239551
1058.319 .0239347
1058.898 .0239144
1059.476 .0238941
1060.055 .0238742
1060.633 .0238545
1061.211 .0238353
1061.790 .0238164
1062.368 .0237980
1062.946 .0237800
1063.524 .0237625
1064.102 .0237456
1064.680 .0237294
1065.258 .0237138
1065.836 .0236991
1066.414 .0236852
1066.992 .0236722
1067.570 .0236601
1068.148 .0236488
1068.726 .0236383
1069.304 .0236284
1069.882 .0236190
1070.460 .0236102
1071.038 .0236019
1071.616 .0235942
1072.194 .0235869
1072.772 .0235801
1073.350 .0235737
1073.928 .0235676
1074.506 .0235619
1075.084 .0235562
1075.662 .0235508
1076.240 .0235454
1076.819 .0235403
1077.397 .0235353
1077.976 .0235307
1078.554 .0235265
1079.133 .0235227
1079.711 .0235194
1080.290 .0235166
1080.869 .0235143
1081.448 .0235124
1082.027 .0235109
1082.606 .0235097
1083.185 .0235088
1083.764 .0235084
1084.343 .0235083
1084.923 .0235087
1085.502 .0235097
1086.082 .0235112
1086.662 .0235132
1087.242 .0235158
1087.822 .0235189
1088.402 .0235228
1088.983 .0235274
1089.563 .0235329
1090.144 .0235396
1090.725 .0235477
1091.306 .0235572
1091.887 .0235684
1092.469 .0235812
1093.050 .0235954
1093.632 .0236109
1094.214 .0236275
1094.796 .0236449
1095.379 .0236630
1095.961 .0236818
1096.544 .0237012
1097.127 .0237213
1097.710 .0237421
1098.294 .0237636
1098.877 .0237858
1099.461 .0238085
1100.046 .0238318
1100.630 .0238553
1101.215 .0238789
1101.800 .0239024
1102.385 .0239260
1102.970 .0239496
1103.556 .0239735
1104.142 .0239979
1104.728 .0240230
1105.315 .0240490
1105.902 .0240762
1106.489 .0241045
1107.077 .0241341
1107.664 .0241648
1108.253 .0241966
1108.841 .0242292
1109.430 .0242628
1110.019 .0242972
1110.609 .0243325
1111.198 .0243688
1111.789 .0244063
1112.379 .0244451
1112.970 .0244853
1113.561 .0245267
1114.153 .0245695
1114.745 .0246135
1115.338 .0246586
1115.931 .0247046
1116.524 .0247515
1117.117 .0247993
1117.712 .0248480
1118.306 .0248979
1118.901 .0249492
1119.496 .0250022
1120.092 .0250570
1120.689 .0251138
1121.285 .0251726
1121.882 .0252334
1122.480 .0252962
1123.078 .0253609
1123.677 .0254276
1124.276 .0254963
1124.875 .0255670
1125.476 .0256402
1126.076 .0257157
1126.677 .0257940
1127.279 .0258751
1127.881 .0259589
1128.484 .0260456
1129.087 .0260820
1129.691 .0261724
1130.295 .0262657
1130.900 .0263621
1131.505 .0264618
1132.111 .0265647
1132.718 .0266712
1133.325 .0267817
1133.933 .0268980
1134.541 .0270202
1135.150 .0271379
1135.760 .0272634
1136.370 .0274005
1136.981 .0274775
1137.592 .0276239
1138.204 .0277742
1138.817 .0279279
1139.431 .0280913
1140.045 .0282522
1140.660 .0284179
1141.275 .0285911
1141.891 .0288125
1142.508 .0290346
1143.126 .0289569
1143.744 .0292320
1144.363 .0296153
1144.983 .0310191
