Measurement Sequence started on: 15-12-46-377
Integration time: 28
Scans to Average: 2 
>>>>>Begin Spectral Data<<<<<
432.689 .0000100
433.621 .0000100
434.552 .0000100
435.482 .0000100
436.410 .0000100
437.337 .0000100
438.262 .0278821
439.187 .0590598
440.110 .0977677
441.031 .1413752
441.952 .1128325
442.871 .1177837
443.789 .1223839
444.705 .1267039
445.621 .1307936
446.535 .1346902
447.447 .1369560
448.359 .1374395
449.269 .1357655
450.178 .1316922
451.086 .1253017
451.993 .1170811
452.898 .1078376
453.803 .0984820
454.706 .0897894
455.608 .0822373
456.508 .0759847
457.408 .0717470
458.306 .0684868
459.204 .0658307
460.100 .0635940
460.995 .0616747
461.888 .0600044
462.781 .0585346
463.673 .0572299
464.563 .0560627
465.452 .0550127
466.340 .0540619
467.228 .0531975
468.114 .0524103
468.999 .0516949
469.882 .0510458
470.765 .0504584
471.647 .0499279
472.528 .0494501
473.407 .0490197
474.286 .0486329
475.163 .0482861
476.040 .0479762
476.915 .0477015
477.790 .0474609
478.663 .0472530
479.535 .0470776
480.407 .0469334
481.277 .0468189
482.147 .0467316
483.015 .0466685
483.883 .0466259
484.749 .0466007
485.615 .0465900
486.479 .0465922
487.343 .0466064
488.206 .0466330
489.067 .0466726
489.928 .0467262
490.788 .0467951
491.647 .0468801
492.505 .0469820
493.362 .0471017
494.218 .0472396
495.073 .0473967
495.928 .0477098
496.781 .0479232
497.634 .0481586
498.486 .0484170
499.337 .0486995
500.187 .0490070
501.036 .0493413
501.884 .0497048
502.731 .0501001
503.578 .0505306
504.424 .0508188
505.268 .0513153
506.113 .0518594
506.956 .0524552
507.798 .0531087
508.640 .0538264
509.480 .0546161
510.320 .0554882
511.160 .0564542
511.998 .0575285
512.836 .0587288
513.672 .0600738
514.508 .0615856
515.344 .0632891
516.178 .0652084
517.012 .0673710
517.845 .0698038
518.677 .0725315
519.508 .0755721
520.339 .0789374
521.169 .0826305
521.998 .0866266
522.826 .0908899
523.654 .0953641
524.481 .0999793
525.307 .1046578
526.133 .1093101
526.958 .1138421
527.782 .1181641
528.605 .1221916
529.428 .1258462
530.250 .1290570
531.072 .1317722
531.892 .1339459
532.712 .1355461
533.532 .1365542
534.350 .1369575
535.168 .1367539
535.986 .1359489
536.802 .1345500
537.618 .1325684
538.434 .1300211
539.249 .1269484
540.063 .1234017
540.876 .1194472
541.689 .1151636
542.501 .1106340
543.313 .1059510
544.124 .1012090
544.934 .0964950
545.744 .0918876
546.553 .0874575
547.361 .0832626
548.169 .0793408
548.976 .0757212
549.783 .0724149
550.589 .0694195
551.395 .0667223
552.200 .0643001
553.004 .0621230
553.808 .0601634
554.611 .0583958
555.414 .0567959
556.216 .0553436
557.018 .0540185
557.819 .0528052
558.619 .0516905
559.419 .0506627
560.218 .0497120
561.017 .0488293
561.815 .0480064
562.613 .0472364
563.410 .0465119
564.207 .0458268
565.003 .0451750
565.799 .0445506
566.594 .0439491
567.388 .0433675
568.182 .0428038
568.976 .0422567
569.769 .0417254
570.562 .0412107
571.354 .0407129
572.145 .0402328
572.936 .0397705
573.727 .0393261
574.517 .0388995
575.307 .0384902
576.096 .0380975
576.885 .0377213
577.673 .0373614
578.461 .0370182
579.248 .0366920
580.035 .0363830
580.821 .0360913
581.607 .0358170
582.392 .0355601
583.177 .0353205
583.962 .0350977
584.746 .0348909
585.529 .0346991
586.313 .0345213
587.095 .0343564
587.878 .0342036
588.660 .0340620
589.441 .0339311
590.222 .0338105
591.003 .0336998
591.783 .0335983
592.563 .0335054
593.342 .0334203
594.121 .0333422
594.899 .0332698
595.678 .0332021
596.455 .0331382
597.233 .0330776
598.009 .0330195
598.786 .0329638
599.562 .0329101
600.338 .0328585
601.113 .0328088
601.888 .0327392
602.663 .0326932
603.437 .0326486
604.211 .0326051
604.984 .0325626
605.757 .0325208
606.530 .0324798
607.302 .0324393
608.074 .0323995
608.845 .0323605
609.616 .0323222
610.387 .0323053
611.158 .0322688
611.928 .0322334
612.697 .0321991
613.467 .0321660
614.236 .0321340
615.004 .0321030
615.773 .0320731
616.541 .0320440
617.308 .0320158
618.076 .0319883
618.843 .0319615
619.609 .0319353
620.375 .0319096
621.141 .0318844
621.907 .0318596
622.672 .0318351
623.437 .0318107
624.202 .0317865
624.966 .0317622
625.730 .0317380
626.493 .0317136
627.257 .0316891
628.020 .0316644
628.782 .0316395
629.545 .0316143
630.307 .0315888
631.068 .0315630
631.830 .0315370
632.591 .0315107
633.352 .0314842
634.112 .0314576
634.872 .0314310
635.632 .0314044
636.392 .0313779
637.151 .0313516
637.910 .0313254
638.668 .0312994
639.427 .0312737
640.185 .0312481
640.943 .0312228
641.700 .0311978
642.457 .0311731
643.214 .0311486
643.971 .0311244
644.727 .0311005
645.483 .0310769
646.239 .0310534
646.994 .0310302
647.750 .0310073
648.505 .0309846
649.259 .0309622
650.014 .0309399
650.768 .0309178
651.521 .0308957
652.275 .0308736
653.028 .0308514
653.781 .0308291
654.534 .0308066
655.286 .0307838
656.039 .0307608
656.791 .0307377
657.542 .0307144
658.294 .0306912
659.045 .0306679
659.796 .0306447
660.546 .0306215
661.297 .0305985
662.047 .0305756
662.796 .0305528
663.546 .0305301
664.295 .0305075
665.044 .0304851
665.793 .0304629
666.542 .0304411
667.290 .0304197
668.038 .0303988
668.786 .0303786
669.533 .0303590
670.281 .0303401
671.028 .0303219
671.774 .0303042
672.521 .0302870
673.267 .0302701
674.013 .0302535
674.759 .0302371
675.505 .0302208
676.250 .0302047
676.995 .0301887
677.740 .0301727
678.484 .0301568
679.229 .0301409
679.973 .0301250
680.717 .0301089
681.460 .0300926
682.204 .0300760
682.947 .0300590
683.690 .0300416
684.433 .0300238
685.175 .0300056
685.917 .0299869
686.659 .0299679
687.401 .0299487
688.142 .0299292
688.884 .0299096
689.625 .0298900
690.365 .0298703
691.106 .0298506
691.846 .0298310
692.586 .0298113
693.326 .0297915
694.066 .0297717
694.805 .0297519
695.545 .0297321
696.284 .0297122
697.022 .0296925
697.761 .0296729
698.499 .0296534
699.237 .0296342
699.975 .0296151
700.713 .0295961
701.450 .0295773
702.187 .0295584
702.924 .0295395
703.661 .0295204
704.397 .0295011
705.133 .0294816
705.869 .0294619
706.605 .0294421
707.341 .0294222
708.076 .0294023
708.811 .0293824
709.546 .0293625
710.281 .0293426
711.015 .0293227
711.749 .0293026
712.483 .0292823
713.217 .0292619
713.950 .0292412
714.684 .0292203
715.417 .0291993
716.150 .0291781
716.882 .0291568
717.615 .0291355
718.347 .0291140
719.079 .0290923
719.811 .0290706
720.542 .0290486
721.273 .0290265
722.005 .0290042
722.735 .0289818
723.466 .0289595
724.196 .0289372
724.927 .0289151
725.656 .0288934
726.386 .0288720
727.116 .0288512
727.845 .0288309
728.574 .0288113
729.303 .0287923
730.031 .0287741
730.760 .0287567
731.488 .0287399
732.216 .0287240
732.944 .0287087
733.671 .0286943
734.398 .0286806
735.125 .0286677
735.852 .0286555
736.579 .0286442
737.305 .0286336
738.031 .0286238
738.757 .0286148
739.483 .0286063
740.208 .0285984
740.933 .0285910
741.658 .0285838
742.383 .0285770
743.108 .0285703
743.832 .0285639
744.556 .0285576
745.280 .0285515
746.004 .0285454
746.727 .0285394
747.450 .0285334
748.173 .0285271
748.896 .0285206
749.618 .0285137
750.340 .0285063
751.062 .0284984
751.784 .0284900
752.506 .0284811
753.227 .0284718
753.948 .0284620
754.669 .0284517
755.389 .0284411
756.110 .0284300
756.830 .0284186
757.550 .0284068
758.269 .0283947
758.989 .0283823
759.708 .0283697
760.427 .0283568
761.146 .0283439
761.864 .0283307
762.582 .0283175
763.300 .0283041
764.018 .0282907
764.736 .0282774
765.453 .0282643
766.170 .0282514
766.887 .0282387
767.603 .0282265
768.320 .0282146
769.036 .0282031
769.751 .0281921
770.467 .0281815
771.182 .0281713
771.897 .0281615
772.612 .0281521
773.327 .0281431
774.041 .0281345
774.755 .0281262
775.469 .0281181
776.183 .0281104
776.896 .0281027
777.609 .0280952
778.322 .0280877
779.035 .0280803
779.747 .0280728
780.459 .0280652
781.171 .0280576
781.882 .0280499
782.594 .0280421
783.305 .0280341
784.016 .0280260
784.726 .0280178
785.436 .0280093
786.147 .0279960
786.856 .0279872
787.566 .0279781
788.275 .0279690
788.984 .0279596
789.693 .0279500
790.401 .0279401
791.110 .0279299
791.818 .0279194
792.525 .0279085
793.233 .0278971
793.940 .0278853
794.647 .0278783
795.353 .0278657
796.060 .0278527
796.766 .0278392
797.472 .0278251
798.177 .0278105
798.883 .0277953
799.588 .0277795
800.292 .0277632
800.997 .0277463
801.701 .0277289
802.405 .0277109
803.109 .0276924
803.812 .0276735
804.515 .0276541
805.218 .0276343
805.921 .0276140
806.623 .0275934
807.325 .0275724
808.027 .0275511
808.728 .0275295
809.429 .0275077
810.130 .0274858
810.831 .0274639
811.531 .0274419
812.231 .0274200
812.931 .0273982
813.630 .0273766
814.330 .0273553
815.029 .0273342
815.727 .0273136
816.426 .0272933
817.124 .0272734
817.821 .0272540
818.519 .0272352
819.216 .0272169
819.913 .0271993
820.609 .0271823
821.306 .0271659
822.002 .0271503
822.697 .0271353
823.393 .0271211
824.088 .0271075
824.783 .0270947
825.477 .0270824
826.171 .0270708
826.865 .0270599
827.559 .0270495
828.252 .0270397
828.945 .0270304
829.638 .0270216
830.330 .0270133
831.023 .0270055
831.714 .0269981
832.406 .0269911
833.097 .0269845
833.788 .0269782
834.479 .0269722
835.169 .0269665
835.859 .0269611
836.548 .0269559
837.238 .0269509
837.927 .0269460
838.615 .0269413
839.304 .0269366
839.992 .0269321
840.680 .0269276
841.367 .0269231
842.054 .0269187
842.741 .0269143
843.428 .0269100
844.114 .0269057
844.800 .0269014
845.485 .0268971
846.170 .0268927
846.855 .0268884
847.540 .0268839
848.224 .0268793
848.908 .0268745
849.592 .0268695
850.275 .0268642
850.958 .0268587
851.641 .0268529
852.323 .0268469
853.005 .0268406
853.687 .0268340
854.368 .0268271
855.049 .0268199
855.730 .0268125
856.410 .0268048
857.090 .0267968
857.769 .0267885
858.449 .0267801
859.128 .0267716
859.806 .0267630
860.485 .0267545
861.163 .0267462
861.840 .0267380
862.518 .0267301
863.195 .0267225
863.871 .0267151
864.548 .0267080
865.224 .0267012
865.899 .0266947
866.574 .0266885
867.249 .0266826
867.924 .0266771
868.598 .0266720
869.272 .0266671
869.946 .0266626
870.619 .0266584
871.292 .0266545
871.964 .0266509
872.636 .0266475
873.308 .0266445
873.979 .0266417
874.651 .0266392
875.321 .0266369
875.992 .0266348
876.662 .0266329
877.331 .0266310
878.001 .0266291
878.670 .0266272
879.338 .0266253
880.007 .0266235
880.675 .0266217
881.342 .0266201
882.009 .0266186
882.676 .0266174
883.343 .0266163
884.009 .0266154
884.675 .0266147
885.340 .0266143
886.005 .0266139
886.670 .0266138
887.334 .0266139
887.998 .0266142
888.662 .0266147
889.325 .0266154
889.988 .0266162
890.650 .0266170
891.312 .0266178
891.974 .0266185
892.636 .0266189
893.297 .0266191
893.957 .0266190
894.618 .0266183
895.278 .0266171
895.937 .0266153
896.596 .0266126
897.255 .0266090
897.914 .0266045
898.572 .0265989
899.230 .0265923
899.887 .0265845
900.544 .0265756
901.201 .0265655
901.857 .0265454
902.513 .0265328
903.168 .0265192
903.823 .0265046
904.478 .0264890
905.132 .0264725
905.786 .0264552
906.440 .0264371
907.093 .0264183
907.746 .0263990
908.399 .0263792
909.051 .0263592
909.703 .0263390
910.354 .0263291
911.005 .0263090
911.656 .0262888
912.306 .0262687
912.956 .0262486
913.605 .0262286
914.254 .0262087
914.903 .0261889
915.551 .0261693
916.199 .0261498
916.847 .0261305
917.494 .0261112
918.141 .0260919
918.788 .0260726
919.434 .0260531
920.079 .0260335
920.725 .0260137
921.370 .0259937
922.014 .0259734
922.658 .0259528
923.302 .0259319
923.946 .0259105
924.589 .0258887
925.231 .0258664
925.873 .0258436
926.515 .0258201
927.157 .0257961
927.798 .0257716
928.439 .0257465
929.079 .0257210
929.719 .0256952
930.359 .0256691
930.998 .0256428
931.637 .0256162
932.275 .0255894
932.913 .0255626
933.551 .0255357
934.188 .0255089
934.825 .0254823
935.462 .0254560
936.098 .0254301
936.733 .0254048
937.369 .0253800
938.004 .0253559
938.638 .0253325
939.273 .0253098
939.907 .0252878
940.540 .0252664
941.173 .0252458
941.806 .0252260
942.438 .0252070
943.070 .0251887
943.702 .0251713
944.333 .0251546
944.964 .0251386
945.594 .0251232
946.224 .0251083
946.854 .0250937
947.483 .0250794
948.112 .0250654
948.741 .0250516
949.369 .0250380
949.996 .0250247
950.624 .0250115
951.251 .0249986
951.878 .0249858
952.504 .0249731
953.130 .0249605
953.755 .0249479
954.380 .0249353
955.005 .0249227
955.629 .0249101
956.253 .0248976
956.877 .0248852
957.500 .0248730
958.123 .0248609
958.746 .0248489
959.368 .0248370
959.990 .0248253
960.611 .0248136
961.232 .0248021
961.853 .0247908
962.473 .0247796
963.093 .0247687
963.712 .0247581
964.331 .0247478
964.950 .0247378
965.569 .0247281
966.187 .0247187
966.804 .0247096
967.422 .0247008
968.039 .0246922
968.655 .0246840
969.272 .0246759
969.887 .0246681
970.503 .0246605
971.118 .0246531
971.733 .0246459
972.347 .0246388
972.961 .0246319
973.575 .0246252
974.188 .0246186
974.801 .0246121
975.414 .0246057
976.026 .0245994
976.638 .0245932
977.250 .0245871
977.861 .0245811
978.472 .0245753
979.083 .0245696
979.693 .0245642
980.303 .0245591
980.912 .0245526
981.521 .0245481
982.130 .0245438
982.738 .0245398
983.346 .0245361
983.954 .0245328
984.562 .0245298
985.169 .0245274
985.775 .0245255
986.382 .0245242
986.988 .0245235
987.594 .0245234
988.199 .0245239
988.804 .0245250
989.409 .0245271
990.013 .0245289
990.617 .0245312
991.221 .0245341
991.824 .0245374
992.427 .0245413
993.030 .0245456
993.632 .0245504
994.234 .0245557
994.836 .0245614
995.438 .0245674
996.039 .0245736
996.640 .0245802
997.240 .0245870
997.840 .0245941
998.440 .0246016
999.040 .0246096
999.639 .0246181
1000.238 .0246271
1000.836 .0246367
1001.435 .0246467
1002.033 .0246571
1002.630 .0246679
1003.228 .0246789
1003.825 .0246901
1004.422 .0247015
1005.018 .0247129
1005.614 .0247245
1006.210 .0247361
1006.806 .0247477
1007.401 .0247592
1007.996 .0247707
1008.591 .0247820
1009.186 .0247932
1009.780 .0248042
1010.374 .0248151
1010.967 .0248258
1011.561 .0248365
1012.154 .0248471
1012.746 .0248577
1013.339 .0248684
1013.931 .0248792
1014.523 .0248901
1015.115 .0249010
1015.706 .0249120
1016.298 .0249230
1016.888 .0249339
1017.479 .0249448
1018.069 .0249556
1018.660 .0249662
1019.250 .0249767
1019.839 .0249871
1020.429 .0249973
1021.018 .0250073
1021.607 .0250173
1022.195 .0250272
1022.784 .0250369
1023.372 .0250466
1023.960 .0250563
1024.547 .0250661
1025.135 .0250760
1025.722 .0250862
1026.309 .0250967
1026.896 .0251074
1027.483 .0251185
1028.069 .0251298
1028.655 .0251414
1029.241 .0251532
1029.827 .0251651
1030.412 .0251771
1030.997 .0251891
1031.582 .0252012
1032.167 .0252132
1032.752 .0252253
1033.336 .0252373
1033.921 .0252493
1034.505 .0252613
1035.089 .0252731
1035.672 .0252848
1036.256 .0252964
1036.839 .0253079
1037.422 .0253193
1038.005 .0253306
1038.588 .0253417
1039.171 .0253526
1039.753 .0253633
1040.335 .0253737
1040.918 .0253839
1041.500 .0253936
1042.081 .0254029
1042.663 .0254118
1043.244 .0254202
1043.826 .0254280
1044.407 .0254352
1044.988 .0254418
1045.569 .0254478
1046.150 .0254530
1046.730 .0254574
1047.311 .0254610
1047.891 .0254639
1048.471 .0254661
1049.052 .0254675
1049.632 .0254683
1050.211 .0254684
1050.791 .0254679
1051.371 .0254668
1051.950 .0254651
1052.530 .0254628
1053.109 .0254598
1053.688 .0254561
1054.268 .0254518
1054.847 .0254468
1055.426 .0254414
1056.005 .0254356
1056.583 .0254295
1057.162 .0254230
1057.741 .0254163
1058.319 .0254094
1058.898 .0254024
1059.476 .0253953
1060.055 .0253881
1060.633 .0253809
1061.211 .0253737
1061.790 .0253668
1062.368 .0253603
1062.946 .0253543
1063.524 .0253488
1064.102 .0253438
1064.680 .0253392
1065.258 .0253351
1065.836 .0253312
1066.414 .0253277
1066.992 .0253243
1067.570 .0253213
1068.148 .0253185
1068.726 .0253161
1069.304 .0253141
1069.882 .0253127
1070.460 .0253117
1071.038 .0253113
1071.616 .0253113
1072.194 .0253116
1072.772 .0253122
1073.350 .0253131
1073.928 .0253141
1074.506 .0253154
1075.084 .0253170
1075.662 .0253189
1076.240 .0253211
1076.819 .0253236
1077.397 .0253262
1077.976 .0253291
1078.554 .0253319
1079.133 .0253345
1079.711 .0253368
1080.290 .0253387
1080.869 .0253400
1081.448 .0253408
1082.027 .0253410
1082.606 .0253405
1083.185 .0253395
1083.764 .0253379
1084.343 .0253358
1084.923 .0253331
1085.502 .0253299
1086.082 .0253260
1086.662 .0253217
1087.242 .0253168
1087.822 .0253115
1088.402 .0253061
1088.983 .0253006
1089.563 .0252952
1090.144 .0252901
1090.725 .0252853
1091.306 .0252809
1091.887 .0252769
1092.469 .0252732
1093.050 .0252698
1093.632 .0252667
1094.214 .0252637
1094.796 .0252610
1095.379 .0252584
1095.961 .0252562
1096.544 .0252542
1097.127 .0252524
1097.710 .0252510
1098.294 .0252499
1098.877 .0252491
1099.461 .0252488
1100.046 .0252489
1100.630 .0252496
1101.215 .0252509
1101.800 .0252530
1102.385 .0252558
1102.970 .0252597
1103.556 .0252645
1104.142 .0252705
1104.728 .0252778
1105.315 .0252862
1105.902 .0252960
1106.489 .0253071
1107.077 .0253195
1107.664 .0253333
1108.253 .0253482
1108.841 .0253643
1109.430 .0253815
1110.019 .0253998
1110.609 .0254193
1111.198 .0254398
1111.789 .0254615
1112.379 .0254842
1112.970 .0255079
1113.561 .0255323
1114.153 .0255573
1114.745 .0255830
1115.338 .0256094
1115.931 .0256367
1116.524 .0256651
1117.117 .0256948
1117.712 .0257263
1118.306 .0257596
1118.901 .0257948
1119.496 .0258317
1120.092 .0258701
1120.689 .0259096
1121.285 .0259497
1121.882 .0259901
1122.480 .0260308
1123.078 .0260713
1123.677 .0261120
1124.276 .0261529
1124.875 .0261943
1125.476 .0262365
1126.076 .0262799
1126.677 .0263247
1127.279 .0263712
1127.881 .0264194
1128.484 .0264696
1129.087 .0264893
1129.691 .0265421
1130.295 .0265978
1130.900 .0266570
1131.505 .0267206
1132.111 .0267897
1132.718 .0268644
1133.325 .0269452
1133.933 .0270314
1134.541 .0271285
1135.150 .0272391
1135.760 .0273382
1136.370 .0274417
1136.981 .0273315
1137.592 .0274385
1138.204 .0275526
1138.817 .0276772
1139.431 .0278203
1140.045 .0279881
1140.660 .0281652
1141.275 .0283522
1141.891 .0285321
1142.508 .0288714
1143.126 .0292959
1143.744 .0290332
1144.363 .0292173
1144.983 .0289743
