Measurement Sequence started on: 15-12-46-377
Integration time: 28
Scans to Average: 2 
>>>>>Begin Spectral Data<<<<<
432.689 .0000100
433.621 .0000100
434.552 .0000100
435.482 .0000100
436.410 .0000100
437.337 .0000100
438.262 .0274295
439.187 .0580423
440.110 .0961131
441.031 .1389599
441.952 .1111892
442.871 .1160878
443.789 .1206373
444.705 .1249088
445.621 .1289546
446.535 .1328137
447.447 .1350695
448.359 .1355762
449.269 .1339598
450.178 .1299825
451.086 .1237206
451.993 .1156505
452.898 .1065634
453.803 .0973560
454.706 .0887901
455.608 .0813390
456.508 .0751623
457.408 .0709689
458.306 .0677386
459.204 .0651101
460.100 .0628985
460.995 .0610046
461.888 .0593589
462.781 .0579108
463.673 .0566232
464.563 .0554715
465.452 .0544362
466.340 .0535014
467.228 .0526563
468.114 .0518924
468.999 .0512023
469.882 .0505794
470.765 .0500167
471.647 .0495082
472.528 .0490483
473.407 .0486321
474.286 .0482549
475.163 .0479145
476.040 .0476078
476.915 .0473328
477.790 .0470884
478.663 .0468737
479.535 .0466884
480.407 .0465312
481.277 .0464013
482.147 .0462966
483.015 .0462155
483.883 .0461556
484.749 .0461154
485.615 .0460938
486.479 .0460897
487.343 .0461029
488.206 .0461336
489.067 .0461820
489.928 .0462488
490.788 .0463342
491.647 .0464389
492.505 .0465631
493.362 .0467071
494.218 .0468703
495.073 .0470526
495.928 .0473935
496.781 .0476224
497.634 .0478701
498.486 .0481375
499.337 .0484257
500.187 .0487365
501.036 .0490727
501.884 .0494365
502.731 .0498318
503.578 .0502627
504.424 .0505518
505.268 .0510519
506.113 .0516005
506.956 .0522025
507.798 .0528632
508.640 .0535894
509.480 .0543903
510.320 .0552758
511.160 .0562588
511.998 .0573535
512.836 .0585773
513.672 .0599481
514.508 .0614860
515.344 .0632107
516.178 .0651424
517.012 .0673021
517.845 .0697065
518.677 .0723710
519.508 .0753100
520.339 .0785295
521.169 .0820302
521.998 .0857897
522.826 .0897755
523.654 .0939376
524.481 .0982124
525.307 .1025263
526.133 .1067962
526.958 .1109330
527.782 .1148496
528.605 .1184638
529.428 .1217048
530.250 .1245080
531.072 .1268296
531.892 .1286331
532.712 .1298961
533.532 .1306051
534.350 .1307564
535.168 .1303550
535.986 .1294128
536.802 .1279389
537.618 .1259477
538.434 .1234565
539.249 .1205029
540.063 .1171329
540.876 .1134057
541.689 .1093910
542.501 .1051669
543.313 .1008161
544.124 .0964258
544.934 .0920777
545.744 .0878467
546.553 .0837950
547.361 .0799756
548.169 .0764192
548.976 .0731475
549.783 .0701663
550.589 .0674705
551.395 .0650439
552.200 .0628643
553.004 .0609027
553.808 .0591326
554.611 .0575304
555.414 .0560740
556.216 .0547438
557.018 .0535225
557.819 .0523959
558.619 .0513524
559.419 .0503823
560.218 .0494786
561.017 .0486336
561.815 .0478412
562.613 .0470965
563.410 .0463931
564.207 .0457251
565.003 .0450872
565.799 .0444745
566.594 .0438830
567.388 .0433102
568.182 .0427540
568.976 .0422133
569.769 .0416873
570.562 .0411766
571.354 .0406814
572.145 .0402021
572.936 .0397391
573.727 .0392920
574.517 .0388609
575.307 .0384460
576.096 .0380467
576.885 .0376636
577.673 .0372967
578.461 .0369467
579.248 .0366135
580.035 .0362973
580.821 .0359981
581.607 .0357158
582.392 .0354504
583.177 .0352020
583.962 .0349702
584.746 .0347548
585.529 .0345556
586.313 .0343720
587.095 .0342033
587.878 .0340486
588.660 .0339066
589.441 .0337763
590.222 .0336566
591.003 .0335463
591.783 .0334443
592.563 .0333496
593.342 .0332613
594.121 .0331790
594.899 .0331019
595.678 .0330296
596.455 .0329616
597.233 .0328974
598.009 .0328365
598.786 .0327786
599.562 .0327232
600.338 .0326699
601.113 .0326186
601.888 .0325476
602.663 .0325007
603.437 .0324551
604.211 .0324110
604.984 .0323682
605.757 .0323268
606.530 .0322868
607.302 .0322482
608.074 .0322109
608.845 .0321748
609.616 .0321401
610.387 .0321257
611.158 .0320927
611.928 .0320608
612.697 .0320301
613.467 .0320004
614.236 .0319719
615.004 .0319444
615.773 .0319178
616.541 .0318920
617.308 .0318668
618.076 .0318421
618.843 .0318177
619.609 .0317934
620.375 .0317693
621.141 .0317453
621.907 .0317212
622.672 .0316970
623.437 .0316727
624.202 .0316482
624.966 .0316232
625.730 .0315977
626.493 .0315713
627.257 .0315442
628.020 .0315162
628.782 .0314874
629.545 .0314578
630.307 .0314275
631.068 .0313967
631.830 .0313653
632.591 .0313334
633.352 .0313012
634.112 .0312687
634.872 .0312361
635.632 .0312033
636.392 .0311704
637.151 .0311376
637.910 .0311050
638.668 .0310728
639.427 .0310409
640.185 .0310096
640.943 .0309790
641.700 .0309490
642.457 .0309199
643.214 .0308918
643.971 .0308647
644.727 .0308387
645.483 .0308136
646.239 .0307895
646.994 .0307662
647.750 .0307438
648.505 .0307220
649.259 .0307008
650.014 .0306802
650.768 .0306599
651.521 .0306400
652.275 .0306203
653.028 .0306009
653.781 .0305817
654.534 .0305626
655.286 .0305435
656.039 .0305245
656.791 .0305056
657.542 .0304867
658.294 .0304679
659.045 .0304493
659.796 .0304307
660.546 .0304123
661.297 .0303940
662.047 .0303758
662.796 .0303578
663.546 .0303399
664.295 .0303223
665.044 .0303050
665.793 .0302880
666.542 .0302714
667.290 .0302551
668.038 .0302393
668.786 .0302237
669.533 .0302085
670.281 .0301934
671.028 .0301785
671.774 .0301636
672.521 .0301486
673.267 .0301336
674.013 .0301184
674.759 .0301030
675.505 .0300872
676.250 .0300712
676.995 .0300547
677.740 .0300379
678.484 .0300205
679.229 .0300026
679.973 .0299842
680.717 .0299653
681.460 .0299458
682.204 .0299258
682.947 .0299051
683.690 .0298839
684.433 .0298620
685.175 .0298396
685.917 .0298167
686.659 .0297934
687.401 .0297697
688.142 .0297456
688.884 .0297214
689.625 .0296968
690.365 .0296720
691.106 .0296471
691.846 .0296219
692.586 .0295965
693.326 .0295710
694.066 .0295453
694.805 .0295195
695.545 .0294937
696.284 .0294678
697.022 .0294420
697.761 .0294162
698.499 .0293906
699.237 .0293650
699.975 .0293396
700.713 .0293144
701.450 .0292893
702.187 .0292644
702.924 .0292396
703.661 .0292149
704.397 .0291903
705.133 .0291657
705.869 .0291412
706.605 .0291167
707.341 .0290924
708.076 .0290683
708.811 .0290445
709.546 .0290210
710.281 .0289978
711.015 .0289750
711.749 .0289525
712.483 .0289305
713.217 .0289088
713.950 .0288875
714.684 .0288665
715.417 .0288459
716.150 .0288258
716.882 .0288061
717.615 .0287869
718.347 .0287681
719.079 .0287498
719.811 .0287320
720.542 .0287146
721.273 .0286977
722.005 .0286812
722.735 .0286651
723.466 .0286495
724.196 .0286343
724.927 .0286196
725.656 .0286054
726.386 .0285917
727.116 .0285787
727.845 .0285663
728.574 .0285546
729.303 .0285436
730.031 .0285334
730.760 .0285240
731.488 .0285154
732.216 .0285077
732.944 .0285007
733.671 .0284946
734.398 .0284892
735.125 .0284845
735.852 .0284805
736.579 .0284772
737.305 .0284746
738.031 .0284726
738.757 .0284713
739.483 .0284705
740.208 .0284702
740.933 .0284703
741.658 .0284706
742.383 .0284710
743.108 .0284712
743.832 .0284712
744.556 .0284708
745.280 .0284699
746.004 .0284684
746.727 .0284663
747.450 .0284636
748.173 .0284601
748.896 .0284557
749.618 .0284504
750.340 .0284441
751.062 .0284368
751.784 .0284284
752.506 .0284188
753.227 .0284083
753.948 .0283967
754.669 .0283841
755.389 .0283706
756.110 .0283563
756.830 .0283413
757.550 .0283256
758.269 .0283094
758.989 .0282926
759.708 .0282754
760.427 .0282578
761.146 .0282398
761.864 .0282214
762.582 .0282027
763.300 .0281837
764.018 .0281642
764.736 .0281445
765.453 .0281245
766.170 .0281042
766.887 .0280838
767.603 .0280632
768.320 .0280425
769.036 .0280218
769.751 .0280010
770.467 .0279801
771.182 .0279592
771.897 .0279382
772.612 .0279172
773.327 .0278961
774.041 .0278750
774.755 .0278540
775.469 .0278331
776.183 .0278124
776.896 .0277919
777.609 .0277717
778.322 .0277518
779.035 .0277322
779.747 .0277129
780.459 .0276941
781.171 .0276755
781.882 .0276573
782.594 .0276393
783.305 .0276216
784.016 .0276042
784.726 .0275869
785.436 .0275700
786.147 .0275452
786.856 .0275285
787.566 .0275120
788.275 .0274955
788.984 .0274791
789.693 .0274626
790.401 .0274461
791.110 .0274294
791.818 .0274126
792.525 .0273957
793.233 .0273786
793.940 .0273614
794.647 .0273522
795.353 .0273350
796.060 .0273178
796.766 .0273007
797.472 .0272836
798.177 .0272665
798.883 .0272495
799.588 .0272326
800.292 .0272159
800.997 .0271995
801.701 .0271833
802.405 .0271675
803.109 .0271521
803.812 .0271370
804.515 .0271224
805.218 .0271082
805.921 .0270943
806.623 .0270808
807.325 .0270678
808.027 .0270552
808.728 .0270432
809.429 .0270318
810.130 .0270210
810.831 .0270109
811.531 .0270014
812.231 .0269927
812.931 .0269846
813.630 .0269771
814.330 .0269703
815.029 .0269642
815.727 .0269588
816.426 .0269541
817.124 .0269501
817.821 .0269470
818.519 .0269446
819.216 .0269429
819.913 .0269421
820.609 .0269419
821.306 .0269424
822.002 .0269437
822.697 .0269456
823.393 .0269483
824.088 .0269517
824.783 .0269558
825.477 .0269606
826.171 .0269661
826.865 .0269722
827.559 .0269789
828.252 .0269860
828.945 .0269936
829.638 .0270016
830.330 .0270099
831.023 .0270184
831.714 .0270271
832.406 .0270359
833.097 .0270448
833.788 .0270536
834.479 .0270623
835.169 .0270708
835.859 .0270791
836.548 .0270870
837.238 .0270945
837.927 .0271017
838.615 .0271083
839.304 .0271145
839.992 .0271201
840.680 .0271251
841.367 .0271295
842.054 .0271333
842.741 .0271364
843.428 .0271388
844.114 .0271404
844.800 .0271412
845.485 .0271410
846.170 .0271398
846.855 .0271375
847.540 .0271343
848.224 .0271299
848.908 .0271245
849.592 .0271180
850.275 .0271106
850.958 .0271022
851.641 .0270927
852.323 .0270823
853.005 .0270709
853.687 .0270585
854.368 .0270453
855.049 .0270312
855.730 .0270163
856.410 .0270008
857.090 .0269847
857.769 .0269681
858.449 .0269509
859.128 .0269332
859.806 .0269150
860.485 .0268964
861.163 .0268774
861.840 .0268580
862.518 .0268383
863.195 .0268183
863.871 .0267980
864.548 .0267774
865.224 .0267566
865.899 .0267356
866.574 .0267143
867.249 .0266928
867.924 .0266711
868.598 .0266493
869.272 .0266273
869.946 .0266052
870.619 .0265830
871.292 .0265606
871.964 .0265381
872.636 .0265154
873.308 .0264925
873.979 .0264694
874.651 .0264461
875.321 .0264228
875.992 .0263994
876.662 .0263759
877.331 .0263525
878.001 .0263291
878.670 .0263057
879.338 .0262824
880.007 .0262593
880.675 .0262363
881.342 .0262137
882.009 .0261914
882.676 .0261695
883.343 .0261481
884.009 .0261273
884.675 .0261070
885.340 .0260873
886.005 .0260682
886.670 .0260498
887.334 .0260321
887.998 .0260151
888.662 .0259988
889.325 .0259832
889.988 .0259682
890.650 .0259538
891.312 .0259399
891.974 .0259264
892.636 .0259133
893.297 .0259006
893.957 .0258882
894.618 .0258760
895.278 .0258640
895.937 .0258521
896.596 .0258402
897.255 .0258281
897.914 .0258158
898.572 .0258031
899.230 .0257901
899.887 .0257765
900.544 .0257624
901.201 .0257476
901.857 .0257223
902.513 .0257058
903.168 .0256887
903.823 .0256710
904.478 .0256527
905.132 .0256339
905.786 .0256146
906.440 .0255951
907.093 .0255752
907.746 .0255553
908.399 .0255353
909.051 .0255153
909.703 .0254955
910.354 .0254864
911.005 .0254673
911.656 .0254485
912.306 .0254302
912.956 .0254124
913.605 .0253951
914.254 .0253785
914.903 .0253626
915.551 .0253475
916.199 .0253331
916.847 .0253195
917.494 .0253066
918.141 .0252943
918.788 .0252827
919.434 .0252717
920.079 .0252614
920.725 .0252517
921.370 .0252426
922.014 .0252340
922.658 .0252260
923.302 .0252184
923.946 .0252112
924.589 .0252042
925.231 .0251974
925.873 .0251908
926.515 .0251843
927.157 .0251779
927.798 .0251716
928.439 .0251655
929.079 .0251596
929.719 .0251540
930.359 .0251486
930.998 .0251437
931.637 .0251391
932.275 .0251349
932.913 .0251312
933.551 .0251280
934.188 .0251255
934.825 .0251237
935.462 .0251227
936.098 .0251225
936.733 .0251230
937.369 .0251244
938.004 .0251266
938.638 .0251296
939.273 .0251333
939.907 .0251378
940.540 .0251431
941.173 .0251493
941.806 .0251562
942.438 .0251640
943.070 .0251725
943.702 .0251817
944.333 .0251915
944.964 .0252018
945.594 .0252125
946.224 .0252235
946.854 .0252347
947.483 .0252461
948.112 .0252577
948.741 .0252693
949.369 .0252809
949.996 .0252924
950.624 .0253037
951.251 .0253147
951.878 .0253253
952.504 .0253354
953.130 .0253450
953.755 .0253542
954.380 .0253628
955.005 .0253711
955.629 .0253790
956.253 .0253865
956.877 .0253936
957.500 .0254005
958.123 .0254069
958.746 .0254130
959.368 .0254188
959.990 .0254242
960.611 .0254294
961.232 .0254344
961.853 .0254391
962.473 .0254438
963.093 .0254483
963.712 .0254525
964.331 .0254566
964.950 .0254604
965.569 .0254638
966.187 .0254670
966.804 .0254698
967.422 .0254722
968.039 .0254743
968.655 .0254760
969.272 .0254773
969.887 .0254783
970.503 .0254790
971.118 .0254792
971.733 .0254790
972.347 .0254783
972.961 .0254770
973.575 .0254751
974.188 .0254724
974.801 .0254689
975.414 .0254645
976.026 .0254592
976.638 .0254531
977.250 .0254460
977.861 .0254380
978.472 .0254291
979.083 .0254193
979.693 .0254087
980.303 .0253972
980.912 .0253768
981.521 .0253635
982.130 .0253495
982.738 .0253349
983.346 .0253199
983.954 .0253045
984.562 .0252889
985.169 .0252733
985.775 .0252576
986.382 .0252420
986.988 .0252264
987.594 .0252108
988.199 .0251952
988.804 .0251796
989.409 .0251727
990.013 .0251571
990.617 .0251414
991.221 .0251258
991.824 .0251103
992.427 .0250949
993.030 .0250795
993.632 .0250643
994.234 .0250490
994.836 .0250336
995.438 .0250181
996.039 .0250024
996.640 .0249864
997.240 .0249702
997.840 .0249539
998.440 .0249374
999.040 .0249209
999.639 .0249043
1000.238 .0248877
1000.836 .0248710
1001.435 .0248541
1002.033 .0248370
1002.630 .0248196
1003.228 .0248018
1003.825 .0247836
1004.422 .0247650
1005.018 .0247460
1005.614 .0247267
1006.210 .0247072
1006.806 .0246874
1007.401 .0246676
1007.996 .0246476
1008.591 .0246276
1009.186 .0246076
1009.780 .0245875
1010.374 .0245675
1010.967 .0245476
1011.561 .0245278
1012.154 .0245083
1012.746 .0244892
1013.339 .0244704
1013.931 .0244522
1014.523 .0244346
1015.115 .0244176
1015.706 .0244013
1016.298 .0243855
1016.888 .0243704
1017.479 .0243559
1018.069 .0243420
1018.660 .0243287
1019.250 .0243160
1019.839 .0243039
1020.429 .0242925
1021.018 .0242818
1021.607 .0242717
1022.195 .0242623
1022.784 .0242535
1023.372 .0242453
1023.960 .0242375
1024.547 .0242302
1025.135 .0242232
1025.722 .0242165
1026.309 .0242102
1026.896 .0242041
1027.483 .0241984
1028.069 .0241928
1028.655 .0241875
1029.241 .0241823
1029.827 .0241771
1030.412 .0241718
1030.997 .0241663
1031.582 .0241606
1032.167 .0241546
1032.752 .0241482
1033.336 .0241415
1033.921 .0241345
1034.505 .0241272
1035.089 .0241196
1035.672 .0241117
1036.256 .0241035
1036.839 .0240949
1037.422 .0240860
1038.005 .0240767
1038.588 .0240671
1039.171 .0240572
1039.753 .0240471
1040.335 .0240369
1040.918 .0240266
1041.500 .0240164
1042.081 .0240062
1042.663 .0239962
1043.244 .0239863
1043.826 .0239767
1044.407 .0239674
1044.988 .0239585
1045.569 .0239501
1046.150 .0239422
1046.730 .0239350
1047.311 .0239284
1047.891 .0239224
1048.471 .0239171
1049.052 .0239123
1049.632 .0239081
1050.211 .0239043
1050.791 .0239011
1051.371 .0238983
1051.950 .0238961
1052.530 .0238943
1053.109 .0238931
1053.688 .0238924
1054.268 .0238922
1054.847 .0238924
1055.426 .0238929
1056.005 .0238938
1056.583 .0238950
1057.162 .0238967
1057.741 .0238990
1058.319 .0239020
1058.898 .0239058
1059.476 .0239104
1060.055 .0239158
1060.633 .0239220
1061.211 .0239289
1061.790 .0239364
1062.368 .0239442
1062.946 .0239523
1063.524 .0239607
1064.102 .0239694
1064.680 .0239783
1065.258 .0239875
1065.836 .0239970
1066.414 .0240068
1066.992 .0240167
1067.570 .0240268
1068.148 .0240371
1068.726 .0240476
1069.304 .0240584
1069.882 .0240696
1070.460 .0240811
1071.038 .0240931
1071.616 .0241057
1072.194 .0241189
1072.772 .0241327
1073.350 .0241471
1073.928 .0241618
1074.506 .0241769
1075.084 .0241921
1075.662 .0242075
1076.240 .0242229
1076.819 .0242382
1077.397 .0242534
1077.976 .0242684
1078.554 .0242833
1079.133 .0242984
1079.711 .0243137
1080.290 .0243293
1080.869 .0243455
1081.448 .0243623
1082.027 .0243798
1082.606 .0243982
1083.185 .0244174
1083.764 .0244374
1084.343 .0244583
1084.923 .0244798
1085.502 .0245021
1086.082 .0245251
1086.662 .0245489
1087.242 .0245734
1087.822 .0245986
1088.402 .0246243
1088.983 .0246506
1089.563 .0246772
1090.144 .0247040
1090.725 .0247309
1091.306 .0247579
1091.887 .0247850
1092.469 .0248121
1093.050 .0248392
1093.632 .0248666
1094.214 .0248943
1094.796 .0249224
1095.379 .0249511
1095.961 .0249803
1096.544 .0250102
1097.127 .0250408
1097.710 .0250720
1098.294 .0251036
1098.877 .0251358
1099.461 .0251685
1100.046 .0252018
1100.630 .0252356
1101.215 .0252698
1101.800 .0253046
1102.385 .0253399
1102.970 .0253756
1103.556 .0254118
1104.142 .0254485
1104.728 .0254856
1105.315 .0255231
1105.902 .0255608
1106.489 .0255987
1107.077 .0256367
1107.664 .0256749
1108.253 .0257131
1108.841 .0257513
1109.430 .0257898
1110.019 .0258285
1110.609 .0258678
1111.198 .0259075
1111.789 .0259478
1112.379 .0259888
1112.970 .0260303
1113.561 .0260722
1114.153 .0261141
1114.745 .0261562
1115.338 .0261984
1115.931 .0262407
1116.524 .0262832
1117.117 .0263261
1117.712 .0263696
1118.306 .0264140
1118.901 .0264594
1119.496 .0265059
1120.092 .0265537
1120.689 .0266028
1121.285 .0266534
1121.882 .0267054
1122.480 .0267591
1123.078 .0268147
1123.677 .0268729
1124.276 .0269339
1124.875 .0269982
1125.476 .0270661
1126.076 .0271380
1126.677 .0272141
1127.279 .0272945
1127.881 .0273790
1128.484 .0274678
1129.087 .0275029
1129.691 .0275969
1130.295 .0276945
1130.900 .0277953
1131.505 .0278995
1132.111 .0280070
1132.718 .0281177
1133.325 .0282318
1133.933 .0283491
1134.541 .0284731
1135.150 .0286024
1135.760 .0287278
1136.370 .0288584
1136.981 .0290128
1137.592 .0291698
1138.204 .0293196
1138.817 .0294594
1139.431 .0295974
1140.045 .0297389
1140.660 .0298774
1141.275 .0300224
1141.891 .0301682
1142.508 .0304118
1143.126 .0306285
1143.744 .0305900
1144.363 .0308136
1144.983 .0308404
