Measurement Sequence started on: 15-12-46-377
Integration time: 28
Scans to Average: 2 
>>>>>Begin Spectral Data<<<<<
432.689 .0000100
433.621 .0000100
434.552 .0000100
435.482 .0000100
436.410 .0000100
437.337 .0000100
438.262 .0268659
439.187 .0570209
440.110 .0945672
441.031 .1369233
441.952 .1102143
442.871 .1151328
443.789 .1197108
444.705 .1240199
445.621 .1281083
446.535 .1320133
447.447 .1343437
448.359 .1349457
449.269 .1334463
450.178 .1296040
451.086 .1234907
451.993 .1155736
452.898 .1066303
453.803 .0975471
454.706 .0890779
455.608 .0816953
456.508 .0755624
457.408 .0713734
458.306 .0681346
459.204 .0654848
460.100 .0632400
460.995 .0612994
461.888 .0595939
462.781 .0580782
463.673 .0567184
464.563 .0554946
465.452 .0543902
466.340 .0533915
467.228 .0524894
468.114 .0516743
468.999 .0509383
469.882 .0502725
470.765 .0496697
471.647 .0491228
472.528 .0486266
473.407 .0481761
474.286 .0477684
475.163 .0474008
476.040 .0470714
476.915 .0467779
477.790 .0465184
478.663 .0462906
479.535 .0460925
480.407 .0459214
481.277 .0457759
482.147 .0456532
483.015 .0455520
483.883 .0454697
484.749 .0454051
485.615 .0453564
486.479 .0453224
487.343 .0453016
488.206 .0452941
489.067 .0452990
489.928 .0453177
490.788 .0453513
491.647 .0454023
492.505 .0454724
493.362 .0455639
494.218 .0456782
495.073 .0458173
495.928 .0461175
496.781 .0463208
497.634 .0465486
498.486 .0468007
499.337 .0470770
500.187 .0473786
501.036 .0477069
501.884 .0480631
502.731 .0484502
503.578 .0488703
504.424 .0491471
505.268 .0496240
506.113 .0501434
506.956 .0507086
507.798 .0513233
508.640 .0519908
509.480 .0527179
510.320 .0535131
511.160 .0543865
511.998 .0553505
512.836 .0564248
513.672 .0576297
514.508 .0589910
515.344 .0605347
516.178 .0622868
517.012 .0642738
517.845 .0665196
518.677 .0690430
519.508 .0718606
520.339 .0749763
521.169 .0783925
521.998 .0820852
522.826 .0860235
523.654 .0901544
524.481 .0944124
525.307 .0987199
526.133 .1029894
526.958 .1071238
527.782 .1110313
528.605 .1146250
529.428 .1178340
530.250 .1205907
531.072 .1228539
531.892 .1245867
532.712 .1257691
533.532 .1263914
534.350 .1264529
535.168 .1259568
535.986 .1249144
536.802 .1233333
537.618 .1212327
538.434 .1186302
539.249 .1155668
540.063 .1120892
540.876 .1082623
541.689 .1041604
542.501 .0998670
543.313 .0954722
544.124 .0910718
544.934 .0867521
545.744 .0825925
546.553 .0786540
547.361 .0749880
548.169 .0716183
548.976 .0685609
549.783 .0658126
550.589 .0633607
551.395 .0611814
552.200 .0592482
553.004 .0575302
553.808 .0560012
554.611 .0546355
555.414 .0534096
556.216 .0523019
557.018 .0512929
557.819 .0503651
558.619 .0495047
559.419 .0487009
560.218 .0479458
561.017 .0472322
561.815 .0465560
562.613 .0459131
563.410 .0452992
564.207 .0447103
565.003 .0441425
565.799 .0435907
566.594 .0430512
567.388 .0425209
568.182 .0419978
568.976 .0414813
569.769 .0409719
570.562 .0404707
571.354 .0399792
572.145 .0394993
572.936 .0390327
573.727 .0385806
574.517 .0381438
575.307 .0377226
576.096 .0373166
576.885 .0369262
577.673 .0365514
578.461 .0361924
579.248 .0358499
580.035 .0355246
580.821 .0352171
581.607 .0349281
582.392 .0346580
583.177 .0344071
583.962 .0341750
584.746 .0339613
585.529 .0337649
586.313 .0335846
587.095 .0334195
587.878 .0332682
588.660 .0331298
589.441 .0330033
590.222 .0328879
591.003 .0327827
591.783 .0326872
592.563 .0326005
593.342 .0325218
594.121 .0324503
594.899 .0323851
595.678 .0323251
596.455 .0322695
597.233 .0322175
598.009 .0321684
598.786 .0321216
599.562 .0320767
600.338 .0320332
601.113 .0319911
601.888 .0319310
602.663 .0318913
603.437 .0318524
604.211 .0318142
604.984 .0317766
605.757 .0317394
606.530 .0317024
607.302 .0316656
608.074 .0316290
608.845 .0315926
609.616 .0315565
610.387 .0315390
611.158 .0315035
611.928 .0314686
612.697 .0314342
613.467 .0314006
614.236 .0313675
615.004 .0313352
615.773 .0313035
616.541 .0312726
617.308 .0312424
618.076 .0312128
618.843 .0311840
619.609 .0311558
620.375 .0311284
621.141 .0311016
621.907 .0310754
622.672 .0310501
623.437 .0310255
624.202 .0310015
624.966 .0309783
625.730 .0309557
626.493 .0309337
627.257 .0309121
628.020 .0308909
628.782 .0308700
629.545 .0308492
630.307 .0308287
631.068 .0308082
631.830 .0307878
632.591 .0307674
633.352 .0307468
634.112 .0307262
634.872 .0307054
635.632 .0306844
636.392 .0306631
637.151 .0306416
637.910 .0306198
638.668 .0305978
639.427 .0305755
640.185 .0305531
640.943 .0305305
641.700 .0305080
642.457 .0304856
643.214 .0304634
643.971 .0304415
644.727 .0304200
645.483 .0303988
646.239 .0303781
646.994 .0303576
647.750 .0303376
648.505 .0303178
649.259 .0302985
650.014 .0302796
650.768 .0302610
651.521 .0302429
652.275 .0302251
653.028 .0302076
653.781 .0301903
654.534 .0301730
655.286 .0301556
656.039 .0301381
656.791 .0301205
657.542 .0301026
658.294 .0300845
659.045 .0300662
659.796 .0300476
660.546 .0300288
661.297 .0300096
662.047 .0299900
662.796 .0299700
663.546 .0299495
664.295 .0299285
665.044 .0299070
665.793 .0298851
666.542 .0298629
667.290 .0298405
668.038 .0298181
668.786 .0297956
669.533 .0297733
670.281 .0297512
671.028 .0297294
671.774 .0297080
672.521 .0296870
673.267 .0296665
674.013 .0296465
674.759 .0296269
675.505 .0296077
676.250 .0295888
676.995 .0295702
677.740 .0295517
678.484 .0295334
679.229 .0295151
679.973 .0294970
680.717 .0294788
681.460 .0294608
682.204 .0294427
682.947 .0294245
683.690 .0294062
684.433 .0293878
685.175 .0293690
685.917 .0293499
686.659 .0293306
687.401 .0293110
688.142 .0292911
688.884 .0292712
689.625 .0292511
690.365 .0292310
691.106 .0292110
691.846 .0291911
692.586 .0291715
693.326 .0291520
694.066 .0291328
694.805 .0291139
695.545 .0290954
696.284 .0290773
697.022 .0290596
697.761 .0290425
698.499 .0290259
699.237 .0290099
699.975 .0289944
700.713 .0289793
701.450 .0289647
702.187 .0289504
702.924 .0289364
703.661 .0289226
704.397 .0289091
705.133 .0288958
705.869 .0288826
706.605 .0288695
707.341 .0288566
708.076 .0288437
708.811 .0288308
709.546 .0288179
710.281 .0288050
711.015 .0287922
711.749 .0287793
712.483 .0287665
713.217 .0287538
713.950 .0287411
714.684 .0287286
715.417 .0287161
716.150 .0287036
716.882 .0286912
717.615 .0286789
718.347 .0286665
719.079 .0286542
719.811 .0286418
720.542 .0286294
721.273 .0286170
722.005 .0286045
722.735 .0285920
723.466 .0285793
724.196 .0285665
724.927 .0285535
725.656 .0285404
726.386 .0285271
727.116 .0285138
727.845 .0285003
728.574 .0284868
729.303 .0284733
730.031 .0284597
730.760 .0284461
731.488 .0284326
732.216 .0284191
732.944 .0284057
733.671 .0283923
734.398 .0283791
735.125 .0283661
735.852 .0283533
736.579 .0283408
737.305 .0283285
738.031 .0283165
738.757 .0283047
739.483 .0282932
740.208 .0282820
740.933 .0282710
741.658 .0282602
742.383 .0282495
743.108 .0282390
743.832 .0282285
744.556 .0282179
745.280 .0282074
746.004 .0281966
746.727 .0281857
747.450 .0281745
748.173 .0281629
748.896 .0281509
749.618 .0281386
750.340 .0281258
751.062 .0281127
751.784 .0280992
752.506 .0280853
753.227 .0280710
753.948 .0280563
754.669 .0280411
755.389 .0280255
756.110 .0280094
756.830 .0279927
757.550 .0279756
758.269 .0279581
758.989 .0279403
759.708 .0279221
760.427 .0279037
761.146 .0278851
761.864 .0278662
762.582 .0278471
763.300 .0278277
764.018 .0278081
764.736 .0277882
765.453 .0277682
766.170 .0277482
766.887 .0277281
767.603 .0277082
768.320 .0276884
769.036 .0276688
769.751 .0276495
770.467 .0276304
771.182 .0276118
771.897 .0275936
772.612 .0275759
773.327 .0275588
774.041 .0275422
774.755 .0275263
775.469 .0275110
776.183 .0274965
776.896 .0274827
777.609 .0274697
778.322 .0274575
779.035 .0274460
779.747 .0274354
780.459 .0274254
781.171 .0274162
781.882 .0274077
782.594 .0273996
783.305 .0273921
784.016 .0273849
784.726 .0273780
785.436 .0273714
786.147 .0273617
786.856 .0273552
787.566 .0273488
788.275 .0273425
788.984 .0273363
789.693 .0273300
790.401 .0273237
791.110 .0273173
791.818 .0273106
792.525 .0273038
793.233 .0272966
793.940 .0272892
794.647 .0272849
795.353 .0272773
796.060 .0272695
796.766 .0272616
797.472 .0272537
798.177 .0272458
798.883 .0272377
799.588 .0272296
800.292 .0272213
800.997 .0272128
801.701 .0272042
802.405 .0271955
803.109 .0271866
803.812 .0271777
804.515 .0271688
805.218 .0271598
805.921 .0271507
806.623 .0271415
807.325 .0271321
808.027 .0271225
808.728 .0271127
809.429 .0271028
810.130 .0270928
810.831 .0270829
811.531 .0270729
812.231 .0270630
812.931 .0270530
813.630 .0270430
814.330 .0270329
815.029 .0270227
815.727 .0270126
816.426 .0270026
817.124 .0269929
817.821 .0269836
818.519 .0269748
819.216 .0269665
819.913 .0269588
820.609 .0269517
821.306 .0269452
822.002 .0269393
822.697 .0269339
823.393 .0269291
824.088 .0269250
824.783 .0269215
825.477 .0269186
826.171 .0269164
826.865 .0269146
827.559 .0269133
828.252 .0269123
828.945 .0269116
829.638 .0269111
830.330 .0269108
831.023 .0269107
831.714 .0269107
832.406 .0269109
833.097 .0269111
833.788 .0269113
834.479 .0269114
835.169 .0269112
835.859 .0269107
836.548 .0269100
837.238 .0269088
837.927 .0269074
838.615 .0269056
839.304 .0269034
839.992 .0269009
840.680 .0268980
841.367 .0268946
842.054 .0268906
842.741 .0268862
843.428 .0268811
844.114 .0268755
844.800 .0268693
845.485 .0268626
846.170 .0268554
846.855 .0268477
847.540 .0268395
848.224 .0268307
848.908 .0268214
849.592 .0268114
850.275 .0268009
850.958 .0267897
851.641 .0267778
852.323 .0267654
853.005 .0267523
853.687 .0267386
854.368 .0267243
855.049 .0267095
855.730 .0266940
856.410 .0266779
857.090 .0266613
857.769 .0266442
858.449 .0266265
859.128 .0266085
859.806 .0265901
860.485 .0265715
861.163 .0265527
861.840 .0265338
862.518 .0265150
863.195 .0264961
863.871 .0264773
864.548 .0264585
865.224 .0264398
865.899 .0264212
866.574 .0264028
867.249 .0263845
867.924 .0263664
868.598 .0263486
869.272 .0263311
869.946 .0263139
870.619 .0262970
871.292 .0262803
871.964 .0262638
872.636 .0262475
873.308 .0262315
873.979 .0262156
874.651 .0262000
875.321 .0261847
875.992 .0261696
876.662 .0261548
877.331 .0261402
878.001 .0261258
878.670 .0261115
879.338 .0260973
880.007 .0260831
880.675 .0260691
881.342 .0260552
882.009 .0260415
882.676 .0260281
883.343 .0260150
884.009 .0260023
884.675 .0259899
885.340 .0259780
886.005 .0259664
886.670 .0259551
887.334 .0259442
887.998 .0259336
888.662 .0259236
889.325 .0259140
889.988 .0259049
890.650 .0258963
891.312 .0258882
891.974 .0258806
892.636 .0258733
893.297 .0258664
893.957 .0258596
894.618 .0258531
895.278 .0258467
895.937 .0258403
896.596 .0258339
897.255 .0258275
897.914 .0258209
898.572 .0258140
899.230 .0258067
899.887 .0257989
900.544 .0257905
901.201 .0257814
901.857 .0257645
902.513 .0257536
903.168 .0257419
903.823 .0257295
904.478 .0257164
905.132 .0257025
905.786 .0256879
906.440 .0256725
907.093 .0256564
907.746 .0256396
908.399 .0256222
909.051 .0256043
909.703 .0255859
910.354 .0255759
911.005 .0255575
911.656 .0255388
912.306 .0255199
912.956 .0255010
913.605 .0254820
914.254 .0254630
914.903 .0254440
915.551 .0254251
916.199 .0254063
916.847 .0253877
917.494 .0253693
918.141 .0253512
918.788 .0253334
919.434 .0253159
920.079 .0252987
920.725 .0252817
921.370 .0252650
922.014 .0252485
922.658 .0252322
923.302 .0252162
923.946 .0252004
924.589 .0251849
925.231 .0251698
925.873 .0251551
926.515 .0251408
927.157 .0251269
927.798 .0251135
928.439 .0251004
929.079 .0250877
929.719 .0250754
930.359 .0250636
930.998 .0250523
931.637 .0250414
932.275 .0250311
932.913 .0250215
933.551 .0250125
934.188 .0250043
934.825 .0249968
935.462 .0249900
936.098 .0249838
936.733 .0249783
937.369 .0249734
938.004 .0249690
938.638 .0249653
939.273 .0249621
939.907 .0249596
940.540 .0249576
941.173 .0249562
941.806 .0249554
942.438 .0249550
943.070 .0249550
943.702 .0249553
944.333 .0249558
944.964 .0249565
945.594 .0249573
946.224 .0249582
946.854 .0249591
947.483 .0249601
948.112 .0249610
948.741 .0249620
949.369 .0249628
949.996 .0249636
950.624 .0249643
951.251 .0249648
951.878 .0249651
952.504 .0249653
953.130 .0249653
953.755 .0249653
954.380 .0249653
955.005 .0249653
955.629 .0249654
956.253 .0249656
956.877 .0249659
957.500 .0249663
958.123 .0249667
958.746 .0249672
959.368 .0249677
959.990 .0249683
960.611 .0249691
961.232 .0249700
961.853 .0249710
962.473 .0249723
963.093 .0249737
963.712 .0249753
964.331 .0249770
964.950 .0249788
965.569 .0249807
966.187 .0249827
966.804 .0249845
967.422 .0249863
968.039 .0249880
968.655 .0249895
969.272 .0249908
969.887 .0249918
970.503 .0249927
971.118 .0249933
971.733 .0249936
972.347 .0249937
972.961 .0249935
973.575 .0249929
974.188 .0249918
974.801 .0249903
975.414 .0249883
976.026 .0249857
976.638 .0249826
977.250 .0249790
977.861 .0249749
978.472 .0249704
979.083 .0249655
979.693 .0249603
980.303 .0249547
980.912 .0249450
981.521 .0249386
982.130 .0249319
982.738 .0249250
983.346 .0249179
983.954 .0249108
984.562 .0249036
985.169 .0248965
985.775 .0248894
986.382 .0248825
986.988 .0248758
987.594 .0248692
988.199 .0248628
988.804 .0248567
989.409 .0248545
990.013 .0248488
990.617 .0248433
991.221 .0248382
991.824 .0248334
992.427 .0248289
993.030 .0248247
993.632 .0248208
994.234 .0248171
994.836 .0248137
995.438 .0248103
996.039 .0248071
996.640 .0248039
997.240 .0248009
997.840 .0247979
998.440 .0247950
999.040 .0247922
999.639 .0247894
1000.238 .0247868
1000.836 .0247842
1001.435 .0247817
1002.033 .0247792
1002.630 .0247768
1003.228 .0247745
1003.825 .0247722
1004.422 .0247698
1005.018 .0247674
1005.614 .0247650
1006.210 .0247625
1006.806 .0247599
1007.401 .0247572
1007.996 .0247545
1008.591 .0247517
1009.186 .0247491
1009.780 .0247464
1010.374 .0247439
1010.967 .0247413
1011.561 .0247387
1012.154 .0247361
1012.746 .0247334
1013.339 .0247306
1013.931 .0247278
1014.523 .0247250
1015.115 .0247223
1015.706 .0247197
1016.298 .0247172
1016.888 .0247150
1017.479 .0247128
1018.069 .0247108
1018.660 .0247087
1019.250 .0247065
1019.839 .0247041
1020.429 .0247015
1021.018 .0246988
1021.607 .0246959
1022.195 .0246930
1022.784 .0246902
1023.372 .0246874
1023.960 .0246848
1024.547 .0246822
1025.135 .0246797
1025.722 .0246772
1026.309 .0246747
1026.896 .0246720
1027.483 .0246693
1028.069 .0246666
1028.655 .0246639
1029.241 .0246613
1029.827 .0246590
1030.412 .0246570
1030.997 .0246552
1031.582 .0246537
1032.167 .0246525
1032.752 .0246513
1033.336 .0246501
1033.921 .0246489
1034.505 .0246475
1035.089 .0246460
1035.672 .0246445
1036.256 .0246429
1036.839 .0246413
1037.422 .0246397
1038.005 .0246381
1038.588 .0246364
1039.171 .0246345
1039.753 .0246324
1040.335 .0246299
1040.918 .0246270
1041.500 .0246237
1042.081 .0246201
1042.663 .0246162
1043.244 .0246121
1043.826 .0246078
1044.407 .0246033
1044.988 .0245985
1045.569 .0245934
1046.150 .0245879
1046.730 .0245820
1047.311 .0245756
1047.891 .0245688
1048.471 .0245617
1049.052 .0245543
1049.632 .0245467
1050.211 .0245390
1050.791 .0245313
1051.371 .0245235
1051.950 .0245157
1052.530 .0245077
1053.109 .0244995
1053.688 .0244911
1054.268 .0244825
1054.847 .0244739
1055.426 .0244654
1056.005 .0244570
1056.583 .0244491
1057.162 .0244416
1057.741 .0244345
1058.319 .0244280
1058.898 .0244217
1059.476 .0244157
1060.055 .0244098
1060.633 .0244040
1061.211 .0243982
1061.790 .0243926
1062.368 .0243872
1062.946 .0243820
1063.524 .0243772
1064.102 .0243727
1064.680 .0243684
1065.258 .0243641
1065.836 .0243598
1066.414 .0243552
1066.992 .0243503
1067.570 .0243450
1068.148 .0243394
1068.726 .0243337
1069.304 .0243280
1069.882 .0243224
1070.460 .0243170
1071.038 .0243119
1071.616 .0243070
1072.194 .0243022
1072.772 .0242972
1073.350 .0242920
1073.928 .0242866
1074.506 .0242808
1075.084 .0242748
1075.662 .0242688
1076.240 .0242629
1076.819 .0242573
1077.397 .0242521
1077.976 .0242473
1078.554 .0242429
1079.133 .0242388
1079.711 .0242350
1080.290 .0242315
1080.869 .0242281
1081.448 .0242250
1082.027 .0242222
1082.606 .0242200
1083.185 .0242184
1083.764 .0242177
1084.343 .0242180
1084.923 .0242195
1085.502 .0242221
1086.082 .0242260
1086.662 .0242312
1087.242 .0242375
1087.822 .0242450
1088.402 .0242536
1088.983 .0242633
1089.563 .0242741
1090.144 .0242859
1090.725 .0242987
1091.306 .0243125
1091.887 .0243273
1092.469 .0243431
1093.050 .0243599
1093.632 .0243777
1094.214 .0243965
1094.796 .0244161
1095.379 .0244365
1095.961 .0244574
1096.544 .0244787
1097.127 .0245006
1097.710 .0245230
1098.294 .0245459
1098.877 .0245696
1099.461 .0245940
1100.046 .0246192
1100.630 .0246452
1101.215 .0246719
1101.800 .0246991
1102.385 .0247264
1102.970 .0247536
1103.556 .0247805
1104.142 .0248069
1104.728 .0248329
1105.315 .0248585
1105.902 .0248840
1106.489 .0249097
1107.077 .0249356
1107.664 .0249623
1108.253 .0249897
1108.841 .0250179
1109.430 .0250469
1110.019 .0250769
1110.609 .0251078
1111.198 .0251398
1111.789 .0251730
1112.379 .0252079
1112.970 .0252445
1113.561 .0252831
1114.153 .0253237
1114.745 .0253664
1115.338 .0254109
1115.931 .0254568
1116.524 .0255040
1117.117 .0255518
1117.712 .0256001
1118.306 .0256486
1118.901 .0256973
1119.496 .0257466
1120.092 .0257964
1120.689 .0258472
1121.285 .0258992
1121.882 .0259528
1122.480 .0260081
1123.078 .0260650
1123.677 .0261240
1124.276 .0261848
1124.875 .0262473
1125.476 .0263114
1126.076 .0263772
1126.677 .0264445
1127.279 .0265131
1127.881 .0265829
1128.484 .0266537
1129.087 .0266867
1129.691 .0267586
1130.295 .0268314
1130.900 .0269052
1131.505 .0269800
1132.111 .0270557
1132.718 .0271322
1133.325 .0272100
1133.933 .0272902
1134.541 .0273698
1135.150 .0274482
1135.760 .0275292
1136.370 .0276202
1136.981 .0277193
1137.592 .0278162
1138.204 .0279188
1138.817 .0280231
1139.431 .0281289
1140.045 .0282314
1140.660 .0283291
1141.275 .0284304
1141.891 .0285652
1142.508 .0285992
1143.126 .0286155
1143.744 .0287270
1144.363 .0290504
1144.983 .0300885
