Measurement Sequence started on: 15-12-46-377
Integration time: 28
Scans to Average: 2 
>>>>>Begin Spectral Data<<<<<
432.689 .0000100
433.621 .0000100
434.552 .0000100
435.482 .0000100
436.410 .0000100
437.337 .0000100
438.262 .0269688
439.187 .0570819
440.110 .0945325
441.031 .1367355
441.952 .1092673
442.871 .1140978
443.789 .1185982
444.705 .1228365
445.621 .1268595
446.535 .1307033
447.447 .1329748
448.359 .1335302
449.269 .1320024
450.178 .1281561
451.086 .1220709
451.993 .1142189
452.898 .1053794
453.803 .0964346
454.706 .0881322
455.608 .0809354
456.508 .0749964
457.408 .0710059
458.306 .0679564
459.204 .0654882
460.100 .0634202
460.995 .0616521
461.888 .0601183
462.781 .0587741
463.673 .0575853
464.563 .0565279
465.452 .0555809
466.340 .0547268
467.228 .0539520
468.114 .0532465
468.999 .0526016
469.882 .0520104
470.765 .0514672
471.647 .0509680
472.528 .0505094
473.407 .0500891
474.286 .0497046
475.163 .0493545
476.040 .0490364
476.915 .0487487
477.790 .0484895
478.663 .0482578
479.535 .0480528
480.407 .0478742
481.277 .0477219
482.147 .0475955
483.015 .0474947
483.883 .0474188
484.749 .0473669
485.615 .0473386
486.479 .0473320
487.343 .0473459
488.206 .0473792
489.067 .0474307
489.928 .0474999
490.788 .0475868
491.647 .0476912
492.505 .0478137
493.362 .0479542
494.218 .0481129
495.073 .0482894
495.928 .0486142
496.781 .0488363
497.634 .0490771
498.486 .0493368
499.337 .0496172
500.187 .0499209
501.036 .0502506
501.884 .0506100
502.731 .0510042
503.578 .0514374
504.424 .0517401
505.268 .0522499
506.113 .0528131
506.956 .0534340
507.798 .0541185
508.640 .0548728
509.480 .0557056
510.320 .0566277
511.160 .0576522
511.998 .0587938
512.836 .0600708
513.672 .0614988
514.508 .0630979
515.344 .0648883
516.178 .0668923
517.012 .0691319
517.845 .0716300
518.677 .0744077
519.508 .0774832
520.339 .0808613
521.169 .0845454
521.998 .0885130
522.826 .0927324
523.654 .0971467
524.481 .1016891
525.307 .1062810
526.133 .1108353
526.958 .1152573
527.782 .1194547
528.605 .1233396
529.428 .1268395
530.250 .1298830
531.072 .1324252
531.892 .1344293
532.712 .1358751
533.532 .1367472
534.350 .1370407
535.168 .1367537
535.986 .1358898
536.802 .1344518
537.618 .1324536
538.434 .1299073
539.249 .1268495
540.063 .1233262
540.876 .1194034
541.689 .1151576
542.501 .1106746
543.313 .1060444
544.124 .1013632
544.934 .0967200
545.744 .0921961
546.553 .0878548
547.361 .0837554
548.169 .0799316
548.976 .0764039
549.783 .0731755
550.589 .0702421
551.395 .0675880
552.200 .0651920
553.004 .0630285
553.808 .0610738
554.611 .0593052
555.414 .0577035
556.216 .0562497
557.018 .0549250
557.819 .0537144
558.619 .0526032
559.419 .0515781
560.218 .0506295
561.017 .0497467
561.815 .0489217
562.613 .0481481
563.410 .0474197
564.207 .0467301
565.003 .0460740
565.799 .0454474
566.594 .0448461
567.388 .0442667
568.182 .0437068
568.976 .0431638
569.769 .0426367
570.562 .0421253
571.354 .0416293
572.145 .0411488
572.936 .0406836
573.727 .0402337
574.517 .0397990
575.307 .0393795
576.096 .0389748
576.885 .0385852
577.673 .0382111
578.461 .0378529
579.248 .0375107
580.035 .0371850
580.821 .0368756
581.607 .0365827
582.392 .0363055
583.177 .0360438
583.962 .0357969
584.746 .0355645
585.529 .0353460
586.313 .0351413
587.095 .0349501
587.878 .0347721
588.660 .0346070
589.441 .0344547
590.222 .0343147
591.003 .0341863
591.783 .0340690
592.563 .0339619
593.342 .0338640
594.121 .0337744
594.899 .0336923
595.678 .0336166
596.455 .0335465
597.233 .0334813
598.009 .0334204
598.786 .0333631
599.562 .0333091
600.338 .0332578
601.113 .0332088
601.888 .0331385
602.663 .0330927
603.437 .0330477
604.211 .0330033
604.984 .0329591
605.757 .0329149
606.530 .0328706
607.302 .0328262
608.074 .0327818
608.845 .0327376
609.616 .0326938
610.387 .0326735
611.158 .0326314
611.928 .0325902
612.697 .0325502
613.467 .0325113
614.236 .0324736
615.004 .0324370
615.773 .0324016
616.541 .0323674
617.308 .0323345
618.076 .0323030
618.843 .0322730
619.609 .0322444
620.375 .0322173
621.141 .0321915
621.907 .0321669
622.672 .0321435
623.437 .0321210
624.202 .0320994
624.966 .0320786
625.730 .0320584
626.493 .0320386
627.257 .0320192
628.020 .0320000
628.782 .0319807
629.545 .0319612
630.307 .0319414
631.068 .0319213
631.830 .0319009
632.591 .0318803
633.352 .0318594
634.112 .0318383
634.872 .0318169
635.632 .0317953
636.392 .0317733
637.151 .0317509
637.910 .0317280
638.668 .0317048
639.427 .0316813
640.185 .0316575
640.943 .0316336
641.700 .0316097
642.457 .0315858
643.214 .0315620
643.971 .0315381
644.727 .0315142
645.483 .0314903
646.239 .0314663
646.994 .0314423
647.750 .0314183
648.505 .0313942
649.259 .0313702
650.014 .0313461
650.768 .0313220
651.521 .0312978
652.275 .0312734
653.028 .0312488
653.781 .0312239
654.534 .0311987
655.286 .0311732
656.039 .0311474
656.791 .0311215
657.542 .0310954
658.294 .0310691
659.045 .0310428
659.796 .0310163
660.546 .0309898
661.297 .0309632
662.047 .0309364
662.796 .0309096
663.546 .0308826
664.295 .0308556
665.044 .0308284
665.793 .0308013
666.542 .0307742
667.290 .0307471
668.038 .0307202
668.786 .0306934
669.533 .0306668
670.281 .0306404
671.028 .0306141
671.774 .0305880
672.521 .0305620
673.267 .0305360
674.013 .0305100
674.759 .0304839
675.505 .0304578
676.250 .0304317
676.995 .0304056
677.740 .0303795
678.484 .0303536
679.229 .0303278
679.973 .0303022
680.717 .0302768
681.460 .0302517
682.204 .0302269
682.947 .0302022
683.690 .0301778
684.433 .0301536
685.175 .0301296
685.917 .0301059
686.659 .0300825
687.401 .0300595
688.142 .0300369
688.884 .0300148
689.625 .0299933
690.365 .0299723
691.106 .0299518
691.846 .0299317
692.586 .0299121
693.326 .0298929
694.066 .0298740
694.805 .0298554
695.545 .0298370
696.284 .0298191
697.022 .0298014
697.761 .0297842
698.499 .0297674
699.237 .0297511
699.975 .0297353
700.713 .0297198
701.450 .0297048
702.187 .0296901
702.924 .0296757
703.661 .0296615
704.397 .0296476
705.133 .0296340
705.869 .0296205
706.605 .0296072
707.341 .0295941
708.076 .0295811
708.811 .0295683
709.546 .0295557
710.281 .0295432
711.015 .0295309
711.749 .0295187
712.483 .0295066
713.217 .0294946
713.950 .0294826
714.684 .0294705
715.417 .0294582
716.150 .0294458
716.882 .0294331
717.615 .0294202
718.347 .0294071
719.079 .0293937
719.811 .0293801
720.542 .0293662
721.273 .0293520
722.005 .0293374
722.735 .0293225
723.466 .0293071
724.196 .0292914
724.927 .0292753
725.656 .0292589
726.386 .0292423
727.116 .0292256
727.845 .0292087
728.574 .0291920
729.303 .0291753
730.031 .0291589
730.760 .0291427
731.488 .0291268
732.216 .0291113
732.944 .0290962
733.671 .0290814
734.398 .0290671
735.125 .0290531
735.852 .0290395
736.579 .0290263
737.305 .0290134
738.031 .0290009
738.757 .0289887
739.483 .0289769
740.208 .0289654
740.933 .0289543
741.658 .0289434
742.383 .0289326
743.108 .0289218
743.832 .0289111
744.556 .0289002
745.280 .0288891
746.004 .0288778
746.727 .0288663
747.450 .0288543
748.173 .0288421
748.896 .0288294
749.618 .0288162
750.340 .0288024
751.062 .0287879
751.784 .0287728
752.506 .0287569
753.227 .0287403
753.948 .0287229
754.669 .0287048
755.389 .0286861
756.110 .0286668
756.830 .0286468
757.550 .0286264
758.269 .0286055
758.989 .0285841
759.708 .0285624
760.427 .0285403
761.146 .0285178
761.864 .0284951
762.582 .0284721
763.300 .0284488
764.018 .0284253
764.736 .0284017
765.453 .0283778
766.170 .0283540
766.887 .0283304
767.603 .0283069
768.320 .0282839
769.036 .0282614
769.751 .0282395
770.467 .0282182
771.182 .0281975
771.897 .0281774
772.612 .0281580
773.327 .0281392
774.041 .0281211
774.755 .0281037
775.469 .0280870
776.183 .0280712
776.896 .0280561
777.609 .0280417
778.322 .0280280
779.035 .0280150
779.747 .0280024
780.459 .0279903
781.171 .0279786
781.882 .0279672
782.594 .0279560
783.305 .0279451
784.016 .0279343
784.726 .0279236
785.436 .0279129
786.147 .0278969
786.856 .0278861
787.566 .0278752
788.275 .0278643
788.984 .0278533
789.693 .0278422
790.401 .0278309
791.110 .0278194
791.818 .0278077
792.525 .0277957
793.233 .0277834
793.940 .0277709
794.647 .0277641
795.353 .0277515
796.060 .0277388
796.766 .0277262
797.472 .0277138
798.177 .0277015
798.883 .0276895
799.588 .0276776
800.292 .0276660
800.997 .0276547
801.701 .0276435
802.405 .0276327
803.109 .0276222
803.812 .0276120
804.515 .0276022
805.218 .0275927
805.921 .0275836
806.623 .0275747
807.325 .0275662
808.027 .0275579
808.728 .0275499
809.429 .0275421
810.130 .0275346
810.831 .0275273
811.531 .0275203
812.231 .0275137
812.931 .0275073
813.630 .0275011
814.330 .0274953
815.029 .0274896
815.727 .0274843
816.426 .0274793
817.124 .0274747
817.821 .0274705
818.519 .0274666
819.216 .0274633
819.913 .0274603
820.609 .0274578
821.306 .0274558
822.002 .0274542
822.697 .0274530
823.393 .0274523
824.088 .0274522
824.783 .0274525
825.477 .0274534
826.171 .0274548
826.865 .0274565
827.559 .0274586
828.252 .0274610
828.945 .0274635
829.638 .0274660
830.330 .0274687
831.023 .0274713
831.714 .0274738
832.406 .0274762
833.097 .0274786
833.788 .0274807
834.479 .0274826
835.169 .0274842
835.859 .0274855
836.548 .0274865
837.238 .0274871
837.927 .0274874
838.615 .0274872
839.304 .0274865
839.992 .0274854
840.680 .0274837
841.367 .0274815
842.054 .0274788
842.741 .0274755
843.428 .0274717
844.114 .0274674
844.800 .0274626
845.485 .0274573
846.170 .0274515
846.855 .0274450
847.540 .0274379
848.224 .0274300
848.908 .0274214
849.592 .0274119
850.275 .0274016
850.958 .0273904
851.641 .0273782
852.323 .0273652
853.005 .0273514
853.687 .0273366
854.368 .0273211
855.049 .0273049
855.730 .0272879
856.410 .0272702
857.090 .0272519
857.769 .0272331
858.449 .0272136
859.128 .0271937
859.806 .0271732
860.485 .0271523
861.163 .0271311
861.840 .0271095
862.518 .0270878
863.195 .0270660
863.871 .0270443
864.548 .0270227
865.224 .0270013
865.899 .0269802
866.574 .0269593
867.249 .0269386
867.924 .0269182
868.598 .0268980
869.272 .0268781
869.946 .0268584
870.619 .0268391
871.292 .0268200
871.964 .0268012
872.636 .0267827
873.308 .0267644
873.979 .0267464
874.651 .0267286
875.321 .0267109
875.992 .0266935
876.662 .0266762
877.331 .0266590
878.001 .0266419
878.670 .0266248
879.338 .0266076
880.007 .0265905
880.675 .0265734
881.342 .0265562
882.009 .0265391
882.676 .0265221
883.343 .0265052
884.009 .0264886
884.675 .0264721
885.340 .0264559
886.005 .0264399
886.670 .0264241
887.334 .0264086
887.998 .0263933
888.662 .0263782
889.325 .0263634
889.988 .0263489
890.650 .0263346
891.312 .0263207
891.974 .0263070
892.636 .0262936
893.297 .0262804
893.957 .0262675
894.618 .0262548
895.278 .0262421
895.937 .0262295
896.596 .0262168
897.255 .0262040
897.914 .0261909
898.572 .0261776
899.230 .0261639
899.887 .0261498
900.544 .0261354
901.201 .0261205
901.857 .0260959
902.513 .0260799
903.168 .0260633
903.823 .0260463
904.478 .0260288
905.132 .0260108
905.786 .0259922
906.440 .0259732
907.093 .0259537
907.746 .0259338
908.399 .0259136
909.051 .0258932
909.703 .0258725
910.354 .0258621
911.005 .0258416
911.656 .0258211
912.306 .0258006
912.956 .0257802
913.605 .0257599
914.254 .0257399
914.903 .0257202
915.551 .0257008
916.199 .0256817
916.847 .0256631
917.494 .0256447
918.141 .0256266
918.788 .0256087
919.434 .0255910
920.079 .0255735
920.725 .0255561
921.370 .0255388
922.014 .0255216
922.658 .0255045
923.302 .0254876
923.946 .0254709
924.589 .0254543
925.231 .0254378
925.873 .0254214
926.515 .0254051
927.157 .0253889
927.798 .0253729
928.439 .0253572
929.079 .0253417
929.719 .0253267
930.359 .0253121
930.998 .0252980
931.637 .0252845
932.275 .0252716
932.913 .0252593
933.551 .0252476
934.188 .0252366
934.825 .0252265
935.462 .0252171
936.098 .0252087
936.733 .0252012
937.369 .0251947
938.004 .0251891
938.638 .0251846
939.273 .0251809
939.907 .0251783
940.540 .0251765
941.173 .0251757
941.806 .0251757
942.438 .0251767
943.070 .0251786
943.702 .0251813
944.333 .0251848
944.964 .0251890
945.594 .0251937
946.224 .0251989
946.854 .0252045
947.483 .0252104
948.112 .0252165
948.741 .0252228
949.369 .0252291
949.996 .0252356
950.624 .0252421
951.251 .0252486
951.878 .0252550
952.504 .0252612
953.130 .0252673
953.755 .0252731
954.380 .0252788
955.005 .0252843
955.629 .0252897
956.253 .0252951
956.877 .0253003
957.500 .0253056
958.123 .0253107
958.746 .0253158
959.368 .0253209
959.990 .0253258
960.611 .0253307
961.232 .0253355
961.853 .0253404
962.473 .0253453
963.093 .0253503
963.712 .0253554
964.331 .0253606
964.950 .0253658
965.569 .0253709
966.187 .0253759
966.804 .0253806
967.422 .0253850
968.039 .0253889
968.655 .0253925
969.272 .0253956
969.887 .0253984
970.503 .0254008
971.118 .0254029
971.733 .0254046
972.347 .0254060
972.961 .0254070
973.575 .0254074
974.188 .0254074
974.801 .0254067
975.414 .0254054
976.026 .0254034
976.638 .0254008
977.250 .0253976
977.861 .0253938
978.472 .0253895
979.083 .0253846
979.693 .0253793
980.303 .0253734
980.912 .0253634
981.521 .0253568
982.130 .0253500
982.738 .0253430
983.346 .0253360
983.954 .0253290
984.562 .0253223
985.169 .0253159
985.775 .0253099
986.382 .0253042
986.988 .0252989
987.594 .0252940
988.199 .0252895
988.804 .0252853
989.409 .0252849
990.013 .0252814
990.617 .0252783
991.221 .0252756
991.824 .0252731
992.427 .0252709
993.030 .0252689
993.632 .0252670
994.234 .0252651
994.836 .0252631
995.438 .0252610
996.039 .0252588
996.640 .0252565
997.240 .0252541
997.840 .0252517
998.440 .0252492
999.040 .0252468
999.639 .0252442
1000.238 .0252416
1000.836 .0252389
1001.435 .0252359
1002.033 .0252328
1002.630 .0252294
1003.228 .0252259
1003.825 .0252222
1004.422 .0252183
1005.018 .0252141
1005.614 .0252095
1006.210 .0252047
1006.806 .0251993
1007.401 .0251935
1007.996 .0251872
1008.591 .0251805
1009.186 .0251734
1009.780 .0251661
1010.374 .0251587
1010.967 .0251513
1011.561 .0251439
1012.154 .0251367
1012.746 .0251297
1013.339 .0251227
1013.931 .0251158
1014.523 .0251090
1015.115 .0251024
1015.706 .0250959
1016.298 .0250896
1016.888 .0250835
1017.479 .0250779
1018.069 .0250725
1018.660 .0250675
1019.250 .0250628
1019.839 .0250582
1020.429 .0250538
1021.018 .0250494
1021.607 .0250450
1022.195 .0250406
1022.784 .0250362
1023.372 .0250320
1023.960 .0250278
1024.547 .0250239
1025.135 .0250202
1025.722 .0250167
1026.309 .0250134
1026.896 .0250102
1027.483 .0250071
1028.069 .0250040
1028.655 .0250009
1029.241 .0249978
1029.827 .0249947
1030.412 .0249915
1030.997 .0249883
1031.582 .0249850
1032.167 .0249815
1032.752 .0249779
1033.336 .0249741
1033.921 .0249701
1034.505 .0249657
1035.089 .0249610
1035.672 .0249559
1036.256 .0249505
1036.839 .0249447
1037.422 .0249385
1038.005 .0249318
1038.588 .0249246
1039.171 .0249168
1039.753 .0249085
1040.335 .0248996
1040.918 .0248902
1041.500 .0248802
1042.081 .0248696
1042.663 .0248585
1043.244 .0248469
1043.826 .0248348
1044.407 .0248221
1044.988 .0248089
1045.569 .0247952
1046.150 .0247811
1046.730 .0247665
1047.311 .0247517
1047.891 .0247365
1048.471 .0247212
1049.052 .0247057
1049.632 .0246901
1050.211 .0246744
1050.791 .0246588
1051.371 .0246432
1051.950 .0246278
1052.530 .0246125
1053.109 .0245975
1053.688 .0245829
1054.268 .0245686
1054.847 .0245548
1055.426 .0245416
1056.005 .0245289
1056.583 .0245167
1057.162 .0245051
1057.741 .0244940
1058.319 .0244836
1058.898 .0244737
1059.476 .0244644
1060.055 .0244556
1060.633 .0244475
1061.211 .0244400
1061.790 .0244331
1062.368 .0244267
1062.946 .0244210
1063.524 .0244159
1064.102 .0244111
1064.680 .0244068
1065.258 .0244027
1065.836 .0243989
1066.414 .0243953
1066.992 .0243918
1067.570 .0243884
1068.148 .0243850
1068.726 .0243815
1069.304 .0243781
1069.882 .0243747
1070.460 .0243713
1071.038 .0243678
1071.616 .0243642
1072.194 .0243606
1072.772 .0243569
1073.350 .0243532
1073.928 .0243496
1074.506 .0243460
1075.084 .0243426
1075.662 .0243395
1076.240 .0243368
1076.819 .0243346
1077.397 .0243328
1077.976 .0243314
1078.554 .0243304
1079.133 .0243296
1079.711 .0243290
1080.290 .0243285
1080.869 .0243283
1081.448 .0243285
1082.027 .0243289
1082.606 .0243298
1083.185 .0243313
1083.764 .0243332
1084.343 .0243356
1084.923 .0243384
1085.502 .0243414
1086.082 .0243446
1086.662 .0243481
1087.242 .0243519
1087.822 .0243563
1088.402 .0243615
1088.983 .0243675
1089.563 .0243746
1090.144 .0243828
1090.725 .0243919
1091.306 .0244019
1091.887 .0244127
1092.469 .0244240
1093.050 .0244359
1093.632 .0244485
1094.214 .0244617
1094.796 .0244760
1095.379 .0244912
1095.961 .0245075
1096.544 .0245249
1097.127 .0245433
1097.710 .0245625
1098.294 .0245824
1098.877 .0246027
1099.461 .0246234
1100.046 .0246444
1100.630 .0246657
1101.215 .0246875
1101.800 .0247100
1102.385 .0247332
1102.970 .0247574
1103.556 .0247826
1104.142 .0248089
1104.728 .0248363
1105.315 .0248648
1105.902 .0248944
1106.489 .0249250
1107.077 .0249566
1107.664 .0249893
1108.253 .0250232
1108.841 .0250585
1109.430 .0250953
1110.019 .0251338
1110.609 .0251744
1111.198 .0252169
1111.789 .0252614
1112.379 .0253080
1112.970 .0253562
1113.561 .0254057
1114.153 .0254564
1114.745 .0255078
1115.338 .0255599
1115.931 .0256126
1116.524 .0256661
1117.117 .0257205
1117.712 .0257761
1118.306 .0258327
1118.901 .0258906
1119.496 .0259495
1120.092 .0260091
1120.689 .0260689
1121.285 .0261289
1121.882 .0261888
1122.480 .0262485
1123.078 .0263084
1123.677 .0263687
1124.276 .0264297
1124.875 .0264917
1125.476 .0265550
1126.076 .0266195
1126.677 .0266853
1127.279 .0267524
1127.881 .0268205
1128.484 .0268899
1129.087 .0269203
1129.691 .0269902
1130.295 .0270622
1130.900 .0271368
1131.505 .0272148
1132.111 .0272968
1132.718 .0273832
1133.325 .0274746
1133.933 .0275709
1134.541 .0276700
1135.150 .0277735
1135.760 .0278856
1136.370 .0280099
1136.981 .0279566
1137.592 .0280860
1138.204 .0282269
1138.817 .0283760
1139.431 .0285310
1140.045 .0286908
1140.660 .0288591
1141.275 .0290397
1141.891 .0292177
1142.508 .0293417
1143.126 .0295230
1143.744 .0298208
1144.363 .0302232
1144.983 .0300082
