Measurement Sequence started on: 15-12-46-377
Integration time: 28
Scans to Average: 2 
>>>>>Begin Spectral Data<<<<<
432.689 .0000100
433.621 .0000100
434.552 .0000100
435.482 .0000100
436.410 .0000100
437.337 .0000100
438.262 .0270516
439.187 .0572992
440.110 .0949134
441.031 .1372948
441.952 .1098313
442.871 .1146719
443.789 .1191741
444.705 .1234080
445.621 .1274214
446.535 .1312512
447.447 .1335001
448.359 .1340197
449.269 .1324410
450.178 .1285278
451.086 .1223586
451.993 .1144079
452.898 .1054576
453.803 .0963956
454.706 .0879761
455.608 .0806653
456.508 .0746195
457.408 .0705317
458.306 .0673936
459.204 .0648415
460.100 .0626910
460.995 .0608413
461.888 .0592240
462.781 .0577944
463.673 .0565184
464.563 .0553732
465.452 .0543414
466.340 .0534068
467.228 .0525574
468.114 .0517822
468.999 .0510717
469.882 .0504179
470.765 .0498139
471.647 .0492556
472.528 .0487403
473.407 .0482663
474.286 .0478328
475.163 .0474404
476.040 .0470885
476.915 .0467766
477.790 .0465030
478.663 .0462658
479.535 .0460628
480.407 .0458908
481.277 .0457468
482.147 .0456277
483.015 .0455309
483.883 .0454547
484.749 .0453974
485.615 .0453583
486.479 .0453365
487.343 .0453311
488.206 .0453418
489.067 .0453676
489.928 .0454078
490.788 .0454627
491.647 .0455319
492.505 .0456156
493.362 .0457144
494.218 .0458291
495.073 .0459613
495.928 .0462344
496.781 .0464216
497.634 .0466329
498.486 .0468712
499.337 .0471393
500.187 .0474394
501.036 .0477737
501.884 .0481438
502.731 .0485523
503.578 .0490011
504.424 .0493131
505.268 .0498295
506.113 .0503938
506.956 .0510105
507.798 .0516846
508.640 .0524227
509.480 .0532341
510.320 .0541280
511.160 .0551154
511.998 .0562066
512.836 .0574145
513.672 .0587532
514.508 .0602401
515.344 .0618943
516.178 .0637371
517.012 .0657940
517.845 .0680906
518.677 .0706520
519.508 .0735006
520.339 .0766506
521.169 .0801121
521.998 .0838695
522.826 .0878931
523.654 .0921295
524.481 .0965136
525.307 .1009687
526.133 .1054067
526.958 .1097329
527.782 .1138553
528.605 .1176889
529.428 .1211617
530.250 .1242096
531.072 .1267900
531.892 .1288667
532.712 .1304179
533.532 .1314265
534.350 .1318802
535.168 .1317724
535.986 .1311018
536.802 .1298673
537.618 .1280726
538.434 .1257236
539.249 .1228536
540.063 .1195099
540.876 .1157596
541.689 .1116797
542.501 .1073555
543.313 .1028789
544.124 .0983440
544.934 .0938397
545.744 .0894451
546.553 .0852256
547.361 .0812359
548.169 .0775078
548.976 .0740638
549.783 .0709095
550.589 .0680413
551.395 .0654466
552.200 .0631069
553.004 .0609970
553.808 .0590939
554.611 .0573769
555.414 .0558269
556.216 .0544244
557.018 .0531484
557.819 .0519811
558.619 .0509063
559.419 .0499103
560.218 .0489827
561.017 .0481140
561.815 .0472982
562.613 .0465299
563.410 .0458039
564.207 .0451157
565.003 .0444604
565.799 .0438332
566.594 .0432298
567.388 .0426482
568.182 .0420856
568.976 .0415403
569.769 .0410120
570.562 .0405010
571.354 .0400080
572.145 .0395342
572.936 .0390800
573.727 .0386454
574.517 .0382302
575.307 .0378337
576.096 .0374543
576.885 .0370919
577.673 .0367459
578.461 .0364159
579.248 .0361019
580.035 .0358041
580.821 .0355223
581.607 .0352568
582.392 .0350076
583.177 .0347743
583.962 .0345565
584.746 .0343536
585.529 .0341646
586.313 .0339888
587.095 .0338255
587.878 .0336737
588.660 .0335327
589.441 .0334017
590.222 .0332798
591.003 .0331662
591.783 .0330603
592.563 .0329616
593.342 .0328694
594.121 .0327834
594.899 .0327029
595.678 .0326275
596.455 .0325567
597.233 .0324900
598.009 .0324268
598.786 .0323668
599.562 .0323096
600.338 .0322548
601.113 .0322024
601.888 .0321307
602.663 .0320835
603.437 .0320382
604.211 .0319950
604.984 .0319538
605.757 .0319146
606.530 .0318774
607.302 .0318421
608.074 .0318087
608.845 .0317774
609.616 .0317480
610.387 .0317382
611.158 .0317117
611.928 .0316872
612.697 .0316644
613.467 .0316433
614.236 .0316236
615.004 .0316053
615.773 .0315881
616.541 .0315721
617.308 .0315571
618.076 .0315429
618.843 .0315296
619.609 .0315168
620.375 .0315045
621.141 .0314923
621.907 .0314802
622.672 .0314677
623.437 .0314549
624.202 .0314413
624.966 .0314270
625.730 .0314118
626.493 .0313956
627.257 .0313784
628.020 .0313600
628.782 .0313406
629.545 .0313199
630.307 .0312980
631.068 .0312750
631.830 .0312509
632.591 .0312258
633.352 .0311997
634.112 .0311726
634.872 .0311447
635.632 .0311160
636.392 .0310864
637.151 .0310562
637.910 .0310253
638.668 .0309940
639.427 .0309623
640.185 .0309305
640.943 .0308988
641.700 .0308672
642.457 .0308360
643.214 .0308052
643.971 .0307748
644.727 .0307448
645.483 .0307152
646.239 .0306859
646.994 .0306569
647.750 .0306282
648.505 .0305996
649.259 .0305712
650.014 .0305429
650.768 .0305147
651.521 .0304865
652.275 .0304583
653.028 .0304302
653.781 .0304021
654.534 .0303739
655.286 .0303459
656.039 .0303178
656.791 .0302898
657.542 .0302619
658.294 .0302340
659.045 .0302061
659.796 .0301784
660.546 .0301508
661.297 .0301235
662.047 .0300966
662.796 .0300703
663.546 .0300445
664.295 .0300194
665.044 .0299951
665.793 .0299718
666.542 .0299494
667.290 .0299280
668.038 .0299078
668.786 .0298886
669.533 .0298706
670.281 .0298538
671.028 .0298381
671.774 .0298235
672.521 .0298101
673.267 .0297979
674.013 .0297867
674.759 .0297766
675.505 .0297676
676.250 .0297595
676.995 .0297523
677.740 .0297459
678.484 .0297402
679.229 .0297349
679.973 .0297301
680.717 .0297256
681.460 .0297212
682.204 .0297169
682.947 .0297126
683.690 .0297081
684.433 .0297035
685.175 .0296987
685.917 .0296937
686.659 .0296882
687.401 .0296824
688.142 .0296760
688.884 .0296690
689.625 .0296613
690.365 .0296527
691.106 .0296433
691.846 .0296331
692.586 .0296220
693.326 .0296101
694.066 .0295973
694.805 .0295838
695.545 .0295696
696.284 .0295547
697.022 .0295390
697.761 .0295226
698.499 .0295056
699.237 .0294878
699.975 .0294696
700.713 .0294509
701.450 .0294317
702.187 .0294123
702.924 .0293925
703.661 .0293725
704.397 .0293522
705.133 .0293316
705.869 .0293108
706.605 .0292896
707.341 .0292682
708.076 .0292464
708.811 .0292243
709.546 .0292020
710.281 .0291793
711.015 .0291562
711.749 .0291326
712.483 .0291086
713.217 .0290841
713.950 .0290590
714.684 .0290335
715.417 .0290076
716.150 .0289813
716.882 .0289548
717.615 .0289279
718.347 .0289008
719.079 .0288733
719.811 .0288457
720.542 .0288178
721.273 .0287897
722.005 .0287616
722.735 .0287335
723.466 .0287055
724.196 .0286779
724.927 .0286507
725.656 .0286240
726.386 .0285979
727.116 .0285724
727.845 .0285477
728.574 .0285237
729.303 .0285008
730.031 .0284789
730.760 .0284581
731.488 .0284386
732.216 .0284203
732.944 .0284032
733.671 .0283874
734.398 .0283726
735.125 .0283590
735.852 .0283464
736.579 .0283348
737.305 .0283242
738.031 .0283145
738.757 .0283057
739.483 .0282978
740.208 .0282907
740.933 .0282843
741.658 .0282784
742.383 .0282729
743.108 .0282679
743.832 .0282632
744.556 .0282588
745.280 .0282547
746.004 .0282509
746.727 .0282473
747.450 .0282440
748.173 .0282409
748.896 .0282380
749.618 .0282355
750.340 .0282331
751.062 .0282310
751.784 .0282291
752.506 .0282275
753.227 .0282260
753.948 .0282246
754.669 .0282234
755.389 .0282222
756.110 .0282211
756.830 .0282199
757.550 .0282189
758.269 .0282178
758.989 .0282168
759.708 .0282158
760.427 .0282146
761.146 .0282133
761.864 .0282117
762.582 .0282099
763.300 .0282076
764.018 .0282050
764.736 .0282020
765.453 .0281986
766.170 .0281948
766.887 .0281906
767.603 .0281861
768.320 .0281813
769.036 .0281763
769.751 .0281710
770.467 .0281655
771.182 .0281598
771.897 .0281540
772.612 .0281480
773.327 .0281418
774.041 .0281355
774.755 .0281290
775.469 .0281223
776.183 .0281155
776.896 .0281084
777.609 .0281011
778.322 .0280936
779.035 .0280858
779.747 .0280776
780.459 .0280688
781.171 .0280596
781.882 .0280496
782.594 .0280390
783.305 .0280276
784.016 .0280155
784.726 .0280026
785.436 .0279890
786.147 .0279654
786.856 .0279500
787.566 .0279338
788.275 .0279170
788.984 .0278994
789.693 .0278811
790.401 .0278620
791.110 .0278422
791.818 .0278217
792.525 .0278005
793.233 .0277787
793.940 .0277564
794.647 .0277444
795.353 .0277215
796.060 .0276983
796.766 .0276746
797.472 .0276507
798.177 .0276263
798.883 .0276016
799.588 .0275764
800.292 .0275507
800.997 .0275247
801.701 .0274982
802.405 .0274712
803.109 .0274439
803.812 .0274162
804.515 .0273883
805.218 .0273602
805.921 .0273318
806.623 .0273033
807.325 .0272747
808.027 .0272460
808.728 .0272174
809.429 .0271889
810.130 .0271605
810.831 .0271323
811.531 .0271044
812.231 .0270769
812.931 .0270499
813.630 .0270234
814.330 .0269976
815.029 .0269724
815.727 .0269481
816.426 .0269248
817.124 .0269024
817.821 .0268811
818.519 .0268610
819.216 .0268419
819.913 .0268240
820.609 .0268072
821.306 .0267916
822.002 .0267771
822.697 .0267639
823.393 .0267520
824.088 .0267413
824.783 .0267318
825.477 .0267236
826.171 .0267165
826.865 .0267105
827.559 .0267054
828.252 .0267012
828.945 .0266980
829.638 .0266955
830.330 .0266938
831.023 .0266929
831.714 .0266927
832.406 .0266932
833.097 .0266943
833.788 .0266960
834.479 .0266982
835.169 .0267010
835.859 .0267042
836.548 .0267079
837.238 .0267120
837.927 .0267166
838.615 .0267215
839.304 .0267267
839.992 .0267322
840.680 .0267378
841.367 .0267436
842.054 .0267494
842.741 .0267552
843.428 .0267611
844.114 .0267670
844.800 .0267729
845.485 .0267789
846.170 .0267848
846.855 .0267908
847.540 .0267966
848.224 .0268022
848.908 .0268075
849.592 .0268127
850.275 .0268175
850.958 .0268220
851.641 .0268262
852.323 .0268301
853.005 .0268338
853.687 .0268372
854.368 .0268403
855.049 .0268431
855.730 .0268457
856.410 .0268479
857.090 .0268499
857.769 .0268516
858.449 .0268530
859.128 .0268542
859.806 .0268552
860.485 .0268559
861.163 .0268565
861.840 .0268569
862.518 .0268571
863.195 .0268571
863.871 .0268569
864.548 .0268565
865.224 .0268558
865.899 .0268549
866.574 .0268536
867.249 .0268521
867.924 .0268502
868.598 .0268479
869.272 .0268452
869.946 .0268422
870.619 .0268388
871.292 .0268351
871.964 .0268311
872.636 .0268268
873.308 .0268223
873.979 .0268174
874.651 .0268123
875.321 .0268068
875.992 .0268009
876.662 .0267947
877.331 .0267880
878.001 .0267809
878.670 .0267734
879.338 .0267654
880.007 .0267570
880.675 .0267481
881.342 .0267388
882.009 .0267291
882.676 .0267190
883.343 .0267086
884.009 .0266977
884.675 .0266865
885.340 .0266749
886.005 .0266630
886.670 .0266508
887.334 .0266382
887.998 .0266252
888.662 .0266116
889.325 .0265976
889.988 .0265829
890.650 .0265676
891.312 .0265518
891.974 .0265353
892.636 .0265182
893.297 .0265006
893.957 .0264824
894.618 .0264636
895.278 .0264443
895.937 .0264245
896.596 .0264040
897.255 .0263829
897.914 .0263612
898.572 .0263389
899.230 .0263160
899.887 .0262927
900.544 .0262689
901.201 .0262446
901.857 .0262061
902.513 .0261806
903.168 .0261546
903.823 .0261281
904.478 .0261010
905.132 .0260732
905.786 .0260450
906.440 .0260161
907.093 .0259867
907.746 .0259569
908.399 .0259265
909.051 .0258958
909.703 .0258646
910.354 .0258479
911.005 .0258162
911.656 .0257843
912.306 .0257521
912.956 .0257198
913.605 .0256872
914.254 .0256546
914.903 .0256219
915.551 .0255892
916.199 .0255564
916.847 .0255236
917.494 .0254908
918.141 .0254581
918.788 .0254255
919.434 .0253931
920.079 .0253608
920.725 .0253288
921.370 .0252971
922.014 .0252658
922.658 .0252348
923.302 .0252042
923.946 .0251740
924.589 .0251444
925.231 .0251152
925.873 .0250866
926.515 .0250586
927.157 .0250313
927.798 .0250047
928.439 .0249789
929.079 .0249539
929.719 .0249297
930.359 .0249064
930.998 .0248839
931.637 .0248624
932.275 .0248418
932.913 .0248221
933.551 .0248035
934.188 .0247859
934.825 .0247693
935.462 .0247539
936.098 .0247395
936.733 .0247262
937.369 .0247140
938.004 .0247028
938.638 .0246926
939.273 .0246835
939.907 .0246754
940.540 .0246683
941.173 .0246621
941.806 .0246569
942.438 .0246527
943.070 .0246494
943.702 .0246470
944.333 .0246455
944.964 .0246447
945.594 .0246446
946.224 .0246453
946.854 .0246465
947.483 .0246484
948.112 .0246507
948.741 .0246537
949.369 .0246571
949.996 .0246610
950.624 .0246654
951.251 .0246702
951.878 .0246754
952.504 .0246810
953.130 .0246868
953.755 .0246929
954.380 .0246993
955.005 .0247060
955.629 .0247130
956.253 .0247203
956.877 .0247281
957.500 .0247362
958.123 .0247448
958.746 .0247537
959.368 .0247630
959.990 .0247727
960.611 .0247828
961.232 .0247932
961.853 .0248041
962.473 .0248154
963.093 .0248272
963.712 .0248395
964.331 .0248521
964.950 .0248652
965.569 .0248785
966.187 .0248921
966.804 .0249057
967.422 .0249194
968.039 .0249330
968.655 .0249466
969.272 .0249602
969.887 .0249737
970.503 .0249870
971.118 .0250003
971.733 .0250134
972.347 .0250262
972.961 .0250386
973.575 .0250507
974.188 .0250623
974.801 .0250733
975.414 .0250839
976.026 .0250939
976.638 .0251035
977.250 .0251126
977.861 .0251213
978.472 .0251295
979.083 .0251371
979.693 .0251442
980.303 .0251506
980.912 .0251577
981.521 .0251626
982.130 .0251669
982.738 .0251707
983.346 .0251741
983.954 .0251773
984.562 .0251804
985.169 .0251835
985.775 .0251865
986.382 .0251896
986.988 .0251928
987.594 .0251960
988.199 .0251994
988.804 .0252029
989.409 .0252056
990.013 .0252096
990.617 .0252140
991.221 .0252187
991.824 .0252238
992.427 .0252293
993.030 .0252350
993.632 .0252408
994.234 .0252467
994.836 .0252526
995.438 .0252584
996.039 .0252641
996.640 .0252696
997.240 .0252750
997.840 .0252803
998.440 .0252854
999.040 .0252903
999.639 .0252950
1000.238 .0252993
1000.836 .0253032
1001.435 .0253067
1002.033 .0253097
1002.630 .0253121
1003.228 .0253139
1003.825 .0253151
1004.422 .0253157
1005.018 .0253156
1005.614 .0253148
1006.210 .0253132
1006.806 .0253109
1007.401 .0253078
1007.996 .0253041
1008.591 .0252996
1009.186 .0252946
1009.780 .0252891
1010.374 .0252832
1010.967 .0252768
1011.561 .0252701
1012.154 .0252631
1012.746 .0252557
1013.339 .0252479
1013.931 .0252399
1014.523 .0252317
1015.115 .0252234
1015.706 .0252151
1016.298 .0252069
1016.888 .0251988
1017.479 .0251909
1018.069 .0251832
1018.660 .0251757
1019.250 .0251682
1019.839 .0251607
1020.429 .0251532
1021.018 .0251458
1021.607 .0251383
1022.195 .0251310
1022.784 .0251239
1023.372 .0251170
1023.960 .0251103
1024.547 .0251037
1025.135 .0250972
1025.722 .0250907
1026.309 .0250839
1026.896 .0250768
1027.483 .0250694
1028.069 .0250616
1028.655 .0250535
1029.241 .0250452
1029.827 .0250366
1030.412 .0250279
1030.997 .0250190
1031.582 .0250098
1032.167 .0250003
1032.752 .0249903
1033.336 .0249798
1033.921 .0249686
1034.505 .0249567
1035.089 .0249442
1035.672 .0249309
1036.256 .0249169
1036.839 .0249023
1037.422 .0248870
1038.005 .0248710
1038.588 .0248543
1039.171 .0248369
1039.753 .0248186
1040.335 .0247996
1040.918 .0247799
1041.500 .0247595
1042.081 .0247386
1042.663 .0247173
1043.244 .0246956
1043.826 .0246738
1044.407 .0246520
1044.988 .0246301
1045.569 .0246084
1046.150 .0245869
1046.730 .0245655
1047.311 .0245442
1047.891 .0245231
1048.471 .0245022
1049.052 .0244814
1049.632 .0244609
1050.211 .0244407
1050.791 .0244208
1051.371 .0244014
1051.950 .0243825
1052.530 .0243642
1053.109 .0243466
1053.688 .0243296
1054.268 .0243133
1054.847 .0242977
1055.426 .0242828
1056.005 .0242687
1056.583 .0242553
1057.162 .0242427
1057.741 .0242309
1058.319 .0242199
1058.898 .0242096
1059.476 .0241999
1060.055 .0241908
1060.633 .0241821
1061.211 .0241737
1061.790 .0241654
1062.368 .0241572
1062.946 .0241490
1063.524 .0241407
1064.102 .0241324
1064.680 .0241241
1065.258 .0241157
1065.836 .0241072
1066.414 .0240986
1066.992 .0240899
1067.570 .0240809
1068.148 .0240717
1068.726 .0240624
1069.304 .0240529
1069.882 .0240433
1070.460 .0240337
1071.038 .0240243
1071.616 .0240150
1072.194 .0240058
1072.772 .0239969
1073.350 .0239881
1073.928 .0239796
1074.506 .0239712
1075.084 .0239632
1075.662 .0239556
1076.240 .0239487
1076.819 .0239425
1077.397 .0239372
1077.976 .0239328
1078.554 .0239295
1079.133 .0239271
1079.711 .0239259
1080.290 .0239257
1080.869 .0239265
1081.448 .0239284
1082.027 .0239314
1082.606 .0239357
1083.185 .0239412
1083.764 .0239479
1084.343 .0239559
1084.923 .0239650
1085.502 .0239750
1086.082 .0239859
1086.662 .0239976
1087.242 .0240101
1087.822 .0240234
1088.402 .0240373
1088.983 .0240519
1089.563 .0240673
1090.144 .0240835
1090.725 .0241005
1091.306 .0241182
1091.887 .0241366
1092.469 .0241558
1093.050 .0241755
1093.632 .0241959
1094.214 .0242168
1094.796 .0242383
1095.379 .0242602
1095.961 .0242825
1096.544 .0243052
1097.127 .0243283
1097.710 .0243515
1098.294 .0243750
1098.877 .0243985
1099.461 .0244220
1100.046 .0244455
1100.630 .0244689
1101.215 .0244923
1101.800 .0245160
1102.385 .0245398
1102.970 .0245642
1103.556 .0245893
1104.142 .0246152
1104.728 .0246420
1105.315 .0246699
1105.902 .0246990
1106.489 .0247292
1107.077 .0247605
1107.664 .0247930
1108.253 .0248268
1108.841 .0248619
1109.430 .0248983
1110.019 .0249363
1110.609 .0249756
1111.198 .0250163
1111.789 .0250585
1112.379 .0251019
1112.970 .0251465
1113.561 .0251922
1114.153 .0252389
1114.745 .0252868
1115.338 .0253360
1115.931 .0253864
1116.524 .0254384
1117.117 .0254921
1117.712 .0255474
1118.306 .0256045
1118.901 .0256633
1119.496 .0257238
1120.092 .0257857
1120.689 .0258488
1121.285 .0259130
1121.882 .0259783
1122.480 .0260447
1123.078 .0261121
1123.677 .0261808
1124.276 .0262508
1124.875 .0263223
1125.476 .0263957
1126.076 .0264710
1126.677 .0265484
1127.279 .0266281
1127.881 .0267104
1128.484 .0267953
1129.087 .0268310
1129.691 .0269193
1130.295 .0270111
1130.900 .0271065
1131.505 .0272059
1132.111 .0273094
1132.718 .0274169
1133.325 .0275286
1133.933 .0276450
1134.541 .0277655
1135.150 .0278929
1135.760 .0280178
1136.370 .0281485
1136.981 .0281808
1137.592 .0283375
1138.204 .0284995
1138.817 .0286652
1139.431 .0288340
1140.045 .0290090
1140.660 .0291820
1141.275 .0293587
1141.891 .0295567
1142.508 .0297382
1143.126 .0300033
1143.744 .0300006
1144.363 .0302309
1144.983 .0309227
