Measurement Sequence started on: 15-12-46-377
Integration time: 28
Scans to Average: 2 
>>>>>Begin Spectral Data<<<<<
432.689 .0000100
433.621 .0000100
434.552 .0000100
435.482 .0000100
436.410 .0000100
437.337 .0000100
438.262 .0274164
439.187 .0580968
440.110 .0961779
441.031 .1390837
441.952 .1105290
442.871 .1152628
443.789 .1196432
444.705 .1237444
445.621 .1276202
446.535 .1313110
447.447 .1334051
448.359 .1337538
449.269 .1319875
450.178 .1278665
451.086 .1214728
451.993 .1132884
452.898 .1041088
453.803 .0948347
454.706 .0862316
455.608 .0787750
456.508 .0726246
457.408 .0684833
458.306 .0653298
459.204 .0627926
460.100 .0606849
460.995 .0588996
461.888 .0573639
462.781 .0560258
463.673 .0548466
464.563 .0537978
465.452 .0528574
466.340 .0520078
467.228 .0512363
468.114 .0505330
468.999 .0498893
469.882 .0492986
470.765 .0487550
471.647 .0482542
472.528 .0477931
473.407 .0473679
474.286 .0469772
475.163 .0466193
476.040 .0462932
476.915 .0459981
477.790 .0457330
478.663 .0454967
479.535 .0452886
480.407 .0451076
481.277 .0449527
482.147 .0448227
483.015 .0447165
483.883 .0446331
484.749 .0445717
485.615 .0445315
486.479 .0445112
487.343 .0445100
488.206 .0445275
489.067 .0445620
489.928 .0446131
490.788 .0446799
491.647 .0447618
492.505 .0448584
493.362 .0449698
494.218 .0450959
495.073 .0452373
495.928 .0455055
496.781 .0456902
497.634 .0458941
498.486 .0461182
499.337 .0463642
500.187 .0466338
501.036 .0469291
501.884 .0472523
502.731 .0476068
503.578 .0479968
504.424 .0482713
505.268 .0487315
506.113 .0492404
506.956 .0498034
507.798 .0504277
508.640 .0511203
509.480 .0518905
510.320 .0527486
511.160 .0537070
511.998 .0547804
512.836 .0559863
513.672 .0573417
514.508 .0588671
515.344 .0605831
516.178 .0625115
517.012 .0646719
517.845 .0670834
518.677 .0697623
519.508 .0727225
520.339 .0759693
521.169 .0795034
521.998 .0833022
522.826 .0873334
523.654 .0915474
524.481 .0958813
525.307 .1002591
526.133 .1045950
526.958 .1087972
527.782 .1127768
528.605 .1164478
529.428 .1197365
530.250 .1225760
531.072 .1249248
531.892 .1267470
532.712 .1280204
533.532 .1287331
534.350 .1288841
535.168 .1284775
535.986 .1275221
536.802 .1260263
537.618 .1240046
538.434 .1214720
539.249 .1184674
540.063 .1150369
540.876 .1112415
541.689 .1071533
542.501 .1028547
543.313 .0984340
544.124 .0939836
544.934 .0895880
545.744 .0853263
546.553 .0812631
547.361 .0774520
548.169 .0739202
548.976 .0706867
549.783 .0677550
550.589 .0651164
551.395 .0627520
552.200 .0606380
553.004 .0587462
553.808 .0570510
554.611 .0555282
555.414 .0541567
556.216 .0529147
557.018 .0517831
557.819 .0507452
558.619 .0497870
559.419 .0488962
560.218 .0480641
561.017 .0472810
561.815 .0465414
562.613 .0458394
563.410 .0451683
564.207 .0445235
565.003 .0439012
565.799 .0432969
566.594 .0427079
567.388 .0421329
568.182 .0415714
568.976 .0410231
569.769 .0404900
570.562 .0399736
571.354 .0394751
572.145 .0389958
572.936 .0385368
573.727 .0380978
574.517 .0376792
575.307 .0372800
576.096 .0368995
576.885 .0365370
577.673 .0361928
578.461 .0358666
579.248 .0355585
580.035 .0352691
580.821 .0349979
581.607 .0347446
582.392 .0345087
583.177 .0342891
583.962 .0340847
584.746 .0338942
585.529 .0337169
586.313 .0335513
587.095 .0333969
587.878 .0332530
588.660 .0331192
589.441 .0329952
590.222 .0328803
591.003 .0327741
591.783 .0326757
592.563 .0325844
593.342 .0324994
594.121 .0324199
594.899 .0323454
595.678 .0322754
596.455 .0322093
597.233 .0321469
598.009 .0320876
598.786 .0320313
599.562 .0319776
600.338 .0319261
601.113 .0318767
601.888 .0318080
602.663 .0317626
603.437 .0317188
604.211 .0316764
604.984 .0316356
605.757 .0315961
606.530 .0315580
607.302 .0315214
608.074 .0314864
608.845 .0314529
609.616 .0314210
610.387 .0314082
611.158 .0313787
611.928 .0313508
612.697 .0313243
613.467 .0312991
614.236 .0312754
615.004 .0312530
615.773 .0312320
616.541 .0312124
617.308 .0311941
618.076 .0311772
618.843 .0311614
619.609 .0311468
620.375 .0311329
621.141 .0311198
621.907 .0311072
622.672 .0310949
623.437 .0310828
624.202 .0310707
624.966 .0310586
625.730 .0310463
626.493 .0310337
627.257 .0310205
628.020 .0310068
628.782 .0309923
629.545 .0309770
630.307 .0309608
631.068 .0309438
631.830 .0309258
632.591 .0309069
633.352 .0308871
634.112 .0308665
634.872 .0308449
635.632 .0308224
636.392 .0307991
637.151 .0307748
637.910 .0307498
638.668 .0307241
639.427 .0306978
640.185 .0306712
640.943 .0306444
641.700 .0306175
642.457 .0305907
643.214 .0305639
643.971 .0305374
644.727 .0305109
645.483 .0304846
646.239 .0304584
646.994 .0304323
647.750 .0304063
648.505 .0303804
649.259 .0303545
650.014 .0303287
650.768 .0303030
651.521 .0302773
652.275 .0302515
653.028 .0302256
653.781 .0301996
654.534 .0301734
655.286 .0301469
656.039 .0301203
656.791 .0300934
657.542 .0300663
658.294 .0300389
659.045 .0300113
659.796 .0299835
660.546 .0299554
661.297 .0299272
662.047 .0298988
662.796 .0298705
663.546 .0298422
664.295 .0298141
665.044 .0297862
665.793 .0297585
666.542 .0297313
667.290 .0297045
668.038 .0296783
668.786 .0296527
669.533 .0296278
670.281 .0296037
671.028 .0295804
671.774 .0295580
672.521 .0295365
673.267 .0295160
674.013 .0294965
674.759 .0294780
675.505 .0294605
676.250 .0294441
676.995 .0294288
677.740 .0294146
678.484 .0294014
679.229 .0293892
679.973 .0293779
680.717 .0293673
681.460 .0293573
682.204 .0293479
682.947 .0293390
683.690 .0293305
684.433 .0293223
685.175 .0293145
685.917 .0293071
686.659 .0292999
687.401 .0292929
688.142 .0292861
688.884 .0292792
689.625 .0292722
690.365 .0292649
691.106 .0292574
691.846 .0292496
692.586 .0292413
693.326 .0292327
694.066 .0292237
694.805 .0292144
695.545 .0292047
696.284 .0291947
697.022 .0291845
697.761 .0291740
698.499 .0291633
699.237 .0291524
699.975 .0291413
700.713 .0291300
701.450 .0291184
702.187 .0291066
702.924 .0290944
703.661 .0290819
704.397 .0290690
705.133 .0290559
705.869 .0290425
706.605 .0290287
707.341 .0290148
708.076 .0290005
708.811 .0289861
709.546 .0289714
710.281 .0289563
711.015 .0289409
711.749 .0289251
712.483 .0289089
713.217 .0288923
713.950 .0288752
714.684 .0288578
715.417 .0288401
716.150 .0288221
716.882 .0288040
717.615 .0287857
718.347 .0287673
719.079 .0287488
719.811 .0287301
720.542 .0287111
721.273 .0286920
722.005 .0286726
722.735 .0286530
723.466 .0286333
724.196 .0286135
724.927 .0285937
725.656 .0285738
726.386 .0285540
727.116 .0285343
727.845 .0285145
728.574 .0284948
729.303 .0284751
730.031 .0284554
730.760 .0284359
731.488 .0284166
732.216 .0283973
732.944 .0283783
733.671 .0283594
734.398 .0283407
735.125 .0283222
735.852 .0283039
736.579 .0282859
737.305 .0282682
738.031 .0282509
738.757 .0282340
739.483 .0282175
740.208 .0282015
740.933 .0281858
741.658 .0281704
742.383 .0281553
743.108 .0281405
743.832 .0281261
744.556 .0281119
745.280 .0280982
746.004 .0280847
746.727 .0280715
747.450 .0280585
748.173 .0280456
748.896 .0280327
749.618 .0280198
750.340 .0280068
751.062 .0279938
751.784 .0279807
752.506 .0279675
753.227 .0279543
753.948 .0279410
754.669 .0279277
755.389 .0279143
756.110 .0279008
756.830 .0278873
757.550 .0278737
758.269 .0278602
758.989 .0278468
759.708 .0278335
760.427 .0278204
761.146 .0278074
761.864 .0277946
762.582 .0277820
763.300 .0277696
764.018 .0277574
764.736 .0277455
765.453 .0277339
766.170 .0277227
766.887 .0277120
767.603 .0277017
768.320 .0276921
769.036 .0276829
769.751 .0276744
770.467 .0276665
771.182 .0276593
771.897 .0276528
772.612 .0276471
773.327 .0276421
774.041 .0276380
774.755 .0276346
775.469 .0276320
776.183 .0276301
776.896 .0276288
777.609 .0276282
778.322 .0276281
779.035 .0276286
779.747 .0276295
780.459 .0276309
781.171 .0276326
781.882 .0276345
782.594 .0276365
783.305 .0276384
784.016 .0276403
784.726 .0276418
785.436 .0276431
786.147 .0276429
786.856 .0276428
787.566 .0276424
788.275 .0276416
788.984 .0276403
789.693 .0276387
790.401 .0276366
791.110 .0276340
791.818 .0276309
792.525 .0276273
793.233 .0276231
793.940 .0276185
794.647 .0276152
795.353 .0276102
796.060 .0276047
796.766 .0275990
797.472 .0275930
798.177 .0275867
798.883 .0275801
799.588 .0275732
800.292 .0275660
800.997 .0275584
801.701 .0275506
802.405 .0275424
803.109 .0275340
803.812 .0275252
804.515 .0275161
805.218 .0275066
805.921 .0274966
806.623 .0274861
807.325 .0274750
808.027 .0274632
808.728 .0274508
809.429 .0274377
810.130 .0274239
810.831 .0274095
811.531 .0273946
812.231 .0273792
812.931 .0273633
813.630 .0273470
814.330 .0273304
815.029 .0273134
815.727 .0272962
816.426 .0272789
817.124 .0272615
817.821 .0272441
818.519 .0272268
819.216 .0272098
819.913 .0271931
820.609 .0271768
821.306 .0271610
822.002 .0271456
822.697 .0271307
823.393 .0271163
824.088 .0271023
824.783 .0270887
825.477 .0270754
826.171 .0270625
826.865 .0270499
827.559 .0270376
828.252 .0270254
828.945 .0270135
829.638 .0270016
830.330 .0269898
831.023 .0269780
831.714 .0269662
832.406 .0269542
833.097 .0269422
833.788 .0269301
834.479 .0269179
835.169 .0269057
835.859 .0268934
836.548 .0268810
837.238 .0268685
837.927 .0268558
838.615 .0268430
839.304 .0268299
839.992 .0268166
840.680 .0268031
841.367 .0267894
842.054 .0267756
842.741 .0267618
843.428 .0267479
844.114 .0267339
844.800 .0267198
845.485 .0267056
846.170 .0266911
846.855 .0266765
847.540 .0266616
848.224 .0266465
848.908 .0266313
849.592 .0266160
850.275 .0266006
850.958 .0265850
851.641 .0265694
852.323 .0265535
853.005 .0265375
853.687 .0265213
854.368 .0265049
855.049 .0264883
855.730 .0264717
856.410 .0264551
857.090 .0264387
857.769 .0264224
858.449 .0264064
859.128 .0263906
859.806 .0263752
860.485 .0263600
861.163 .0263452
861.840 .0263309
862.518 .0263171
863.195 .0263038
863.871 .0262911
864.548 .0262790
865.224 .0262673
865.899 .0262562
866.574 .0262454
867.249 .0262351
867.924 .0262251
868.598 .0262156
869.272 .0262064
869.946 .0261978
870.619 .0261896
871.292 .0261819
871.964 .0261747
872.636 .0261679
873.308 .0261615
873.979 .0261554
874.651 .0261497
875.321 .0261444
875.992 .0261396
876.662 .0261353
877.331 .0261316
878.001 .0261285
878.670 .0261260
879.338 .0261243
880.007 .0261231
880.675 .0261225
881.342 .0261225
882.009 .0261230
882.676 .0261241
883.343 .0261258
884.009 .0261281
884.675 .0261310
885.340 .0261346
886.005 .0261387
886.670 .0261433
887.334 .0261484
887.998 .0261539
888.662 .0261597
889.325 .0261659
889.988 .0261722
890.650 .0261788
891.312 .0261856
891.974 .0261924
892.636 .0261991
893.297 .0262058
893.957 .0262123
894.618 .0262185
895.278 .0262243
895.937 .0262297
896.596 .0262347
897.255 .0262392
897.914 .0262433
898.572 .0262468
899.230 .0262498
899.887 .0262522
900.544 .0262539
901.201 .0262549
901.857 .0262532
902.513 .0262522
903.168 .0262504
903.823 .0262477
904.478 .0262443
905.132 .0262401
905.786 .0262352
906.440 .0262295
907.093 .0262231
907.746 .0262160
908.399 .0262083
909.051 .0262001
909.703 .0261915
910.354 .0261860
911.005 .0261771
911.656 .0261678
912.306 .0261584
912.956 .0261487
913.605 .0261389
914.254 .0261290
914.903 .0261189
915.551 .0261087
916.199 .0260985
916.847 .0260881
917.494 .0260775
918.141 .0260668
918.788 .0260558
919.434 .0260445
920.079 .0260328
920.725 .0260206
921.370 .0260080
922.014 .0259949
922.658 .0259812
923.302 .0259670
923.946 .0259522
924.589 .0259369
925.231 .0259209
925.873 .0259044
926.515 .0258873
927.157 .0258697
927.798 .0258515
928.439 .0258328
929.079 .0258137
929.719 .0257943
930.359 .0257746
930.998 .0257547
931.637 .0257348
932.275 .0257149
932.913 .0256951
933.551 .0256753
934.188 .0256558
934.825 .0256365
935.462 .0256176
936.098 .0255991
936.733 .0255811
937.369 .0255638
938.004 .0255472
938.638 .0255314
939.273 .0255164
939.907 .0255022
940.540 .0254888
941.173 .0254762
941.806 .0254642
942.438 .0254528
943.070 .0254419
943.702 .0254314
944.333 .0254213
944.964 .0254115
945.594 .0254018
946.224 .0253923
946.854 .0253828
947.483 .0253732
948.112 .0253634
948.741 .0253533
949.369 .0253427
949.996 .0253316
950.624 .0253200
951.251 .0253079
951.878 .0252953
952.504 .0252823
953.130 .0252687
953.755 .0252547
954.380 .0252403
955.005 .0252254
955.629 .0252101
956.253 .0251943
956.877 .0251780
957.500 .0251612
958.123 .0251441
958.746 .0251268
959.368 .0251093
959.990 .0250917
960.611 .0250741
961.232 .0250566
961.853 .0250393
962.473 .0250220
963.093 .0250049
963.712 .0249879
964.331 .0249711
964.950 .0249546
965.569 .0249384
966.187 .0249227
966.804 .0249073
967.422 .0248924
968.039 .0248779
968.655 .0248637
969.272 .0248498
969.887 .0248360
970.503 .0248224
971.118 .0248088
971.733 .0247952
972.347 .0247816
972.961 .0247680
973.575 .0247545
974.188 .0247411
974.801 .0247276
975.414 .0247142
976.026 .0247007
976.638 .0246871
977.250 .0246733
977.861 .0246593
978.472 .0246452
979.083 .0246308
979.693 .0246162
980.303 .0246014
980.912 .0245782
981.521 .0245632
982.130 .0245482
982.738 .0245333
983.346 .0245184
983.954 .0245037
984.562 .0244892
985.169 .0244751
985.775 .0244615
986.382 .0244485
986.988 .0244361
987.594 .0244245
988.199 .0244136
988.804 .0244035
989.409 .0244014
990.013 .0243928
990.617 .0243850
991.221 .0243780
991.824 .0243719
992.427 .0243665
993.030 .0243619
993.632 .0243579
994.234 .0243544
994.836 .0243516
995.438 .0243493
996.039 .0243476
996.640 .0243463
997.240 .0243457
997.840 .0243456
998.440 .0243462
999.040 .0243472
999.639 .0243488
1000.238 .0243508
1000.836 .0243531
1001.435 .0243557
1002.033 .0243585
1002.630 .0243614
1003.228 .0243644
1003.825 .0243676
1004.422 .0243709
1005.018 .0243744
1005.614 .0243779
1006.210 .0243816
1006.806 .0243852
1007.401 .0243888
1007.996 .0243923
1008.591 .0243957
1009.186 .0243990
1009.780 .0244024
1010.374 .0244058
1010.967 .0244094
1011.561 .0244132
1012.154 .0244174
1012.746 .0244219
1013.339 .0244267
1013.931 .0244318
1014.523 .0244370
1015.115 .0244425
1015.706 .0244480
1016.298 .0244537
1016.888 .0244597
1017.479 .0244661
1018.069 .0244730
1018.660 .0244805
1019.250 .0244887
1019.839 .0244976
1020.429 .0245072
1021.018 .0245175
1021.607 .0245285
1022.195 .0245400
1022.784 .0245521
1023.372 .0245647
1023.960 .0245780
1024.547 .0245919
1025.135 .0246064
1025.722 .0246217
1026.309 .0246375
1026.896 .0246538
1027.483 .0246705
1028.069 .0246876
1028.655 .0247049
1029.241 .0247223
1029.827 .0247399
1030.412 .0247576
1030.997 .0247755
1031.582 .0247937
1032.167 .0248120
1032.752 .0248306
1033.336 .0248493
1033.921 .0248680
1034.505 .0248865
1035.089 .0249046
1035.672 .0249222
1036.256 .0249391
1036.839 .0249551
1037.422 .0249703
1038.005 .0249847
1038.588 .0249983
1039.171 .0250110
1039.753 .0250230
1040.335 .0250342
1040.918 .0250447
1041.500 .0250544
1042.081 .0250634
1042.663 .0250717
1043.244 .0250793
1043.826 .0250865
1044.407 .0250932
1044.988 .0250998
1045.569 .0251063
1046.150 .0251129
1046.730 .0251195
1047.311 .0251263
1047.891 .0251331
1048.471 .0251398
1049.052 .0251462
1049.632 .0251524
1050.211 .0251583
1050.791 .0251637
1051.371 .0251690
1051.950 .0251740
1052.530 .0251788
1053.109 .0251837
1053.688 .0251887
1054.268 .0251938
1054.847 .0251991
1055.426 .0252045
1056.005 .0252100
1056.583 .0252156
1057.162 .0252212
1057.741 .0252268
1058.319 .0252324
1058.898 .0252381
1059.476 .0252437
1060.055 .0252494
1060.633 .0252551
1061.211 .0252608
1061.790 .0252664
1062.368 .0252720
1062.946 .0252775
1063.524 .0252828
1064.102 .0252878
1064.680 .0252925
1065.258 .0252970
1065.836 .0253013
1066.414 .0253054
1066.992 .0253095
1067.570 .0253135
1068.148 .0253177
1068.726 .0253222
1069.304 .0253269
1069.882 .0253320
1070.460 .0253374
1071.038 .0253432
1071.616 .0253491
1072.194 .0253552
1072.772 .0253613
1073.350 .0253674
1073.928 .0253735
1074.506 .0253795
1075.084 .0253857
1075.662 .0253918
1076.240 .0253981
1076.819 .0254045
1077.397 .0254109
1077.976 .0254172
1078.554 .0254233
1079.133 .0254291
1079.711 .0254344
1080.290 .0254393
1080.869 .0254440
1081.448 .0254485
1082.027 .0254531
1082.606 .0254581
1083.185 .0254634
1083.764 .0254692
1084.343 .0254755
1084.923 .0254821
1085.502 .0254888
1086.082 .0254955
1086.662 .0255020
1087.242 .0255082
1087.822 .0255144
1088.402 .0255206
1088.983 .0255270
1089.563 .0255339
1090.144 .0255414
1090.725 .0255496
1091.306 .0255585
1091.887 .0255679
1092.469 .0255776
1093.050 .0255875
1093.632 .0255974
1094.214 .0256073
1094.796 .0256172
1095.379 .0256274
1095.961 .0256380
1096.544 .0256493
1097.127 .0256612
1097.710 .0256738
1098.294 .0256871
1098.877 .0257009
1099.461 .0257149
1100.046 .0257290
1100.630 .0257428
1101.215 .0257564
1101.800 .0257697
1102.385 .0257827
1102.970 .0257957
1103.556 .0258086
1104.142 .0258216
1104.728 .0258347
1105.315 .0258477
1105.902 .0258607
1106.489 .0258736
1107.077 .0258864
1107.664 .0258993
1108.253 .0259123
1108.841 .0259255
1109.430 .0259392
1110.019 .0259534
1110.609 .0259680
1111.198 .0259833
1111.789 .0259991
1112.379 .0260154
1112.970 .0260322
1113.561 .0260496
1114.153 .0260680
1114.745 .0260874
1115.338 .0261081
1115.931 .0261302
1116.524 .0261539
1117.117 .0261791
1117.712 .0262059
1118.306 .0262343
1118.901 .0262645
1119.496 .0262965
1120.092 .0263307
1120.689 .0263672
1121.285 .0264065
1121.882 .0264489
1122.480 .0264948
1123.078 .0265443
1123.677 .0265974
1124.276 .0266540
1124.875 .0267139
1125.476 .0267768
1126.076 .0268427
1126.677 .0269113
1127.279 .0269828
1127.881 .0270572
1128.484 .0271345
1129.087 .0271662
1129.691 .0272486
1130.295 .0273340
1130.900 .0274222
1131.505 .0275127
1132.111 .0276049
1132.718 .0276986
1133.325 .0277935
1133.933 .0278904
1134.541 .0279838
1135.150 .0280815
1135.760 .0281787
1136.370 .0282869
1136.981 .0284679
1137.592 .0285767
1138.204 .0286896
1138.817 .0287997
1139.431 .0289055
1140.045 .0290089
1140.660 .0291057
1141.275 .0292040
1141.891 .0293183
1142.508 .0292761
1143.126 .0294558
1143.744 .0294940
1144.363 .0298583
1144.983 .0303602
