Measurement Sequence started on: 15-12-46-377
Integration time: 28
Scans to Average: 2 
>>>>>Begin Spectral Data<<<<<
432.689 .0000100
433.621 .0000100
434.552 .0000100
435.482 .0000100
436.410 .0000100
437.337 .0000100
438.262 .0243351
439.187 .0516130
440.110 .0856122
441.031 .1239480
441.952 .0999532
442.871 .1044798
443.789 .1087100
444.705 .1127061
445.621 .1165114
446.535 .1201566
447.447 .1223841
448.359 .1230559
449.269 .1218327
450.178 .1184969
451.086 .1131129
451.993 .1061018
452.898 .0981653
453.803 .0901008
454.706 .0825894
455.608 .0760546
456.508 .0706414
457.408 .0669772
458.306 .0641601
459.204 .0618665
460.100 .0599294
460.995 .0582587
461.888 .0567942
462.781 .0554948
463.673 .0543325
464.563 .0532870
465.452 .0523440
466.340 .0514920
467.228 .0507229
468.114 .0500294
468.999 .0494051
469.882 .0488436
470.765 .0483379
471.647 .0478811
472.528 .0474675
473.407 .0470917
474.286 .0467494
475.163 .0464381
476.040 .0461554
476.915 .0459001
477.790 .0456715
478.663 .0454685
479.535 .0452899
480.407 .0451336
481.277 .0449970
482.147 .0448770
483.015 .0447706
483.883 .0446760
484.749 .0445918
485.615 .0445180
486.479 .0444562
487.343 .0444085
488.206 .0443775
489.067 .0443655
489.928 .0443746
490.788 .0444061
491.647 .0444610
492.505 .0445384
493.362 .0446374
494.218 .0447574
495.073 .0448979
495.928 .0451888
496.781 .0453819
497.634 .0455973
498.486 .0458365
499.337 .0461010
500.187 .0463909
501.036 .0467072
501.884 .0470504
502.731 .0474208
503.578 .0478195
504.424 .0480721
505.268 .0485212
506.113 .0490072
506.956 .0495348
507.798 .0501110
508.640 .0507439
509.480 .0514440
510.320 .0522231
511.160 .0530938
511.998 .0540710
512.836 .0551726
513.672 .0564180
514.508 .0578283
515.344 .0594289
516.178 .0612453
517.012 .0633027
517.845 .0656255
518.677 .0682327
519.508 .0711384
520.339 .0743501
521.169 .0778676
521.998 .0816660
522.826 .0857103
523.654 .0899481
524.481 .0943158
525.307 .0987367
526.133 .1031245
526.958 .1073865
527.782 .1114347
528.605 .1151847
529.428 .1185606
530.250 .1214947
531.072 .1239432
531.892 .1258678
532.712 .1272445
533.532 .1280560
534.350 .1282986
535.168 .1279753
535.986 .1270959
536.802 .1256708
537.618 .1237148
538.434 .1212444
539.249 .1183009
540.063 .1149302
540.876 .1111938
541.689 .1071606
542.501 .1029118
543.313 .0985334
544.124 .0941153
544.934 .0897401
545.744 .0854861
546.553 .0814192
547.361 .0775957
548.169 .0740440
548.976 .0707852
549.783 .0678211
550.589 .0651455
551.395 .0627383
552.200 .0605735
553.004 .0586215
553.808 .0568578
554.611 .0552586
555.414 .0538057
556.216 .0524803
557.018 .0512677
557.819 .0501549
558.619 .0491311
559.419 .0481848
560.218 .0473076
561.017 .0464914
561.815 .0457300
562.613 .0450174
563.410 .0443480
564.207 .0437158
565.003 .0431160
565.799 .0425443
566.594 .0419970
567.388 .0414716
568.182 .0409660
568.976 .0404784
569.769 .0400085
570.562 .0395548
571.354 .0391170
572.145 .0386948
572.936 .0382879
573.727 .0378956
574.517 .0375173
575.307 .0371526
576.096 .0368012
576.885 .0364631
577.673 .0361389
578.461 .0358287
579.248 .0355328
580.035 .0352513
580.821 .0349837
581.607 .0347302
582.392 .0344905
583.177 .0342642
583.962 .0340511
584.746 .0338510
585.529 .0336638
586.313 .0334889
587.095 .0333265
587.878 .0331762
588.660 .0330374
589.441 .0329095
590.222 .0327916
591.003 .0326830
591.783 .0325830
592.563 .0324906
593.342 .0324051
594.121 .0323258
594.899 .0322522
595.678 .0321836
596.455 .0321195
597.233 .0320593
598.009 .0320027
598.786 .0319492
599.562 .0318984
600.338 .0318499
601.113 .0318036
601.888 .0317402
602.663 .0316980
603.437 .0316573
604.211 .0316181
604.984 .0315802
605.757 .0315433
606.530 .0315075
607.302 .0314726
608.074 .0314384
608.845 .0314048
609.616 .0313718
610.387 .0313560
611.158 .0313234
611.928 .0312911
612.697 .0312591
613.467 .0312273
614.236 .0311957
615.004 .0311642
615.773 .0311329
616.541 .0311018
617.308 .0310706
618.076 .0310395
618.843 .0310085
619.609 .0309775
620.375 .0309466
621.141 .0309159
621.907 .0308853
622.672 .0308549
623.437 .0308248
624.202 .0307950
624.966 .0307657
625.730 .0307368
626.493 .0307086
627.257 .0306809
628.020 .0306539
628.782 .0306275
629.545 .0306018
630.307 .0305769
631.068 .0305526
631.830 .0305289
632.591 .0305060
633.352 .0304838
634.112 .0304623
634.872 .0304416
635.632 .0304217
636.392 .0304026
637.151 .0303844
637.910 .0303669
638.668 .0303502
639.427 .0303342
640.185 .0303189
640.943 .0303043
641.700 .0302903
642.457 .0302769
643.214 .0302641
643.971 .0302519
644.727 .0302403
645.483 .0302291
646.239 .0302184
646.994 .0302082
647.750 .0301982
648.505 .0301886
649.259 .0301791
650.014 .0301697
650.768 .0301604
651.521 .0301509
652.275 .0301413
653.028 .0301313
653.781 .0301209
654.534 .0301099
655.286 .0300983
656.039 .0300859
656.791 .0300727
657.542 .0300586
658.294 .0300436
659.045 .0300277
659.796 .0300109
660.546 .0299930
661.297 .0299741
662.047 .0299541
662.796 .0299330
663.546 .0299107
664.295 .0298874
665.044 .0298632
665.793 .0298381
666.542 .0298124
667.290 .0297862
668.038 .0297597
668.786 .0297330
669.533 .0297063
670.281 .0296795
671.028 .0296528
671.774 .0296261
672.521 .0295996
673.267 .0295731
674.013 .0295469
674.759 .0295209
675.505 .0294953
676.250 .0294700
676.995 .0294452
677.740 .0294207
678.484 .0293967
679.229 .0293730
679.973 .0293497
680.717 .0293268
681.460 .0293042
682.204 .0292819
682.947 .0292598
683.690 .0292379
684.433 .0292162
685.175 .0291946
685.917 .0291732
686.659 .0291519
687.401 .0291307
688.142 .0291097
688.884 .0290890
689.625 .0290686
690.365 .0290485
691.106 .0290288
691.846 .0290095
692.586 .0289907
693.326 .0289722
694.066 .0289542
694.805 .0289368
695.545 .0289199
696.284 .0289037
697.022 .0288882
697.761 .0288736
698.499 .0288597
699.237 .0288467
699.975 .0288345
700.713 .0288232
701.450 .0288126
702.187 .0288027
702.924 .0287935
703.661 .0287849
704.397 .0287768
705.133 .0287691
705.869 .0287619
706.605 .0287550
707.341 .0287485
708.076 .0287423
708.811 .0287363
709.546 .0287306
710.281 .0287251
711.015 .0287197
711.749 .0287144
712.483 .0287092
713.217 .0287039
713.950 .0286986
714.684 .0286932
715.417 .0286877
716.150 .0286819
716.882 .0286760
717.615 .0286697
718.347 .0286631
719.079 .0286560
719.811 .0286485
720.542 .0286403
721.273 .0286316
722.005 .0286222
722.735 .0286123
723.466 .0286017
724.196 .0285905
724.927 .0285788
725.656 .0285665
726.386 .0285538
727.116 .0285405
727.845 .0285268
728.574 .0285126
729.303 .0284980
730.031 .0284830
730.760 .0284676
731.488 .0284518
732.216 .0284357
732.944 .0284193
733.671 .0284026
734.398 .0283858
735.125 .0283687
735.852 .0283515
736.579 .0283342
737.305 .0283167
738.031 .0282990
738.757 .0282813
739.483 .0282633
740.208 .0282450
740.933 .0282265
741.658 .0282075
742.383 .0281882
743.108 .0281684
743.832 .0281480
744.556 .0281272
745.280 .0281058
746.004 .0280839
746.727 .0280614
747.450 .0280384
748.173 .0280148
748.896 .0279906
749.618 .0279659
750.340 .0279407
751.062 .0279149
751.784 .0278887
752.506 .0278621
753.227 .0278353
753.948 .0278084
754.669 .0277815
755.389 .0277548
756.110 .0277284
756.830 .0277023
757.550 .0276768
758.269 .0276518
758.989 .0276273
759.708 .0276035
760.427 .0275803
761.146 .0275578
761.864 .0275359
762.582 .0275148
763.300 .0274944
764.018 .0274747
764.736 .0274558
765.453 .0274378
766.170 .0274207
766.887 .0274044
767.603 .0273891
768.320 .0273747
769.036 .0273613
769.751 .0273487
770.467 .0273369
771.182 .0273260
771.897 .0273159
772.612 .0273066
773.327 .0272981
774.041 .0272904
774.755 .0272837
775.469 .0272779
776.183 .0272731
776.896 .0272693
777.609 .0272665
778.322 .0272648
779.035 .0272641
779.747 .0272645
780.459 .0272659
781.171 .0272683
781.882 .0272716
782.594 .0272758
783.305 .0272809
784.016 .0272868
784.726 .0272935
785.436 .0273009
786.147 .0273143
786.856 .0273227
787.566 .0273314
788.275 .0273404
788.984 .0273494
789.693 .0273585
790.401 .0273674
791.110 .0273760
791.818 .0273842
792.525 .0273920
793.233 .0273992
793.940 .0274059
794.647 .0274071
795.353 .0274126
796.060 .0274174
796.766 .0274214
797.472 .0274247
798.177 .0274272
798.883 .0274289
799.588 .0274297
800.292 .0274296
800.997 .0274286
801.701 .0274266
802.405 .0274237
803.109 .0274199
803.812 .0274151
804.515 .0274095
805.218 .0274029
805.921 .0273954
806.623 .0273870
807.325 .0273778
808.027 .0273677
808.728 .0273568
809.429 .0273452
810.130 .0273328
810.831 .0273197
811.531 .0273061
812.231 .0272918
812.931 .0272769
813.630 .0272614
814.330 .0272455
815.029 .0272291
815.727 .0272122
816.426 .0271951
817.124 .0271776
817.821 .0271598
818.519 .0271418
819.216 .0271236
819.913 .0271052
820.609 .0270867
821.306 .0270680
822.002 .0270491
822.697 .0270302
823.393 .0270113
824.088 .0269923
824.783 .0269733
825.477 .0269542
826.171 .0269350
826.865 .0269156
827.559 .0268961
828.252 .0268763
828.945 .0268563
829.638 .0268361
830.330 .0268156
831.023 .0267950
831.714 .0267743
832.406 .0267533
833.097 .0267323
833.788 .0267110
834.479 .0266895
835.169 .0266679
835.859 .0266460
836.548 .0266239
837.238 .0266017
837.927 .0265794
838.615 .0265569
839.304 .0265343
839.992 .0265116
840.680 .0264888
841.367 .0264659
842.054 .0264429
842.741 .0264198
843.428 .0263967
844.114 .0263736
844.800 .0263506
845.485 .0263277
846.170 .0263050
846.855 .0262824
847.540 .0262598
848.224 .0262374
848.908 .0262151
849.592 .0261928
850.275 .0261705
850.958 .0261485
851.641 .0261266
852.323 .0261049
853.005 .0260836
853.687 .0260626
854.368 .0260420
855.049 .0260219
855.730 .0260022
856.410 .0259832
857.090 .0259648
857.769 .0259471
858.449 .0259302
859.128 .0259142
859.806 .0258991
860.485 .0258849
861.163 .0258716
861.840 .0258594
862.518 .0258481
863.195 .0258378
863.871 .0258285
864.548 .0258202
865.224 .0258130
865.899 .0258067
866.574 .0258014
867.249 .0257970
867.924 .0257935
868.598 .0257908
869.272 .0257888
869.946 .0257875
870.619 .0257870
871.292 .0257870
871.964 .0257878
872.636 .0257892
873.308 .0257914
873.979 .0257942
874.651 .0257977
875.321 .0258019
875.992 .0258067
876.662 .0258121
877.331 .0258181
878.001 .0258247
878.670 .0258317
879.338 .0258394
880.007 .0258475
880.675 .0258563
881.342 .0258656
882.009 .0258756
882.676 .0258862
883.343 .0258974
884.009 .0259092
884.675 .0259216
885.340 .0259345
886.005 .0259480
886.670 .0259619
887.334 .0259762
887.998 .0259909
888.662 .0260058
889.325 .0260210
889.988 .0260364
890.650 .0260518
891.312 .0260673
891.974 .0260828
892.636 .0260982
893.297 .0261135
893.957 .0261285
894.618 .0261434
895.278 .0261578
895.937 .0261718
896.596 .0261853
897.255 .0261980
897.914 .0262099
898.572 .0262208
899.230 .0262308
899.887 .0262398
900.544 .0262476
901.201 .0262544
901.857 .0262595
902.513 .0262631
903.168 .0262655
903.823 .0262666
904.478 .0262665
905.132 .0262650
905.786 .0262623
906.440 .0262584
907.093 .0262532
907.746 .0262470
908.399 .0262397
909.051 .0262313
909.703 .0262220
910.354 .0262149
911.005 .0262044
911.656 .0261931
912.306 .0261809
912.956 .0261678
913.605 .0261541
914.254 .0261396
914.903 .0261245
915.551 .0261087
916.199 .0260923
916.847 .0260752
917.494 .0260575
918.141 .0260390
918.788 .0260199
919.434 .0260001
920.079 .0259796
920.725 .0259585
921.370 .0259368
922.014 .0259145
922.658 .0258915
923.302 .0258679
923.946 .0258437
924.589 .0258188
925.231 .0257931
925.873 .0257666
926.515 .0257394
927.157 .0257114
927.798 .0256826
928.439 .0256532
929.079 .0256232
929.719 .0255927
930.359 .0255616
930.998 .0255302
931.637 .0254984
932.275 .0254663
932.913 .0254340
933.551 .0254017
934.188 .0253693
934.825 .0253370
935.462 .0253049
936.098 .0252731
936.733 .0252417
937.369 .0252108
938.004 .0251803
938.638 .0251503
939.273 .0251208
939.907 .0250919
940.540 .0250636
941.173 .0250358
941.806 .0250085
942.438 .0249819
943.070 .0249558
943.702 .0249303
944.333 .0249053
944.964 .0248809
945.594 .0248569
946.224 .0248332
946.854 .0248099
947.483 .0247867
948.112 .0247637
948.741 .0247409
949.369 .0247181
949.996 .0246954
950.624 .0246727
951.251 .0246501
951.878 .0246275
952.504 .0246048
953.130 .0245821
953.755 .0245593
954.380 .0245365
955.005 .0245135
955.629 .0244904
956.253 .0244673
956.877 .0244441
957.500 .0244210
958.123 .0243981
958.746 .0243753
959.368 .0243528
959.990 .0243307
960.611 .0243090
961.232 .0242877
961.853 .0242668
962.473 .0242465
963.093 .0242267
963.712 .0242074
964.331 .0241888
964.950 .0241708
965.569 .0241535
966.187 .0241369
966.804 .0241210
967.422 .0241058
968.039 .0240912
968.655 .0240772
969.272 .0240638
969.887 .0240510
970.503 .0240386
971.118 .0240266
971.733 .0240152
972.347 .0240042
972.961 .0239937
973.575 .0239836
974.188 .0239740
974.801 .0239649
975.414 .0239560
976.026 .0239475
976.638 .0239392
977.250 .0239311
977.861 .0239231
978.472 .0239152
979.083 .0239074
979.693 .0238998
980.303 .0238922
980.912 .0238812
981.521 .0238740
982.130 .0238670
982.738 .0238602
983.346 .0238538
983.954 .0238477
984.562 .0238421
985.169 .0238368
985.775 .0238322
986.382 .0238282
986.988 .0238250
987.594 .0238226
988.199 .0238211
988.804 .0238207
989.409 .0238231
990.013 .0238245
990.617 .0238271
991.221 .0238308
991.824 .0238358
992.427 .0238420
993.030 .0238493
993.632 .0238578
994.234 .0238674
994.836 .0238781
995.438 .0238899
996.039 .0239027
996.640 .0239165
997.240 .0239313
997.840 .0239471
998.440 .0239638
999.040 .0239813
999.639 .0239995
1000.238 .0240182
1000.836 .0240375
1001.435 .0240572
1002.033 .0240772
1002.630 .0240975
1003.228 .0241180
1003.825 .0241386
1004.422 .0241592
1005.018 .0241798
1005.614 .0242002
1006.210 .0242204
1006.806 .0242404
1007.401 .0242600
1007.996 .0242792
1008.591 .0242982
1009.186 .0243169
1009.780 .0243355
1010.374 .0243539
1010.967 .0243723
1011.561 .0243907
1012.154 .0244090
1012.746 .0244273
1013.339 .0244457
1013.931 .0244641
1014.523 .0244827
1015.115 .0245016
1015.706 .0245208
1016.298 .0245404
1016.888 .0245605
1017.479 .0245811
1018.069 .0246023
1018.660 .0246238
1019.250 .0246457
1019.839 .0246679
1020.429 .0246904
1021.018 .0247131
1021.607 .0247363
1022.195 .0247599
1022.784 .0247841
1023.372 .0248088
1023.960 .0248341
1024.547 .0248598
1025.135 .0248860
1025.722 .0249123
1026.309 .0249387
1026.896 .0249648
1027.483 .0249906
1028.069 .0250160
1028.655 .0250411
1029.241 .0250657
1029.827 .0250898
1030.412 .0251135
1030.997 .0251367
1031.582 .0251593
1032.167 .0251813
1032.752 .0252024
1033.336 .0252227
1033.921 .0252420
1034.505 .0252602
1035.089 .0252775
1035.672 .0252938
1036.256 .0253093
1036.839 .0253239
1037.422 .0253378
1038.005 .0253509
1038.588 .0253631
1039.171 .0253745
1039.753 .0253849
1040.335 .0253941
1040.918 .0254022
1041.500 .0254091
1042.081 .0254148
1042.663 .0254193
1043.244 .0254226
1043.826 .0254249
1044.407 .0254263
1044.988 .0254268
1045.569 .0254265
1046.150 .0254254
1046.730 .0254237
1047.311 .0254213
1047.891 .0254183
1048.471 .0254146
1049.052 .0254103
1049.632 .0254055
1050.211 .0254002
1050.791 .0253945
1051.371 .0253885
1051.950 .0253823
1052.530 .0253759
1053.109 .0253694
1053.688 .0253625
1054.268 .0253554
1054.847 .0253481
1055.426 .0253404
1056.005 .0253325
1056.583 .0253244
1057.162 .0253162
1057.741 .0253081
1058.319 .0253000
1058.898 .0252921
1059.476 .0252844
1060.055 .0252769
1060.633 .0252695
1061.211 .0252620
1061.790 .0252546
1062.368 .0252469
1062.946 .0252391
1063.524 .0252310
1064.102 .0252228
1064.680 .0252142
1065.258 .0252055
1065.836 .0251964
1066.414 .0251871
1066.992 .0251775
1067.570 .0251674
1068.148 .0251569
1068.726 .0251460
1069.304 .0251348
1069.882 .0251232
1070.460 .0251113
1071.038 .0250993
1071.616 .0250871
1072.194 .0250748
1072.772 .0250623
1073.350 .0250497
1073.928 .0250369
1074.506 .0250236
1075.084 .0250100
1075.662 .0249961
1076.240 .0249818
1076.819 .0249674
1077.397 .0249530
1077.976 .0249386
1078.554 .0249245
1079.133 .0249107
1079.711 .0248972
1080.290 .0248841
1080.869 .0248711
1081.448 .0248583
1082.027 .0248454
1082.606 .0248326
1083.185 .0248198
1083.764 .0248069
1084.343 .0247939
1084.923 .0247810
1085.502 .0247681
1086.082 .0247553
1086.662 .0247424
1087.242 .0247297
1087.822 .0247169
1088.402 .0247041
1088.983 .0246912
1089.563 .0246782
1090.144 .0246653
1090.725 .0246525
1091.306 .0246399
1091.887 .0246277
1092.469 .0246160
1093.050 .0246049
1093.632 .0245945
1094.214 .0245847
1094.796 .0245755
1095.379 .0245669
1095.961 .0245589
1096.544 .0245516
1097.127 .0245451
1097.710 .0245394
1098.294 .0245347
1098.877 .0245313
1099.461 .0245293
1100.046 .0245286
1100.630 .0245294
1101.215 .0245314
1101.800 .0245348
1102.385 .0245393
1102.970 .0245449
1103.556 .0245517
1104.142 .0245598
1104.728 .0245693
1105.315 .0245804
1105.902 .0245932
1106.489 .0246077
1107.077 .0246238
1107.664 .0246414
1108.253 .0246603
1108.841 .0246802
1109.430 .0247011
1110.019 .0247225
1110.609 .0247444
1111.198 .0247669
1111.789 .0247900
1112.379 .0248137
1112.970 .0248380
1113.561 .0248628
1114.153 .0248883
1114.745 .0249142
1115.338 .0249405
1115.931 .0249670
1116.524 .0249936
1117.117 .0250203
1117.712 .0250472
1118.306 .0250744
1118.901 .0251021
1119.496 .0251305
1120.092 .0251600
1120.689 .0251905
1121.285 .0252220
1121.882 .0252549
1122.480 .0252889
1123.078 .0253242
1123.677 .0253608
1124.276 .0253986
1124.875 .0254379
1125.476 .0254790
1126.076 .0255220
1126.677 .0255672
1127.279 .0256150
1127.881 .0256653
1128.484 .0257183
1129.087 .0257386
1129.691 .0257954
1130.295 .0258550
1130.900 .0259176
1131.505 .0259833
1132.111 .0260524
1132.718 .0261251
1133.325 .0262020
1133.933 .0262836
1134.541 .0263678
1135.150 .0264585
1135.760 .0265544
1136.370 .0266586
1136.981 .0266618
1137.592 .0267696
1138.204 .0268793
1138.817 .0269938
1139.431 .0271138
1140.045 .0272393
1140.660 .0273709
1141.275 .0275139
1141.891 .0276760
1142.508 .0277709
1143.126 .0279803
1143.744 .0281532
1144.363 .0284229
1144.983 .0287869
