Measurement Sequence started on: 15-12-46-377
Integration time: 28
Scans to Average: 2 
>>>>>Begin Spectral Data<<<<<
432.689 .0000100
433.621 .0000100
434.552 .0000100
435.482 .0000100
436.410 .0000100
437.337 .0000100
438.262 .0261014
439.187 .0552727
440.110 .0916082
441.031 .1326872
441.952 .1078748
442.871 .1128798
443.789 .1175577
444.705 .1219741
445.621 .1261741
446.535 .1301903
447.447 .1326751
448.359 .1334874
449.269 .1322664
450.178 .1287747
451.086 .1230791
451.993 .1156271
452.898 .1071658
453.803 .0985408
454.706 .0904753
455.608 .0834223
456.508 .0775385
457.408 .0735019
458.306 .0703498
459.204 .0677442
460.100 .0655195
460.995 .0635833
461.888 .0618731
462.781 .0603465
463.673 .0589738
464.563 .0577323
465.452 .0566040
466.340 .0555747
467.228 .0546345
468.114 .0537747
468.999 .0529884
469.882 .0522685
470.765 .0516100
471.647 .0510083
472.528 .0504595
473.407 .0499595
474.286 .0495056
475.163 .0490949
476.040 .0487248
476.915 .0483930
477.790 .0480969
478.663 .0478335
479.535 .0476006
480.407 .0473956
481.277 .0472162
482.147 .0470603
483.015 .0469258
483.883 .0468113
484.749 .0467158
485.615 .0466384
486.479 .0465782
487.343 .0465351
488.206 .0465091
489.067 .0465003
489.928 .0465087
490.788 .0465350
491.647 .0465797
492.505 .0466439
493.362 .0467288
494.218 .0468360
495.073 .0469674
495.928 .0472617
496.781 .0474643
497.634 .0476966
498.486 .0479598
499.337 .0482560
500.187 .0485871
501.036 .0489546
501.884 .0493611
502.731 .0498096
503.578 .0503033
504.424 .0506469
505.268 .0512209
506.113 .0518505
506.956 .0525398
507.798 .0532927
508.640 .0541160
509.480 .0550168
510.320 .0560049
511.160 .0570909
511.998 .0582878
512.836 .0596120
513.672 .0610815
514.508 .0627142
515.344 .0645292
516.178 .0665442
517.012 .0687798
517.845 .0712505
518.677 .0739707
519.508 .0769521
520.339 .0801976
521.169 .0837046
521.998 .0874490
522.826 .0913947
523.654 .0954904
524.481 .0996714
525.307 .1038640
526.133 .1079811
526.958 .1119331
527.782 .1156338
528.605 .1190043
529.428 .1219779
530.250 .1244962
531.072 .1265211
531.892 .1280262
532.712 .1289969
533.532 .1294292
534.350 .1293241
535.168 .1286906
535.986 .1275401
536.802 .1258801
537.618 .1237238
538.434 .1210872
539.249 .1180079
540.063 .1145348
540.876 .1107277
541.689 .1066596
542.501 .1024121
543.313 .0980747
544.124 .0937385
544.934 .0894861
545.744 .0853901
546.553 .0815074
547.361 .0778828
548.169 .0745377
548.976 .0714815
549.783 .0687107
550.589 .0662123
551.395 .0639646
552.200 .0619438
553.004 .0601232
553.808 .0584816
554.611 .0570004
555.414 .0556617
556.216 .0544473
557.018 .0533389
557.819 .0523223
558.619 .0513831
559.419 .0505081
560.218 .0496873
561.017 .0489104
561.815 .0481709
562.613 .0474639
563.410 .0467851
564.207 .0461308
565.003 .0454996
565.799 .0448892
566.594 .0442973
567.388 .0437227
568.182 .0431640
568.976 .0426197
569.769 .0420893
570.562 .0415724
571.354 .0410688
572.145 .0405790
572.936 .0401042
573.727 .0396450
574.517 .0392026
575.307 .0387781
576.096 .0383719
576.885 .0379844
577.673 .0376162
578.461 .0372665
579.248 .0369346
580.035 .0366202
580.821 .0363224
581.607 .0360403
582.392 .0357737
583.177 .0355223
583.962 .0352857
584.746 .0350638
585.529 .0348560
586.313 .0346617
587.095 .0344800
587.878 .0343105
588.660 .0341521
589.441 .0340042
590.222 .0338662
591.003 .0337375
591.783 .0336175
592.563 .0335058
593.342 .0334018
594.121 .0333050
594.899 .0332151
595.678 .0331316
596.455 .0330538
597.233 .0329813
598.009 .0329136
598.786 .0328499
599.562 .0327899
600.338 .0327330
601.113 .0326788
601.888 .0326058
602.663 .0325573
603.437 .0325111
604.211 .0324670
604.984 .0324252
605.757 .0323854
606.530 .0323477
607.302 .0323119
608.074 .0322779
608.845 .0322455
609.616 .0322147
610.387 .0322028
611.158 .0321747
611.928 .0321482
612.697 .0321235
613.467 .0321005
614.236 .0320795
615.004 .0320603
615.773 .0320428
616.541 .0320270
617.308 .0320126
618.076 .0319993
618.843 .0319870
619.609 .0319753
620.375 .0319640
621.141 .0319530
621.907 .0319422
622.672 .0319311
623.437 .0319198
624.202 .0319079
624.966 .0318952
625.730 .0318814
626.493 .0318664
627.257 .0318500
628.020 .0318321
628.782 .0318126
629.545 .0317913
630.307 .0317682
631.068 .0317434
631.830 .0317168
632.591 .0316885
633.352 .0316586
634.112 .0316272
634.872 .0315945
635.632 .0315607
636.392 .0315260
637.151 .0314906
637.910 .0314548
638.668 .0314187
639.427 .0313824
640.185 .0313462
640.943 .0313103
641.700 .0312749
642.457 .0312400
643.214 .0312059
643.971 .0311726
644.727 .0311401
645.483 .0311083
646.239 .0310772
646.994 .0310467
647.750 .0310169
648.505 .0309876
649.259 .0309588
650.014 .0309304
650.768 .0309026
651.521 .0308751
652.275 .0308480
653.028 .0308212
653.781 .0307945
654.534 .0307678
655.286 .0307410
656.039 .0307142
656.791 .0306872
657.542 .0306603
658.294 .0306334
659.045 .0306067
659.796 .0305801
660.546 .0305538
661.297 .0305278
662.047 .0305022
662.796 .0304772
663.546 .0304527
664.295 .0304289
665.044 .0304059
665.793 .0303837
666.542 .0303625
667.290 .0303423
668.038 .0303234
668.786 .0303056
669.533 .0302892
670.281 .0302741
671.028 .0302603
671.774 .0302478
672.521 .0302366
673.267 .0302264
674.013 .0302173
674.759 .0302090
675.505 .0302015
676.250 .0301947
676.995 .0301886
677.740 .0301832
678.484 .0301782
679.229 .0301737
679.973 .0301694
680.717 .0301652
681.460 .0301609
682.204 .0301564
682.947 .0301516
683.690 .0301462
684.433 .0301404
685.175 .0301340
685.917 .0301270
686.659 .0301195
687.401 .0301114
688.142 .0301026
688.884 .0300932
689.625 .0300830
690.365 .0300722
691.106 .0300607
691.846 .0300484
692.586 .0300354
693.326 .0300217
694.066 .0300073
694.805 .0299922
695.545 .0299764
696.284 .0299599
697.022 .0299429
697.761 .0299253
698.499 .0299071
699.237 .0298884
699.975 .0298693
700.713 .0298496
701.450 .0298293
702.187 .0298085
702.924 .0297869
703.661 .0297647
704.397 .0297419
705.133 .0297184
705.869 .0296944
706.605 .0296700
707.341 .0296451
708.076 .0296199
708.811 .0295943
709.546 .0295683
710.281 .0295419
711.015 .0295152
711.749 .0294879
712.483 .0294603
713.217 .0294322
713.950 .0294037
714.684 .0293750
715.417 .0293459
716.150 .0293167
716.882 .0292873
717.615 .0292578
718.347 .0292282
719.079 .0291985
719.811 .0291689
720.542 .0291394
721.273 .0291100
722.005 .0290808
722.735 .0290519
723.466 .0290234
724.196 .0289953
724.927 .0289679
725.656 .0289411
726.386 .0289151
727.116 .0288898
727.845 .0288654
728.574 .0288419
729.303 .0288194
730.031 .0287979
730.760 .0287774
731.488 .0287580
732.216 .0287396
732.944 .0287223
733.671 .0287060
734.398 .0286908
735.125 .0286765
735.852 .0286633
736.579 .0286511
737.305 .0286400
738.031 .0286298
738.757 .0286206
739.483 .0286124
740.208 .0286050
740.933 .0285985
741.658 .0285927
742.383 .0285877
743.108 .0285833
743.832 .0285796
744.556 .0285765
745.280 .0285740
746.004 .0285719
746.727 .0285704
747.450 .0285692
748.173 .0285683
748.896 .0285677
749.618 .0285675
750.340 .0285674
751.062 .0285676
751.784 .0285681
752.506 .0285687
753.227 .0285696
753.948 .0285705
754.669 .0285715
755.389 .0285726
756.110 .0285735
756.830 .0285742
757.550 .0285746
758.269 .0285748
758.989 .0285746
759.708 .0285739
760.427 .0285728
761.146 .0285713
761.864 .0285692
762.582 .0285667
763.300 .0285638
764.018 .0285604
764.736 .0285564
765.453 .0285520
766.170 .0285471
766.887 .0285417
767.603 .0285359
768.320 .0285296
769.036 .0285229
769.751 .0285159
770.467 .0285085
771.182 .0285009
771.897 .0284930
772.612 .0284848
773.327 .0284764
774.041 .0284676
774.755 .0284584
775.469 .0284489
776.183 .0284391
776.896 .0284288
777.609 .0284182
778.322 .0284072
779.035 .0283959
779.747 .0283841
780.459 .0283720
781.171 .0283593
781.882 .0283462
782.594 .0283325
783.305 .0283184
784.016 .0283038
784.726 .0282887
785.436 .0282730
786.147 .0282470
786.856 .0282297
787.566 .0282118
788.275 .0281931
788.984 .0281737
789.693 .0281535
790.401 .0281326
791.110 .0281111
791.818 .0280890
792.525 .0280662
793.233 .0280428
793.940 .0280188
794.647 .0280052
795.353 .0279804
796.060 .0279551
796.766 .0279292
797.472 .0279028
798.177 .0278759
798.883 .0278485
799.588 .0278208
800.292 .0277926
800.997 .0277640
801.701 .0277351
802.405 .0277057
803.109 .0276761
803.812 .0276462
804.515 .0276162
805.218 .0275861
805.921 .0275560
806.623 .0275260
807.325 .0274963
808.027 .0274667
808.728 .0274374
809.429 .0274084
810.130 .0273796
810.831 .0273512
811.531 .0273233
812.231 .0272958
812.931 .0272688
813.630 .0272424
814.330 .0272167
815.029 .0271917
815.727 .0271675
816.426 .0271441
817.124 .0271216
817.821 .0271000
818.519 .0270794
819.216 .0270599
819.913 .0270414
820.609 .0270241
821.306 .0270081
822.002 .0269933
822.697 .0269798
823.393 .0269676
824.088 .0269568
824.783 .0269473
825.477 .0269390
826.171 .0269321
826.865 .0269263
827.559 .0269218
828.252 .0269184
828.945 .0269161
829.638 .0269149
830.330 .0269146
831.023 .0269152
831.714 .0269168
832.406 .0269192
833.097 .0269225
833.788 .0269266
834.479 .0269315
835.169 .0269372
835.859 .0269436
836.548 .0269506
837.238 .0269582
837.927 .0269663
838.615 .0269746
839.304 .0269832
839.992 .0269919
840.680 .0270006
841.367 .0270093
842.054 .0270179
842.741 .0270264
843.428 .0270348
844.114 .0270431
844.800 .0270513
845.485 .0270592
846.170 .0270670
846.855 .0270744
847.540 .0270816
848.224 .0270883
848.908 .0270947
849.592 .0271006
850.275 .0271061
850.958 .0271113
851.641 .0271160
852.323 .0271204
853.005 .0271243
853.687 .0271277
854.368 .0271307
855.049 .0271331
855.730 .0271350
856.410 .0271362
857.090 .0271369
857.769 .0271370
858.449 .0271364
859.128 .0271354
859.806 .0271338
860.485 .0271318
861.163 .0271293
861.840 .0271265
862.518 .0271234
863.195 .0271201
863.871 .0271165
864.548 .0271128
865.224 .0271088
865.899 .0271047
866.574 .0271003
867.249 .0270957
867.924 .0270908
868.598 .0270856
869.272 .0270801
869.946 .0270743
870.619 .0270682
871.292 .0270618
871.964 .0270552
872.636 .0270484
873.308 .0270413
873.979 .0270340
874.651 .0270264
875.321 .0270185
875.992 .0270103
876.662 .0270017
877.331 .0269927
878.001 .0269832
878.670 .0269732
879.338 .0269626
880.007 .0269516
880.675 .0269400
881.342 .0269279
882.009 .0269153
882.676 .0269022
883.343 .0268886
884.009 .0268747
884.675 .0268604
885.340 .0268458
886.005 .0268308
886.670 .0268156
887.334 .0268001
887.998 .0267843
888.662 .0267683
889.325 .0267520
889.988 .0267354
890.650 .0267185
891.312 .0267013
891.974 .0266838
892.636 .0266660
893.297 .0266480
893.957 .0266296
894.618 .0266108
895.278 .0265916
895.937 .0265719
896.596 .0265516
897.255 .0265307
897.914 .0265091
898.572 .0264867
899.230 .0264637
899.887 .0264399
900.544 .0264152
901.201 .0263898
901.857 .0263477
902.513 .0263202
903.168 .0262917
903.823 .0262625
904.478 .0262324
905.132 .0262015
905.786 .0261699
906.440 .0261377
907.093 .0261048
907.746 .0260713
908.399 .0260374
909.051 .0260030
909.703 .0259683
910.354 .0259504
911.005 .0259156
911.656 .0258807
912.306 .0258458
912.956 .0258110
913.605 .0257763
914.254 .0257419
914.903 .0257077
915.551 .0256738
916.199 .0256401
916.847 .0256068
917.494 .0255737
918.141 .0255410
918.788 .0255087
919.434 .0254768
920.079 .0254453
920.725 .0254143
921.370 .0253838
922.014 .0253538
922.658 .0253243
923.302 .0252954
923.946 .0252670
924.589 .0252394
925.231 .0252124
925.873 .0251862
926.515 .0251609
927.157 .0251364
927.798 .0251128
928.439 .0250902
929.079 .0250684
929.719 .0250475
930.359 .0250277
930.998 .0250088
931.637 .0249911
932.275 .0249744
932.913 .0249590
933.551 .0249447
934.188 .0249317
934.825 .0249199
935.462 .0249093
936.098 .0248998
936.733 .0248914
937.369 .0248840
938.004 .0248777
938.638 .0248723
939.273 .0248679
939.907 .0248644
940.540 .0248618
941.173 .0248599
941.806 .0248588
942.438 .0248583
943.070 .0248585
943.702 .0248591
944.333 .0248603
944.964 .0248619
945.594 .0248639
946.224 .0248662
946.854 .0248689
947.483 .0248719
948.112 .0248751
948.741 .0248785
949.369 .0248821
949.996 .0248858
950.624 .0248896
951.251 .0248935
951.878 .0248976
952.504 .0249019
953.130 .0249063
953.755 .0249110
954.380 .0249160
955.005 .0249213
955.629 .0249270
956.253 .0249330
956.877 .0249393
957.500 .0249460
958.123 .0249531
958.746 .0249607
959.368 .0249689
959.990 .0249778
960.611 .0249873
961.232 .0249974
961.853 .0250082
962.473 .0250196
963.093 .0250315
963.712 .0250440
964.331 .0250569
964.950 .0250702
965.569 .0250840
966.187 .0250982
966.804 .0251129
967.422 .0251280
968.039 .0251434
968.655 .0251590
969.272 .0251747
969.887 .0251903
970.503 .0252059
971.118 .0252213
971.733 .0252365
972.347 .0252515
972.961 .0252662
973.575 .0252805
974.188 .0252946
974.801 .0253082
975.414 .0253212
976.026 .0253334
976.638 .0253448
977.250 .0253552
977.861 .0253645
978.472 .0253727
979.083 .0253799
979.693 .0253861
980.303 .0253913
980.912 .0253948
981.521 .0253980
982.130 .0254003
982.738 .0254020
983.346 .0254030
983.954 .0254034
984.562 .0254033
985.169 .0254030
985.775 .0254026
986.382 .0254023
986.988 .0254022
987.594 .0254025
988.199 .0254031
988.804 .0254041
989.409 .0254065
990.013 .0254084
990.617 .0254106
991.221 .0254131
991.824 .0254158
992.427 .0254188
993.030 .0254219
993.632 .0254253
994.234 .0254287
994.836 .0254323
995.438 .0254359
996.039 .0254395
996.640 .0254430
997.240 .0254464
997.840 .0254495
998.440 .0254524
999.040 .0254549
999.639 .0254572
1000.238 .0254591
1000.836 .0254605
1001.435 .0254615
1002.033 .0254619
1002.630 .0254617
1003.228 .0254608
1003.825 .0254593
1004.422 .0254570
1005.018 .0254538
1005.614 .0254498
1006.210 .0254448
1006.806 .0254390
1007.401 .0254324
1007.996 .0254250
1008.591 .0254169
1009.186 .0254081
1009.780 .0253989
1010.374 .0253894
1010.967 .0253796
1011.561 .0253699
1012.154 .0253603
1012.746 .0253509
1013.339 .0253418
1013.931 .0253331
1014.523 .0253248
1015.115 .0253169
1015.706 .0253093
1016.298 .0253019
1016.888 .0252949
1017.479 .0252882
1018.069 .0252817
1018.660 .0252755
1019.250 .0252695
1019.839 .0252638
1020.429 .0252582
1021.018 .0252528
1021.607 .0252473
1022.195 .0252419
1022.784 .0252363
1023.372 .0252306
1023.960 .0252249
1024.547 .0252190
1025.135 .0252130
1025.722 .0252069
1026.309 .0252008
1026.896 .0251945
1027.483 .0251881
1028.069 .0251815
1028.655 .0251744
1029.241 .0251667
1029.827 .0251584
1030.412 .0251494
1030.997 .0251396
1031.582 .0251290
1032.167 .0251176
1032.752 .0251054
1033.336 .0250926
1033.921 .0250791
1034.505 .0250650
1035.089 .0250503
1035.672 .0250349
1036.256 .0250189
1036.839 .0250022
1037.422 .0249848
1038.005 .0249668
1038.588 .0249483
1039.171 .0249292
1039.753 .0249098
1040.335 .0248901
1040.918 .0248702
1041.500 .0248499
1042.081 .0248294
1042.663 .0248086
1043.244 .0247875
1043.826 .0247660
1044.407 .0247443
1044.988 .0247225
1045.569 .0247006
1046.150 .0246788
1046.730 .0246572
1047.311 .0246360
1047.891 .0246151
1048.471 .0245946
1049.052 .0245746
1049.632 .0245549
1050.211 .0245357
1050.791 .0245168
1051.371 .0244984
1051.950 .0244804
1052.530 .0244629
1053.109 .0244459
1053.688 .0244293
1054.268 .0244132
1054.847 .0243974
1055.426 .0243820
1056.005 .0243668
1056.583 .0243519
1057.162 .0243373
1057.741 .0243228
1058.319 .0243086
1058.898 .0242946
1059.476 .0242811
1060.055 .0242678
1060.633 .0242547
1061.211 .0242417
1061.790 .0242289
1062.368 .0242161
1062.946 .0242034
1063.524 .0241907
1064.102 .0241780
1064.680 .0241655
1065.258 .0241532
1065.836 .0241410
1066.414 .0241291
1066.992 .0241174
1067.570 .0241060
1068.148 .0240947
1068.726 .0240836
1069.304 .0240726
1069.882 .0240620
1070.460 .0240518
1071.038 .0240420
1071.616 .0240326
1072.194 .0240239
1072.772 .0240156
1073.350 .0240078
1073.928 .0240005
1074.506 .0239935
1075.084 .0239869
1075.662 .0239807
1076.240 .0239749
1076.819 .0239698
1077.397 .0239656
1077.976 .0239625
1078.554 .0239606
1079.133 .0239599
1079.711 .0239604
1080.290 .0239623
1080.869 .0239654
1081.448 .0239698
1082.027 .0239754
1082.606 .0239822
1083.185 .0239902
1083.764 .0239994
1084.343 .0240099
1084.923 .0240216
1085.502 .0240344
1086.082 .0240482
1086.662 .0240629
1087.242 .0240785
1087.822 .0240950
1088.402 .0241124
1088.983 .0241307
1089.563 .0241498
1090.144 .0241698
1090.725 .0241906
1091.306 .0242121
1091.887 .0242344
1092.469 .0242573
1093.050 .0242809
1093.632 .0243052
1094.214 .0243301
1094.796 .0243556
1095.379 .0243818
1095.961 .0244085
1096.544 .0244356
1097.127 .0244629
1097.710 .0244901
1098.294 .0245171
1098.877 .0245438
1099.461 .0245705
1100.046 .0245971
1100.630 .0246238
1101.215 .0246508
1101.800 .0246782
1102.385 .0247061
1102.970 .0247344
1103.556 .0247633
1104.142 .0247926
1104.728 .0248224
1105.315 .0248527
1105.902 .0248838
1106.489 .0249158
1107.077 .0249491
1107.664 .0249838
1108.253 .0250201
1108.841 .0250580
1109.430 .0250974
1110.019 .0251383
1110.609 .0251804
1111.198 .0252235
1111.789 .0252676
1112.379 .0253128
1112.970 .0253592
1113.561 .0254068
1114.153 .0254558
1114.745 .0255063
1115.338 .0255583
1115.931 .0256119
1116.524 .0256669
1117.117 .0257231
1117.712 .0257805
1118.306 .0258393
1118.901 .0258993
1119.496 .0259608
1120.092 .0260239
1120.689 .0260885
1121.285 .0261550
1121.882 .0262230
1122.480 .0262924
1123.078 .0263632
1123.677 .0264351
1124.276 .0265080
1124.875 .0265820
1125.476 .0266572
1126.076 .0267337
1126.677 .0268119
1127.279 .0268919
1127.881 .0269739
1128.484 .0270580
1129.087 .0270961
1129.691 .0271831
1130.295 .0272720
1130.900 .0273628
1131.505 .0274558
1132.111 .0275512
1132.718 .0276495
1133.325 .0277507
1133.933 .0278557
1134.541 .0279668
1135.150 .0280828
1135.760 .0281982
1136.370 .0283093
1136.981 .0283658
1137.592 .0284925
1138.204 .0286176
1138.817 .0287415
1139.431 .0288737
1140.045 .0290129
1140.660 .0291601
1141.275 .0293067
1141.891 .0294808
1142.508 .0297127
1143.126 .0299229
1143.744 .0299812
1144.363 .0299354
1144.983 .0307964
