Measurement Sequence started on: 15-12-46-377
Integration time: 28
Scans to Average: 2 
>>>>>Begin Spectral Data<<<<<
432.689 .0000100
433.621 .0000100
434.552 .0000100
435.482 .0000100
436.410 .0000100
437.337 .0000100
438.262 .0273911
439.187 .0579996
440.110 .0961022
441.031 .1390704
441.952 .1118561
442.871 .1169045
443.789 .1216171
444.705 .1260630
445.621 .1302877
446.535 .1343243
447.447 .1367585
448.359 .1374417
449.269 .1359965
450.178 .1321809
451.086 .1260705
451.993 .1181413
452.898 .1091800
453.803 .1000778
454.706 .0915945
455.608 .0842015
456.508 .0780564
457.408 .0738640
458.306 .0706075
459.204 .0679271
460.100 .0656417
460.995 .0636546
461.888 .0619001
462.781 .0603348
463.673 .0589276
464.563 .0576538
465.452 .0564947
466.340 .0554363
467.228 .0544672
468.114 .0535796
468.999 .0527688
469.882 .0520307
470.765 .0513612
471.647 .0507567
472.528 .0502137
473.407 .0497273
474.286 .0492927
475.163 .0489058
476.040 .0485621
476.915 .0482585
477.790 .0479921
478.663 .0477607
479.535 .0475632
480.407 .0473988
481.277 .0472652
482.147 .0471606
483.015 .0470815
483.883 .0470252
484.749 .0469879
485.615 .0469670
486.479 .0469608
487.343 .0469681
488.206 .0469884
489.067 .0470219
489.928 .0470700
490.788 .0471346
491.647 .0472170
492.505 .0473185
493.362 .0474402
494.218 .0475834
495.073 .0477483
495.928 .0480833
496.781 .0483123
497.634 .0485677
498.486 .0488505
499.337 .0491623
500.187 .0495050
501.036 .0498803
501.884 .0502908
502.731 .0507389
503.578 .0512280
504.424 .0515576
505.268 .0521166
506.113 .0527262
506.956 .0533898
507.798 .0541118
508.640 .0548982
509.480 .0557555
510.320 .0566929
511.160 .0577189
511.998 .0588456
512.836 .0600874
513.672 .0614608
514.508 .0629849
515.344 .0646820
516.178 .0665772
517.012 .0686963
517.845 .0710634
518.677 .0737019
519.508 .0766278
520.339 .0798525
521.169 .0833777
521.998 .0871872
522.826 .0912486
523.654 .0955125
524.481 .0999170
525.307 .1043885
526.133 .1088407
526.958 .1131821
527.782 .1173197
528.605 .1211670
529.428 .1246459
530.250 .1276867
531.072 .1302388
531.892 .1322637
532.712 .1337345
533.532 .1346336
534.350 .1349531
535.168 .1346960
535.986 .1338663
536.802 .1324739
537.618 .1305309
538.434 .1280538
539.249 .1250772
540.063 .1216481
540.876 .1178272
541.689 .1136860
542.501 .1093054
543.313 .1047742
544.124 .1001843
544.934 .0956261
545.744 .0911807
546.553 .0869185
547.361 .0828979
548.169 .0791570
548.976 .0757176
549.783 .0725867
550.589 .0697582
551.395 .0672149
552.200 .0649301
553.004 .0628761
553.808 .0610253
554.611 .0593522
555.414 .0578358
556.216 .0564550
557.018 .0551911
557.819 .0540285
558.619 .0529530
559.419 .0519521
560.218 .0510163
561.017 .0501378
561.815 .0493087
562.613 .0485248
563.410 .0477811
564.207 .0470730
565.003 .0463960
565.799 .0457456
566.594 .0451181
567.388 .0445115
568.182 .0439239
568.976 .0433540
569.769 .0428014
570.562 .0422661
571.354 .0417480
572.145 .0412474
572.936 .0407648
573.727 .0402996
574.517 .0398517
575.307 .0394211
576.096 .0390071
576.885 .0386097
577.673 .0382289
578.461 .0378648
579.248 .0375176
580.035 .0371872
580.821 .0368735
581.607 .0365766
582.392 .0362969
583.177 .0360345
583.962 .0357895
584.746 .0355617
585.529 .0353509
586.313 .0351563
587.095 .0349770
587.878 .0348120
588.660 .0346601
589.441 .0345204
590.222 .0343919
591.003 .0342737
591.783 .0341650
592.563 .0340652
593.342 .0339734
594.121 .0338889
594.899 .0338107
595.678 .0337380
596.455 .0336700
597.233 .0336057
598.009 .0335444
598.786 .0334857
599.562 .0334289
600.338 .0333735
601.113 .0333195
601.888 .0332417
602.663 .0331902
603.437 .0331397
604.211 .0330902
604.984 .0330416
605.757 .0329938
606.530 .0329470
607.302 .0329011
608.074 .0328560
608.845 .0328115
609.616 .0327677
610.387 .0327477
611.158 .0327053
611.928 .0326638
612.697 .0326233
613.467 .0325839
614.236 .0325457
615.004 .0325089
615.773 .0324733
616.541 .0324392
617.308 .0324065
618.076 .0323751
618.843 .0323449
619.609 .0323158
620.375 .0322877
621.141 .0322605
621.907 .0322340
622.672 .0322083
623.437 .0321832
624.202 .0321587
624.966 .0321347
625.730 .0321112
626.493 .0320880
627.257 .0320651
628.020 .0320423
628.782 .0320194
629.545 .0319964
630.307 .0319732
631.068 .0319497
631.830 .0319259
632.591 .0319018
633.352 .0318775
634.112 .0318530
634.872 .0318282
635.632 .0318034
636.392 .0317784
637.151 .0317533
637.910 .0317282
638.668 .0317030
639.427 .0316778
640.185 .0316527
640.943 .0316277
641.700 .0316031
642.457 .0315789
643.214 .0315553
643.971 .0315324
644.727 .0315102
645.483 .0314887
646.239 .0314680
646.994 .0314480
647.750 .0314286
648.505 .0314096
649.259 .0313910
650.014 .0313725
650.768 .0313541
651.521 .0313354
652.275 .0313166
653.028 .0312974
653.781 .0312779
654.534 .0312578
655.286 .0312373
656.039 .0312161
656.791 .0311943
657.542 .0311719
658.294 .0311487
659.045 .0311247
659.796 .0310998
660.546 .0310741
661.297 .0310474
662.047 .0310200
662.796 .0309918
663.546 .0309630
664.295 .0309338
665.044 .0309044
665.793 .0308748
666.542 .0308453
667.290 .0308158
668.038 .0307865
668.786 .0307572
669.533 .0307281
670.281 .0306990
671.028 .0306702
671.774 .0306416
672.521 .0306134
673.267 .0305857
674.013 .0305586
674.759 .0305322
675.505 .0305064
676.250 .0304812
676.995 .0304566
677.740 .0304323
678.484 .0304084
679.229 .0303846
679.973 .0303611
680.717 .0303376
681.460 .0303141
682.204 .0302907
682.947 .0302672
683.690 .0302436
684.433 .0302200
685.175 .0301963
685.917 .0301725
686.659 .0301488
687.401 .0301251
688.142 .0301015
688.884 .0300780
689.625 .0300545
690.365 .0300310
691.106 .0300075
691.846 .0299840
692.586 .0299606
693.326 .0299374
694.066 .0299144
694.805 .0298918
695.545 .0298697
696.284 .0298481
697.022 .0298270
697.761 .0298063
698.499 .0297861
699.237 .0297662
699.975 .0297466
700.713 .0297275
701.450 .0297088
702.187 .0296906
702.924 .0296730
703.661 .0296559
704.397 .0296395
705.133 .0296236
705.869 .0296082
706.605 .0295931
707.341 .0295785
708.076 .0295642
708.811 .0295501
709.546 .0295363
710.281 .0295227
711.015 .0295093
711.749 .0294961
712.483 .0294829
713.217 .0294697
713.950 .0294565
714.684 .0294432
715.417 .0294299
716.150 .0294166
716.882 .0294033
717.615 .0293900
718.347 .0293767
719.079 .0293634
719.811 .0293501
720.542 .0293368
721.273 .0293234
722.005 .0293100
722.735 .0292965
723.466 .0292831
724.196 .0292698
724.927 .0292566
725.656 .0292436
726.386 .0292308
727.116 .0292182
727.845 .0292059
728.574 .0291937
729.303 .0291816
730.031 .0291698
730.760 .0291582
731.488 .0291468
732.216 .0291357
732.944 .0291248
733.671 .0291141
734.398 .0291036
735.125 .0290933
735.852 .0290832
736.579 .0290731
737.305 .0290631
738.031 .0290531
738.757 .0290431
739.483 .0290331
740.208 .0290229
740.933 .0290124
741.658 .0290017
742.383 .0289906
743.108 .0289790
743.832 .0289671
744.556 .0289547
745.280 .0289418
746.004 .0289286
746.727 .0289150
747.450 .0289010
748.173 .0288866
748.896 .0288718
749.618 .0288564
750.340 .0288406
751.062 .0288244
751.784 .0288078
752.506 .0287907
753.227 .0287732
753.948 .0287554
754.669 .0287372
755.389 .0287187
756.110 .0286998
756.830 .0286805
757.550 .0286610
758.269 .0286413
758.989 .0286213
759.708 .0286011
760.427 .0285808
761.146 .0285604
761.864 .0285399
762.582 .0285192
763.300 .0284985
764.018 .0284777
764.736 .0284568
765.453 .0284359
766.170 .0284150
766.887 .0283941
767.603 .0283732
768.320 .0283523
769.036 .0283315
769.751 .0283108
770.467 .0282901
771.182 .0282696
771.897 .0282493
772.612 .0282294
773.327 .0282098
774.041 .0281906
774.755 .0281719
775.469 .0281535
776.183 .0281355
776.896 .0281178
777.609 .0281006
778.322 .0280837
779.035 .0280672
779.747 .0280512
780.459 .0280358
781.171 .0280208
781.882 .0280064
782.594 .0279924
783.305 .0279789
784.016 .0279657
784.726 .0279529
785.436 .0279403
786.147 .0279227
786.856 .0279108
787.566 .0278992
788.275 .0278878
788.984 .0278766
789.693 .0278656
790.401 .0278546
791.110 .0278435
791.818 .0278324
792.525 .0278212
793.233 .0278100
793.940 .0277987
794.647 .0277924
795.353 .0277810
796.060 .0277696
796.766 .0277581
797.472 .0277466
798.177 .0277350
798.883 .0277233
799.588 .0277115
800.292 .0276996
800.997 .0276877
801.701 .0276758
802.405 .0276641
803.109 .0276525
803.812 .0276410
804.515 .0276296
805.218 .0276181
805.921 .0276067
806.623 .0275952
807.325 .0275836
808.027 .0275721
808.728 .0275606
809.429 .0275494
810.130 .0275383
810.831 .0275274
811.531 .0275169
812.231 .0275066
812.931 .0274966
813.630 .0274868
814.330 .0274773
815.029 .0274681
815.727 .0274594
816.426 .0274512
817.124 .0274436
817.821 .0274366
818.519 .0274302
819.216 .0274244
819.913 .0274193
820.609 .0274146
821.306 .0274105
822.002 .0274070
822.697 .0274041
823.393 .0274018
824.088 .0274002
824.783 .0273994
825.477 .0273993
826.171 .0273998
826.865 .0274008
827.559 .0274023
828.252 .0274042
828.945 .0274063
829.638 .0274088
830.330 .0274115
831.023 .0274144
831.714 .0274174
832.406 .0274206
833.097 .0274238
833.788 .0274269
834.479 .0274298
835.169 .0274326
835.859 .0274352
836.548 .0274376
837.238 .0274398
837.927 .0274419
838.615 .0274438
839.304 .0274456
839.992 .0274471
840.680 .0274483
841.367 .0274492
842.054 .0274496
842.741 .0274496
843.428 .0274492
844.114 .0274484
844.800 .0274472
845.485 .0274455
846.170 .0274432
846.855 .0274403
847.540 .0274366
848.224 .0274320
848.908 .0274265
849.592 .0274201
850.275 .0274127
850.958 .0274043
851.641 .0273951
852.323 .0273850
853.005 .0273740
853.687 .0273621
854.368 .0273493
855.049 .0273355
855.730 .0273208
856.410 .0273053
857.090 .0272888
857.769 .0272716
858.449 .0272538
859.128 .0272354
859.806 .0272166
860.485 .0271973
861.163 .0271777
861.840 .0271578
862.518 .0271378
863.195 .0271176
863.871 .0270973
864.548 .0270771
865.224 .0270570
865.899 .0270371
866.574 .0270173
867.249 .0269978
867.924 .0269785
868.598 .0269594
869.272 .0269405
869.946 .0269218
870.619 .0269033
871.292 .0268850
871.964 .0268669
872.636 .0268490
873.308 .0268313
873.979 .0268139
874.651 .0267966
875.321 .0267795
875.992 .0267626
876.662 .0267458
877.331 .0267292
878.001 .0267126
878.670 .0266962
879.338 .0266799
880.007 .0266637
880.675 .0266477
881.342 .0266319
882.009 .0266162
882.676 .0266008
883.343 .0265857
884.009 .0265707
884.675 .0265560
885.340 .0265415
886.005 .0265273
886.670 .0265133
887.334 .0264995
887.998 .0264860
888.662 .0264727
889.325 .0264596
889.988 .0264467
890.650 .0264340
891.312 .0264214
891.974 .0264088
892.636 .0263962
893.297 .0263836
893.957 .0263708
894.618 .0263579
895.278 .0263448
895.937 .0263313
896.596 .0263175
897.255 .0263032
897.914 .0262885
898.572 .0262732
899.230 .0262573
899.887 .0262408
900.544 .0262236
901.201 .0262058
901.857 .0261761
902.513 .0261569
903.168 .0261371
903.823 .0261169
904.478 .0260961
905.132 .0260747
905.786 .0260529
906.440 .0260307
907.093 .0260081
907.746 .0259852
908.399 .0259621
909.051 .0259389
909.703 .0259158
910.354 .0259047
911.005 .0258818
911.656 .0258590
912.306 .0258364
912.956 .0258139
913.605 .0257916
914.254 .0257697
914.903 .0257481
915.551 .0257269
916.199 .0257062
916.847 .0256860
917.494 .0256662
918.141 .0256467
918.788 .0256276
919.434 .0256087
920.079 .0255901
920.725 .0255718
921.370 .0255536
922.014 .0255357
922.658 .0255180
923.302 .0255005
923.946 .0254832
924.589 .0254660
925.231 .0254490
925.873 .0254322
926.515 .0254155
927.157 .0253990
927.798 .0253828
928.439 .0253668
929.079 .0253513
929.719 .0253361
930.359 .0253214
930.998 .0253072
931.637 .0252935
932.275 .0252804
932.913 .0252678
933.551 .0252558
934.188 .0252444
934.825 .0252338
935.462 .0252238
936.098 .0252146
936.733 .0252061
937.369 .0251984
938.004 .0251915
938.638 .0251853
939.273 .0251800
939.907 .0251755
940.540 .0251719
941.173 .0251691
941.806 .0251672
942.438 .0251661
943.070 .0251658
943.702 .0251663
944.333 .0251676
944.964 .0251695
945.594 .0251720
946.224 .0251751
946.854 .0251788
947.483 .0251829
948.112 .0251875
948.741 .0251923
949.369 .0251975
949.996 .0252028
950.624 .0252084
951.251 .0252140
951.878 .0252198
952.504 .0252257
953.130 .0252316
953.755 .0252377
954.380 .0252438
955.005 .0252500
955.629 .0252563
956.253 .0252626
956.877 .0252688
957.500 .0252750
958.123 .0252811
958.746 .0252872
959.368 .0252932
959.990 .0252991
960.611 .0253050
961.232 .0253109
961.853 .0253167
962.473 .0253224
963.093 .0253280
963.712 .0253334
964.331 .0253388
964.950 .0253440
965.569 .0253490
966.187 .0253539
966.804 .0253587
967.422 .0253632
968.039 .0253676
968.655 .0253717
969.272 .0253756
969.887 .0253793
970.503 .0253827
971.118 .0253858
971.733 .0253885
972.347 .0253910
972.961 .0253932
973.575 .0253950
974.188 .0253965
974.801 .0253975
975.414 .0253981
976.026 .0253982
976.638 .0253979
977.250 .0253970
977.861 .0253957
978.472 .0253939
979.083 .0253916
979.693 .0253888
980.303 .0253856
980.912 .0253790
981.521 .0253747
982.130 .0253700
982.738 .0253651
983.346 .0253599
983.954 .0253546
984.562 .0253492
985.169 .0253436
985.775 .0253381
986.382 .0253325
986.988 .0253269
987.594 .0253214
988.199 .0253159
988.804 .0253106
989.409 .0253084
990.013 .0253034
990.617 .0252987
991.221 .0252942
991.824 .0252900
992.427 .0252861
993.030 .0252824
993.632 .0252789
994.234 .0252756
994.836 .0252724
995.438 .0252694
996.039 .0252665
996.640 .0252639
997.240 .0252616
997.840 .0252595
998.440 .0252578
999.040 .0252565
999.639 .0252555
1000.238 .0252546
1000.836 .0252540
1001.435 .0252534
1002.033 .0252528
1002.630 .0252522
1003.228 .0252517
1003.825 .0252512
1004.422 .0252508
1005.018 .0252504
1005.614 .0252500
1006.210 .0252496
1006.806 .0252490
1007.401 .0252483
1007.996 .0252473
1008.591 .0252459
1009.186 .0252442
1009.780 .0252422
1010.374 .0252399
1010.967 .0252373
1011.561 .0252346
1012.154 .0252316
1012.746 .0252283
1013.339 .0252248
1013.931 .0252210
1014.523 .0252167
1015.115 .0252121
1015.706 .0252070
1016.298 .0252016
1016.888 .0251960
1017.479 .0251904
1018.069 .0251848
1018.660 .0251793
1019.250 .0251741
1019.839 .0251690
1020.429 .0251641
1021.018 .0251593
1021.607 .0251545
1022.195 .0251499
1022.784 .0251452
1023.372 .0251405
1023.960 .0251359
1024.547 .0251314
1025.135 .0251269
1025.722 .0251224
1026.309 .0251180
1026.896 .0251134
1027.483 .0251088
1028.069 .0251040
1028.655 .0250992
1029.241 .0250942
1029.827 .0250891
1030.412 .0250841
1030.997 .0250791
1031.582 .0250742
1032.167 .0250694
1032.752 .0250648
1033.336 .0250604
1033.921 .0250560
1034.505 .0250516
1035.089 .0250473
1035.672 .0250428
1036.256 .0250383
1036.839 .0250336
1037.422 .0250286
1038.005 .0250234
1038.588 .0250178
1039.171 .0250119
1039.753 .0250055
1040.335 .0249987
1040.918 .0249914
1041.500 .0249836
1042.081 .0249754
1042.663 .0249668
1043.244 .0249578
1043.826 .0249484
1044.407 .0249387
1044.988 .0249288
1045.569 .0249186
1046.150 .0249081
1046.730 .0248974
1047.311 .0248864
1047.891 .0248752
1048.471 .0248638
1049.052 .0248522
1049.632 .0248404
1050.211 .0248287
1050.791 .0248168
1051.371 .0248048
1051.950 .0247928
1052.530 .0247806
1053.109 .0247681
1053.688 .0247555
1054.268 .0247427
1054.847 .0247296
1055.426 .0247164
1056.005 .0247031
1056.583 .0246897
1057.162 .0246762
1057.741 .0246627
1058.319 .0246491
1058.898 .0246356
1059.476 .0246222
1060.055 .0246088
1060.633 .0245955
1061.211 .0245824
1061.790 .0245695
1062.368 .0245569
1062.946 .0245446
1063.524 .0245327
1064.102 .0245211
1064.680 .0245100
1065.258 .0244992
1065.836 .0244888
1066.414 .0244787
1066.992 .0244689
1067.570 .0244592
1068.148 .0244496
1068.726 .0244400
1069.304 .0244304
1069.882 .0244208
1070.460 .0244112
1071.038 .0244018
1071.616 .0243927
1072.194 .0243840
1072.772 .0243759
1073.350 .0243685
1073.928 .0243619
1074.506 .0243560
1075.084 .0243510
1075.662 .0243470
1076.240 .0243438
1076.819 .0243418
1077.397 .0243408
1077.976 .0243411
1078.554 .0243426
1079.133 .0243452
1079.711 .0243489
1080.290 .0243536
1080.869 .0243592
1081.448 .0243656
1082.027 .0243726
1082.606 .0243802
1083.185 .0243882
1083.764 .0243967
1084.343 .0244056
1084.923 .0244149
1085.502 .0244247
1086.082 .0244349
1086.662 .0244453
1087.242 .0244560
1087.822 .0244669
1088.402 .0244779
1088.983 .0244888
1089.563 .0244997
1090.144 .0245105
1090.725 .0245212
1091.306 .0245318
1091.887 .0245423
1092.469 .0245526
1093.050 .0245625
1093.632 .0245721
1094.214 .0245812
1094.796 .0245898
1095.379 .0245980
1095.961 .0246059
1096.544 .0246138
1097.127 .0246217
1097.710 .0246301
1098.294 .0246390
1098.877 .0246485
1099.461 .0246588
1100.046 .0246698
1100.630 .0246815
1101.215 .0246941
1101.800 .0247076
1102.385 .0247221
1102.970 .0247377
1103.556 .0247547
1104.142 .0247732
1104.728 .0247932
1105.315 .0248146
1105.902 .0248374
1106.489 .0248616
1107.077 .0248870
1107.664 .0249136
1108.253 .0249414
1108.841 .0249705
1109.430 .0250008
1110.019 .0250325
1110.609 .0250655
1111.198 .0250999
1111.789 .0251355
1112.379 .0251721
1112.970 .0252097
1113.561 .0252478
1114.153 .0252864
1114.745 .0253254
1115.338 .0253648
1115.931 .0254047
1116.524 .0254452
1117.117 .0254865
1117.712 .0255290
1118.306 .0255728
1118.901 .0256181
1119.496 .0256653
1120.092 .0257142
1120.689 .0257650
1121.285 .0258175
1121.882 .0258720
1122.480 .0259284
1123.078 .0259868
1123.677 .0260475
1124.276 .0261109
1124.875 .0261773
1125.476 .0262468
1126.076 .0263195
1126.677 .0263955
1127.279 .0264742
1127.881 .0265552
1128.484 .0266381
1129.087 .0266721
1129.691 .0267579
1130.295 .0268450
1130.900 .0269333
1131.505 .0270228
1132.111 .0271131
1132.718 .0272039
1133.325 .0272951
1133.933 .0273861
1134.541 .0274800
1135.150 .0275689
1135.760 .0276445
1136.370 .0277367
1136.981 .0280461
1137.592 .0281268
1138.204 .0282014
1138.817 .0282746
1139.431 .0283445
1140.045 .0284124
1140.660 .0284688
1141.275 .0285313
1141.891 .0285780
1142.508 .0287191
1143.126 .0286492
1143.744 .0283512
1144.363 .0288989
1144.983 .0287014
