Measurement Sequence started on: 15-12-46-377
Integration time: 28
Scans to Average: 2 
>>>>>Begin Spectral Data<<<<<
432.689 .0000100
433.621 .0000100
434.552 .0000100
435.482 .0000100
436.410 .0000100
437.337 .0000100
438.262 .0267580
439.187 .0565776
440.110 .0936201
441.031 .1354128
441.952 .1087559
442.871 .1136308
443.789 .1181707
444.705 .1224427
445.621 .1264940
446.535 .1303611
447.447 .1326625
448.359 .1332570
449.269 .1317824
450.178 .1280011
451.086 .1219882
451.993 .1142071
452.898 .1054251
453.803 .0965123
454.706 .0882089
455.608 .0809733
456.508 .0749605
457.408 .0708611
458.306 .0676817
459.204 .0650719
460.100 .0628607
460.995 .0609518
461.888 .0592806
462.781 .0578032
463.673 .0564854
464.563 .0553037
465.452 .0542400
466.340 .0532780
467.228 .0524072
468.114 .0516186
468.999 .0509050
469.882 .0502602
470.765 .0496785
471.647 .0491540
472.528 .0486822
473.407 .0482581
474.286 .0478775
475.163 .0475370
476.040 .0472333
476.915 .0469633
477.790 .0467245
478.663 .0465148
479.535 .0463321
480.407 .0461746
481.277 .0460411
482.147 .0459296
483.015 .0458392
483.883 .0457686
484.749 .0457162
485.615 .0456807
486.479 .0456607
487.343 .0456540
488.206 .0456597
489.067 .0456763
489.928 .0457034
490.788 .0457409
491.647 .0457890
492.505 .0458486
493.362 .0459207
494.218 .0460066
495.073 .0461077
495.928 .0463162
496.781 .0464656
497.634 .0466356
498.486 .0468277
499.337 .0470436
500.187 .0472861
501.036 .0475589
501.884 .0478662
502.731 .0482130
503.578 .0486045
504.424 .0489048
505.268 .0493830
506.113 .0499202
506.956 .0505220
507.798 .0511940
508.640 .0519429
509.480 .0527762
510.320 .0537024
511.160 .0547322
511.998 .0558776
512.836 .0571534
513.672 .0585755
514.508 .0601628
515.344 .0619350
516.178 .0639112
517.012 .0661158
517.845 .0685698
518.677 .0712889
519.508 .0742894
520.339 .0775782
521.169 .0811573
521.998 .0850033
522.826 .0890813
523.654 .0933379
524.481 .0977084
525.307 .1021160
526.133 .1064729
526.958 .1106912
527.782 .1146876
528.605 .1183790
529.428 .1216974
530.250 .1245831
531.072 .1269936
531.892 .1288934
532.712 .1302613
533.532 .1310843
534.350 .1313543
535.168 .1310706
535.986 .1302409
536.802 .1288695
537.618 .1269666
538.434 .1245424
539.249 .1216316
540.063 .1182816
540.876 .1145536
541.689 .1105178
542.501 .1062566
543.313 .1018612
544.124 .0974210
544.934 .0930178
545.744 .0887300
546.553 .0846198
547.361 .0807377
548.169 .0771128
548.976 .0737656
549.783 .0707003
550.589 .0679123
551.395 .0653859
552.200 .0631006
553.004 .0610311
553.808 .0591541
554.611 .0574485
555.414 .0558980
556.216 .0544860
557.018 .0531952
557.819 .0520124
558.619 .0509264
559.419 .0499263
560.218 .0490016
561.017 .0481429
561.815 .0473428
562.613 .0465938
563.410 .0458885
564.207 .0452205
565.003 .0445849
565.799 .0439772
566.594 .0433934
567.388 .0428305
568.182 .0422866
568.976 .0417598
569.769 .0412493
570.562 .0407546
571.354 .0402759
572.145 .0398132
572.936 .0393664
573.727 .0389358
574.517 .0385216
575.307 .0381238
576.096 .0377423
576.885 .0373768
577.673 .0370274
578.461 .0366937
579.248 .0363758
580.035 .0360735
580.821 .0357870
581.607 .0355162
582.392 .0352608
583.177 .0350205
583.962 .0347952
584.746 .0345843
585.529 .0343872
586.313 .0342032
587.095 .0340315
587.878 .0338715
588.660 .0337225
589.441 .0335840
590.222 .0334558
591.003 .0333373
591.783 .0332281
592.563 .0331276
593.342 .0330351
594.121 .0329501
594.899 .0328718
595.678 .0327995
596.455 .0327326
597.233 .0326701
598.009 .0326115
598.786 .0325562
599.562 .0325036
600.338 .0324532
601.113 .0324048
601.888 .0323375
602.663 .0322932
603.437 .0322505
604.211 .0322093
604.984 .0321695
605.757 .0321310
606.530 .0320937
607.302 .0320574
608.074 .0320222
608.845 .0319879
609.616 .0319545
610.387 .0319405
611.158 .0319087
611.928 .0318780
612.697 .0318484
613.467 .0318200
614.236 .0317930
615.004 .0317673
615.773 .0317429
616.541 .0317197
617.308 .0316974
618.076 .0316759
618.843 .0316551
619.609 .0316347
620.375 .0316146
621.141 .0315947
621.907 .0315748
622.672 .0315549
623.437 .0315350
624.202 .0315148
624.966 .0314941
625.730 .0314730
626.493 .0314513
627.257 .0314289
628.020 .0314058
628.782 .0313819
629.545 .0313572
630.307 .0313317
631.068 .0313054
631.830 .0312782
632.591 .0312503
633.352 .0312218
634.112 .0311926
634.872 .0311630
635.632 .0311331
636.392 .0311029
637.151 .0310727
637.910 .0310425
638.668 .0310123
639.427 .0309822
640.185 .0309523
640.943 .0309226
641.700 .0308931
642.457 .0308639
643.214 .0308352
643.971 .0308070
644.727 .0307794
645.483 .0307523
646.239 .0307259
646.994 .0307000
647.750 .0306747
648.505 .0306500
649.259 .0306259
650.014 .0306023
650.768 .0305792
651.521 .0305567
652.275 .0305346
653.028 .0305129
653.781 .0304915
654.534 .0304703
655.286 .0304493
656.039 .0304284
656.791 .0304077
657.542 .0303872
658.294 .0303670
659.045 .0303470
659.796 .0303272
660.546 .0303077
661.297 .0302884
662.047 .0302692
662.796 .0302501
663.546 .0302310
664.295 .0302118
665.044 .0301927
665.793 .0301735
666.542 .0301544
667.290 .0301354
668.038 .0301165
668.786 .0300977
669.533 .0300791
670.281 .0300606
671.028 .0300421
671.774 .0300237
672.521 .0300053
673.267 .0299870
674.013 .0299688
674.759 .0299506
675.505 .0299324
676.250 .0299144
676.995 .0298965
677.740 .0298788
678.484 .0298613
679.229 .0298439
679.973 .0298267
680.717 .0298096
681.460 .0297926
682.204 .0297758
682.947 .0297589
683.690 .0297420
684.433 .0297251
685.175 .0297081
685.917 .0296910
686.659 .0296739
687.401 .0296568
688.142 .0296398
688.884 .0296228
689.625 .0296059
690.365 .0295891
691.106 .0295723
691.846 .0295555
692.586 .0295386
693.326 .0295217
694.066 .0295047
694.805 .0294876
695.545 .0294704
696.284 .0294532
697.022 .0294359
697.761 .0294187
698.499 .0294014
699.237 .0293842
699.975 .0293671
700.713 .0293502
701.450 .0293334
702.187 .0293167
702.924 .0293000
703.661 .0292834
704.397 .0292667
705.133 .0292499
705.869 .0292329
706.605 .0292158
707.341 .0291986
708.076 .0291813
708.811 .0291640
709.546 .0291468
710.281 .0291296
711.015 .0291124
711.749 .0290952
712.483 .0290780
713.217 .0290605
713.950 .0290428
714.684 .0290249
715.417 .0290067
716.150 .0289882
716.882 .0289695
717.615 .0289505
718.347 .0289313
719.079 .0289119
719.811 .0288925
720.542 .0288730
721.273 .0288534
722.005 .0288339
722.735 .0288145
723.466 .0287953
724.196 .0287761
724.927 .0287571
725.656 .0287384
726.386 .0287198
727.116 .0287015
727.845 .0286836
728.574 .0286662
729.303 .0286493
730.031 .0286332
730.760 .0286177
731.488 .0286029
732.216 .0285887
732.944 .0285751
733.671 .0285619
734.398 .0285491
735.125 .0285367
735.852 .0285245
736.579 .0285126
737.305 .0285009
738.031 .0284896
738.757 .0284785
739.483 .0284677
740.208 .0284572
740.933 .0284468
741.658 .0284365
742.383 .0284263
743.108 .0284161
743.832 .0284058
744.556 .0283954
745.280 .0283849
746.004 .0283742
746.727 .0283634
747.450 .0283524
748.173 .0283413
748.896 .0283301
749.618 .0283188
750.340 .0283075
751.062 .0282961
751.784 .0282847
752.506 .0282731
753.227 .0282613
753.948 .0282494
754.669 .0282373
755.389 .0282250
756.110 .0282125
756.830 .0281999
757.550 .0281872
758.269 .0281745
758.989 .0281617
759.708 .0281489
760.427 .0281361
761.146 .0281231
761.864 .0281099
762.582 .0280965
763.300 .0280828
764.018 .0280688
764.736 .0280545
765.453 .0280400
766.170 .0280253
766.887 .0280106
767.603 .0279959
768.320 .0279814
769.036 .0279670
769.751 .0279528
770.467 .0279389
771.182 .0279252
771.897 .0279118
772.612 .0278986
773.327 .0278858
774.041 .0278731
774.755 .0278608
775.469 .0278487
776.183 .0278369
776.896 .0278255
777.609 .0278145
778.322 .0278040
779.035 .0277939
779.747 .0277843
780.459 .0277751
781.171 .0277664
781.882 .0277580
782.594 .0277500
783.305 .0277423
784.016 .0277349
784.726 .0277276
785.436 .0277206
786.147 .0277105
786.856 .0277035
787.566 .0276966
788.275 .0276896
788.984 .0276826
789.693 .0276754
790.401 .0276680
791.110 .0276604
791.818 .0276524
792.525 .0276441
793.233 .0276353
793.940 .0276261
794.647 .0276201
795.353 .0276101
796.060 .0275996
796.766 .0275885
797.472 .0275771
798.177 .0275652
798.883 .0275529
799.588 .0275402
800.292 .0275270
800.997 .0275135
801.701 .0274997
802.405 .0274855
803.109 .0274711
803.812 .0274564
804.515 .0274417
805.218 .0274268
805.921 .0274118
806.623 .0273969
807.325 .0273821
808.027 .0273673
808.728 .0273527
809.429 .0273382
810.130 .0273238
810.831 .0273097
811.531 .0272958
812.231 .0272821
812.931 .0272687
813.630 .0272555
814.330 .0272426
815.029 .0272300
815.727 .0272177
816.426 .0272057
817.124 .0271941
817.821 .0271829
818.519 .0271720
819.216 .0271614
819.913 .0271512
820.609 .0271413
821.306 .0271318
822.002 .0271227
822.697 .0271140
823.393 .0271058
824.088 .0270980
824.783 .0270906
825.477 .0270837
826.171 .0270771
826.865 .0270709
827.559 .0270650
828.252 .0270595
828.945 .0270543
829.638 .0270496
830.330 .0270452
831.023 .0270411
831.714 .0270375
832.406 .0270341
833.097 .0270310
833.788 .0270281
834.479 .0270254
835.169 .0270229
835.859 .0270207
836.548 .0270186
837.238 .0270168
837.927 .0270151
838.615 .0270135
839.304 .0270119
839.992 .0270101
840.680 .0270080
841.367 .0270057
842.054 .0270030
842.741 .0269999
843.428 .0269964
844.114 .0269926
844.800 .0269884
845.485 .0269838
846.170 .0269787
846.855 .0269732
847.540 .0269671
848.224 .0269604
848.908 .0269531
849.592 .0269451
850.275 .0269365
850.958 .0269273
851.641 .0269176
852.323 .0269072
853.005 .0268964
853.687 .0268849
854.368 .0268730
855.049 .0268604
855.730 .0268473
856.410 .0268337
857.090 .0268196
857.769 .0268050
858.449 .0267900
859.128 .0267747
859.806 .0267590
860.485 .0267431
861.163 .0267269
861.840 .0267105
862.518 .0266939
863.195 .0266771
863.871 .0266602
864.548 .0266432
865.224 .0266262
865.899 .0266091
866.574 .0265920
867.249 .0265749
867.924 .0265578
868.598 .0265409
869.272 .0265241
869.946 .0265074
870.619 .0264908
871.292 .0264744
871.964 .0264582
872.636 .0264422
873.308 .0264266
873.979 .0264112
874.651 .0263962
875.321 .0263816
875.992 .0263675
876.662 .0263538
877.331 .0263406
878.001 .0263278
878.670 .0263156
879.338 .0263038
880.007 .0262925
880.675 .0262818
881.342 .0262716
882.009 .0262621
882.676 .0262532
883.343 .0262449
884.009 .0262373
884.675 .0262302
885.340 .0262237
886.005 .0262176
886.670 .0262119
887.334 .0262065
887.998 .0262015
888.662 .0261968
889.325 .0261923
889.988 .0261882
890.650 .0261843
891.312 .0261805
891.974 .0261770
892.636 .0261734
893.297 .0261697
893.957 .0261658
894.618 .0261617
895.278 .0261572
895.937 .0261522
896.596 .0261467
897.255 .0261406
897.914 .0261339
898.572 .0261266
899.230 .0261185
899.887 .0261096
900.544 .0261000
901.201 .0260895
901.857 .0260702
902.513 .0260578
903.168 .0260446
903.823 .0260308
904.478 .0260163
905.132 .0260012
905.786 .0259856
906.440 .0259695
907.093 .0259528
907.746 .0259358
908.399 .0259184
909.051 .0259009
909.703 .0258832
910.354 .0258747
911.005 .0258573
911.656 .0258400
912.306 .0258230
912.956 .0258061
913.605 .0257896
914.254 .0257733
914.903 .0257573
915.551 .0257415
916.199 .0257261
916.847 .0257109
917.494 .0256959
918.141 .0256812
918.788 .0256668
919.434 .0256527
920.079 .0256389
920.725 .0256252
921.370 .0256117
922.014 .0255983
922.658 .0255849
923.302 .0255716
923.946 .0255584
924.589 .0255451
925.231 .0255319
925.873 .0255188
926.515 .0255058
927.157 .0254928
927.798 .0254800
928.439 .0254674
929.079 .0254549
929.719 .0254427
930.359 .0254307
930.998 .0254191
931.637 .0254078
932.275 .0253970
932.913 .0253867
933.551 .0253768
934.188 .0253675
934.825 .0253588
935.462 .0253506
936.098 .0253430
936.733 .0253359
937.369 .0253293
938.004 .0253232
938.638 .0253176
939.273 .0253126
939.907 .0253081
940.540 .0253040
941.173 .0253005
941.806 .0252973
942.438 .0252945
943.070 .0252919
943.702 .0252896
944.333 .0252872
944.964 .0252849
945.594 .0252825
946.224 .0252800
946.854 .0252772
947.483 .0252743
948.112 .0252710
948.741 .0252676
949.369 .0252639
949.996 .0252599
950.624 .0252557
951.251 .0252512
951.878 .0252463
952.504 .0252412
953.130 .0252358
953.755 .0252301
954.380 .0252242
955.005 .0252182
955.629 .0252121
956.253 .0252060
956.877 .0252000
957.500 .0251941
958.123 .0251882
958.746 .0251825
959.368 .0251770
959.990 .0251717
960.611 .0251665
961.232 .0251616
961.853 .0251570
962.473 .0251526
963.093 .0251485
963.712 .0251446
964.331 .0251410
964.950 .0251374
965.569 .0251339
966.187 .0251305
966.804 .0251271
967.422 .0251236
968.039 .0251200
968.655 .0251165
969.272 .0251129
969.887 .0251093
970.503 .0251057
971.118 .0251020
971.733 .0250981
972.347 .0250939
972.961 .0250894
973.575 .0250846
974.188 .0250793
974.801 .0250737
975.414 .0250676
976.026 .0250610
976.638 .0250541
977.250 .0250467
977.861 .0250389
978.472 .0250307
979.083 .0250221
979.693 .0250130
980.303 .0250035
980.912 .0249882
981.521 .0249782
982.130 .0249680
982.738 .0249577
983.346 .0249475
983.954 .0249374
984.562 .0249274
985.169 .0249175
985.775 .0249079
986.382 .0248985
986.988 .0248895
987.594 .0248808
988.199 .0248725
988.804 .0248646
989.409 .0248620
990.013 .0248546
990.617 .0248475
991.221 .0248406
991.824 .0248339
992.427 .0248275
993.030 .0248211
993.632 .0248149
994.234 .0248088
994.836 .0248027
995.438 .0247968
996.039 .0247909
996.640 .0247850
997.240 .0247793
997.840 .0247736
998.440 .0247680
999.040 .0247624
999.639 .0247569
1000.238 .0247513
1000.836 .0247458
1001.435 .0247402
1002.033 .0247347
1002.630 .0247290
1003.228 .0247233
1003.825 .0247174
1004.422 .0247114
1005.018 .0247051
1005.614 .0246985
1006.210 .0246916
1006.806 .0246845
1007.401 .0246771
1007.996 .0246695
1008.591 .0246616
1009.186 .0246536
1009.780 .0246456
1010.374 .0246375
1010.967 .0246294
1011.561 .0246214
1012.154 .0246135
1012.746 .0246056
1013.339 .0245978
1013.931 .0245901
1014.523 .0245825
1015.115 .0245750
1015.706 .0245677
1016.298 .0245607
1016.888 .0245540
1017.479 .0245477
1018.069 .0245417
1018.660 .0245361
1019.250 .0245308
1019.839 .0245259
1020.429 .0245212
1021.018 .0245167
1021.607 .0245125
1022.195 .0245087
1022.784 .0245051
1023.372 .0245020
1023.960 .0244993
1024.547 .0244971
1025.135 .0244953
1025.722 .0244940
1026.309 .0244931
1026.896 .0244925
1027.483 .0244923
1028.069 .0244923
1028.655 .0244925
1029.241 .0244929
1029.827 .0244934
1030.412 .0244941
1030.997 .0244949
1031.582 .0244959
1032.167 .0244968
1032.752 .0244978
1033.336 .0244988
1033.921 .0244997
1034.505 .0245005
1035.089 .0245011
1035.672 .0245015
1036.256 .0245017
1036.839 .0245015
1037.422 .0245010
1038.005 .0245001
1038.588 .0244988
1039.171 .0244972
1039.753 .0244953
1040.335 .0244932
1040.918 .0244909
1041.500 .0244885
1042.081 .0244861
1042.663 .0244838
1043.244 .0244815
1043.826 .0244792
1044.407 .0244771
1044.988 .0244750
1045.569 .0244729
1046.150 .0244710
1046.730 .0244693
1047.311 .0244677
1047.891 .0244662
1048.471 .0244649
1049.052 .0244637
1049.632 .0244626
1050.211 .0244615
1050.791 .0244601
1051.371 .0244586
1051.950 .0244568
1052.530 .0244548
1053.109 .0244526
1053.688 .0244503
1054.268 .0244482
1054.847 .0244463
1055.426 .0244447
1056.005 .0244435
1056.583 .0244428
1057.162 .0244426
1057.741 .0244427
1058.319 .0244433
1058.898 .0244441
1059.476 .0244453
1060.055 .0244468
1060.633 .0244486
1061.211 .0244507
1061.790 .0244532
1062.368 .0244561
1062.946 .0244596
1063.524 .0244635
1064.102 .0244681
1064.680 .0244731
1065.258 .0244788
1065.836 .0244849
1066.414 .0244915
1066.992 .0244985
1067.570 .0245060
1068.148 .0245139
1068.726 .0245224
1069.304 .0245315
1069.882 .0245413
1070.460 .0245520
1071.038 .0245635
1071.616 .0245758
1072.194 .0245887
1072.772 .0246022
1073.350 .0246159
1073.928 .0246296
1074.506 .0246431
1075.084 .0246563
1075.662 .0246693
1076.240 .0246820
1076.819 .0246946
1077.397 .0247073
1077.976 .0247200
1078.554 .0247327
1079.133 .0247455
1079.711 .0247579
1080.290 .0247698
1080.869 .0247812
1081.448 .0247917
1082.027 .0248016
1082.606 .0248110
1083.185 .0248200
1083.764 .0248289
1084.343 .0248378
1084.923 .0248470
1085.502 .0248562
1086.082 .0248656
1086.662 .0248749
1087.242 .0248842
1087.822 .0248933
1088.402 .0249023
1088.983 .0249114
1089.563 .0249208
1090.144 .0249308
1090.725 .0249416
1091.306 .0249534
1091.887 .0249659
1092.469 .0249792
1093.050 .0249930
1093.632 .0250073
1094.214 .0250220
1094.796 .0250370
1095.379 .0250523
1095.961 .0250681
1096.544 .0250844
1097.127 .0251015
1097.710 .0251195
1098.294 .0251383
1098.877 .0251581
1099.461 .0251785
1100.046 .0251997
1100.630 .0252214
1101.215 .0252437
1101.800 .0252666
1102.385 .0252901
1102.970 .0253144
1103.556 .0253394
1104.142 .0253654
1104.728 .0253922
1105.315 .0254198
1105.902 .0254482
1106.489 .0254773
1107.077 .0255069
1107.664 .0255370
1108.253 .0255676
1108.841 .0255990
1109.430 .0256312
1110.019 .0256642
1110.609 .0256981
1111.198 .0257329
1111.789 .0257688
1112.379 .0258055
1112.970 .0258432
1113.561 .0258819
1114.153 .0259215
1114.745 .0259622
1115.338 .0260040
1115.931 .0260469
1116.524 .0260912
1117.117 .0261366
1117.712 .0261833
1118.306 .0262311
1118.901 .0262797
1119.496 .0263290
1120.092 .0263790
1120.689 .0264294
1121.285 .0264801
1121.882 .0265310
1122.480 .0265822
1123.078 .0266338
1123.677 .0266860
1124.276 .0267389
1124.875 .0267926
1125.476 .0268475
1126.076 .0269035
1126.677 .0269609
1127.279 .0270201
1127.881 .0270811
1128.484 .0271444
1129.087 .0271724
1129.691 .0272387
1130.295 .0273079
1130.900 .0273804
1131.505 .0274567
1132.111 .0275371
1132.718 .0276222
1133.325 .0277126
1133.933 .0278081
1134.541 .0279067
1135.150 .0280141
1135.760 .0281327
1136.370 .0282559
1136.981 .0281418
1137.592 .0282666
1138.204 .0283990
1138.817 .0285447
1139.431 .0287016
1140.045 .0288721
1140.660 .0290584
1141.275 .0292602
1141.891 .0294620
1142.508 .0296045
1143.126 .0299109
1143.744 .0302813
1144.363 .0304629
1144.983 .0302782
