Measurement Sequence started on: 15-12-46-377
Integration time: 28
Scans to Average: 2 
>>>>>Begin Spectral Data<<<<<
432.689 .0000100
433.621 .0000100
434.552 .0000100
435.482 .0000100
436.410 .0000100
437.337 .0000100
438.262 .0287058
439.187 .0607741
440.110 .1006488
441.031 .1455898
441.952 .1164367
442.871 .1216051
443.789 .1264282
444.705 .1309787
445.621 .1353052
446.535 .1394457
447.447 .1419158
448.359 .1425577
449.269 .1409784
450.178 .1369253
451.086 .1304814
451.993 .1221484
452.898 .1127539
453.803 .1032373
454.706 .0943952
455.608 .0867197
456.508 .0803719
457.408 .0760854
458.306 .0727868
459.204 .0700902
460.100 .0678008
460.995 .0658108
461.888 .0640501
462.781 .0624735
463.673 .0610468
464.563 .0597483
465.452 .0585620
466.340 .0574740
467.228 .0564737
468.114 .0555535
468.999 .0547062
469.882 .0539257
470.765 .0532061
471.647 .0525435
472.528 .0519345
473.407 .0513766
474.286 .0508681
475.163 .0504079
476.040 .0499949
476.915 .0496282
477.790 .0493056
478.663 .0490258
479.535 .0487864
480.407 .0485855
481.277 .0484196
482.147 .0482854
483.015 .0481793
483.883 .0480980
484.749 .0480386
485.615 .0479987
486.479 .0479769
487.343 .0479729
488.206 .0479875
489.067 .0480213
489.928 .0480757
490.788 .0481525
491.647 .0482522
492.505 .0483759
493.362 .0485232
494.218 .0486930
495.073 .0488837
495.928 .0492460
496.781 .0494855
497.634 .0497448
498.486 .0500255
499.337 .0503301
500.187 .0506614
501.036 .0510231
501.884 .0514186
502.731 .0518509
503.578 .0523237
504.424 .0526369
505.268 .0531800
506.113 .0537699
506.956 .0544102
507.798 .0551060
508.640 .0558651
509.480 .0566977
510.320 .0576170
511.160 .0586392
511.998 .0597841
512.836 .0610725
513.672 .0625257
514.508 .0641665
515.344 .0660164
516.178 .0680957
517.012 .0704265
517.845 .0730295
518.677 .0759250
519.508 .0791303
520.339 .0826588
521.169 .0865163
521.998 .0906819
522.826 .0951235
523.654 .0997864
524.481 .1045998
525.307 .1094749
526.133 .1143081
526.958 .1189940
527.782 .1234289
528.605 .1275176
529.428 .1311768
530.250 .1343368
531.072 .1369547
531.892 .1389932
532.712 .1404347
533.532 .1412704
534.350 .1415007
535.168 .1411312
535.986 .1401674
536.802 .1386146
537.618 .1364789
538.434 .1337697
539.249 .1305241
540.063 .1267889
540.876 .1226301
541.689 .1181275
542.501 .1133770
543.313 .1084846
544.124 .1035553
544.934 .0986876
545.744 .0939682
546.553 .0894681
547.361 .0852426
548.169 .0813176
548.976 .0777117
549.783 .0744255
550.589 .0714489
551.395 .0687603
552.200 .0663337
553.004 .0641425
553.808 .0621623
554.611 .0603710
555.414 .0587495
556.216 .0572780
557.018 .0559383
557.819 .0547149
558.619 .0535940
559.419 .0525620
560.218 .0516079
561.017 .0507212
561.815 .0498943
562.613 .0491198
563.410 .0483916
564.207 .0477028
565.003 .0470486
565.799 .0464240
566.594 .0458232
567.388 .0452427
568.182 .0446801
568.976 .0441331
569.769 .0435998
570.562 .0430795
571.354 .0425724
572.145 .0420790
572.936 .0416002
573.727 .0411361
574.517 .0406868
575.307 .0402524
576.096 .0398320
576.885 .0394253
577.673 .0390326
578.461 .0386542
579.248 .0382904
580.035 .0379421
580.821 .0376103
581.607 .0372960
582.392 .0369999
583.177 .0367228
583.962 .0364646
584.746 .0362247
585.529 .0360021
586.313 .0357960
587.095 .0356051
587.878 .0354287
588.660 .0352655
589.441 .0351149
590.222 .0349762
591.003 .0348488
591.783 .0347321
592.563 .0346256
593.342 .0345285
594.121 .0344399
594.899 .0343586
595.678 .0342835
596.455 .0342134
597.233 .0341473
598.009 .0340843
598.786 .0340238
599.562 .0339651
600.338 .0339079
601.113 .0338523
601.888 .0337733
602.663 .0337209
603.437 .0336698
604.211 .0336201
604.984 .0335717
605.757 .0335244
606.530 .0334781
607.302 .0334328
608.074 .0333885
608.845 .0333453
609.616 .0333034
610.387 .0332859
611.158 .0332465
611.928 .0332089
612.697 .0331731
613.467 .0331393
614.236 .0331073
615.004 .0330771
615.773 .0330484
616.541 .0330212
617.308 .0329954
618.076 .0329709
618.843 .0329477
619.609 .0329258
620.375 .0329052
621.141 .0328857
621.907 .0328670
622.672 .0328491
623.437 .0328315
624.202 .0328141
624.966 .0327965
625.730 .0327785
626.493 .0327598
627.257 .0327403
628.020 .0327198
628.782 .0326982
629.545 .0326754
630.307 .0326513
631.068 .0326260
631.830 .0325993
632.591 .0325713
633.352 .0325421
634.112 .0325117
634.872 .0324801
635.632 .0324475
636.392 .0324137
637.151 .0323791
637.910 .0323436
638.668 .0323074
639.427 .0322708
640.185 .0322339
640.943 .0321971
641.700 .0321604
642.457 .0321241
643.214 .0320882
643.971 .0320528
644.727 .0320178
645.483 .0319833
646.239 .0319491
646.994 .0319152
647.750 .0318814
648.505 .0318478
649.259 .0318143
650.014 .0317810
650.768 .0317479
651.521 .0317151
652.275 .0316826
653.028 .0316503
653.781 .0316182
654.534 .0315863
655.286 .0315545
656.039 .0315227
656.791 .0314908
657.542 .0314589
658.294 .0314268
659.045 .0313947
659.796 .0313627
660.546 .0313308
661.297 .0312992
662.047 .0312680
662.796 .0312374
663.546 .0312073
664.295 .0311778
665.044 .0311490
665.793 .0311209
666.542 .0310936
667.290 .0310671
668.038 .0310415
668.786 .0310168
669.533 .0309932
670.281 .0309706
671.028 .0309490
671.774 .0309285
672.521 .0309088
673.267 .0308899
674.013 .0308717
674.759 .0308539
675.505 .0308367
676.250 .0308199
676.995 .0308034
677.740 .0307874
678.484 .0307717
679.229 .0307563
679.973 .0307412
680.717 .0307264
681.460 .0307116
682.204 .0306969
682.947 .0306821
683.690 .0306672
684.433 .0306520
685.175 .0306367
685.917 .0306211
686.659 .0306054
687.401 .0305895
688.142 .0305734
688.884 .0305573
689.625 .0305410
690.365 .0305246
691.106 .0305082
691.846 .0304917
692.586 .0304750
693.326 .0304582
694.066 .0304412
694.805 .0304241
695.545 .0304069
696.284 .0303897
697.022 .0303725
697.761 .0303553
698.499 .0303383
699.237 .0303215
699.975 .0303048
700.713 .0302882
701.450 .0302717
702.187 .0302551
702.924 .0302385
703.661 .0302216
704.397 .0302045
705.133 .0301872
705.869 .0301696
706.605 .0301518
707.341 .0301337
708.076 .0301154
708.811 .0300969
709.546 .0300781
710.281 .0300591
711.015 .0300397
711.749 .0300199
712.483 .0299996
713.217 .0299788
713.950 .0299574
714.684 .0299356
715.417 .0299132
716.150 .0298905
716.882 .0298673
717.615 .0298438
718.347 .0298199
719.079 .0297955
719.811 .0297708
720.542 .0297457
721.273 .0297201
722.005 .0296942
722.735 .0296681
723.466 .0296418
724.196 .0296153
724.927 .0295890
725.656 .0295627
726.386 .0295367
727.116 .0295110
727.845 .0294857
728.574 .0294608
729.303 .0294364
730.031 .0294126
730.760 .0293893
731.488 .0293667
732.216 .0293447
732.944 .0293232
733.671 .0293024
734.398 .0292820
735.125 .0292622
735.852 .0292430
736.579 .0292243
737.305 .0292061
738.031 .0291885
738.757 .0291712
739.483 .0291543
740.208 .0291377
740.933 .0291213
741.658 .0291051
742.383 .0290890
743.108 .0290729
743.832 .0290569
744.556 .0290409
745.280 .0290250
746.004 .0290092
746.727 .0289936
747.450 .0289780
748.173 .0289626
748.896 .0289472
749.618 .0289321
750.340 .0289171
751.062 .0289023
751.784 .0288877
752.506 .0288733
753.227 .0288591
753.948 .0288452
754.669 .0288314
755.389 .0288179
756.110 .0288047
756.830 .0287916
757.550 .0287787
758.269 .0287661
758.989 .0287536
759.708 .0287412
760.427 .0287289
761.146 .0287166
761.864 .0287043
762.582 .0286919
763.300 .0286795
764.018 .0286671
764.736 .0286547
765.453 .0286424
766.170 .0286302
766.887 .0286180
767.603 .0286061
768.320 .0285944
769.036 .0285831
769.751 .0285721
770.467 .0285615
771.182 .0285515
771.897 .0285420
772.612 .0285331
773.327 .0285248
774.041 .0285172
774.755 .0285102
775.469 .0285039
776.183 .0284983
776.896 .0284934
777.609 .0284893
778.322 .0284860
779.035 .0284834
779.747 .0284815
780.459 .0284803
781.171 .0284795
781.882 .0284792
782.594 .0284793
783.305 .0284796
784.016 .0284802
784.726 .0284809
785.436 .0284817
786.147 .0284829
786.856 .0284837
787.566 .0284843
788.275 .0284846
788.984 .0284847
789.693 .0284843
790.401 .0284834
791.110 .0284819
791.818 .0284798
792.525 .0284771
793.233 .0284737
793.940 .0284696
794.647 .0284655
795.353 .0284603
796.060 .0284543
796.766 .0284477
797.472 .0284403
798.177 .0284322
798.883 .0284233
799.588 .0284136
800.292 .0284031
800.997 .0283919
801.701 .0283800
802.405 .0283673
803.109 .0283540
803.812 .0283399
804.515 .0283250
805.218 .0283095
805.921 .0282933
806.623 .0282763
807.325 .0282587
808.027 .0282405
808.728 .0282216
809.429 .0282023
810.130 .0281825
810.831 .0281622
811.531 .0281416
812.231 .0281206
812.931 .0280991
813.630 .0280773
814.330 .0280551
815.029 .0280326
815.727 .0280099
816.426 .0279870
817.124 .0279641
817.821 .0279411
818.519 .0279183
819.216 .0278955
819.913 .0278730
820.609 .0278506
821.306 .0278284
822.002 .0278065
822.697 .0277850
823.393 .0277637
824.088 .0277430
824.783 .0277228
825.477 .0277031
826.171 .0276841
826.865 .0276658
827.559 .0276481
828.252 .0276310
828.945 .0276145
829.638 .0275987
830.330 .0275834
831.023 .0275687
831.714 .0275545
832.406 .0275407
833.097 .0275272
833.788 .0275140
834.479 .0275009
835.169 .0274879
835.859 .0274749
836.548 .0274619
837.238 .0274488
837.927 .0274356
838.615 .0274224
839.304 .0274089
839.992 .0273954
840.680 .0273816
841.367 .0273675
842.054 .0273532
842.741 .0273387
843.428 .0273238
844.114 .0273087
844.800 .0272934
845.485 .0272779
846.170 .0272622
846.855 .0272463
847.540 .0272302
848.224 .0272139
848.908 .0271976
849.592 .0271812
850.275 .0271649
850.958 .0271485
851.641 .0271322
852.323 .0271160
853.005 .0270998
853.687 .0270837
854.368 .0270675
855.049 .0270514
855.730 .0270354
856.410 .0270194
857.090 .0270036
857.769 .0269879
858.449 .0269725
859.128 .0269573
859.806 .0269424
860.485 .0269276
861.163 .0269131
861.840 .0268988
862.518 .0268848
863.195 .0268710
863.871 .0268576
864.548 .0268445
865.224 .0268319
865.899 .0268197
866.574 .0268079
867.249 .0267965
867.924 .0267855
868.598 .0267751
869.272 .0267651
869.946 .0267558
870.619 .0267471
871.292 .0267390
871.964 .0267316
872.636 .0267250
873.308 .0267191
873.979 .0267139
874.651 .0267094
875.321 .0267057
875.992 .0267027
876.662 .0267004
877.331 .0266990
878.001 .0266982
878.670 .0266982
879.338 .0266988
880.007 .0267001
880.675 .0267020
881.342 .0267046
882.009 .0267077
882.676 .0267115
883.343 .0267160
884.009 .0267210
884.675 .0267266
885.340 .0267327
886.005 .0267394
886.670 .0267465
887.334 .0267541
887.998 .0267622
888.662 .0267707
889.325 .0267797
889.988 .0267892
890.650 .0267991
891.312 .0268093
891.974 .0268198
892.636 .0268305
893.297 .0268413
893.957 .0268521
894.618 .0268629
895.278 .0268734
895.937 .0268836
896.596 .0268934
897.255 .0269026
897.914 .0269112
898.572 .0269190
899.230 .0269259
899.887 .0269318
900.544 .0269368
901.201 .0269408
901.857 .0269418
902.513 .0269429
903.168 .0269429
903.823 .0269417
904.478 .0269392
905.132 .0269354
905.786 .0269303
906.440 .0269239
907.093 .0269163
907.746 .0269076
908.399 .0268979
909.051 .0268872
909.703 .0268757
910.354 .0268680
911.005 .0268557
911.656 .0268426
912.306 .0268291
912.956 .0268150
913.605 .0268006
914.254 .0267859
914.903 .0267710
915.551 .0267559
916.199 .0267406
916.847 .0267252
917.494 .0267095
918.141 .0266935
918.788 .0266773
919.434 .0266607
920.079 .0266439
920.725 .0266267
921.370 .0266092
922.014 .0265914
922.658 .0265732
923.302 .0265546
923.946 .0265354
924.589 .0265158
925.231 .0264955
925.873 .0264747
926.515 .0264533
927.157 .0264315
927.798 .0264093
928.439 .0263867
929.079 .0263640
929.719 .0263409
930.359 .0263177
930.998 .0262943
931.637 .0262707
932.275 .0262470
932.913 .0262231
933.551 .0261993
934.188 .0261755
934.825 .0261520
935.462 .0261287
936.098 .0261058
936.733 .0260833
937.369 .0260612
938.004 .0260396
938.638 .0260184
939.273 .0259978
939.907 .0259776
940.540 .0259581
941.173 .0259390
941.806 .0259205
942.438 .0259024
943.070 .0258848
943.702 .0258676
944.333 .0258506
944.964 .0258339
945.594 .0258173
946.224 .0258007
946.854 .0257842
947.483 .0257677
948.112 .0257511
948.741 .0257344
949.369 .0257175
949.996 .0257005
950.624 .0256833
951.251 .0256658
951.878 .0256480
952.504 .0256299
953.130 .0256115
953.755 .0255928
954.380 .0255739
955.005 .0255546
955.629 .0255350
956.253 .0255151
956.877 .0254948
957.500 .0254743
958.123 .0254536
958.746 .0254325
959.368 .0254113
959.990 .0253899
960.611 .0253685
961.232 .0253469
961.853 .0253253
962.473 .0253036
963.093 .0252820
963.712 .0252603
964.331 .0252386
964.950 .0252169
965.569 .0251953
966.187 .0251737
966.804 .0251522
967.422 .0251308
968.039 .0251095
968.655 .0250883
969.272 .0250672
969.887 .0250462
970.503 .0250254
971.118 .0250047
971.733 .0249840
972.347 .0249635
972.961 .0249430
973.575 .0249227
974.188 .0249026
974.801 .0248826
975.414 .0248628
976.026 .0248433
976.638 .0248239
977.250 .0248048
977.861 .0247860
978.472 .0247673
979.083 .0247488
979.693 .0247305
980.303 .0247124
980.912 .0246862
981.521 .0246688
982.130 .0246516
982.738 .0246349
983.346 .0246185
983.954 .0246026
984.562 .0245872
985.169 .0245723
985.775 .0245580
986.382 .0245442
986.988 .0245311
987.594 .0245188
988.199 .0245071
988.804 .0244963
989.409 .0244932
990.013 .0244837
990.617 .0244750
991.221 .0244671
991.824 .0244601
992.427 .0244539
993.030 .0244484
993.632 .0244435
994.234 .0244392
994.836 .0244354
995.438 .0244321
996.039 .0244292
996.640 .0244267
997.240 .0244247
997.840 .0244231
998.440 .0244219
999.040 .0244212
999.639 .0244208
1000.238 .0244210
1000.836 .0244216
1001.435 .0244226
1002.033 .0244242
1002.630 .0244263
1003.228 .0244289
1003.825 .0244321
1004.422 .0244358
1005.018 .0244402
1005.614 .0244451
1006.210 .0244507
1006.806 .0244569
1007.401 .0244637
1007.996 .0244710
1008.591 .0244789
1009.186 .0244873
1009.780 .0244962
1010.374 .0245056
1010.967 .0245155
1011.561 .0245259
1012.154 .0245368
1012.746 .0245483
1013.339 .0245604
1013.931 .0245731
1014.523 .0245865
1015.115 .0246005
1015.706 .0246152
1016.298 .0246305
1016.888 .0246463
1017.479 .0246626
1018.069 .0246794
1018.660 .0246967
1019.250 .0247142
1019.839 .0247322
1020.429 .0247504
1021.018 .0247689
1021.607 .0247877
1022.195 .0248067
1022.784 .0248258
1023.372 .0248451
1023.960 .0248644
1024.547 .0248838
1025.135 .0249032
1025.722 .0249225
1026.309 .0249419
1026.896 .0249612
1027.483 .0249806
1028.069 .0249999
1028.655 .0250191
1029.241 .0250383
1029.827 .0250575
1030.412 .0250766
1030.997 .0250957
1031.582 .0251147
1032.167 .0251337
1032.752 .0251526
1033.336 .0251716
1033.921 .0251905
1034.505 .0252094
1035.089 .0252283
1035.672 .0252471
1036.256 .0252658
1036.839 .0252843
1037.422 .0253027
1038.005 .0253209
1038.588 .0253388
1039.171 .0253564
1039.753 .0253737
1040.335 .0253905
1040.918 .0254070
1041.500 .0254230
1042.081 .0254384
1042.663 .0254533
1043.244 .0254677
1043.826 .0254817
1044.407 .0254952
1044.988 .0255084
1045.569 .0255213
1046.150 .0255341
1046.730 .0255466
1047.311 .0255590
1047.891 .0255713
1048.471 .0255833
1049.052 .0255952
1049.632 .0256069
1050.211 .0256183
1050.791 .0256294
1051.371 .0256403
1051.950 .0256510
1052.530 .0256613
1053.109 .0256713
1053.688 .0256810
1054.268 .0256904
1054.847 .0256993
1055.426 .0257079
1056.005 .0257160
1056.583 .0257239
1057.162 .0257315
1057.741 .0257389
1058.319 .0257461
1058.898 .0257533
1059.476 .0257605
1060.055 .0257677
1060.633 .0257749
1061.211 .0257821
1061.790 .0257893
1062.368 .0257964
1062.946 .0258035
1063.524 .0258105
1064.102 .0258174
1064.680 .0258243
1065.258 .0258310
1065.836 .0258377
1066.414 .0258443
1066.992 .0258508
1067.570 .0258574
1068.148 .0258640
1068.726 .0258707
1069.304 .0258776
1069.882 .0258847
1070.460 .0258920
1071.038 .0258995
1071.616 .0259073
1072.194 .0259154
1072.772 .0259236
1073.350 .0259319
1073.928 .0259403
1074.506 .0259486
1075.084 .0259567
1075.662 .0259648
1076.240 .0259727
1076.819 .0259804
1077.397 .0259878
1077.976 .0259950
1078.554 .0260019
1079.133 .0260085
1079.711 .0260147
1080.290 .0260205
1080.869 .0260259
1081.448 .0260308
1082.027 .0260351
1082.606 .0260390
1083.185 .0260422
1083.764 .0260449
1084.343 .0260469
1084.923 .0260482
1085.502 .0260488
1086.082 .0260488
1086.662 .0260482
1087.242 .0260471
1087.822 .0260457
1088.402 .0260441
1088.983 .0260424
1089.563 .0260407
1090.144 .0260391
1090.725 .0260376
1091.306 .0260362
1091.887 .0260351
1092.469 .0260341
1093.050 .0260335
1093.632 .0260334
1094.214 .0260339
1094.796 .0260352
1095.379 .0260372
1095.961 .0260401
1096.544 .0260436
1097.127 .0260478
1097.710 .0260525
1098.294 .0260574
1098.877 .0260627
1099.461 .0260683
1100.046 .0260745
1100.630 .0260813
1101.215 .0260890
1101.800 .0260979
1102.385 .0261081
1102.970 .0261196
1103.556 .0261322
1104.142 .0261458
1104.728 .0261603
1105.315 .0261755
1105.902 .0261912
1106.489 .0262075
1107.077 .0262246
1107.664 .0262426
1108.253 .0262614
1108.841 .0262812
1109.430 .0263019
1110.019 .0263230
1110.609 .0263443
1111.198 .0263654
1111.789 .0263863
1112.379 .0264066
1112.970 .0264266
1113.561 .0264465
1114.153 .0264665
1114.745 .0264872
1115.338 .0265089
1115.931 .0265316
1116.524 .0265555
1117.117 .0265801
1117.712 .0266053
1118.306 .0266310
1118.901 .0266568
1119.496 .0266826
1120.092 .0267087
1120.689 .0267352
1121.285 .0267622
1121.882 .0267902
1122.480 .0268196
1123.078 .0268507
1123.677 .0268834
1124.276 .0269179
1124.875 .0269540
1125.476 .0269918
1126.076 .0270314
1126.677 .0270728
1127.279 .0271165
1127.881 .0271629
1128.484 .0272121
1129.087 .0272299
1129.691 .0272840
1130.295 .0273415
1130.900 .0274024
1131.505 .0274663
1132.111 .0275330
1132.718 .0276025
1133.325 .0276750
1133.933 .0277498
1134.541 .0278210
1135.150 .0279061
1135.760 .0279963
1136.370 .0280884
1136.981 .0281315
1137.592 .0282329
1138.204 .0283390
1138.817 .0284462
1139.431 .0285474
1140.045 .0286553
1140.660 .0287666
1141.275 .0288826
1141.891 .0289836
1142.508 .0289113
1143.126 .0293333
1143.744 .0295081
1144.363 .0295883
1144.983 .0291053
