Measurement Sequence started on: 15-12-46-377
Integration time: 28
Scans to Average: 2 
>>>>>Begin Spectral Data<<<<<
432.689 .0000100
433.621 .0000100
434.552 .0000100
435.482 .0000100
436.410 .0000100
437.337 .0000100
438.262 .0253901
439.187 .0536544
440.110 .0887285
441.031 .1282270
441.952 .1024602
442.871 .1069911
443.789 .1112076
444.705 .1151754
445.621 .1189424
446.535 .1225447
447.447 .1246736
448.359 .1251995
449.269 .1237822
450.178 .1202034
451.086 .1145375
451.993 .1072262
452.898 .0989982
453.803 .0906768
454.706 .0829586
455.608 .0762738
456.508 .0707620
457.408 .0670727
458.306 .0642569
459.204 .0619780
460.100 .0600694
460.995 .0584400
461.888 .0570270
462.781 .0557857
463.673 .0546829
464.563 .0536947
465.452 .0528008
466.340 .0519856
467.228 .0512365
468.114 .0505440
468.999 .0499017
469.882 .0493056
470.765 .0487531
471.647 .0482444
472.528 .0477795
473.407 .0473587
474.286 .0469820
475.163 .0466492
476.040 .0463586
476.915 .0461074
477.790 .0458926
478.663 .0457103
479.535 .0455567
480.407 .0454289
481.277 .0453232
482.147 .0452373
483.015 .0451688
483.883 .0451163
484.749 .0450780
485.615 .0450530
486.479 .0450393
487.343 .0450358
488.206 .0450410
489.067 .0450537
489.928 .0450733
490.788 .0451005
491.647 .0451369
492.505 .0451845
493.362 .0452461
494.218 .0453246
495.073 .0454225
495.928 .0456561
496.781 .0458166
497.634 .0460028
498.486 .0462163
499.337 .0464583
500.187 .0467307
501.036 .0470356
501.884 .0473756
502.731 .0477534
503.578 .0481723
504.424 .0484689
505.268 .0489581
506.113 .0494969
506.956 .0500898
507.798 .0507416
508.640 .0514585
509.480 .0522487
510.320 .0531214
511.160 .0540861
511.998 .0551551
512.836 .0563432
513.672 .0576670
514.508 .0591458
515.344 .0608021
516.178 .0626584
517.012 .0647403
517.845 .0670743
518.677 .0696827
519.508 .0725845
520.339 .0757920
521.169 .0793087
521.998 .0831112
522.826 .0871659
523.654 .0914201
524.481 .0958077
525.307 .1002531
526.133 .1046691
526.958 .1089640
527.782 .1130498
528.605 .1168442
529.428 .1202734
530.250 .1232713
531.072 .1257937
531.892 .1277994
532.712 .1292623
533.532 .1301667
534.350 .1305042
535.168 .1302735
535.986 .1294801
536.802 .1281296
537.618 .1262302
538.434 .1237959
539.249 .1208673
540.063 .1174913
540.876 .1137308
541.689 .1096598
542.501 .1053589
543.313 .1009161
544.124 .0964206
544.934 .0919563
545.744 .0876006
546.553 .0834201
547.361 .0794704
548.169 .0757827
548.976 .0723835
549.783 .0692806
550.589 .0664699
551.395 .0639368
552.200 .0616580
553.004 .0596057
553.808 .0577536
554.611 .0560792
555.414 .0545623
556.216 .0531828
557.018 .0519235
557.819 .0507697
558.619 .0497088
559.419 .0487293
560.218 .0478227
561.017 .0469813
561.815 .0461986
562.613 .0454675
563.410 .0447817
564.207 .0441356
565.003 .0435243
565.799 .0429429
566.594 .0423870
567.388 .0418533
568.182 .0413390
568.976 .0408411
569.769 .0403583
570.562 .0398899
571.354 .0394360
572.145 .0389962
572.936 .0385710
573.727 .0381601
574.517 .0377640
575.307 .0373825
576.096 .0370156
576.885 .0366633
577.673 .0363261
578.461 .0360040
579.248 .0356972
580.035 .0354063
580.821 .0351315
581.607 .0348729
582.392 .0346303
583.177 .0344034
583.962 .0341920
584.746 .0339953
585.529 .0338127
586.313 .0336432
587.095 .0334863
587.878 .0333409
588.660 .0332063
589.441 .0330822
590.222 .0329680
591.003 .0328634
591.783 .0327676
592.563 .0326803
593.342 .0326006
594.121 .0325280
594.899 .0324615
595.678 .0324005
596.455 .0323441
597.233 .0322915
598.009 .0322419
598.786 .0321947
599.562 .0321493
600.338 .0321051
601.113 .0320619
601.888 .0319971
602.663 .0319550
603.437 .0319134
604.211 .0318720
604.984 .0318310
605.757 .0317902
606.530 .0317498
607.302 .0317096
608.074 .0316698
608.845 .0316305
609.616 .0315918
610.387 .0315753
611.158 .0315383
611.928 .0315023
612.697 .0314674
613.467 .0314337
614.236 .0314014
615.004 .0313705
615.773 .0313411
616.541 .0313132
617.308 .0312867
618.076 .0312615
618.843 .0312375
619.609 .0312145
620.375 .0311923
621.141 .0311707
621.907 .0311496
622.672 .0311290
623.437 .0311086
624.202 .0310884
624.966 .0310681
625.730 .0310477
626.493 .0310271
627.257 .0310061
628.020 .0309846
628.782 .0309625
629.545 .0309398
630.307 .0309163
631.068 .0308921
631.830 .0308673
632.591 .0308418
633.352 .0308157
634.112 .0307892
634.872 .0307624
635.632 .0307352
636.392 .0307079
637.151 .0306806
637.910 .0306533
638.668 .0306261
639.427 .0305992
640.185 .0305727
640.943 .0305467
641.700 .0305212
642.457 .0304963
643.214 .0304721
643.971 .0304486
644.727 .0304258
645.483 .0304037
646.239 .0303823
646.994 .0303616
647.750 .0303414
648.505 .0303219
649.259 .0303028
650.014 .0302843
650.768 .0302661
651.521 .0302482
652.275 .0302306
653.028 .0302130
653.781 .0301955
654.534 .0301779
655.286 .0301601
656.039 .0301420
656.791 .0301234
657.542 .0301044
658.294 .0300849
659.045 .0300649
659.796 .0300444
660.546 .0300234
661.297 .0300021
662.047 .0299806
662.796 .0299590
663.546 .0299373
664.295 .0299157
665.044 .0298942
665.793 .0298729
666.542 .0298517
667.290 .0298308
668.038 .0298101
668.786 .0297897
669.533 .0297697
670.281 .0297499
671.028 .0297304
671.774 .0297112
672.521 .0296923
673.267 .0296736
674.013 .0296551
674.759 .0296369
675.505 .0296188
676.250 .0296008
676.995 .0295828
677.740 .0295648
678.484 .0295467
679.229 .0295284
679.973 .0295099
680.717 .0294912
681.460 .0294722
682.204 .0294531
682.947 .0294339
683.690 .0294146
684.433 .0293954
685.175 .0293763
685.917 .0293573
686.659 .0293386
687.401 .0293201
688.142 .0293019
688.884 .0292840
689.625 .0292665
690.365 .0292493
691.106 .0292324
691.846 .0292159
692.586 .0291997
693.326 .0291839
694.066 .0291683
694.805 .0291531
695.545 .0291382
696.284 .0291236
697.022 .0291093
697.761 .0290951
698.499 .0290810
699.237 .0290670
699.975 .0290530
700.713 .0290388
701.450 .0290245
702.187 .0290100
702.924 .0289953
703.661 .0289803
704.397 .0289651
705.133 .0289498
705.869 .0289344
706.605 .0289190
707.341 .0289036
708.076 .0288884
708.811 .0288732
709.546 .0288583
710.281 .0288435
711.015 .0288288
711.749 .0288142
712.483 .0287997
713.217 .0287852
713.950 .0287707
714.684 .0287563
715.417 .0287418
716.150 .0287274
716.882 .0287130
717.615 .0286985
718.347 .0286840
719.079 .0286694
719.811 .0286547
720.542 .0286398
721.273 .0286248
722.005 .0286096
722.735 .0285944
723.466 .0285791
724.196 .0285638
724.927 .0285486
725.656 .0285335
726.386 .0285186
727.116 .0285041
727.845 .0284900
728.574 .0284762
729.303 .0284631
730.031 .0284504
730.760 .0284385
731.488 .0284272
732.216 .0284166
732.944 .0284067
733.671 .0283976
734.398 .0283892
735.125 .0283815
735.852 .0283745
736.579 .0283681
737.305 .0283623
738.031 .0283569
738.757 .0283519
739.483 .0283471
740.208 .0283424
740.933 .0283377
741.658 .0283330
742.383 .0283280
743.108 .0283228
743.832 .0283172
744.556 .0283112
745.280 .0283047
746.004 .0282976
746.727 .0282898
747.450 .0282812
748.173 .0282717
748.896 .0282613
749.618 .0282500
750.340 .0282379
751.062 .0282249
751.784 .0282112
752.506 .0281968
753.227 .0281818
753.948 .0281663
754.669 .0281503
755.389 .0281338
756.110 .0281169
756.830 .0280995
757.550 .0280818
758.269 .0280638
758.989 .0280456
759.708 .0280272
760.427 .0280087
761.146 .0279901
761.864 .0279716
762.582 .0279532
763.300 .0279348
764.018 .0279166
764.736 .0278985
765.453 .0278807
766.170 .0278630
766.887 .0278456
767.603 .0278285
768.320 .0278117
769.036 .0277952
769.751 .0277791
770.467 .0277634
771.182 .0277482
771.897 .0277336
772.612 .0277195
773.327 .0277061
774.041 .0276932
774.755 .0276809
775.469 .0276691
776.183 .0276578
776.896 .0276468
777.609 .0276362
778.322 .0276258
779.035 .0276157
779.747 .0276059
780.459 .0275961
781.171 .0275865
781.882 .0275770
782.594 .0275675
783.305 .0275580
784.016 .0275484
784.726 .0275387
785.436 .0275288
786.147 .0275127
786.856 .0275025
787.566 .0274922
788.275 .0274818
788.984 .0274714
789.693 .0274610
790.401 .0274505
791.110 .0274400
791.818 .0274295
792.525 .0274190
793.233 .0274085
793.940 .0273979
794.647 .0273932
795.353 .0273828
796.060 .0273725
796.766 .0273621
797.472 .0273518
798.177 .0273415
798.883 .0273312
799.588 .0273210
800.292 .0273108
800.997 .0273007
801.701 .0272905
802.405 .0272804
803.109 .0272701
803.812 .0272598
804.515 .0272492
805.218 .0272383
805.921 .0272272
806.623 .0272157
807.325 .0272039
808.027 .0271918
808.728 .0271795
809.429 .0271668
810.130 .0271540
810.831 .0271409
811.531 .0271278
812.231 .0271146
812.931 .0271014
813.630 .0270883
814.330 .0270754
815.029 .0270629
815.727 .0270509
816.426 .0270395
817.124 .0270287
817.821 .0270188
818.519 .0270096
819.216 .0270012
819.913 .0269936
820.609 .0269869
821.306 .0269810
822.002 .0269759
822.697 .0269715
823.393 .0269680
824.088 .0269652
824.783 .0269632
825.477 .0269620
826.171 .0269614
826.865 .0269616
827.559 .0269623
828.252 .0269635
828.945 .0269652
829.638 .0269672
830.330 .0269695
831.023 .0269720
831.714 .0269747
832.406 .0269775
833.097 .0269804
833.788 .0269833
834.479 .0269862
835.169 .0269891
835.859 .0269919
836.548 .0269946
837.238 .0269970
837.927 .0269992
838.615 .0270010
839.304 .0270026
839.992 .0270038
840.680 .0270046
841.367 .0270051
842.054 .0270051
842.741 .0270045
843.428 .0270034
844.114 .0270017
844.800 .0269993
845.485 .0269961
846.170 .0269923
846.855 .0269876
847.540 .0269823
848.224 .0269761
848.908 .0269692
849.592 .0269615
850.275 .0269528
850.958 .0269433
851.641 .0269328
852.323 .0269213
853.005 .0269090
853.687 .0268959
854.368 .0268820
855.049 .0268676
855.730 .0268526
856.410 .0268371
857.090 .0268212
857.769 .0268050
858.449 .0267883
859.128 .0267713
859.806 .0267540
860.485 .0267366
861.163 .0267191
861.840 .0267016
862.518 .0266843
863.195 .0266672
863.871 .0266503
864.548 .0266336
865.224 .0266172
865.899 .0266010
866.574 .0265850
867.249 .0265693
867.924 .0265538
868.598 .0265385
869.272 .0265236
869.946 .0265089
870.619 .0264946
871.292 .0264805
871.964 .0264666
872.636 .0264528
873.308 .0264392
873.979 .0264257
874.651 .0264123
875.321 .0263991
875.992 .0263860
876.662 .0263731
877.331 .0263604
878.001 .0263478
878.670 .0263354
879.338 .0263230
880.007 .0263107
880.675 .0262986
881.342 .0262865
882.009 .0262746
882.676 .0262628
883.343 .0262512
884.009 .0262399
884.675 .0262288
885.340 .0262181
886.005 .0262076
886.670 .0261975
887.334 .0261878
887.998 .0261784
888.662 .0261694
889.325 .0261608
889.988 .0261526
890.650 .0261448
891.312 .0261374
891.974 .0261303
892.636 .0261235
893.297 .0261170
893.957 .0261106
894.618 .0261043
895.278 .0260981
895.937 .0260919
896.596 .0260855
897.255 .0260789
897.914 .0260720
898.572 .0260647
899.230 .0260569
899.887 .0260486
900.544 .0260396
901.201 .0260299
901.857 .0260116
902.513 .0259999
903.168 .0259873
903.823 .0259740
904.478 .0259597
905.132 .0259447
905.786 .0259288
906.440 .0259121
907.093 .0258947
907.746 .0258768
908.399 .0258582
909.051 .0258393
909.703 .0258200
910.354 .0258097
911.005 .0257903
911.656 .0257709
912.306 .0257513
912.956 .0257316
913.605 .0257120
914.254 .0256923
914.903 .0256728
915.551 .0256534
916.199 .0256343
916.847 .0256153
917.494 .0255965
918.141 .0255780
918.788 .0255596
919.434 .0255414
920.079 .0255233
920.725 .0255054
921.370 .0254875
922.014 .0254697
922.658 .0254520
923.302 .0254342
923.946 .0254164
924.589 .0253986
925.231 .0253807
925.873 .0253627
926.515 .0253447
927.157 .0253267
927.798 .0253086
928.439 .0252905
929.079 .0252726
929.719 .0252548
930.359 .0252373
930.998 .0252201
931.637 .0252033
932.275 .0251870
932.913 .0251711
933.551 .0251559
934.188 .0251414
934.825 .0251276
935.462 .0251146
936.098 .0251025
936.733 .0250913
937.369 .0250811
938.004 .0250719
938.638 .0250638
939.273 .0250566
939.907 .0250504
940.540 .0250452
941.173 .0250409
941.806 .0250374
942.438 .0250349
943.070 .0250331
943.702 .0250320
944.333 .0250317
944.964 .0250320
945.594 .0250329
946.224 .0250343
946.854 .0250360
947.483 .0250381
948.112 .0250404
948.741 .0250429
949.369 .0250455
949.996 .0250483
950.624 .0250511
951.251 .0250539
951.878 .0250567
952.504 .0250594
953.130 .0250619
953.755 .0250641
954.380 .0250662
955.005 .0250680
955.629 .0250696
956.253 .0250710
956.877 .0250724
957.500 .0250737
958.123 .0250750
958.746 .0250764
959.368 .0250779
959.990 .0250794
960.611 .0250811
961.232 .0250829
961.853 .0250848
962.473 .0250868
963.093 .0250890
963.712 .0250913
964.331 .0250938
964.950 .0250964
965.569 .0250992
966.187 .0251021
966.804 .0251051
967.422 .0251079
968.039 .0251107
968.655 .0251134
969.272 .0251158
969.887 .0251182
970.503 .0251204
971.118 .0251224
971.733 .0251244
972.347 .0251262
972.961 .0251278
973.575 .0251291
974.188 .0251302
974.801 .0251308
975.414 .0251309
976.026 .0251305
976.638 .0251296
977.250 .0251282
977.861 .0251263
978.472 .0251239
979.083 .0251210
979.693 .0251176
980.303 .0251137
980.912 .0251055
981.521 .0251002
982.130 .0250944
982.738 .0250880
983.346 .0250813
983.954 .0250743
984.562 .0250673
985.169 .0250602
985.775 .0250532
986.382 .0250464
986.988 .0250397
987.594 .0250332
988.199 .0250270
988.804 .0250209
989.409 .0250189
990.013 .0250133
990.617 .0250082
991.221 .0250033
991.824 .0249990
992.427 .0249951
993.030 .0249917
993.632 .0249888
994.234 .0249862
994.836 .0249840
995.438 .0249821
996.039 .0249805
996.640 .0249791
997.240 .0249781
997.840 .0249775
998.440 .0249772
999.040 .0249773
999.639 .0249778
1000.238 .0249786
1000.836 .0249797
1001.435 .0249810
1002.033 .0249825
1002.630 .0249839
1003.228 .0249854
1003.825 .0249867
1004.422 .0249878
1005.018 .0249887
1005.614 .0249893
1006.210 .0249895
1006.806 .0249894
1007.401 .0249890
1007.996 .0249882
1008.591 .0249870
1009.186 .0249855
1009.780 .0249835
1010.374 .0249812
1010.967 .0249785
1011.561 .0249754
1012.154 .0249719
1012.746 .0249681
1013.339 .0249641
1013.931 .0249601
1014.523 .0249560
1015.115 .0249519
1015.706 .0249481
1016.298 .0249444
1016.888 .0249409
1017.479 .0249376
1018.069 .0249345
1018.660 .0249316
1019.250 .0249289
1019.839 .0249265
1020.429 .0249243
1021.018 .0249226
1021.607 .0249212
1022.195 .0249202
1022.784 .0249197
1023.372 .0249196
1023.960 .0249200
1024.547 .0249207
1025.135 .0249217
1025.722 .0249229
1026.309 .0249245
1026.896 .0249262
1027.483 .0249283
1028.069 .0249306
1028.655 .0249330
1029.241 .0249356
1029.827 .0249384
1030.412 .0249411
1030.997 .0249437
1031.582 .0249461
1032.167 .0249483
1032.752 .0249502
1033.336 .0249518
1033.921 .0249530
1034.505 .0249539
1035.089 .0249544
1035.672 .0249545
1036.256 .0249540
1036.839 .0249531
1037.422 .0249515
1038.005 .0249493
1038.588 .0249465
1039.171 .0249432
1039.753 .0249393
1040.335 .0249351
1040.918 .0249306
1041.500 .0249260
1042.081 .0249212
1042.663 .0249163
1043.244 .0249112
1043.826 .0249060
1044.407 .0249007
1044.988 .0248952
1045.569 .0248896
1046.150 .0248841
1046.730 .0248786
1047.311 .0248733
1047.891 .0248680
1048.471 .0248629
1049.052 .0248577
1049.632 .0248526
1050.211 .0248473
1050.791 .0248418
1051.371 .0248363
1051.950 .0248306
1052.530 .0248249
1053.109 .0248191
1053.688 .0248134
1054.268 .0248078
1054.847 .0248024
1055.426 .0247972
1056.005 .0247922
1056.583 .0247874
1057.162 .0247828
1057.741 .0247781
1058.319 .0247735
1058.898 .0247687
1059.476 .0247639
1060.055 .0247589
1060.633 .0247538
1061.211 .0247485
1061.790 .0247431
1062.368 .0247376
1062.946 .0247319
1063.524 .0247259
1064.102 .0247197
1064.680 .0247132
1065.258 .0247064
1065.836 .0246994
1066.414 .0246922
1066.992 .0246849
1067.570 .0246776
1068.148 .0246704
1068.726 .0246634
1069.304 .0246565
1069.882 .0246499
1070.460 .0246437
1071.038 .0246378
1071.616 .0246323
1072.194 .0246270
1072.772 .0246220
1073.350 .0246172
1073.928 .0246127
1074.506 .0246083
1075.084 .0246042
1075.662 .0246002
1076.240 .0245964
1076.819 .0245929
1077.397 .0245899
1077.976 .0245873
1078.554 .0245853
1079.133 .0245840
1079.711 .0245834
1080.290 .0245835
1080.869 .0245844
1081.448 .0245861
1082.027 .0245886
1082.606 .0245920
1083.185 .0245963
1083.764 .0246015
1084.343 .0246077
1084.923 .0246149
1085.502 .0246231
1086.082 .0246322
1086.662 .0246422
1087.242 .0246530
1087.822 .0246644
1088.402 .0246763
1088.983 .0246885
1089.563 .0247009
1090.144 .0247133
1090.725 .0247256
1091.306 .0247377
1091.887 .0247495
1092.469 .0247610
1093.050 .0247720
1093.632 .0247826
1094.214 .0247927
1094.796 .0248023
1095.379 .0248112
1095.961 .0248193
1096.544 .0248268
1097.127 .0248336
1097.710 .0248397
1098.294 .0248453
1098.877 .0248504
1099.461 .0248554
1100.046 .0248602
1100.630 .0248650
1101.215 .0248700
1101.800 .0248754
1102.385 .0248812
1102.970 .0248876
1103.556 .0248946
1104.142 .0249025
1104.728 .0249113
1105.315 .0249212
1105.902 .0249326
1106.489 .0249457
1107.077 .0249606
1107.664 .0249776
1108.253 .0249967
1108.841 .0250183
1109.430 .0250423
1110.019 .0250689
1110.609 .0250982
1111.198 .0251301
1111.789 .0251645
1112.379 .0252014
1112.970 .0252406
1113.561 .0252819
1114.153 .0253250
1114.745 .0253697
1115.338 .0254155
1115.931 .0254623
1116.524 .0255098
1117.117 .0255579
1117.712 .0256065
1118.306 .0256557
1118.901 .0257055
1119.496 .0257559
1120.092 .0258068
1120.689 .0258582
1121.285 .0259100
1121.882 .0259623
1122.480 .0260148
1123.078 .0260676
1123.677 .0261212
1124.276 .0261758
1124.875 .0262317
1125.476 .0262894
1126.076 .0263495
1126.677 .0264121
1127.279 .0264775
1127.881 .0265461
1128.484 .0266179
1129.087 .0266448
1129.691 .0267205
1130.295 .0268002
1130.900 .0268841
1131.505 .0269731
1132.111 .0270677
1132.718 .0271688
1133.325 .0272775
1133.933 .0273949
1134.541 .0275222
1135.150 .0276527
1135.760 .0277932
1136.370 .0279604
1136.981 .0278881
1137.592 .0280509
1138.204 .0282177
1138.817 .0283875
1139.431 .0285737
1140.045 .0287710
1140.660 .0289824
1141.275 .0292275
1141.891 .0294979
1142.508 .0298090
1143.126 .0299319
1143.744 .0302568
1144.363 .0310519
1144.983 .0312767
