Measurement Sequence started on: 15-12-46-377
Integration time: 28
Scans to Average: 2 
>>>>>Begin Spectral Data<<<<<
432.689 .0000100
433.621 .0000100
434.552 .0000100
435.482 .0000100
436.410 .0000100
437.337 .0000100
438.262 .0260330
439.187 .0552180
440.110 .0915618
441.031 .1325535
441.952 .1067737
442.871 .1115850
443.789 .1160699
444.705 .1202936
445.621 .1243002
446.535 .1281256
447.447 .1304255
448.359 .1310566
449.269 .1296605
450.178 .1260078
451.086 .1201713
451.993 .1126060
452.898 .1040610
453.803 .0953895
454.706 .0873164
455.608 .0802933
456.508 .0744733
457.408 .0705275
458.306 .0674919
459.204 .0650217
460.100 .0629426
460.995 .0611596
461.888 .0596091
462.781 .0582487
463.673 .0570436
464.563 .0559694
465.452 .0550044
466.340 .0541317
467.228 .0533383
468.114 .0526142
468.999 .0519504
469.882 .0513400
470.765 .0507774
471.647 .0502573
472.528 .0497765
473.407 .0493310
474.286 .0489179
475.163 .0485357
476.040 .0481815
476.915 .0478545
477.790 .0475535
478.663 .0472786
479.535 .0470295
480.407 .0468065
481.277 .0466094
482.147 .0464375
483.015 .0462895
483.883 .0461645
484.749 .0460612
485.615 .0459799
486.479 .0459200
487.343 .0458820
488.206 .0458667
489.067 .0458742
489.928 .0459049
490.788 .0459591
491.647 .0460361
492.505 .0461353
493.362 .0462554
494.218 .0463956
495.073 .0465546
495.928 .0468600
496.781 .0470648
497.634 .0472883
498.486 .0475307
499.337 .0477930
500.187 .0480763
501.036 .0483814
501.884 .0487096
502.731 .0490628
503.578 .0494439
504.424 .0496917
505.268 .0501298
506.113 .0506096
506.956 .0511379
507.798 .0517223
508.640 .0523717
509.480 .0530955
510.320 .0539050
511.160 .0548119
511.998 .0558301
512.836 .0569743
513.672 .0582607
514.508 .0597083
515.344 .0613379
516.178 .0631701
517.012 .0652296
517.845 .0675382
518.677 .0701148
519.508 .0729743
520.339 .0761233
521.169 .0795594
521.998 .0832593
522.826 .0871869
523.654 .0912906
524.481 .0955049
525.307 .0997553
526.133 .1039576
526.958 .1080241
527.782 .1118695
528.605 .1154127
529.428 .1185828
530.250 .1213180
531.072 .1235750
531.892 .1253182
532.712 .1265255
533.532 .1271876
534.350 .1273004
535.168 .1268663
535.986 .1258952
536.802 .1243966
537.618 .1223844
538.434 .1198768
539.249 .1169113
540.063 .1135361
540.876 .1098121
541.689 .1058102
542.501 .1016089
543.313 .0972931
544.124 .0929510
544.934 .0886648
545.744 .0845091
546.553 .0805464
547.361 .0768265
548.169 .0733795
548.976 .0702246
549.783 .0673658
550.589 .0647939
551.395 .0624904
552.200 .0604315
553.004 .0585883
553.808 .0569339
554.611 .0554457
555.414 .0541032
556.216 .0528873
557.018 .0517799
557.819 .0507653
558.619 .0498307
559.419 .0489654
560.218 .0481600
561.017 .0474052
561.815 .0466936
562.613 .0460204
563.410 .0453799
564.207 .0447684
565.003 .0441821
565.799 .0436176
566.594 .0430715
567.388 .0425413
568.182 .0420248
568.976 .0415202
569.769 .0410276
570.562 .0405471
571.354 .0400790
572.145 .0396248
572.936 .0391849
573.727 .0387599
574.517 .0383504
575.307 .0379568
576.096 .0375781
576.885 .0372144
577.673 .0368656
578.461 .0365314
579.248 .0362118
580.035 .0359074
580.821 .0356182
581.607 .0353448
582.392 .0350877
583.177 .0348468
583.962 .0346220
584.746 .0344129
585.529 .0342185
586.313 .0340378
587.095 .0338701
587.878 .0337145
588.660 .0335701
589.441 .0334368
590.222 .0333139
591.003 .0332009
591.783 .0330971
592.563 .0330019
593.342 .0329145
594.121 .0328341
594.899 .0327598
595.678 .0326911
596.455 .0326272
597.233 .0325677
598.009 .0325121
598.786 .0324601
599.562 .0324112
600.338 .0323652
601.113 .0323218
601.888 .0322656
602.663 .0322282
603.437 .0321930
604.211 .0321600
604.984 .0321291
605.757 .0321001
606.530 .0320728
607.302 .0320469
608.074 .0320223
608.845 .0319988
609.616 .0319763
610.387 .0319672
611.158 .0319461
611.928 .0319260
612.697 .0319068
613.467 .0318884
614.236 .0318708
615.004 .0318536
615.773 .0318369
616.541 .0318202
617.308 .0318035
618.076 .0317866
618.843 .0317693
619.609 .0317517
620.375 .0317336
621.141 .0317149
621.907 .0316956
622.672 .0316757
623.437 .0316553
624.202 .0316343
624.966 .0316129
625.730 .0315909
626.493 .0315685
627.257 .0315456
628.020 .0315221
628.782 .0314980
629.545 .0314734
630.307 .0314481
631.068 .0314224
631.830 .0313963
632.591 .0313701
633.352 .0313439
634.112 .0313179
634.872 .0312922
635.632 .0312668
636.392 .0312418
637.151 .0312168
637.910 .0311920
638.668 .0311671
639.427 .0311422
640.185 .0311172
640.943 .0310922
641.700 .0310672
642.457 .0310421
643.214 .0310170
643.971 .0309919
644.727 .0309668
645.483 .0309415
646.239 .0309161
646.994 .0308906
647.750 .0308649
648.505 .0308390
649.259 .0308130
650.014 .0307869
650.768 .0307608
651.521 .0307345
652.275 .0307083
653.028 .0306823
653.781 .0306565
654.534 .0306312
655.286 .0306063
656.039 .0305821
656.791 .0305586
657.542 .0305357
658.294 .0305137
659.045 .0304924
659.796 .0304719
660.546 .0304521
661.297 .0304331
662.047 .0304149
662.796 .0303973
663.546 .0303804
664.295 .0303641
665.044 .0303485
665.793 .0303335
666.542 .0303190
667.290 .0303050
668.038 .0302915
668.786 .0302784
669.533 .0302657
670.281 .0302533
671.028 .0302410
671.774 .0302288
672.521 .0302166
673.267 .0302044
674.013 .0301923
674.759 .0301801
675.505 .0301678
676.250 .0301555
676.995 .0301431
677.740 .0301306
678.484 .0301181
679.229 .0301054
679.973 .0300927
680.717 .0300800
681.460 .0300673
682.204 .0300545
682.947 .0300418
683.690 .0300289
684.433 .0300160
685.175 .0300030
685.917 .0299898
686.659 .0299764
687.401 .0299629
688.142 .0299491
688.884 .0299352
689.625 .0299210
690.365 .0299067
691.106 .0298921
691.846 .0298772
692.586 .0298619
693.326 .0298463
694.066 .0298302
694.805 .0298136
695.545 .0297964
696.284 .0297786
697.022 .0297601
697.761 .0297409
698.499 .0297211
699.237 .0297007
699.975 .0296798
700.713 .0296585
701.450 .0296367
702.187 .0296146
702.924 .0295921
703.661 .0295691
704.397 .0295457
705.133 .0295219
705.869 .0294975
706.605 .0294726
707.341 .0294473
708.076 .0294218
708.811 .0293960
709.546 .0293701
710.281 .0293442
711.015 .0293183
711.749 .0292923
712.483 .0292663
713.217 .0292404
713.950 .0292145
714.684 .0291887
715.417 .0291632
716.150 .0291378
716.882 .0291128
717.615 .0290879
718.347 .0290634
719.079 .0290391
719.811 .0290151
720.542 .0289914
721.273 .0289681
722.005 .0289452
722.735 .0289228
723.466 .0289010
724.196 .0288799
724.927 .0288593
725.656 .0288393
726.386 .0288198
727.116 .0288009
727.845 .0287825
728.574 .0287648
729.303 .0287479
730.031 .0287317
730.760 .0287163
731.488 .0287018
732.216 .0286881
732.944 .0286751
733.671 .0286627
734.398 .0286510
735.125 .0286398
735.852 .0286292
736.579 .0286191
737.305 .0286095
738.031 .0286004
738.757 .0285919
739.483 .0285839
740.208 .0285764
740.933 .0285694
741.658 .0285628
742.383 .0285567
743.108 .0285509
743.832 .0285456
744.556 .0285406
745.280 .0285360
746.004 .0285318
746.727 .0285280
747.450 .0285244
748.173 .0285212
748.896 .0285183
749.618 .0285156
750.340 .0285132
751.062 .0285110
751.784 .0285089
752.506 .0285070
753.227 .0285051
753.948 .0285031
754.669 .0285010
755.389 .0284988
756.110 .0284962
756.830 .0284934
757.550 .0284902
758.269 .0284867
758.989 .0284827
759.708 .0284783
760.427 .0284735
761.146 .0284682
761.864 .0284625
762.582 .0284561
763.300 .0284493
764.018 .0284418
764.736 .0284338
765.453 .0284252
766.170 .0284160
766.887 .0284063
767.603 .0283962
768.320 .0283855
769.036 .0283745
769.751 .0283632
770.467 .0283516
771.182 .0283397
771.897 .0283276
772.612 .0283152
773.327 .0283027
774.041 .0282899
774.755 .0282768
775.469 .0282635
776.183 .0282498
776.896 .0282357
777.609 .0282213
778.322 .0282065
779.035 .0281912
779.747 .0281755
780.459 .0281594
781.171 .0281429
781.882 .0281259
782.594 .0281083
783.305 .0280903
784.016 .0280716
784.726 .0280523
785.436 .0280323
786.147 .0280002
786.856 .0279786
787.566 .0279564
788.275 .0279337
788.984 .0279104
789.693 .0278867
790.401 .0278625
791.110 .0278381
791.818 .0278133
792.525 .0277884
793.233 .0277634
793.940 .0277383
794.647 .0277253
795.353 .0277003
796.060 .0276755
796.766 .0276508
797.472 .0276262
798.177 .0276019
798.883 .0275778
799.588 .0275540
800.292 .0275306
800.997 .0275076
801.701 .0274851
802.405 .0274631
803.109 .0274416
803.812 .0274206
804.515 .0274001
805.218 .0273800
805.921 .0273603
806.623 .0273409
807.325 .0273220
808.027 .0273034
808.728 .0272853
809.429 .0272676
810.130 .0272503
810.831 .0272335
811.531 .0272171
812.231 .0272011
812.931 .0271854
813.630 .0271700
814.330 .0271550
815.029 .0271404
815.727 .0271262
816.426 .0271124
817.124 .0270991
817.821 .0270864
818.519 .0270742
819.216 .0270626
819.913 .0270515
820.609 .0270411
821.306 .0270314
822.002 .0270224
822.697 .0270141
823.393 .0270067
824.088 .0269999
824.783 .0269939
825.477 .0269886
826.171 .0269838
826.865 .0269797
827.559 .0269760
828.252 .0269728
828.945 .0269701
829.638 .0269679
830.330 .0269663
831.023 .0269652
831.714 .0269646
832.406 .0269645
833.097 .0269647
833.788 .0269652
834.479 .0269661
835.169 .0269671
835.859 .0269684
836.548 .0269700
837.238 .0269718
837.927 .0269740
838.615 .0269765
839.304 .0269792
839.992 .0269823
840.680 .0269856
841.367 .0269892
842.054 .0269929
842.741 .0269968
843.428 .0270010
844.114 .0270053
844.800 .0270098
845.485 .0270145
846.170 .0270193
846.855 .0270242
847.540 .0270291
848.224 .0270339
848.908 .0270386
849.592 .0270431
850.275 .0270473
850.958 .0270513
851.641 .0270550
852.323 .0270583
853.005 .0270611
853.687 .0270636
854.368 .0270655
855.049 .0270669
855.730 .0270678
856.410 .0270682
857.090 .0270681
857.769 .0270675
858.449 .0270665
859.128 .0270650
859.806 .0270632
860.485 .0270609
861.163 .0270582
861.840 .0270552
862.518 .0270518
863.195 .0270481
863.871 .0270439
864.548 .0270392
865.224 .0270341
865.899 .0270285
866.574 .0270224
867.249 .0270157
867.924 .0270085
868.598 .0270006
869.272 .0269922
869.946 .0269831
870.619 .0269733
871.292 .0269628
871.964 .0269515
872.636 .0269394
873.308 .0269264
873.979 .0269126
874.651 .0268980
875.321 .0268826
875.992 .0268664
876.662 .0268494
877.331 .0268318
878.001 .0268134
878.670 .0267942
879.338 .0267743
880.007 .0267537
880.675 .0267324
881.342 .0267105
882.009 .0266879
882.676 .0266649
883.343 .0266415
884.009 .0266178
884.675 .0265938
885.340 .0265696
886.005 .0265453
886.670 .0265207
887.334 .0264961
887.998 .0264713
888.662 .0264466
889.325 .0264218
889.988 .0263972
890.650 .0263726
891.312 .0263480
891.974 .0263236
892.636 .0262992
893.297 .0262748
893.957 .0262505
894.618 .0262261
895.278 .0262017
895.937 .0261773
896.596 .0261528
897.255 .0261282
897.914 .0261035
898.572 .0260787
899.230 .0260537
899.887 .0260285
900.544 .0260030
901.201 .0259772
901.857 .0259373
902.513 .0259109
903.168 .0258843
903.823 .0258575
904.478 .0258307
905.132 .0258038
905.786 .0257769
906.440 .0257500
907.093 .0257231
907.746 .0256962
908.399 .0256694
909.051 .0256428
909.703 .0256165
910.354 .0256043
911.005 .0255789
911.656 .0255540
912.306 .0255296
912.956 .0255058
913.605 .0254827
914.254 .0254603
914.903 .0254384
915.551 .0254172
916.199 .0253966
916.847 .0253766
917.494 .0253573
918.141 .0253385
918.788 .0253203
919.434 .0253026
920.079 .0252854
920.725 .0252687
921.370 .0252523
922.014 .0252363
922.658 .0252206
923.302 .0252051
923.946 .0251899
924.589 .0251749
925.231 .0251602
925.873 .0251458
926.515 .0251316
927.157 .0251177
927.798 .0251040
928.439 .0250905
929.079 .0250772
929.719 .0250642
930.359 .0250514
930.998 .0250390
931.637 .0250268
932.275 .0250151
932.913 .0250039
933.551 .0249932
934.188 .0249831
934.825 .0249737
935.462 .0249649
936.098 .0249567
936.733 .0249493
937.369 .0249425
938.004 .0249365
938.638 .0249311
939.273 .0249265
939.907 .0249227
940.540 .0249196
941.173 .0249172
941.806 .0249156
942.438 .0249146
943.070 .0249142
943.702 .0249143
944.333 .0249148
944.964 .0249157
945.594 .0249169
946.224 .0249182
946.854 .0249198
947.483 .0249215
948.112 .0249234
948.741 .0249255
949.369 .0249278
949.996 .0249303
950.624 .0249330
951.251 .0249358
951.878 .0249388
952.504 .0249419
953.130 .0249452
953.755 .0249488
954.380 .0249527
955.005 .0249571
955.629 .0249620
956.253 .0249676
956.877 .0249737
957.500 .0249803
958.123 .0249875
958.746 .0249951
959.368 .0250032
959.990 .0250118
960.611 .0250208
961.232 .0250305
961.853 .0250407
962.473 .0250515
963.093 .0250630
963.712 .0250751
964.331 .0250875
964.950 .0251003
965.569 .0251132
966.187 .0251262
966.804 .0251390
967.422 .0251517
968.039 .0251641
968.655 .0251764
969.272 .0251884
969.887 .0252000
970.503 .0252114
971.118 .0252222
971.733 .0252325
972.347 .0252421
972.961 .0252510
973.575 .0252590
974.188 .0252662
974.801 .0252725
975.414 .0252781
976.026 .0252830
976.638 .0252872
977.250 .0252907
977.861 .0252936
978.472 .0252958
979.083 .0252973
979.693 .0252982
980.303 .0252984
980.912 .0252969
981.521 .0252959
982.130 .0252944
982.738 .0252926
983.346 .0252905
983.954 .0252881
984.562 .0252857
985.169 .0252830
985.775 .0252802
986.382 .0252773
986.988 .0252743
987.594 .0252712
988.199 .0252679
988.804 .0252646
989.409 .0252629
990.013 .0252595
990.617 .0252561
991.221 .0252529
991.824 .0252498
992.427 .0252468
993.030 .0252440
993.632 .0252412
994.234 .0252383
994.836 .0252354
995.438 .0252323
996.039 .0252290
996.640 .0252255
997.240 .0252218
997.840 .0252180
998.440 .0252141
999.040 .0252101
999.639 .0252060
1000.238 .0252017
1000.836 .0251971
1001.435 .0251922
1002.033 .0251870
1002.630 .0251813
1003.228 .0251752
1003.825 .0251686
1004.422 .0251616
1005.018 .0251542
1005.614 .0251463
1006.210 .0251379
1006.806 .0251290
1007.401 .0251193
1007.996 .0251088
1008.591 .0250975
1009.186 .0250853
1009.780 .0250722
1010.374 .0250583
1010.967 .0250437
1011.561 .0250284
1012.154 .0250126
1012.746 .0249962
1013.339 .0249794
1013.931 .0249623
1014.523 .0249447
1015.115 .0249267
1015.706 .0249084
1016.298 .0248899
1016.888 .0248712
1017.479 .0248525
1018.069 .0248339
1018.660 .0248155
1019.250 .0247973
1019.839 .0247795
1020.429 .0247619
1021.018 .0247447
1021.607 .0247277
1022.195 .0247110
1022.784 .0246945
1023.372 .0246782
1023.960 .0246622
1024.547 .0246466
1025.135 .0246314
1025.722 .0246166
1026.309 .0246024
1026.896 .0245886
1027.483 .0245752
1028.069 .0245622
1028.655 .0245496
1029.241 .0245373
1029.827 .0245253
1030.412 .0245135
1030.997 .0245019
1031.582 .0244904
1032.167 .0244791
1032.752 .0244678
1033.336 .0244564
1033.921 .0244450
1034.505 .0244333
1035.089 .0244213
1035.672 .0244088
1036.256 .0243958
1036.839 .0243822
1037.422 .0243681
1038.005 .0243535
1038.588 .0243385
1039.171 .0243231
1039.753 .0243074
1040.335 .0242915
1040.918 .0242754
1041.500 .0242591
1042.081 .0242426
1042.663 .0242259
1043.244 .0242091
1043.826 .0241922
1044.407 .0241753
1044.988 .0241586
1045.569 .0241421
1046.150 .0241260
1046.730 .0241102
1047.311 .0240947
1047.891 .0240796
1048.471 .0240648
1049.052 .0240504
1049.632 .0240363
1050.211 .0240225
1050.791 .0240093
1051.371 .0239966
1051.950 .0239847
1052.530 .0239736
1053.109 .0239634
1053.688 .0239540
1054.268 .0239455
1054.847 .0239378
1055.426 .0239307
1056.005 .0239242
1056.583 .0239184
1057.162 .0239131
1057.741 .0239085
1058.319 .0239045
1058.898 .0239012
1059.476 .0238986
1060.055 .0238966
1060.633 .0238951
1061.211 .0238939
1061.790 .0238930
1062.368 .0238922
1062.946 .0238916
1063.524 .0238912
1064.102 .0238912
1064.680 .0238916
1065.258 .0238925
1065.836 .0238942
1066.414 .0238965
1066.992 .0238995
1067.570 .0239031
1068.148 .0239072
1068.726 .0239117
1069.304 .0239167
1069.882 .0239220
1070.460 .0239278
1071.038 .0239342
1071.616 .0239412
1072.194 .0239490
1072.772 .0239575
1073.350 .0239669
1073.928 .0239769
1074.506 .0239874
1075.084 .0239984
1075.662 .0240097
1076.240 .0240212
1076.819 .0240328
1077.397 .0240448
1077.976 .0240571
1078.554 .0240697
1079.133 .0240828
1079.711 .0240965
1080.290 .0241106
1080.869 .0241253
1081.448 .0241403
1082.027 .0241554
1082.606 .0241705
1083.185 .0241855
1083.764 .0242003
1084.343 .0242149
1084.923 .0242293
1085.502 .0242435
1086.082 .0242577
1086.662 .0242717
1087.242 .0242857
1087.822 .0242996
1088.402 .0243136
1088.983 .0243273
1089.563 .0243408
1090.144 .0243541
1090.725 .0243672
1091.306 .0243804
1091.887 .0243939
1092.469 .0244077
1093.050 .0244222
1093.632 .0244374
1094.214 .0244535
1094.796 .0244705
1095.379 .0244885
1095.961 .0245073
1096.544 .0245270
1097.127 .0245473
1097.710 .0245684
1098.294 .0245901
1098.877 .0246127
1099.461 .0246362
1100.046 .0246606
1100.630 .0246859
1101.215 .0247119
1101.800 .0247387
1102.385 .0247662
1102.970 .0247944
1103.556 .0248233
1104.142 .0248529
1104.728 .0248832
1105.315 .0249145
1105.902 .0249468
1106.489 .0249803
1107.077 .0250153
1107.664 .0250516
1108.253 .0250891
1108.841 .0251280
1109.430 .0251683
1110.019 .0252100
1110.609 .0252534
1111.198 .0252984
1111.789 .0253453
1112.379 .0253942
1112.970 .0254451
1113.561 .0254980
1114.153 .0255530
1114.745 .0256100
1115.338 .0256688
1115.931 .0257293
1116.524 .0257913
1117.117 .0258548
1117.712 .0259196
1118.306 .0259859
1118.901 .0260532
1119.496 .0261219
1120.092 .0261917
1120.689 .0262626
1121.285 .0263344
1121.882 .0264071
1122.480 .0264806
1123.078 .0265548
1123.677 .0266299
1124.276 .0267056
1124.875 .0267823
1125.476 .0268602
1126.076 .0269394
1126.677 .0270202
1127.279 .0271026
1127.881 .0271866
1128.484 .0272721
1129.087 .0273140
1129.691 .0274005
1130.295 .0274879
1130.900 .0275764
1131.505 .0276657
1132.111 .0277557
1132.718 .0278462
1133.325 .0279369
1133.933 .0280277
1134.541 .0281204
1135.150 .0282140
1135.760 .0283070
1136.370 .0283937
1136.981 .0284887
1137.592 .0286147
1138.204 .0287411
1138.817 .0288687
1139.431 .0289919
1140.045 .0291083
1140.660 .0292177
1141.275 .0293139
1141.891 .0293994
1142.508 .0295327
1143.126 .0296326
1143.744 .0296871
1144.363 .0295783
1144.983 .0295963
