Measurement Sequence started on: 15-12-46-377
Integration time: 28
Scans to Average: 2 
>>>>>Begin Spectral Data<<<<<
432.689 .0000100
433.621 .0000100
434.552 .0000100
435.482 .0000100
436.410 .0000100
437.337 .0000100
438.262 .0266954
439.187 .0566303
440.110 .0939019
441.031 .1359940
441.952 .1101146
442.871 .1151396
443.789 .1198274
444.705 .1242448
445.621 .1284393
446.535 .1324471
447.447 .1348886
448.359 .1356130
449.269 .1342517
450.178 .1305636
451.086 .1246192
451.993 .1168779
452.898 .1081067
453.803 .0991785
454.706 .0908388
455.608 .0835524
456.508 .0774804
457.408 .0733150
458.306 .0700714
459.204 .0673970
460.100 .0651167
460.995 .0631330
461.888 .0613824
462.781 .0598209
463.673 .0584158
464.563 .0571460
465.452 .0559949
466.340 .0549484
467.228 .0539971
468.114 .0531318
468.999 .0523456
469.882 .0516310
470.765 .0509819
471.647 .0503926
472.528 .0498584
473.407 .0493750
474.286 .0489386
475.163 .0485470
476.040 .0481975
476.915 .0478874
477.790 .0476146
478.663 .0473765
479.535 .0471706
480.407 .0469940
481.277 .0468432
482.147 .0467151
483.015 .0466063
483.883 .0465140
484.749 .0464360
485.615 .0463710
486.479 .0463184
487.343 .0462786
488.206 .0462530
489.067 .0462436
489.928 .0462530
490.788 .0462844
491.647 .0463400
492.505 .0464220
493.362 .0465313
494.218 .0466682
495.073 .0468326
495.928 .0471854
496.781 .0474177
497.634 .0476768
498.486 .0479637
499.337 .0482803
500.187 .0486293
501.036 .0490130
501.884 .0494339
502.731 .0498943
503.578 .0503949
504.424 .0507189
505.268 .0512837
506.113 .0518937
506.956 .0525514
507.798 .0532608
508.640 .0540288
509.480 .0548647
510.320 .0557801
511.160 .0567889
511.998 .0579080
512.836 .0591576
513.672 .0605577
514.508 .0621309
515.344 .0639022
516.178 .0658949
517.012 .0681349
517.845 .0706479
518.677 .0734567
519.508 .0765777
520.339 .0800189
521.169 .0837820
521.998 .0878414
522.826 .0921582
523.654 .0966736
524.481 .1013147
525.307 .1060023
526.133 .1106431
526.958 .1151396
527.782 .1194007
528.605 .1233424
529.428 .1268889
530.250 .1299714
531.072 .1325442
531.892 .1345673
532.712 .1360127
533.532 .1368657
534.350 .1371173
535.168 .1367674
535.986 .1358209
536.802 .1342854
537.618 .1321753
538.434 .1295082
539.249 .1263265
540.063 .1226845
540.876 .1186524
541.689 .1143098
542.501 .1097396
543.313 .1050348
544.124 .1002908
544.934 .0955941
545.744 .0910214
546.553 .0866385
547.361 .0825017
548.169 .0786429
548.976 .0750854
549.783 .0718367
550.589 .0688921
551.395 .0662368
552.200 .0638470
553.004 .0616952
553.808 .0597563
554.611 .0580056
555.414 .0564224
556.216 .0549869
557.018 .0536800
557.819 .0524852
558.619 .0513897
559.419 .0503833
560.218 .0494577
561.017 .0486035
561.815 .0478131
562.613 .0470793
563.410 .0463950
564.207 .0457519
565.003 .0451426
565.799 .0445606
566.594 .0440000
567.388 .0434558
568.182 .0429243
568.976 .0424022
569.769 .0418881
570.562 .0413819
571.354 .0408841
572.145 .0403959
572.936 .0399182
573.727 .0394524
574.517 .0390000
575.307 .0385620
576.096 .0381389
576.885 .0377307
577.673 .0373383
578.461 .0369622
579.248 .0366030
580.035 .0362615
580.821 .0359390
581.607 .0356365
582.392 .0353548
583.177 .0350941
583.962 .0348545
584.746 .0346354
585.529 .0344361
586.313 .0342550
587.095 .0340908
587.878 .0339418
588.660 .0338065
589.441 .0336835
590.222 .0335716
591.003 .0334695
591.783 .0333764
592.563 .0332912
593.342 .0332129
594.121 .0331407
594.899 .0330734
595.678 .0330101
596.455 .0329499
597.233 .0328922
598.009 .0328365
598.786 .0327827
599.562 .0327307
600.338 .0326804
601.113 .0326321
601.888 .0325661
602.663 .0325224
603.437 .0324804
604.211 .0324400
604.984 .0324009
605.757 .0323632
606.530 .0323267
607.302 .0322914
608.074 .0322574
608.845 .0322246
609.616 .0321931
610.387 .0321800
611.158 .0321499
611.928 .0321209
612.697 .0320929
613.467 .0320657
614.236 .0320393
615.004 .0320133
615.773 .0319878
616.541 .0319625
617.308 .0319375
618.076 .0319127
618.843 .0318880
619.609 .0318635
620.375 .0318390
621.141 .0318145
621.907 .0317901
622.672 .0317655
623.437 .0317408
624.202 .0317160
624.966 .0316909
625.730 .0316656
626.493 .0316401
627.257 .0316143
628.020 .0315884
628.782 .0315624
629.545 .0315362
630.307 .0315099
631.068 .0314836
631.830 .0314571
632.591 .0314306
633.352 .0314040
634.112 .0313772
634.872 .0313504
635.632 .0313235
636.392 .0312966
637.151 .0312696
637.910 .0312425
638.668 .0312153
639.427 .0311879
640.185 .0311604
640.943 .0311328
641.700 .0311052
642.457 .0310775
643.214 .0310498
643.971 .0310222
644.727 .0309947
645.483 .0309674
646.239 .0309403
646.994 .0309133
647.750 .0308866
648.505 .0308601
649.259 .0308338
650.014 .0308077
650.768 .0307818
651.521 .0307561
652.275 .0307305
653.028 .0307051
653.781 .0306798
654.534 .0306546
655.286 .0306295
656.039 .0306045
656.791 .0305796
657.542 .0305549
658.294 .0305303
659.045 .0305061
659.796 .0304821
660.546 .0304583
661.297 .0304348
662.047 .0304115
662.796 .0303883
663.546 .0303652
664.295 .0303420
665.044 .0303190
665.793 .0302959
666.542 .0302730
667.290 .0302503
668.038 .0302278
668.786 .0302055
669.533 .0301835
670.281 .0301618
671.028 .0301403
671.774 .0301190
672.521 .0300978
673.267 .0300767
674.013 .0300557
674.759 .0300348
675.505 .0300141
676.250 .0299936
676.995 .0299733
677.740 .0299533
678.484 .0299336
679.229 .0299141
679.973 .0298949
680.717 .0298760
681.460 .0298573
682.204 .0298390
682.947 .0298210
683.690 .0298032
684.433 .0297856
685.175 .0297681
685.917 .0297507
686.659 .0297333
687.401 .0297159
688.142 .0296985
688.884 .0296811
689.625 .0296638
690.365 .0296466
691.106 .0296296
691.846 .0296127
692.586 .0295959
693.326 .0295791
694.066 .0295623
694.805 .0295454
695.545 .0295285
696.284 .0295114
697.022 .0294941
697.761 .0294767
698.499 .0294592
699.237 .0294415
699.975 .0294237
700.713 .0294057
701.450 .0293875
702.187 .0293692
702.924 .0293505
703.661 .0293316
704.397 .0293125
705.133 .0292932
705.869 .0292736
706.605 .0292539
707.341 .0292340
708.076 .0292139
708.811 .0291937
709.546 .0291735
710.281 .0291533
711.015 .0291330
711.749 .0291129
712.483 .0290930
713.217 .0290732
713.950 .0290537
714.684 .0290344
715.417 .0290154
716.150 .0289966
716.882 .0289778
717.615 .0289592
718.347 .0289406
719.079 .0289220
719.811 .0289034
720.542 .0288848
721.273 .0288662
722.005 .0288476
722.735 .0288291
723.466 .0288105
724.196 .0287921
724.927 .0287738
725.656 .0287556
726.386 .0287376
727.116 .0287196
727.845 .0287019
728.574 .0286843
729.303 .0286669
730.031 .0286496
730.760 .0286325
731.488 .0286155
732.216 .0285986
732.944 .0285819
733.671 .0285653
734.398 .0285489
735.125 .0285327
735.852 .0285166
736.579 .0285008
737.305 .0284851
738.031 .0284697
738.757 .0284543
739.483 .0284390
740.208 .0284238
740.933 .0284086
741.658 .0283934
742.383 .0283782
743.108 .0283630
743.832 .0283476
744.556 .0283322
745.280 .0283167
746.004 .0283010
746.727 .0282851
747.450 .0282689
748.173 .0282525
748.896 .0282359
749.618 .0282190
750.340 .0282020
751.062 .0281848
751.784 .0281675
752.506 .0281501
753.227 .0281327
753.948 .0281153
754.669 .0280979
755.389 .0280805
756.110 .0280633
756.830 .0280463
757.550 .0280294
758.269 .0280129
758.989 .0279967
759.708 .0279808
760.427 .0279653
761.146 .0279501
761.864 .0279353
762.582 .0279207
763.300 .0279064
764.018 .0278924
764.736 .0278786
765.453 .0278651
766.170 .0278519
766.887 .0278389
767.603 .0278263
768.320 .0278139
769.036 .0278018
769.751 .0277900
770.467 .0277785
771.182 .0277673
771.897 .0277563
772.612 .0277456
773.327 .0277353
774.041 .0277251
774.755 .0277152
775.469 .0277056
776.183 .0276961
776.896 .0276869
777.609 .0276779
778.322 .0276692
779.035 .0276607
779.747 .0276525
780.459 .0276447
781.171 .0276373
781.882 .0276302
782.594 .0276235
783.305 .0276172
784.016 .0276112
784.726 .0276054
785.436 .0276000
786.147 .0275929
786.856 .0275878
787.566 .0275829
788.275 .0275781
788.984 .0275734
789.693 .0275686
790.401 .0275636
791.110 .0275585
791.818 .0275532
792.525 .0275477
793.233 .0275420
793.940 .0275360
794.647 .0275320
795.353 .0275257
796.060 .0275192
796.766 .0275125
797.472 .0275055
798.177 .0274982
798.883 .0274905
799.588 .0274825
800.292 .0274739
800.997 .0274650
801.701 .0274558
802.405 .0274462
803.109 .0274363
803.812 .0274261
804.515 .0274157
805.218 .0274050
805.921 .0273940
806.623 .0273827
807.325 .0273710
808.027 .0273590
808.728 .0273467
809.429 .0273342
810.130 .0273214
810.831 .0273084
811.531 .0272954
812.231 .0272822
812.931 .0272690
813.630 .0272557
814.330 .0272424
815.029 .0272291
815.727 .0272159
816.426 .0272030
817.124 .0271903
817.821 .0271780
818.519 .0271661
819.216 .0271546
819.913 .0271437
820.609 .0271332
821.306 .0271232
822.002 .0271138
822.697 .0271049
823.393 .0270967
824.088 .0270891
824.783 .0270822
825.477 .0270759
826.171 .0270704
826.865 .0270654
827.559 .0270610
828.252 .0270570
828.945 .0270533
829.638 .0270498
830.330 .0270464
831.023 .0270432
831.714 .0270400
832.406 .0270368
833.097 .0270337
833.788 .0270305
834.479 .0270272
835.169 .0270238
835.859 .0270201
836.548 .0270162
837.238 .0270119
837.927 .0270071
838.615 .0270018
839.304 .0269960
839.992 .0269896
840.680 .0269827
841.367 .0269751
842.054 .0269669
842.741 .0269580
843.428 .0269484
844.114 .0269381
844.800 .0269272
845.485 .0269157
846.170 .0269035
846.855 .0268908
847.540 .0268775
848.224 .0268637
848.908 .0268495
849.592 .0268348
850.275 .0268197
850.958 .0268043
851.641 .0267886
852.323 .0267728
853.005 .0267568
853.687 .0267407
854.368 .0267246
855.049 .0267084
855.730 .0266921
856.410 .0266758
857.090 .0266595
857.769 .0266432
858.449 .0266269
859.128 .0266108
859.806 .0265948
860.485 .0265791
861.163 .0265635
861.840 .0265481
862.518 .0265328
863.195 .0265176
863.871 .0265024
864.548 .0264873
865.224 .0264723
865.899 .0264573
866.574 .0264424
867.249 .0264276
867.924 .0264129
868.598 .0263982
869.272 .0263834
869.946 .0263686
870.619 .0263537
871.292 .0263388
871.964 .0263238
872.636 .0263088
873.308 .0262940
873.979 .0262792
874.651 .0262646
875.321 .0262501
875.992 .0262358
876.662 .0262217
877.331 .0262078
878.001 .0261942
878.670 .0261808
879.338 .0261679
880.007 .0261552
880.675 .0261430
881.342 .0261311
882.009 .0261195
882.676 .0261083
883.343 .0260973
884.009 .0260866
884.675 .0260763
885.340 .0260662
886.005 .0260565
886.670 .0260472
887.334 .0260383
887.998 .0260298
888.662 .0260216
889.325 .0260138
889.988 .0260062
890.650 .0259988
891.312 .0259916
891.974 .0259845
892.636 .0259776
893.297 .0259707
893.957 .0259639
894.618 .0259570
895.278 .0259501
895.937 .0259430
896.596 .0259358
897.255 .0259284
897.914 .0259207
898.572 .0259127
899.230 .0259043
899.887 .0258956
900.544 .0258865
901.201 .0258770
901.857 .0258602
902.513 .0258495
903.168 .0258383
903.823 .0258266
904.478 .0258145
905.132 .0258020
905.786 .0257891
906.440 .0257760
907.093 .0257626
907.746 .0257489
908.399 .0257351
909.051 .0257210
909.703 .0257067
910.354 .0256995
911.005 .0256852
911.656 .0256707
912.306 .0256561
912.956 .0256416
913.605 .0256272
914.254 .0256130
914.903 .0255990
915.551 .0255854
916.199 .0255720
916.847 .0255589
917.494 .0255460
918.141 .0255333
918.788 .0255206
919.434 .0255078
920.079 .0254950
920.725 .0254821
921.370 .0254692
922.014 .0254560
922.658 .0254428
923.302 .0254295
923.946 .0254160
924.589 .0254023
925.231 .0253884
925.873 .0253742
926.515 .0253597
927.157 .0253449
927.798 .0253298
928.439 .0253145
929.079 .0252991
929.719 .0252834
930.359 .0252677
930.998 .0252519
931.637 .0252361
932.275 .0252203
932.913 .0252045
933.551 .0251887
934.188 .0251732
934.825 .0251579
935.462 .0251429
936.098 .0251283
936.733 .0251142
937.369 .0251007
938.004 .0250878
938.638 .0250755
939.273 .0250638
939.907 .0250526
940.540 .0250421
941.173 .0250323
941.806 .0250231
942.438 .0250146
943.070 .0250068
943.702 .0249997
944.333 .0249932
944.964 .0249873
945.594 .0249820
946.224 .0249770
946.854 .0249723
947.483 .0249678
948.112 .0249634
948.741 .0249592
949.369 .0249550
949.996 .0249510
950.624 .0249470
951.251 .0249431
951.878 .0249393
952.504 .0249355
953.130 .0249317
953.755 .0249279
954.380 .0249241
955.005 .0249203
955.629 .0249165
956.253 .0249126
956.877 .0249087
957.500 .0249048
958.123 .0249008
958.746 .0248968
959.368 .0248928
959.990 .0248888
960.611 .0248849
961.232 .0248812
961.853 .0248777
962.473 .0248744
963.093 .0248714
963.712 .0248685
964.331 .0248658
964.950 .0248634
965.569 .0248611
966.187 .0248590
966.804 .0248572
967.422 .0248557
968.039 .0248544
968.655 .0248534
969.272 .0248525
969.887 .0248517
970.503 .0248510
971.118 .0248503
971.733 .0248494
972.347 .0248483
972.961 .0248471
973.575 .0248456
974.188 .0248439
974.801 .0248420
975.414 .0248399
976.026 .0248374
976.638 .0248345
977.250 .0248313
977.861 .0248275
978.472 .0248232
979.083 .0248184
979.693 .0248130
980.303 .0248072
980.912 .0247964
981.521 .0247897
982.130 .0247828
982.738 .0247757
983.346 .0247685
983.954 .0247613
984.562 .0247540
985.169 .0247468
985.775 .0247396
986.382 .0247327
986.988 .0247260
987.594 .0247197
988.199 .0247139
988.804 .0247087
989.409 .0247083
990.013 .0247042
990.617 .0247008
991.221 .0246979
991.824 .0246956
992.427 .0246937
993.030 .0246921
993.632 .0246908
994.234 .0246898
994.836 .0246891
995.438 .0246885
996.039 .0246882
996.640 .0246882
997.240 .0246885
997.840 .0246891
998.440 .0246900
999.040 .0246911
999.639 .0246924
1000.238 .0246937
1000.836 .0246951
1001.435 .0246965
1002.033 .0246978
1002.630 .0246991
1003.228 .0247004
1003.825 .0247016
1004.422 .0247027
1005.018 .0247036
1005.614 .0247042
1006.210 .0247044
1006.806 .0247042
1007.401 .0247035
1007.996 .0247025
1008.591 .0247010
1009.186 .0246994
1009.780 .0246977
1010.374 .0246961
1010.967 .0246946
1011.561 .0246933
1012.154 .0246923
1012.746 .0246915
1013.339 .0246908
1013.931 .0246904
1014.523 .0246903
1015.115 .0246904
1015.706 .0246908
1016.298 .0246916
1016.888 .0246929
1017.479 .0246946
1018.069 .0246967
1018.660 .0246991
1019.250 .0247017
1019.839 .0247045
1020.429 .0247073
1021.018 .0247101
1021.607 .0247130
1022.195 .0247160
1022.784 .0247191
1023.372 .0247225
1023.960 .0247262
1024.547 .0247302
1025.135 .0247346
1025.722 .0247393
1026.309 .0247442
1026.896 .0247491
1027.483 .0247539
1028.069 .0247586
1028.655 .0247630
1029.241 .0247672
1029.827 .0247712
1030.412 .0247750
1030.997 .0247788
1031.582 .0247824
1032.167 .0247859
1032.752 .0247892
1033.336 .0247922
1033.921 .0247948
1034.505 .0247969
1035.089 .0247985
1035.672 .0247995
1036.256 .0247999
1036.839 .0247999
1037.422 .0247995
1038.005 .0247988
1038.588 .0247980
1039.171 .0247970
1039.753 .0247957
1040.335 .0247943
1040.918 .0247927
1041.500 .0247907
1042.081 .0247883
1042.663 .0247856
1043.244 .0247826
1043.826 .0247793
1044.407 .0247760
1044.988 .0247728
1045.569 .0247698
1046.150 .0247671
1046.730 .0247646
1047.311 .0247623
1047.891 .0247601
1048.471 .0247578
1049.052 .0247554
1049.632 .0247529
1050.211 .0247501
1050.791 .0247474
1051.371 .0247447
1051.950 .0247423
1052.530 .0247402
1053.109 .0247385
1053.688 .0247372
1054.268 .0247360
1054.847 .0247350
1055.426 .0247339
1056.005 .0247327
1056.583 .0247313
1057.162 .0247299
1057.741 .0247283
1058.319 .0247269
1058.898 .0247256
1059.476 .0247246
1060.055 .0247238
1060.633 .0247231
1061.211 .0247224
1061.790 .0247217
1062.368 .0247207
1062.946 .0247195
1063.524 .0247180
1064.102 .0247163
1064.680 .0247146
1065.258 .0247130
1065.836 .0247116
1066.414 .0247103
1066.992 .0247092
1067.570 .0247082
1068.148 .0247071
1068.726 .0247059
1069.304 .0247045
1069.882 .0247029
1070.460 .0247011
1071.038 .0246993
1071.616 .0246976
1072.194 .0246959
1072.772 .0246943
1073.350 .0246927
1073.928 .0246908
1074.506 .0246886
1075.084 .0246858
1075.662 .0246825
1076.240 .0246785
1076.819 .0246740
1077.397 .0246692
1077.976 .0246642
1078.554 .0246592
1079.133 .0246544
1079.711 .0246498
1080.290 .0246457
1080.869 .0246420
1081.448 .0246386
1082.027 .0246357
1082.606 .0246332
1083.185 .0246314
1083.764 .0246303
1084.343 .0246301
1084.923 .0246310
1085.502 .0246329
1086.082 .0246359
1086.662 .0246399
1087.242 .0246446
1087.822 .0246498
1088.402 .0246555
1088.983 .0246612
1089.563 .0246670
1090.144 .0246727
1090.725 .0246785
1091.306 .0246844
1091.887 .0246905
1092.469 .0246968
1093.050 .0247033
1093.632 .0247101
1094.214 .0247170
1094.796 .0247242
1095.379 .0247316
1095.961 .0247394
1096.544 .0247476
1097.127 .0247565
1097.710 .0247662
1098.294 .0247769
1098.877 .0247884
1099.461 .0248007
1100.046 .0248135
1100.630 .0248266
1101.215 .0248396
1101.800 .0248523
1102.385 .0248645
1102.970 .0248763
1103.556 .0248876
1104.142 .0248986
1104.728 .0249095
1105.315 .0249205
1105.902 .0249315
1106.489 .0249427
1107.077 .0249541
1107.664 .0249656
1108.253 .0249773
1108.841 .0249894
1109.430 .0250019
1110.019 .0250150
1110.609 .0250289
1111.198 .0250437
1111.789 .0250594
1112.379 .0250762
1112.970 .0250937
1113.561 .0251118
1114.153 .0251303
1114.745 .0251492
1115.338 .0251684
1115.931 .0251877
1116.524 .0252075
1117.117 .0252276
1117.712 .0252485
1118.306 .0252703
1118.901 .0252931
1119.496 .0253172
1120.092 .0253427
1120.689 .0253697
1121.285 .0253985
1121.882 .0254294
1122.480 .0254627
1123.078 .0254988
1123.677 .0255383
1124.276 .0255812
1124.875 .0256279
1125.476 .0256787
1126.076 .0257337
1126.677 .0257929
1127.279 .0258563
1127.881 .0259238
1128.484 .0259954
1129.087 .0260226
1129.691 .0260998
1130.295 .0261813
1130.900 .0262668
1131.505 .0263565
1132.111 .0264505
1132.718 .0265490
1133.325 .0266519
1133.933 .0267592
1134.541 .0268707
1135.150 .0269912
1135.760 .0271160
1136.370 .0272369
1136.981 .0272815
1137.592 .0274287
1138.204 .0275814
1138.817 .0277315
1139.431 .0278855
1140.045 .0280474
1140.660 .0282164
1141.275 .0283837
1141.891 .0285555
1142.508 .0287172
1143.126 .0290198
1143.744 .0291873
1144.363 .0291293
1144.983 .0293644
