Measurement Sequence started on: 15-12-46-377
Integration time: 28
Scans to Average: 2 
>>>>>Begin Spectral Data<<<<<
432.689 .0000100
433.621 .0000100
434.552 .0000100
435.482 .0000100
436.410 .0000100
437.337 .0000100
438.262 .0254835
439.187 .0541090
440.110 .0896774
441.031 .1297601
441.952 .1041229
442.871 .1088017
443.789 .1131831
444.705 .1173329
445.621 .1212948
446.535 .1250995
447.447 .1274285
448.359 .1281316
449.269 .1268569
450.178 .1233782
451.086 .1177649
451.993 .1104626
452.898 .1022084
453.803 .0938387
454.706 .0860656
455.608 .0793294
456.508 .0737746
457.408 .0700515
458.306 .0672095
459.204 .0648989
460.100 .0629425
460.995 .0612437
461.888 .0597387
462.781 .0583860
463.673 .0571579
464.563 .0560354
465.452 .0550061
466.340 .0540606
467.228 .0531906
468.114 .0523902
468.999 .0516532
469.882 .0509743
470.765 .0503488
471.647 .0497729
472.528 .0492437
473.407 .0487586
474.286 .0483171
475.163 .0479188
476.040 .0475634
476.915 .0472507
477.790 .0469803
478.663 .0467512
479.535 .0465622
480.407 .0464108
481.277 .0462943
482.147 .0462093
483.015 .0461518
483.883 .0461185
484.749 .0461059
485.615 .0461113
486.479 .0461326
487.343 .0461681
488.206 .0462173
489.067 .0462787
489.928 .0463529
490.788 .0464397
491.647 .0465394
492.505 .0466521
493.362 .0467779
494.218 .0469166
495.073 .0470683
495.928 .0473448
496.781 .0475318
497.634 .0477331
498.486 .0479498
499.337 .0481836
500.187 .0484373
501.036 .0487133
501.884 .0490151
502.731 .0493464
503.578 .0497103
504.424 .0499615
505.268 .0503858
506.113 .0508533
506.956 .0513676
507.798 .0519345
508.640 .0525611
509.480 .0532565
510.320 .0540315
511.160 .0548992
511.998 .0558732
512.836 .0569710
513.672 .0582128
514.508 .0596201
515.344 .0612192
516.178 .0630365
517.012 .0651006
517.845 .0674374
518.677 .0700709
519.508 .0730188
520.339 .0762878
521.169 .0798802
521.998 .0837725
522.826 .0879264
523.654 .0922869
524.481 .0967852
525.307 .1013424
526.133 .1058703
526.958 .1102728
527.782 .1144561
528.605 .1183348
529.428 .1218339
530.250 .1248841
531.072 .1274376
531.892 .1294573
532.712 .1309164
533.532 .1317988
534.350 .1320966
535.168 .1318083
535.986 .1309407
536.802 .1295005
537.618 .1275009
538.434 .1249587
539.249 .1219143
540.063 .1184198
540.876 .1145421
541.689 .1103591
542.501 .1059551
543.313 .1014196
544.124 .0968472
544.934 .0923254
545.744 .0879303
546.553 .0837272
547.361 .0797719
548.169 .0760965
548.976 .0727215
549.783 .0696516
550.589 .0668809
551.395 .0643918
552.200 .0621621
553.004 .0601614
553.808 .0583636
554.611 .0567466
555.414 .0552886
556.216 .0539689
557.018 .0527687
557.819 .0516712
558.619 .0506623
559.419 .0497301
560.218 .0488660
561.017 .0480612
561.815 .0473104
562.613 .0466095
563.410 .0459537
564.207 .0453378
565.003 .0447566
565.799 .0442042
566.594 .0436752
567.388 .0431642
568.182 .0426669
568.976 .0421797
569.769 .0417013
570.562 .0412310
571.354 .0407690
572.145 .0403163
572.936 .0398740
573.727 .0394432
574.517 .0390248
575.307 .0386191
576.096 .0382259
576.885 .0378450
577.673 .0374767
578.461 .0371211
579.248 .0367788
580.035 .0364506
580.821 .0361371
581.607 .0358392
582.392 .0355576
583.177 .0352928
583.962 .0350448
584.746 .0348135
585.529 .0345983
586.313 .0343984
587.095 .0342129
587.878 .0340408
588.660 .0338813
589.441 .0337335
590.222 .0335968
591.003 .0334708
591.783 .0333547
592.563 .0332480
593.342 .0331501
594.121 .0330605
594.899 .0329783
595.678 .0329027
596.455 .0328330
597.233 .0327685
598.009 .0327087
598.786 .0326530
599.562 .0326008
600.338 .0325518
601.113 .0325058
601.888 .0324444
602.663 .0324035
603.437 .0323646
604.211 .0323274
604.984 .0322915
605.757 .0322568
606.530 .0322229
607.302 .0321897
608.074 .0321571
608.845 .0321251
609.616 .0320935
610.387 .0320783
611.158 .0320475
611.928 .0320172
612.697 .0319873
613.467 .0319579
614.236 .0319287
615.004 .0319000
615.773 .0318716
616.541 .0318435
617.308 .0318158
618.076 .0317885
618.843 .0317614
619.609 .0317346
620.375 .0317080
621.141 .0316814
621.907 .0316547
622.672 .0316279
623.437 .0316009
624.202 .0315737
624.966 .0315462
625.730 .0315185
626.493 .0314904
627.257 .0314620
628.020 .0314331
628.782 .0314038
629.545 .0313741
630.307 .0313440
631.068 .0313135
631.830 .0312827
632.591 .0312518
633.352 .0312207
634.112 .0311897
634.872 .0311589
635.632 .0311282
636.392 .0310979
637.151 .0310681
637.910 .0310388
638.668 .0310101
639.427 .0309822
640.185 .0309553
640.943 .0309293
641.700 .0309045
642.457 .0308808
643.214 .0308582
643.971 .0308368
644.727 .0308164
645.483 .0307969
646.239 .0307783
646.994 .0307605
647.750 .0307433
648.505 .0307266
649.259 .0307104
650.014 .0306945
650.768 .0306789
651.521 .0306635
652.275 .0306482
653.028 .0306328
653.781 .0306172
654.534 .0306014
655.286 .0305852
656.039 .0305686
656.791 .0305515
657.542 .0305338
658.294 .0305156
659.045 .0304967
659.796 .0304771
660.546 .0304569
661.297 .0304360
662.047 .0304146
662.796 .0303925
663.546 .0303700
664.295 .0303471
665.044 .0303240
665.793 .0303007
666.542 .0302773
667.290 .0302539
668.038 .0302306
668.786 .0302075
669.533 .0301846
670.281 .0301619
671.028 .0301396
671.774 .0301178
672.521 .0300963
673.267 .0300754
674.013 .0300550
674.759 .0300351
675.505 .0300158
676.250 .0299969
676.995 .0299786
677.740 .0299608
678.484 .0299436
679.229 .0299268
679.973 .0299105
680.717 .0298945
681.460 .0298788
682.204 .0298633
682.947 .0298478
683.690 .0298324
684.433 .0298169
685.175 .0298013
685.917 .0297855
686.659 .0297696
687.401 .0297535
688.142 .0297373
688.884 .0297207
689.625 .0297038
690.365 .0296864
691.106 .0296686
691.846 .0296502
692.586 .0296313
693.326 .0296119
694.066 .0295920
694.805 .0295717
695.545 .0295510
696.284 .0295300
697.022 .0295088
697.761 .0294872
698.499 .0294654
699.237 .0294435
699.975 .0294215
700.713 .0293994
701.450 .0293774
702.187 .0293553
702.924 .0293333
703.661 .0293113
704.397 .0292894
705.133 .0292674
705.869 .0292455
706.605 .0292237
707.341 .0292019
708.076 .0291804
708.811 .0291590
709.546 .0291380
710.281 .0291172
711.015 .0290967
711.749 .0290765
712.483 .0290564
713.217 .0290364
713.950 .0290165
714.684 .0289967
715.417 .0289770
716.150 .0289572
716.882 .0289375
717.615 .0289178
718.347 .0288981
719.079 .0288785
719.811 .0288590
720.542 .0288396
721.273 .0288203
722.005 .0288012
722.735 .0287823
723.466 .0287635
724.196 .0287451
724.927 .0287269
725.656 .0287089
726.386 .0286912
727.116 .0286738
727.845 .0286567
728.574 .0286399
729.303 .0286235
730.031 .0286076
730.760 .0285921
731.488 .0285773
732.216 .0285629
732.944 .0285492
733.671 .0285360
734.398 .0285232
735.125 .0285108
735.852 .0284987
736.579 .0284869
737.305 .0284754
738.031 .0284642
738.757 .0284533
739.483 .0284429
740.208 .0284329
740.933 .0284234
741.658 .0284142
742.383 .0284053
743.108 .0283966
743.832 .0283881
744.556 .0283796
745.280 .0283712
746.004 .0283628
746.727 .0283543
747.450 .0283459
748.173 .0283376
748.896 .0283293
749.618 .0283209
750.340 .0283125
751.062 .0283040
751.784 .0282955
752.506 .0282870
753.227 .0282784
753.948 .0282696
754.669 .0282608
755.389 .0282516
756.110 .0282422
756.830 .0282324
757.550 .0282222
758.269 .0282116
758.989 .0282007
759.708 .0281896
760.427 .0281782
761.146 .0281666
761.864 .0281549
762.582 .0281430
763.300 .0281309
764.018 .0281186
764.736 .0281060
765.453 .0280932
766.170 .0280801
766.887 .0280668
767.603 .0280534
768.320 .0280399
769.036 .0280264
769.751 .0280127
770.467 .0279990
771.182 .0279853
771.897 .0279715
772.612 .0279577
773.327 .0279439
774.041 .0279301
774.755 .0279162
775.469 .0279024
776.183 .0278886
776.896 .0278748
777.609 .0278611
778.322 .0278474
779.035 .0278337
779.747 .0278202
780.459 .0278067
781.171 .0277933
781.882 .0277800
782.594 .0277668
783.305 .0277537
784.016 .0277406
784.726 .0277275
785.436 .0277143
786.147 .0276944
786.856 .0276809
787.566 .0276674
788.275 .0276538
788.984 .0276399
789.693 .0276259
790.401 .0276117
791.110 .0275973
791.818 .0275826
792.525 .0275676
793.233 .0275522
793.940 .0275365
794.647 .0275276
795.353 .0275114
796.060 .0274950
796.766 .0274783
797.472 .0274615
798.177 .0274444
798.883 .0274272
799.588 .0274097
800.292 .0273921
800.997 .0273744
801.701 .0273565
802.405 .0273385
803.109 .0273204
803.812 .0273022
804.515 .0272840
805.218 .0272657
805.921 .0272474
806.623 .0272291
807.325 .0272107
808.027 .0271924
808.728 .0271740
809.429 .0271557
810.130 .0271374
810.831 .0271194
811.531 .0271016
812.231 .0270841
812.931 .0270669
813.630 .0270500
814.330 .0270335
815.029 .0270175
815.727 .0270019
816.426 .0269868
817.124 .0269723
817.821 .0269584
818.519 .0269452
819.216 .0269327
819.913 .0269210
820.609 .0269101
821.306 .0269001
822.002 .0268908
822.697 .0268825
823.393 .0268749
824.088 .0268682
824.783 .0268624
825.477 .0268575
826.171 .0268534
826.865 .0268501
827.559 .0268477
828.252 .0268461
828.945 .0268452
829.638 .0268450
830.330 .0268454
831.023 .0268464
831.714 .0268479
832.406 .0268499
833.097 .0268521
833.788 .0268545
834.479 .0268571
835.169 .0268596
835.859 .0268621
836.548 .0268644
837.238 .0268665
837.927 .0268685
838.615 .0268702
839.304 .0268717
839.992 .0268730
840.680 .0268741
841.367 .0268749
842.054 .0268755
842.741 .0268756
843.428 .0268755
844.114 .0268749
844.800 .0268740
845.485 .0268727
846.170 .0268709
846.855 .0268688
847.540 .0268662
848.224 .0268631
848.908 .0268596
849.592 .0268557
850.275 .0268512
850.958 .0268463
851.641 .0268409
852.323 .0268351
853.005 .0268288
853.687 .0268221
854.368 .0268149
855.049 .0268072
855.730 .0267991
856.410 .0267904
857.090 .0267813
857.769 .0267717
858.449 .0267618
859.128 .0267515
859.806 .0267409
860.485 .0267300
861.163 .0267188
861.840 .0267074
862.518 .0266958
863.195 .0266839
863.871 .0266718
864.548 .0266595
865.224 .0266471
865.899 .0266345
866.574 .0266219
867.249 .0266092
867.924 .0265966
868.598 .0265840
869.272 .0265716
869.946 .0265594
870.619 .0265475
871.292 .0265358
871.964 .0265245
872.636 .0265134
873.308 .0265026
873.979 .0264921
874.651 .0264818
875.321 .0264718
875.992 .0264619
876.662 .0264522
877.331 .0264427
878.001 .0264332
878.670 .0264239
879.338 .0264146
880.007 .0264054
880.675 .0263962
881.342 .0263869
882.009 .0263775
882.676 .0263680
883.343 .0263584
884.009 .0263486
884.675 .0263386
885.340 .0263285
886.005 .0263182
886.670 .0263078
887.334 .0262972
887.998 .0262864
888.662 .0262755
889.325 .0262643
889.988 .0262528
890.650 .0262409
891.312 .0262288
891.974 .0262162
892.636 .0262033
893.297 .0261899
893.957 .0261763
894.618 .0261622
895.278 .0261478
895.937 .0261329
896.596 .0261177
897.255 .0261020
897.914 .0260859
898.572 .0260693
899.230 .0260521
899.887 .0260344
900.544 .0260161
901.201 .0259973
901.857 .0259664
902.513 .0259462
903.168 .0259256
903.823 .0259045
904.478 .0258829
905.132 .0258609
905.786 .0258385
906.440 .0258158
907.093 .0257927
907.746 .0257694
908.399 .0257458
909.051 .0257221
909.703 .0256982
910.354 .0256863
911.005 .0256625
911.656 .0256388
912.306 .0256151
912.956 .0255915
913.605 .0255679
914.254 .0255446
914.903 .0255213
915.551 .0254983
916.199 .0254756
916.847 .0254531
917.494 .0254310
918.141 .0254092
918.788 .0253878
919.434 .0253667
920.079 .0253458
920.725 .0253252
921.370 .0253049
922.014 .0252847
922.658 .0252647
923.302 .0252449
923.946 .0252254
924.589 .0252061
925.231 .0251871
925.873 .0251685
926.515 .0251502
927.157 .0251322
927.798 .0251144
928.439 .0250969
929.079 .0250797
929.719 .0250627
930.359 .0250459
930.998 .0250295
931.637 .0250133
932.275 .0249975
932.913 .0249820
933.551 .0249671
934.188 .0249526
934.825 .0249387
935.462 .0249254
936.098 .0249128
936.733 .0249008
937.369 .0248894
938.004 .0248788
938.638 .0248688
939.273 .0248596
939.907 .0248511
940.540 .0248433
941.173 .0248364
941.806 .0248302
942.438 .0248249
943.070 .0248204
943.702 .0248168
944.333 .0248141
944.964 .0248121
945.594 .0248109
946.224 .0248104
946.854 .0248105
947.483 .0248112
948.112 .0248124
948.741 .0248141
949.369 .0248163
949.996 .0248189
950.624 .0248219
951.251 .0248253
951.878 .0248289
952.504 .0248327
953.130 .0248366
953.755 .0248407
954.380 .0248450
955.005 .0248493
955.629 .0248538
956.253 .0248584
956.877 .0248631
957.500 .0248677
958.123 .0248722
958.746 .0248766
959.368 .0248808
959.990 .0248849
960.611 .0248889
961.232 .0248928
961.853 .0248966
962.473 .0249004
963.093 .0249040
963.712 .0249076
964.331 .0249111
964.950 .0249145
965.569 .0249177
966.187 .0249208
966.804 .0249238
967.422 .0249267
968.039 .0249294
968.655 .0249319
969.272 .0249343
969.887 .0249365
970.503 .0249385
971.118 .0249402
971.733 .0249417
972.347 .0249429
972.961 .0249439
973.575 .0249447
974.188 .0249454
974.801 .0249460
975.414 .0249463
976.026 .0249464
976.638 .0249462
977.250 .0249458
977.861 .0249450
978.472 .0249439
979.083 .0249426
979.693 .0249411
980.303 .0249395
980.912 .0249368
981.521 .0249349
982.130 .0249330
982.738 .0249310
983.346 .0249290
983.954 .0249269
984.562 .0249248
985.169 .0249227
985.775 .0249207
986.382 .0249188
986.988 .0249169
987.594 .0249151
988.199 .0249134
988.804 .0249117
989.409 .0249110
990.013 .0249093
990.617 .0249076
991.221 .0249057
991.824 .0249038
992.427 .0249017
993.030 .0248994
993.632 .0248970
994.234 .0248944
994.836 .0248917
995.438 .0248889
996.039 .0248860
996.640 .0248830
997.240 .0248800
997.840 .0248769
998.440 .0248738
999.040 .0248707
999.639 .0248675
1000.238 .0248643
1000.836 .0248610
1001.435 .0248577
1002.033 .0248543
1002.630 .0248508
1003.228 .0248473
1003.825 .0248438
1004.422 .0248401
1005.018 .0248362
1005.614 .0248320
1006.210 .0248276
1006.806 .0248228
1007.401 .0248177
1007.996 .0248122
1008.591 .0248065
1009.186 .0248006
1009.780 .0247945
1010.374 .0247884
1010.967 .0247821
1011.561 .0247759
1012.154 .0247695
1012.746 .0247631
1013.339 .0247566
1013.931 .0247499
1014.523 .0247431
1015.115 .0247362
1015.706 .0247293
1016.298 .0247223
1016.888 .0247153
1017.479 .0247085
1018.069 .0247018
1018.660 .0246952
1019.250 .0246887
1019.839 .0246822
1020.429 .0246758
1021.018 .0246693
1021.607 .0246628
1022.195 .0246564
1022.784 .0246500
1023.372 .0246438
1023.960 .0246377
1024.547 .0246320
1025.135 .0246266
1025.722 .0246215
1026.309 .0246166
1026.896 .0246117
1027.483 .0246068
1028.069 .0246018
1028.655 .0245964
1029.241 .0245907
1029.827 .0245846
1030.412 .0245782
1030.997 .0245715
1031.582 .0245645
1032.167 .0245572
1032.752 .0245498
1033.336 .0245420
1033.921 .0245339
1034.505 .0245254
1035.089 .0245166
1035.672 .0245074
1036.256 .0244979
1036.839 .0244882
1037.422 .0244785
1038.005 .0244688
1038.588 .0244592
1039.171 .0244496
1039.753 .0244401
1040.335 .0244305
1040.918 .0244209
1041.500 .0244112
1042.081 .0244013
1042.663 .0243912
1043.244 .0243811
1043.826 .0243709
1044.407 .0243607
1044.988 .0243506
1045.569 .0243405
1046.150 .0243305
1046.730 .0243205
1047.311 .0243104
1047.891 .0243003
1048.471 .0242902
1049.052 .0242802
1049.632 .0242702
1050.211 .0242604
1050.791 .0242509
1051.371 .0242416
1051.950 .0242325
1052.530 .0242237
1053.109 .0242151
1053.688 .0242067
1054.268 .0241985
1054.847 .0241906
1055.426 .0241831
1056.005 .0241761
1056.583 .0241698
1057.162 .0241641
1057.741 .0241590
1058.319 .0241546
1058.898 .0241509
1059.476 .0241476
1060.055 .0241449
1060.633 .0241426
1061.211 .0241407
1061.790 .0241393
1062.368 .0241383
1062.946 .0241378
1063.524 .0241377
1064.102 .0241378
1064.680 .0241381
1065.258 .0241383
1065.836 .0241383
1066.414 .0241382
1066.992 .0241380
1067.570 .0241377
1068.148 .0241376
1068.726 .0241377
1069.304 .0241382
1069.882 .0241392
1070.460 .0241406
1071.038 .0241424
1071.616 .0241445
1072.194 .0241468
1072.772 .0241491
1073.350 .0241513
1073.928 .0241535
1074.506 .0241556
1075.084 .0241577
1075.662 .0241599
1076.240 .0241623
1076.819 .0241650
1077.397 .0241681
1077.976 .0241716
1078.554 .0241755
1079.133 .0241798
1079.711 .0241846
1080.290 .0241899
1080.869 .0241958
1081.448 .0242023
1082.027 .0242095
1082.606 .0242176
1083.185 .0242265
1083.764 .0242362
1084.343 .0242467
1084.923 .0242579
1085.502 .0242696
1086.082 .0242819
1086.662 .0242945
1087.242 .0243073
1087.822 .0243203
1088.402 .0243334
1088.983 .0243465
1089.563 .0243596
1090.144 .0243728
1090.725 .0243859
1091.306 .0243991
1091.887 .0244123
1092.469 .0244255
1093.050 .0244388
1093.632 .0244522
1094.214 .0244657
1094.796 .0244792
1095.379 .0244928
1095.961 .0245065
1096.544 .0245204
1097.127 .0245345
1097.710 .0245489
1098.294 .0245639
1098.877 .0245794
1099.461 .0245958
1100.046 .0246130
1100.630 .0246312
1101.215 .0246506
1101.800 .0246711
1102.385 .0246927
1102.970 .0247155
1103.556 .0247396
1104.142 .0247651
1104.728 .0247921
1105.315 .0248207
1105.902 .0248511
1106.489 .0248834
1107.077 .0249175
1107.664 .0249534
1108.253 .0249910
1108.841 .0250301
1109.430 .0250706
1110.019 .0251122
1110.609 .0251548
1111.198 .0251984
1111.789 .0252429
1112.379 .0252883
1112.970 .0253347
1113.561 .0253822
1114.153 .0254307
1114.745 .0254805
1115.338 .0255317
1115.931 .0255842
1116.524 .0256381
1117.117 .0256933
1117.712 .0257498
1118.306 .0258072
1118.901 .0258655
1119.496 .0259248
1120.092 .0259850
1120.689 .0260461
1121.285 .0261084
1121.882 .0261721
1122.480 .0262373
1123.078 .0263043
1123.677 .0263730
1124.276 .0264437
1124.875 .0265163
1125.476 .0265908
1126.076 .0266672
1126.677 .0267455
1127.279 .0268259
1127.881 .0269083
1128.484 .0269930
1129.087 .0270293
1129.691 .0271178
1130.295 .0272089
1130.900 .0273027
1131.505 .0273992
1132.111 .0274982
1132.718 .0275991
1133.325 .0277012
1133.933 .0278037
1134.541 .0279122
1135.150 .0280210
1135.760 .0281169
1136.370 .0282096
1136.981 .0283877
1137.592 .0284960
1138.204 .0286124
1138.817 .0287316
1139.431 .0288535
1140.045 .0289764
1140.660 .0290873
1141.275 .0291842
1141.891 .0292674
1142.508 .0295070
1143.126 .0295899
1143.744 .0293066
1144.363 .0292983
1144.983 .0294574
