Measurement Sequence started on: 15-12-46-377
Integration time: 28
Scans to Average: 2 
>>>>>Begin Spectral Data<<<<<
432.689 .0000100
433.621 .0000100
434.552 .0000100
435.482 .0000100
436.410 .0000100
437.337 .0000100
438.262 .0248643
439.187 .0526858
440.110 .0872090
441.031 .1262280
441.952 .1011479
442.871 .1056019
443.789 .1097398
444.705 .1136312
445.621 .1173228
446.535 .1208490
447.447 .1229283
448.359 .1234240
449.269 .1220001
450.178 .1184335
451.086 .1127934
451.993 .1055150
452.898 .0973167
453.803 .0890122
454.706 .0812964
455.608 .0746004
456.508 .0690705
457.408 .0653478
458.306 .0625070
459.204 .0602129
460.100 .0582995
460.995 .0566700
461.888 .0552569
462.781 .0540158
463.673 .0529151
464.563 .0519307
465.452 .0510462
466.340 .0502475
467.228 .0495236
468.114 .0488660
468.999 .0482669
469.882 .0477194
470.765 .0472171
471.647 .0467552
472.528 .0463304
473.407 .0459402
474.286 .0455833
475.163 .0452596
476.040 .0449681
476.915 .0447090
477.790 .0444813
478.663 .0442829
479.535 .0441118
480.407 .0439653
481.277 .0438410
482.147 .0437358
483.015 .0436477
483.883 .0435746
484.749 .0435151
485.615 .0434687
486.479 .0434349
487.343 .0434129
488.206 .0434028
489.067 .0434040
489.928 .0434162
490.788 .0434393
491.647 .0434730
492.505 .0435176
493.362 .0435743
494.218 .0436434
495.073 .0437270
495.928 .0439089
496.781 .0440350
497.634 .0441795
498.486 .0443439
499.337 .0445305
500.187 .0447420
501.036 .0449817
501.884 .0452533
502.731 .0455611
503.578 .0459093
504.424 .0461736
505.268 .0466006
506.113 .0470811
506.956 .0476203
507.798 .0482254
508.640 .0489038
509.480 .0496637
510.320 .0505146
511.160 .0514675
511.998 .0525344
512.836 .0537309
513.672 .0550727
514.508 .0565767
515.344 .0582629
516.178 .0601511
517.012 .0622628
517.845 .0646175
518.677 .0672325
519.508 .0701200
520.339 .0732834
521.169 .0767207
521.998 .0804071
522.826 .0843050
523.654 .0883646
524.481 .0925225
525.307 .0967055
526.133 .1008333
526.958 .1048224
527.782 .1085910
528.605 .1120626
529.428 .1151709
530.250 .1178543
531.072 .1200706
531.892 .1217865
532.712 .1229780
533.532 .1236335
534.350 .1237481
535.168 .1233242
535.986 .1223705
536.802 .1208986
537.618 .1189247
538.434 .1164680
539.249 .1135695
540.063 .1102803
540.876 .1066603
541.689 .1027796
542.501 .0987143
543.313 .0945442
544.124 .0903500
544.934 .0862086
545.744 .0821899
546.553 .0783523
547.361 .0747466
548.169 .0714026
548.976 .0683400
549.783 .0655654
550.589 .0630710
551.395 .0608393
552.200 .0588461
553.004 .0570617
553.808 .0554575
554.611 .0540092
555.414 .0526956
556.216 .0514965
557.018 .0503944
557.819 .0493755
558.619 .0484288
559.419 .0475453
560.218 .0467183
561.017 .0459416
561.815 .0452102
562.613 .0445198
563.410 .0438647
564.207 .0432402
565.003 .0426420
565.799 .0420656
566.594 .0415079
567.388 .0409676
568.182 .0404438
568.976 .0399360
569.769 .0394453
570.562 .0389726
571.354 .0385185
572.145 .0380832
572.936 .0376665
573.727 .0372673
574.517 .0368845
575.307 .0365170
576.096 .0361637
576.885 .0358242
577.673 .0354984
578.461 .0351862
579.248 .0348874
580.035 .0346023
580.821 .0343307
581.607 .0340726
582.392 .0338281
583.177 .0335970
583.962 .0333789
584.746 .0331735
585.529 .0329805
586.313 .0327996
587.095 .0326306
587.878 .0324730
588.660 .0323264
589.441 .0321903
590.222 .0320642
591.003 .0319476
591.783 .0318398
592.563 .0317403
593.342 .0316483
594.121 .0315630
594.899 .0314838
595.678 .0314101
596.455 .0313414
597.233 .0312773
598.009 .0312172
598.786 .0311606
599.562 .0311072
600.338 .0310565
601.113 .0310081
601.888 .0309414
602.663 .0308972
603.437 .0308546
604.211 .0308133
604.984 .0307734
605.757 .0307347
606.530 .0306971
607.302 .0306608
608.074 .0306256
608.845 .0305915
609.616 .0305588
610.387 .0305451
611.158 .0305145
611.928 .0304854
612.697 .0304577
613.467 .0304316
614.236 .0304070
615.004 .0303837
615.773 .0303617
616.541 .0303411
617.308 .0303217
618.076 .0303036
618.843 .0302868
619.609 .0302711
620.375 .0302565
621.141 .0302431
621.907 .0302305
622.672 .0302187
623.437 .0302075
624.202 .0301968
624.966 .0301864
625.730 .0301762
626.493 .0301661
627.257 .0301559
628.020 .0301456
628.782 .0301350
629.545 .0301240
630.307 .0301124
631.068 .0301001
631.830 .0300872
632.591 .0300737
633.352 .0300595
634.112 .0300446
634.872 .0300292
635.632 .0300130
636.392 .0299960
637.151 .0299781
637.910 .0299593
638.668 .0299396
639.427 .0299189
640.185 .0298975
640.943 .0298754
641.700 .0298528
642.457 .0298298
643.214 .0298065
643.971 .0297828
644.727 .0297588
645.483 .0297343
646.239 .0297094
646.994 .0296840
647.750 .0296580
648.505 .0296317
649.259 .0296049
650.014 .0295779
650.768 .0295506
651.521 .0295231
652.275 .0294954
653.028 .0294676
653.781 .0294397
654.534 .0294117
655.286 .0293837
656.039 .0293557
656.791 .0293277
657.542 .0292997
658.294 .0292718
659.045 .0292439
659.796 .0292160
660.546 .0291882
661.297 .0291605
662.047 .0291330
662.796 .0291059
663.546 .0290791
664.295 .0290527
665.044 .0290268
665.793 .0290014
666.542 .0289765
667.290 .0289522
668.038 .0289285
668.786 .0289055
669.533 .0288834
670.281 .0288622
671.028 .0288421
671.774 .0288231
672.521 .0288053
673.267 .0287887
674.013 .0287731
674.759 .0287587
675.505 .0287453
676.250 .0287329
676.995 .0287216
677.740 .0287112
678.484 .0287017
679.229 .0286932
679.973 .0286855
680.717 .0286785
681.460 .0286721
682.204 .0286663
682.947 .0286609
683.690 .0286557
684.433 .0286507
685.175 .0286458
685.917 .0286408
686.659 .0286357
687.401 .0286305
688.142 .0286251
688.884 .0286195
689.625 .0286136
690.365 .0286074
691.106 .0286009
691.846 .0285941
692.586 .0285868
693.326 .0285792
694.066 .0285712
694.805 .0285629
695.545 .0285543
696.284 .0285454
697.022 .0285361
697.761 .0285266
698.499 .0285169
699.237 .0285069
699.975 .0284968
700.713 .0284865
701.450 .0284762
702.187 .0284657
702.924 .0284550
703.661 .0284442
704.397 .0284330
705.133 .0284216
705.869 .0284097
706.605 .0283974
707.341 .0283845
708.076 .0283712
708.811 .0283573
709.546 .0283430
710.281 .0283280
711.015 .0283124
711.749 .0282962
712.483 .0282792
713.217 .0282615
713.950 .0282431
714.684 .0282238
715.417 .0282038
716.150 .0281830
716.882 .0281614
717.615 .0281391
718.347 .0281159
719.079 .0280920
719.811 .0280673
720.542 .0280420
721.273 .0280161
722.005 .0279896
722.735 .0279629
723.466 .0279358
724.196 .0279086
724.927 .0278812
725.656 .0278538
726.386 .0278263
727.116 .0277989
727.845 .0277715
728.574 .0277444
729.303 .0277176
730.031 .0276913
730.760 .0276655
731.488 .0276405
732.216 .0276161
732.944 .0275926
733.671 .0275698
734.398 .0275479
735.125 .0275268
735.852 .0275066
736.579 .0274872
737.305 .0274686
738.031 .0274508
738.757 .0274339
739.483 .0274178
740.208 .0274024
740.933 .0273878
741.658 .0273737
742.383 .0273603
743.108 .0273474
743.832 .0273351
744.556 .0273232
745.280 .0273118
746.004 .0273008
746.727 .0272902
747.450 .0272800
748.173 .0272702
748.896 .0272608
749.618 .0272517
750.340 .0272431
751.062 .0272348
751.784 .0272270
752.506 .0272196
753.227 .0272126
753.948 .0272061
754.669 .0272000
755.389 .0271944
756.110 .0271892
756.830 .0271844
757.550 .0271800
758.269 .0271759
758.989 .0271722
759.708 .0271688
760.427 .0271657
761.146 .0271627
761.864 .0271599
762.582 .0271571
763.300 .0271544
764.018 .0271517
764.736 .0271490
765.453 .0271465
766.170 .0271440
766.887 .0271416
767.603 .0271394
768.320 .0271374
769.036 .0271357
769.751 .0271341
770.467 .0271329
771.182 .0271319
771.897 .0271312
772.612 .0271309
773.327 .0271309
774.041 .0271313
774.755 .0271322
775.469 .0271335
776.183 .0271352
776.896 .0271374
777.609 .0271399
778.322 .0271428
779.035 .0271459
779.747 .0271491
780.459 .0271523
781.171 .0271555
781.882 .0271585
782.594 .0271612
783.305 .0271635
784.016 .0271652
784.726 .0271663
785.436 .0271668
786.147 .0271638
786.856 .0271620
787.566 .0271592
788.275 .0271554
788.984 .0271507
789.693 .0271448
790.401 .0271379
791.110 .0271298
791.818 .0271206
792.525 .0271102
793.233 .0270987
793.940 .0270861
794.647 .0270773
795.353 .0270632
796.060 .0270481
796.766 .0270320
797.472 .0270149
798.177 .0269969
798.883 .0269779
799.588 .0269580
800.292 .0269373
800.997 .0269158
801.701 .0268935
802.405 .0268704
803.109 .0268466
803.812 .0268222
804.515 .0267972
805.218 .0267716
805.921 .0267454
806.623 .0267186
807.325 .0266913
808.027 .0266635
808.728 .0266352
809.429 .0266066
810.130 .0265776
810.831 .0265484
811.531 .0265190
812.231 .0264895
812.931 .0264598
813.630 .0264302
814.330 .0264005
815.029 .0263709
815.727 .0263414
816.426 .0263121
817.124 .0262831
817.821 .0262545
818.519 .0262264
819.216 .0261989
819.913 .0261720
820.609 .0261460
821.306 .0261208
822.002 .0260965
822.697 .0260732
823.393 .0260508
824.088 .0260295
824.783 .0260091
825.477 .0259896
826.171 .0259712
826.865 .0259536
827.559 .0259370
828.252 .0259212
828.945 .0259063
829.638 .0258924
830.330 .0258792
831.023 .0258669
831.714 .0258555
832.406 .0258449
833.097 .0258350
833.788 .0258258
834.479 .0258172
835.169 .0258093
835.859 .0258019
836.548 .0257950
837.238 .0257887
837.927 .0257829
838.615 .0257775
839.304 .0257727
839.992 .0257684
840.680 .0257646
841.367 .0257614
842.054 .0257586
842.741 .0257563
843.428 .0257545
844.114 .0257531
844.800 .0257521
845.485 .0257514
846.170 .0257509
846.855 .0257508
847.540 .0257508
848.224 .0257511
848.908 .0257516
849.592 .0257524
850.275 .0257534
850.958 .0257547
851.641 .0257562
852.323 .0257579
853.005 .0257597
853.687 .0257616
854.368 .0257635
855.049 .0257654
855.730 .0257673
856.410 .0257692
857.090 .0257711
857.769 .0257730
858.449 .0257749
859.128 .0257770
859.806 .0257792
860.485 .0257816
861.163 .0257842
861.840 .0257870
862.518 .0257901
863.195 .0257935
863.871 .0257972
864.548 .0258011
865.224 .0258053
865.899 .0258096
866.574 .0258141
867.249 .0258188
867.924 .0258236
868.598 .0258286
869.272 .0258337
869.946 .0258391
870.619 .0258447
871.292 .0258505
871.964 .0258566
872.636 .0258628
873.308 .0258691
873.979 .0258755
874.651 .0258818
875.321 .0258880
875.992 .0258940
876.662 .0258999
877.331 .0259056
878.001 .0259112
878.670 .0259166
879.338 .0259217
880.007 .0259267
880.675 .0259314
881.342 .0259359
882.009 .0259401
882.676 .0259440
883.343 .0259475
884.009 .0259507
884.675 .0259534
885.340 .0259558
886.005 .0259577
886.670 .0259590
887.334 .0259598
887.998 .0259600
888.662 .0259596
889.325 .0259585
889.988 .0259567
890.650 .0259543
891.312 .0259511
891.974 .0259472
892.636 .0259425
893.297 .0259370
893.957 .0259306
894.618 .0259234
895.278 .0259151
895.937 .0259059
896.596 .0258956
897.255 .0258842
897.914 .0258717
898.572 .0258582
899.230 .0258437
899.887 .0258281
900.544 .0258116
901.201 .0257941
901.857 .0257638
902.513 .0257439
903.168 .0257229
903.823 .0257009
904.478 .0256780
905.132 .0256541
905.786 .0256293
906.440 .0256036
907.093 .0255770
907.746 .0255496
908.399 .0255215
909.051 .0254926
909.703 .0254631
910.354 .0254467
911.005 .0254165
911.656 .0253857
912.306 .0253545
912.956 .0253229
913.605 .0252909
914.254 .0252587
914.903 .0252262
915.551 .0251934
916.199 .0251603
916.847 .0251271
917.494 .0250937
918.141 .0250601
918.788 .0250264
919.434 .0249927
920.079 .0249589
920.725 .0249251
921.370 .0248913
922.014 .0248573
922.658 .0248233
923.302 .0247891
923.946 .0247549
924.589 .0247205
925.231 .0246862
925.873 .0246519
926.515 .0246178
927.157 .0245840
927.798 .0245505
928.439 .0245174
929.079 .0244847
929.719 .0244525
930.359 .0244208
930.998 .0243897
931.637 .0243593
932.275 .0243296
932.913 .0243008
933.551 .0242729
934.188 .0242461
934.825 .0242205
935.462 .0241960
936.098 .0241725
936.733 .0241502
937.369 .0241288
938.004 .0241084
938.638 .0240890
939.273 .0240705
939.907 .0240531
940.540 .0240366
941.173 .0240212
941.806 .0240069
942.438 .0239935
943.070 .0239809
943.702 .0239691
944.333 .0239580
944.964 .0239474
945.594 .0239372
946.224 .0239275
946.854 .0239181
947.483 .0239091
948.112 .0239005
948.741 .0238923
949.369 .0238845
949.996 .0238770
950.624 .0238697
951.251 .0238628
951.878 .0238561
952.504 .0238496
953.130 .0238433
953.755 .0238374
954.380 .0238320
955.005 .0238270
955.629 .0238227
956.253 .0238189
956.877 .0238158
957.500 .0238134
958.123 .0238117
958.746 .0238106
959.368 .0238102
959.990 .0238105
960.611 .0238115
961.232 .0238133
961.853 .0238157
962.473 .0238189
963.093 .0238228
963.712 .0238273
964.331 .0238325
964.950 .0238383
965.569 .0238446
966.187 .0238514
966.804 .0238588
967.422 .0238666
968.039 .0238748
968.655 .0238834
969.272 .0238923
969.887 .0239017
970.503 .0239113
971.118 .0239212
971.733 .0239313
972.347 .0239415
972.961 .0239519
973.575 .0239623
974.188 .0239728
974.801 .0239832
975.414 .0239935
976.026 .0240037
976.638 .0240137
977.250 .0240237
977.861 .0240335
978.472 .0240431
979.083 .0240526
979.693 .0240619
980.303 .0240709
980.912 .0240829
981.521 .0240910
982.130 .0240989
982.738 .0241066
983.346 .0241140
983.954 .0241214
984.562 .0241287
985.169 .0241359
985.775 .0241432
986.382 .0241505
986.988 .0241578
987.594 .0241652
988.199 .0241727
988.804 .0241805
989.409 .0241854
990.013 .0241939
990.617 .0242028
991.221 .0242122
991.824 .0242222
992.427 .0242327
993.030 .0242438
993.632 .0242554
994.234 .0242673
994.836 .0242796
995.438 .0242923
996.039 .0243052
996.640 .0243185
997.240 .0243321
997.840 .0243461
998.440 .0243603
999.040 .0243748
999.639 .0243894
1000.238 .0244040
1000.836 .0244186
1001.435 .0244330
1002.033 .0244471
1002.630 .0244609
1003.228 .0244743
1003.825 .0244873
1004.422 .0244999
1005.018 .0245122
1005.614 .0245242
1006.210 .0245358
1006.806 .0245470
1007.401 .0245577
1007.996 .0245679
1008.591 .0245776
1009.186 .0245866
1009.780 .0245950
1010.374 .0246027
1010.967 .0246098
1011.561 .0246165
1012.154 .0246228
1012.746 .0246287
1013.339 .0246344
1013.931 .0246400
1014.523 .0246454
1015.115 .0246507
1015.706 .0246559
1016.298 .0246610
1016.888 .0246661
1017.479 .0246711
1018.069 .0246761
1018.660 .0246812
1019.250 .0246864
1019.839 .0246918
1020.429 .0246975
1021.018 .0247035
1021.607 .0247098
1022.195 .0247163
1022.784 .0247230
1023.372 .0247297
1023.960 .0247365
1024.547 .0247432
1025.135 .0247498
1025.722 .0247563
1026.309 .0247626
1026.896 .0247686
1027.483 .0247745
1028.069 .0247800
1028.655 .0247851
1029.241 .0247896
1029.827 .0247936
1030.412 .0247967
1030.997 .0247991
1031.582 .0248006
1032.167 .0248012
1032.752 .0248010
1033.336 .0248000
1033.921 .0247981
1034.505 .0247953
1035.089 .0247917
1035.672 .0247871
1036.256 .0247816
1036.839 .0247750
1037.422 .0247673
1038.005 .0247585
1038.588 .0247486
1039.171 .0247377
1039.753 .0247257
1040.335 .0247129
1040.918 .0246991
1041.500 .0246844
1042.081 .0246689
1042.663 .0246526
1043.244 .0246355
1043.826 .0246177
1044.407 .0245993
1044.988 .0245803
1045.569 .0245611
1046.150 .0245416
1046.730 .0245221
1047.311 .0245026
1047.891 .0244832
1048.471 .0244640
1049.052 .0244449
1049.632 .0244260
1050.211 .0244071
1050.791 .0243884
1051.371 .0243698
1051.950 .0243513
1052.530 .0243330
1053.109 .0243149
1053.688 .0242971
1054.268 .0242796
1054.847 .0242624
1055.426 .0242454
1056.005 .0242287
1056.583 .0242121
1057.162 .0241955
1057.741 .0241789
1058.319 .0241624
1058.898 .0241458
1059.476 .0241293
1060.055 .0241129
1060.633 .0240966
1061.211 .0240804
1061.790 .0240643
1062.368 .0240482
1062.946 .0240321
1063.524 .0240158
1064.102 .0239992
1064.680 .0239823
1065.258 .0239651
1065.836 .0239476
1066.414 .0239300
1066.992 .0239123
1067.570 .0238946
1068.148 .0238769
1068.726 .0238593
1069.304 .0238417
1069.882 .0238241
1070.460 .0238066
1071.038 .0237891
1071.616 .0237716
1072.194 .0237542
1072.772 .0237369
1073.350 .0237200
1073.928 .0237035
1074.506 .0236876
1075.084 .0236723
1075.662 .0236578
1076.240 .0236440
1076.819 .0236309
1077.397 .0236185
1077.976 .0236068
1078.554 .0235957
1079.133 .0235851
1079.711 .0235751
1080.290 .0235657
1080.869 .0235570
1081.448 .0235490
1082.027 .0235417
1082.606 .0235350
1083.185 .0235287
1083.764 .0235227
1084.343 .0235170
1084.923 .0235115
1085.502 .0235062
1086.082 .0235013
1086.662 .0234968
1087.242 .0234930
1087.822 .0234900
1088.402 .0234882
1088.983 .0234875
1089.563 .0234880
1090.144 .0234896
1090.725 .0234924
1091.306 .0234963
1091.887 .0235013
1092.469 .0235075
1093.050 .0235148
1093.632 .0235233
1094.214 .0235331
1094.796 .0235441
1095.379 .0235563
1095.961 .0235696
1096.544 .0235838
1097.127 .0235988
1097.710 .0236147
1098.294 .0236313
1098.877 .0236489
1099.461 .0236674
1100.046 .0236868
1100.630 .0237074
1101.215 .0237290
1101.800 .0237515
1102.385 .0237747
1102.970 .0237986
1103.556 .0238229
1104.142 .0238476
1104.728 .0238723
1105.315 .0238973
1105.902 .0239226
1106.489 .0239482
1107.077 .0239741
1107.664 .0240006
1108.253 .0240275
1108.841 .0240546
1109.430 .0240821
1110.019 .0241099
1110.609 .0241382
1111.198 .0241671
1111.789 .0241969
1112.379 .0242279
1112.970 .0242604
1113.561 .0242945
1114.153 .0243302
1114.745 .0243676
1115.338 .0244062
1115.931 .0244460
1116.524 .0244868
1117.117 .0245286
1117.712 .0245716
1118.306 .0246160
1118.901 .0246621
1119.496 .0247102
1120.092 .0247606
1120.689 .0248133
1121.285 .0248684
1121.882 .0249257
1122.480 .0249851
1123.078 .0250463
1123.677 .0251095
1124.276 .0251749
1124.875 .0252426
1125.476 .0253130
1126.076 .0253863
1126.677 .0254628
1127.279 .0255421
1127.881 .0256240
1128.484 .0257080
1129.087 .0257446
1129.691 .0258307
1130.295 .0259178
1130.900 .0260056
1131.505 .0260941
1132.111 .0261833
1132.718 .0262730
1133.325 .0263634
1133.933 .0264539
1134.541 .0265483
1135.150 .0266422
1135.760 .0267249
1136.370 .0268131
1136.981 .0270593
1137.592 .0271659
1138.204 .0272643
1138.817 .0273591
1139.431 .0274505
1140.045 .0275376
1140.660 .0276136
1141.275 .0276869
1141.891 .0277452
1142.508 .0279069
1143.126 .0279473
1143.744 .0276956
1144.363 .0279175
1144.983 .0278032
