Measurement Sequence started on: 15-12-46-377
Integration time: 28
Scans to Average: 2 
>>>>>Begin Spectral Data<<<<<
432.689 .0000100
433.621 .0000100
434.552 .0000100
435.482 .0000100
436.410 .0000100
437.337 .0000100
438.262 .0267400
439.187 .0566757
440.110 .0938662
441.031 .1357829
441.952 .1085736
442.871 .1133350
443.789 .1177578
444.705 .1219135
445.621 .1258522
446.535 .1296109
447.447 .1318090
448.359 .1322993
449.269 .1307176
450.178 .1268284
451.086 .1207068
451.993 .1128195
452.898 .1039406
453.803 .0949461
454.706 .0865820
455.608 .0793129
456.508 .0732944
457.408 .0692150
458.306 .0660808
459.204 .0635323
460.100 .0613895
460.995 .0595519
461.888 .0579511
462.781 .0565392
463.673 .0552820
464.563 .0541558
465.452 .0531416
466.340 .0522243
467.228 .0513926
468.114 .0506380
468.999 .0499534
469.882 .0493319
470.765 .0487680
471.647 .0482568
472.528 .0477931
473.407 .0473733
474.286 .0469936
475.163 .0466514
476.040 .0463450
476.915 .0460718
477.790 .0458301
478.663 .0456173
479.535 .0454319
480.407 .0452715
481.277 .0451333
482.147 .0450152
483.015 .0449146
483.883 .0448297
484.749 .0447588
485.615 .0447006
486.479 .0446550
487.343 .0446219
488.206 .0446019
489.067 .0445951
489.928 .0446022
490.788 .0446237
491.647 .0446605
492.505 .0447130
493.362 .0447822
494.218 .0448687
495.073 .0449734
495.928 .0452051
496.781 .0453633
497.634 .0455440
498.486 .0457486
499.337 .0459788
500.187 .0462367
501.036 .0465248
501.884 .0468449
502.731 .0472004
503.578 .0475948
504.424 .0478746
505.268 .0483396
506.113 .0488538
506.956 .0494211
507.798 .0500471
508.640 .0507381
509.480 .0515021
510.320 .0523485
511.160 .0532883
511.998 .0543324
512.836 .0554937
513.672 .0567860
514.508 .0582234
515.344 .0598206
516.178 .0615927
517.012 .0635560
517.845 .0657271
518.677 .0681218
519.508 .0707541
520.339 .0736307
521.169 .0767543
521.998 .0801051
522.826 .0836545
523.654 .0873572
524.481 .0911581
525.307 .0949951
526.133 .0987987
526.958 .1024941
527.782 .1060091
528.605 .1092765
529.428 .1122369
530.250 .1148335
531.072 .1170266
531.892 .1187799
532.712 .1200696
533.532 .1208791
534.350 .1211999
535.168 .1210316
535.986 .1203793
536.802 .1192474
537.618 .1176451
538.434 .1155845
539.249 .1130986
540.063 .1102277
540.876 .1070246
541.689 .1035508
542.501 .0998718
543.313 .0960573
544.124 .0921813
544.934 .0883118
545.744 .0845114
546.553 .0808334
547.361 .0773262
548.169 .0740198
548.976 .0709402
549.783 .0681003
550.589 .0655040
551.395 .0631455
552.200 .0610100
553.004 .0590758
553.808 .0573232
554.611 .0557332
555.414 .0542873
556.216 .0529683
557.018 .0517609
557.819 .0506523
558.619 .0496317
559.419 .0486899
560.218 .0478195
561.017 .0470128
561.815 .0462632
562.613 .0455635
563.410 .0449064
564.207 .0442854
565.003 .0436954
565.799 .0431312
566.594 .0425881
567.388 .0420624
568.182 .0415512
568.976 .0410522
569.769 .0405643
570.562 .0400872
571.354 .0396213
572.145 .0391671
572.936 .0387254
573.727 .0382958
574.517 .0378789
575.307 .0374748
576.096 .0370831
576.885 .0367042
577.673 .0363382
578.461 .0359855
579.248 .0356469
580.035 .0353237
580.821 .0350167
581.607 .0347268
582.392 .0344543
583.177 .0341995
583.962 .0339621
584.746 .0337416
585.529 .0335370
586.313 .0333475
587.095 .0331721
587.878 .0330097
588.660 .0328593
589.441 .0327201
590.222 .0325917
591.003 .0324732
591.783 .0323638
592.563 .0322629
593.342 .0321697
594.121 .0320836
594.899 .0320038
595.678 .0319297
596.455 .0318607
597.233 .0317961
598.009 .0317354
598.786 .0316780
599.562 .0316236
600.338 .0315720
601.113 .0315228
601.888 .0314569
602.663 .0314131
603.437 .0313716
604.211 .0313322
604.984 .0312952
605.757 .0312602
606.530 .0312274
607.302 .0311965
608.074 .0311675
608.845 .0311403
609.616 .0311148
610.387 .0311060
611.158 .0310829
611.928 .0310613
612.697 .0310411
613.467 .0310221
614.236 .0310042
615.004 .0309873
615.773 .0309711
616.541 .0309556
617.308 .0309408
618.076 .0309265
618.843 .0309126
619.609 .0308990
620.375 .0308856
621.141 .0308721
621.907 .0308584
622.672 .0308441
623.437 .0308291
624.202 .0308134
624.966 .0307969
625.730 .0307796
626.493 .0307616
627.257 .0307429
628.020 .0307236
628.782 .0307037
629.545 .0306830
630.307 .0306617
631.068 .0306397
631.830 .0306169
632.591 .0305936
633.352 .0305696
634.112 .0305451
634.872 .0305201
635.632 .0304947
636.392 .0304688
637.151 .0304427
637.910 .0304162
638.668 .0303895
639.427 .0303627
640.185 .0303357
640.943 .0303087
641.700 .0302817
642.457 .0302548
643.214 .0302278
643.971 .0302007
644.727 .0301735
645.483 .0301461
646.239 .0301187
646.994 .0300912
647.750 .0300636
648.505 .0300362
649.259 .0300088
650.014 .0299817
650.768 .0299547
651.521 .0299280
652.275 .0299016
653.028 .0298755
653.781 .0298499
654.534 .0298245
655.286 .0297996
656.039 .0297750
656.791 .0297507
657.542 .0297267
658.294 .0297030
659.045 .0296794
659.796 .0296561
660.546 .0296330
661.297 .0296101
662.047 .0295874
662.796 .0295650
663.546 .0295426
664.295 .0295205
665.044 .0294985
665.793 .0294766
666.542 .0294550
667.290 .0294337
668.038 .0294127
668.786 .0293922
669.533 .0293720
670.281 .0293522
671.028 .0293330
671.774 .0293143
672.521 .0292960
673.267 .0292784
674.013 .0292614
674.759 .0292452
675.505 .0292298
676.250 .0292152
676.995 .0292015
677.740 .0291887
678.484 .0291768
679.229 .0291658
679.973 .0291557
680.717 .0291463
681.460 .0291378
682.204 .0291299
682.947 .0291226
683.690 .0291159
684.433 .0291095
685.175 .0291035
685.917 .0290977
686.659 .0290920
687.401 .0290864
688.142 .0290807
688.884 .0290751
689.625 .0290693
690.365 .0290634
691.106 .0290572
691.846 .0290508
692.586 .0290439
693.326 .0290366
694.066 .0290288
694.805 .0290203
695.545 .0290112
696.284 .0290015
697.022 .0289911
697.761 .0289802
698.499 .0289687
699.237 .0289568
699.975 .0289445
700.713 .0289319
701.450 .0289189
702.187 .0289056
702.924 .0288919
703.661 .0288778
704.397 .0288633
705.133 .0288482
705.869 .0288327
706.605 .0288167
707.341 .0288003
708.076 .0287835
708.811 .0287664
709.546 .0287490
710.281 .0287313
711.015 .0287134
711.749 .0286951
712.483 .0286766
713.217 .0286577
713.950 .0286383
714.684 .0286185
715.417 .0285983
716.150 .0285776
716.882 .0285565
717.615 .0285348
718.347 .0285128
719.079 .0284904
719.811 .0284675
720.542 .0284443
721.273 .0284208
722.005 .0283969
722.735 .0283729
723.466 .0283488
724.196 .0283245
724.927 .0283003
725.656 .0282762
726.386 .0282522
727.116 .0282285
727.845 .0282050
728.574 .0281820
729.303 .0281593
730.031 .0281372
730.760 .0281156
731.488 .0280947
732.216 .0280745
732.944 .0280550
733.671 .0280363
734.398 .0280182
735.125 .0280009
735.852 .0279843
736.579 .0279684
737.305 .0279531
738.031 .0279385
738.757 .0279244
739.483 .0279108
740.208 .0278976
740.933 .0278846
741.658 .0278718
742.383 .0278590
743.108 .0278462
743.832 .0278335
744.556 .0278208
745.280 .0278080
746.004 .0277954
746.727 .0277828
747.450 .0277702
748.173 .0277576
748.896 .0277450
749.618 .0277323
750.340 .0277195
751.062 .0277067
751.784 .0276939
752.506 .0276812
753.227 .0276686
753.948 .0276562
754.669 .0276441
755.389 .0276322
756.110 .0276206
756.830 .0276093
757.550 .0275984
758.269 .0275879
758.989 .0275777
759.708 .0275679
760.427 .0275584
761.146 .0275492
761.864 .0275403
762.582 .0275317
763.300 .0275233
764.018 .0275151
764.736 .0275072
765.453 .0274994
766.170 .0274920
766.887 .0274848
767.603 .0274780
768.320 .0274716
769.036 .0274655
769.751 .0274597
770.467 .0274544
771.182 .0274493
771.897 .0274447
772.612 .0274404
773.327 .0274364
774.041 .0274327
774.755 .0274294
775.469 .0274265
776.183 .0274240
776.896 .0274219
777.609 .0274203
778.322 .0274190
779.035 .0274182
779.747 .0274177
780.459 .0274175
781.171 .0274175
781.882 .0274176
782.594 .0274177
783.305 .0274176
784.016 .0274175
784.726 .0274171
785.436 .0274166
786.147 .0274147
786.856 .0274134
787.566 .0274119
788.275 .0274101
788.984 .0274080
789.693 .0274056
790.401 .0274027
791.110 .0273995
791.818 .0273957
792.525 .0273914
793.233 .0273865
793.940 .0273809
794.647 .0273766
795.353 .0273702
796.060 .0273630
796.766 .0273553
797.472 .0273469
798.177 .0273378
798.883 .0273281
799.588 .0273178
800.292 .0273068
800.997 .0272952
801.701 .0272828
802.405 .0272698
803.109 .0272561
803.812 .0272418
804.515 .0272269
805.218 .0272113
805.921 .0271952
806.623 .0271786
807.325 .0271615
808.027 .0271438
808.728 .0271258
809.429 .0271073
810.130 .0270884
810.831 .0270692
811.531 .0270497
812.231 .0270300
812.931 .0270101
813.630 .0269900
814.330 .0269698
815.029 .0269496
815.727 .0269293
816.426 .0269091
817.124 .0268889
817.821 .0268689
818.519 .0268491
819.216 .0268297
819.913 .0268105
820.609 .0267917
821.306 .0267733
822.002 .0267552
822.697 .0267375
823.393 .0267203
824.088 .0267035
824.783 .0266870
825.477 .0266710
826.171 .0266554
826.865 .0266401
827.559 .0266252
828.252 .0266106
828.945 .0265964
829.638 .0265825
830.330 .0265690
831.023 .0265557
831.714 .0265427
832.406 .0265299
833.097 .0265174
833.788 .0265050
834.479 .0264929
835.169 .0264809
835.859 .0264692
836.548 .0264575
837.238 .0264460
837.927 .0264345
838.615 .0264231
839.304 .0264116
839.992 .0264001
840.680 .0263883
841.367 .0263764
842.054 .0263644
842.741 .0263522
843.428 .0263400
844.114 .0263276
844.800 .0263151
845.485 .0263025
846.170 .0262898
846.855 .0262768
847.540 .0262636
848.224 .0262501
848.908 .0262365
849.592 .0262227
850.275 .0262089
850.958 .0261952
851.641 .0261814
852.323 .0261678
853.005 .0261543
853.687 .0261409
854.368 .0261275
855.049 .0261141
855.730 .0261008
856.410 .0260877
857.090 .0260748
857.769 .0260620
858.449 .0260497
859.128 .0260376
859.806 .0260260
860.485 .0260147
861.163 .0260039
861.840 .0259935
862.518 .0259836
863.195 .0259741
863.871 .0259652
864.548 .0259569
865.224 .0259493
865.899 .0259423
866.574 .0259360
867.249 .0259303
867.924 .0259252
868.598 .0259206
869.272 .0259166
869.946 .0259131
870.619 .0259100
871.292 .0259074
871.964 .0259052
872.636 .0259036
873.308 .0259023
873.979 .0259016
874.651 .0259012
875.321 .0259013
875.992 .0259016
876.662 .0259022
877.331 .0259031
878.001 .0259041
878.670 .0259054
879.338 .0259069
880.007 .0259086
880.675 .0259106
881.342 .0259129
882.009 .0259156
882.676 .0259186
883.343 .0259220
884.009 .0259259
884.675 .0259301
885.340 .0259348
886.005 .0259399
886.670 .0259455
887.334 .0259515
887.998 .0259580
888.662 .0259649
889.325 .0259723
889.988 .0259801
890.650 .0259882
891.312 .0259966
891.974 .0260052
892.636 .0260138
893.297 .0260225
893.957 .0260311
894.618 .0260396
895.278 .0260478
895.937 .0260556
896.596 .0260630
897.255 .0260699
897.914 .0260761
898.572 .0260814
899.230 .0260859
899.887 .0260893
900.544 .0260916
901.201 .0260928
901.857 .0260892
902.513 .0260876
903.168 .0260848
903.823 .0260810
904.478 .0260762
905.132 .0260703
905.786 .0260633
906.440 .0260552
907.093 .0260462
907.746 .0260362
908.399 .0260253
909.051 .0260137
909.703 .0260014
910.354 .0259942
911.005 .0259814
911.656 .0259681
912.306 .0259544
912.956 .0259403
913.605 .0259258
914.254 .0259109
914.903 .0258956
915.551 .0258800
916.199 .0258641
916.847 .0258479
917.494 .0258314
918.141 .0258146
918.788 .0257976
919.434 .0257801
920.079 .0257623
920.725 .0257440
921.370 .0257252
922.014 .0257059
922.658 .0256862
923.302 .0256660
923.946 .0256454
924.589 .0256244
925.231 .0256029
925.873 .0255811
926.515 .0255589
927.157 .0255364
927.798 .0255136
928.439 .0254905
929.079 .0254674
929.719 .0254442
930.359 .0254211
930.998 .0253982
931.637 .0253755
932.275 .0253531
932.913 .0253311
933.551 .0253095
934.188 .0252882
934.825 .0252675
935.462 .0252472
936.098 .0252274
936.733 .0252082
937.369 .0251897
938.004 .0251718
938.638 .0251545
939.273 .0251378
939.907 .0251217
940.540 .0251060
941.173 .0250908
941.806 .0250759
942.438 .0250614
943.070 .0250472
943.702 .0250332
944.333 .0250195
944.964 .0250059
945.594 .0249925
946.224 .0249791
946.854 .0249656
947.483 .0249520
948.112 .0249382
948.741 .0249240
949.369 .0249095
949.996 .0248947
950.624 .0248793
951.251 .0248636
951.878 .0248474
952.504 .0248307
953.130 .0248137
953.755 .0247963
954.380 .0247785
955.005 .0247605
955.629 .0247423
956.253 .0247240
956.877 .0247055
957.500 .0246870
958.123 .0246685
958.746 .0246501
959.368 .0246318
959.990 .0246138
960.611 .0245961
961.232 .0245787
961.853 .0245618
962.473 .0245452
963.093 .0245291
963.712 .0245134
964.331 .0244981
964.950 .0244833
965.569 .0244689
966.187 .0244549
966.804 .0244414
967.422 .0244284
968.039 .0244158
968.655 .0244036
969.272 .0243917
969.887 .0243801
970.503 .0243687
971.118 .0243573
971.733 .0243459
972.347 .0243344
972.961 .0243228
973.575 .0243111
974.188 .0242993
974.801 .0242873
975.414 .0242751
976.026 .0242627
976.638 .0242501
977.250 .0242372
977.861 .0242239
978.472 .0242104
979.083 .0241966
979.693 .0241825
980.303 .0241683
980.912 .0241468
981.521 .0241329
982.130 .0241193
982.738 .0241060
983.346 .0240931
983.954 .0240807
984.562 .0240688
985.169 .0240574
985.775 .0240466
986.382 .0240365
986.988 .0240270
987.594 .0240182
988.199 .0240100
988.804 .0240026
989.409 .0240018
990.013 .0239955
990.617 .0239901
991.221 .0239855
991.824 .0239819
992.427 .0239791
993.030 .0239772
993.632 .0239761
994.234 .0239758
994.836 .0239761
995.438 .0239772
996.039 .0239788
996.640 .0239811
997.240 .0239839
997.840 .0239874
998.440 .0239916
999.040 .0239962
999.639 .0240014
1000.238 .0240070
1000.836 .0240128
1001.435 .0240188
1002.033 .0240249
1002.630 .0240310
1003.228 .0240371
1003.825 .0240431
1004.422 .0240492
1005.018 .0240553
1005.614 .0240615
1006.210 .0240677
1006.806 .0240740
1007.401 .0240803
1007.996 .0240867
1008.591 .0240930
1009.186 .0240994
1009.780 .0241058
1010.374 .0241124
1010.967 .0241191
1011.561 .0241262
1012.154 .0241336
1012.746 .0241415
1013.339 .0241498
1013.931 .0241586
1014.523 .0241678
1015.115 .0241775
1015.706 .0241876
1016.298 .0241982
1016.888 .0242092
1017.479 .0242208
1018.069 .0242329
1018.660 .0242457
1019.250 .0242590
1019.839 .0242729
1020.429 .0242874
1021.018 .0243023
1021.607 .0243178
1022.195 .0243337
1022.784 .0243500
1023.372 .0243667
1023.960 .0243839
1024.547 .0244014
1025.135 .0244194
1025.722 .0244377
1026.309 .0244562
1026.896 .0244749
1027.483 .0244936
1028.069 .0245124
1028.655 .0245311
1029.241 .0245497
1029.827 .0245682
1030.412 .0245866
1030.997 .0246048
1031.582 .0246230
1032.167 .0246409
1032.752 .0246587
1033.336 .0246762
1033.921 .0246932
1034.505 .0247098
1035.089 .0247257
1035.672 .0247411
1036.256 .0247559
1036.839 .0247702
1037.422 .0247841
1038.005 .0247976
1038.588 .0248108
1039.171 .0248236
1039.753 .0248361
1040.335 .0248482
1040.918 .0248599
1041.500 .0248710
1042.081 .0248817
1042.663 .0248919
1043.244 .0249017
1043.826 .0249112
1044.407 .0249205
1044.988 .0249296
1045.569 .0249386
1046.150 .0249473
1046.730 .0249556
1047.311 .0249634
1047.891 .0249705
1048.471 .0249770
1049.052 .0249827
1049.632 .0249877
1050.211 .0249921
1050.791 .0249960
1051.371 .0249996
1051.950 .0250027
1052.530 .0250055
1053.109 .0250079
1053.688 .0250098
1054.268 .0250114
1054.847 .0250126
1055.426 .0250134
1056.005 .0250141
1056.583 .0250148
1057.162 .0250156
1057.741 .0250167
1058.319 .0250182
1058.898 .0250199
1059.476 .0250219
1060.055 .0250242
1060.633 .0250266
1061.211 .0250291
1061.790 .0250317
1062.368 .0250344
1062.946 .0250374
1063.524 .0250406
1064.102 .0250442
1064.680 .0250481
1065.258 .0250522
1065.836 .0250565
1066.414 .0250610
1066.992 .0250655
1067.570 .0250700
1068.148 .0250745
1068.726 .0250790
1069.304 .0250834
1069.882 .0250880
1070.460 .0250926
1071.038 .0250973
1071.616 .0251020
1072.194 .0251067
1072.772 .0251113
1073.350 .0251159
1073.928 .0251203
1074.506 .0251246
1075.084 .0251288
1075.662 .0251328
1076.240 .0251367
1076.819 .0251406
1077.397 .0251446
1077.976 .0251486
1078.554 .0251527
1079.133 .0251569
1079.711 .0251612
1080.290 .0251654
1080.869 .0251698
1081.448 .0251741
1082.027 .0251784
1082.606 .0251828
1083.185 .0251871
1083.764 .0251914
1084.343 .0251957
1084.923 .0252000
1085.502 .0252043
1086.082 .0252084
1086.662 .0252123
1087.242 .0252159
1087.822 .0252192
1088.402 .0252222
1088.983 .0252249
1089.563 .0252273
1090.144 .0252293
1090.725 .0252311
1091.306 .0252327
1091.887 .0252340
1092.469 .0252353
1093.050 .0252364
1093.632 .0252375
1094.214 .0252386
1094.796 .0252398
1095.379 .0252412
1095.961 .0252431
1096.544 .0252456
1097.127 .0252490
1097.710 .0252532
1098.294 .0252585
1098.877 .0252648
1099.461 .0252720
1100.046 .0252801
1100.630 .0252889
1101.215 .0252984
1101.800 .0253086
1102.385 .0253195
1102.970 .0253310
1103.556 .0253434
1104.142 .0253567
1104.728 .0253709
1105.315 .0253860
1105.902 .0254020
1106.489 .0254186
1107.077 .0254358
1107.664 .0254534
1108.253 .0254714
1108.841 .0254900
1109.430 .0255093
1110.019 .0255294
1110.609 .0255506
1111.198 .0255731
1111.789 .0255966
1112.379 .0256211
1112.970 .0256463
1113.561 .0256720
1114.153 .0256981
1114.745 .0257243
1115.338 .0257508
1115.931 .0257776
1116.524 .0258050
1117.117 .0258331
1117.712 .0258619
1118.306 .0258915
1118.901 .0259218
1119.496 .0259527
1120.092 .0259843
1120.689 .0260164
1121.285 .0260492
1121.882 .0260830
1122.480 .0261181
1123.078 .0261548
1123.677 .0261933
1124.276 .0262337
1124.875 .0262761
1125.476 .0263205
1126.076 .0263668
1126.677 .0264147
1127.279 .0264645
1127.881 .0265161
1128.484 .0265697
1129.087 .0265928
1129.691 .0266491
1130.295 .0267083
1130.900 .0267706
1131.505 .0268363
1132.111 .0269055
1132.718 .0269788
1133.325 .0270569
1133.933 .0271402
1134.541 .0272245
1135.150 .0273156
1135.760 .0274227
1136.370 .0275369
1136.981 .0274347
1137.592 .0275501
1138.204 .0276747
1138.817 .0278063
1139.431 .0279450
1140.045 .0280873
1140.660 .0282454
1141.275 .0284207
1141.891 .0286161
1142.508 .0286864
1143.126 .0289223
1143.744 .0294091
1144.363 .0296478
1144.983 .0299288
