Measurement Sequence started on: 15-12-46-377
Integration time: 28
Scans to Average: 2 
>>>>>Begin Spectral Data<<<<<
432.689 .0000100
433.621 .0000100
434.552 .0000100
435.482 .0000100
436.410 .0000100
437.337 .0000100
438.262 .0270597
439.187 .0573473
440.110 .0950418
441.031 .1375447
441.952 .1107660
442.871 .1157663
443.789 .1204328
444.705 .1248353
445.621 .1290222
446.535 .1330300
447.447 .1354613
448.359 .1361678
449.269 .1347764
450.178 .1310477
451.086 .1250531
451.993 .1172616
452.898 .1084506
453.803 .0995026
454.706 .0911682
455.608 .0839149
456.508 .0778994
457.408 .0738193
458.306 .0706700
459.204 .0680936
460.100 .0659101
460.995 .0640223
461.888 .0623638
462.781 .0608901
463.673 .0595680
464.563 .0583740
465.452 .0572884
466.340 .0562968
467.228 .0553872
468.114 .0545522
468.999 .0537849
469.882 .0530801
470.765 .0524343
471.647 .0518449
472.528 .0513095
473.407 .0508257
474.286 .0503915
475.163 .0500045
476.040 .0496611
476.915 .0493574
477.790 .0490889
478.663 .0488517
479.535 .0486422
480.407 .0484574
481.277 .0482950
482.147 .0481538
483.015 .0480327
483.883 .0479311
484.749 .0478481
485.615 .0477830
486.479 .0477341
487.343 .0476998
488.206 .0476789
489.067 .0476702
489.928 .0476733
490.788 .0476889
491.647 .0477187
492.505 .0477652
493.362 .0478314
494.218 .0479202
495.073 .0480340
495.928 .0483030
496.781 .0484880
497.634 .0487008
498.486 .0489409
499.337 .0492079
500.187 .0495023
501.036 .0498250
501.884 .0501771
502.731 .0505616
503.578 .0509810
504.424 .0512646
505.268 .0517443
506.113 .0522680
506.956 .0528386
507.798 .0534617
508.640 .0541442
509.480 .0548952
510.320 .0557271
511.160 .0566551
511.998 .0576961
512.836 .0588708
513.672 .0602019
514.508 .0617157
515.344 .0634375
516.178 .0653946
517.012 .0676149
517.845 .0701277
518.677 .0729593
519.508 .0761342
520.339 .0796650
521.169 .0835583
521.998 .0877897
522.826 .0923215
523.654 .0970901
524.481 .1020176
525.307 .1070107
526.133 .1119666
526.958 .1167764
527.782 .1213377
528.605 .1255541
529.428 .1293478
530.250 .1326484
531.072 .1354089
531.892 .1375873
532.712 .1391603
533.532 .1401127
534.350 .1404381
535.168 .1401329
535.986 .1392002
536.802 .1376414
537.618 .1354669
538.434 .1326896
539.249 .1293523
540.063 .1255121
540.876 .1212466
541.689 .1166471
542.501 .1118150
543.313 .1068565
544.124 .1018807
544.934 .0969837
545.744 .0922505
546.553 .0877454
547.361 .0835209
548.169 .0796041
548.976 .0760141
549.783 .0727526
550.589 .0698107
551.395 .0671696
552.200 .0648061
553.004 .0626918
553.808 .0608008
554.611 .0591085
555.414 .0575926
556.216 .0562311
557.018 .0550012
557.819 .0538834
558.619 .0528596
559.419 .0519152
560.218 .0510379
561.017 .0502165
561.815 .0494433
562.613 .0487126
563.410 .0480191
564.207 .0473585
565.003 .0467268
565.799 .0461197
566.594 .0455329
567.388 .0449633
568.182 .0444080
568.976 .0438646
569.769 .0433320
570.562 .0428098
571.354 .0422984
572.145 .0417988
572.936 .0413117
573.727 .0408378
574.517 .0403780
575.307 .0399331
576.096 .0395031
576.885 .0390885
577.673 .0386897
578.461 .0383072
579.248 .0379415
580.035 .0375934
580.821 .0372634
581.607 .0369522
582.392 .0366602
583.177 .0363874
583.962 .0361336
584.746 .0358981
585.529 .0356798
586.313 .0354775
587.095 .0352898
587.878 .0351154
588.660 .0349530
589.441 .0348021
590.222 .0346619
591.003 .0345319
591.783 .0344114
592.563 .0343000
593.342 .0341967
594.121 .0341005
594.899 .0340102
595.678 .0339249
596.455 .0338439
597.233 .0337664
598.009 .0336919
598.786 .0336203
599.562 .0335512
600.338 .0334846
601.113 .0334202
601.888 .0333307
602.663 .0332718
603.437 .0332149
604.211 .0331602
604.984 .0331076
605.757 .0330570
606.530 .0330085
607.302 .0329622
608.074 .0329180
608.845 .0328760
609.616 .0328361
610.387 .0328215
611.158 .0327846
611.928 .0327498
612.697 .0327169
613.467 .0326859
614.236 .0326567
615.004 .0326292
615.773 .0326033
616.541 .0325788
617.308 .0325556
618.076 .0325336
618.843 .0325124
619.609 .0324917
620.375 .0324714
621.141 .0324510
621.907 .0324305
622.672 .0324094
623.437 .0323879
624.202 .0323657
624.966 .0323427
625.730 .0323191
626.493 .0322949
627.257 .0322702
628.020 .0322449
628.782 .0322191
629.545 .0321928
630.307 .0321659
631.068 .0321384
631.830 .0321104
632.591 .0320821
633.352 .0320535
634.112 .0320247
634.872 .0319959
635.632 .0319673
636.392 .0319389
637.151 .0319110
637.910 .0318837
638.668 .0318570
639.427 .0318310
640.185 .0318057
640.943 .0317812
641.700 .0317573
642.457 .0317340
643.214 .0317112
643.971 .0316888
644.727 .0316666
645.483 .0316448
646.239 .0316231
646.994 .0316017
647.750 .0315805
648.505 .0315594
649.259 .0315383
650.014 .0315171
650.768 .0314957
651.521 .0314737
652.275 .0314512
653.028 .0314279
653.781 .0314038
654.534 .0313790
655.286 .0313534
656.039 .0313271
656.791 .0313001
657.542 .0312726
658.294 .0312445
659.045 .0312160
659.796 .0311870
660.546 .0311577
661.297 .0311279
662.047 .0310978
662.796 .0310673
663.546 .0310366
664.295 .0310055
665.044 .0309743
665.793 .0309429
666.542 .0309115
667.290 .0308802
668.038 .0308492
668.786 .0308186
669.533 .0307885
670.281 .0307590
671.028 .0307301
671.774 .0307020
672.521 .0306744
673.267 .0306475
674.013 .0306210
674.759 .0305951
675.505 .0305696
676.250 .0305446
676.995 .0305201
677.740 .0304961
678.484 .0304726
679.229 .0304495
679.973 .0304267
680.717 .0304044
681.460 .0303822
682.204 .0303602
682.947 .0303383
683.690 .0303162
684.433 .0302939
685.175 .0302715
685.917 .0302488
686.659 .0302259
687.401 .0302027
688.142 .0301794
688.884 .0301560
689.625 .0301326
690.365 .0301091
691.106 .0300857
691.846 .0300623
692.586 .0300391
693.326 .0300160
694.066 .0299931
694.805 .0299704
695.545 .0299480
696.284 .0299260
697.022 .0299044
697.761 .0298834
698.499 .0298631
699.237 .0298435
699.975 .0298249
700.713 .0298072
701.450 .0297904
702.187 .0297746
702.924 .0297597
703.661 .0297455
704.397 .0297322
705.133 .0297195
705.869 .0297074
706.605 .0296959
707.341 .0296849
708.076 .0296744
708.811 .0296643
709.546 .0296545
710.281 .0296450
711.015 .0296356
711.749 .0296262
712.483 .0296168
713.217 .0296073
713.950 .0295977
714.684 .0295877
715.417 .0295775
716.150 .0295668
716.882 .0295558
717.615 .0295443
718.347 .0295323
719.079 .0295198
719.811 .0295068
720.542 .0294934
721.273 .0294796
722.005 .0294655
722.735 .0294509
723.466 .0294361
724.196 .0294209
724.927 .0294054
725.656 .0293897
726.386 .0293737
727.116 .0293576
727.845 .0293412
728.574 .0293247
729.303 .0293081
730.031 .0292914
730.760 .0292747
731.488 .0292579
732.216 .0292411
732.944 .0292244
733.671 .0292076
734.398 .0291908
735.125 .0291740
735.852 .0291572
736.579 .0291404
737.305 .0291235
738.031 .0291065
738.757 .0290894
739.483 .0290723
740.208 .0290552
740.933 .0290381
741.658 .0290211
742.383 .0290040
743.108 .0289870
743.832 .0289700
744.556 .0289529
745.280 .0289357
746.004 .0289183
746.727 .0289008
747.450 .0288830
748.173 .0288650
748.896 .0288467
749.618 .0288282
750.340 .0288094
751.062 .0287903
751.784 .0287710
752.506 .0287514
753.227 .0287315
753.948 .0287113
754.669 .0286907
755.389 .0286698
756.110 .0286484
756.830 .0286267
757.550 .0286045
758.269 .0285818
758.989 .0285588
759.708 .0285355
760.427 .0285119
761.146 .0284881
761.864 .0284640
762.582 .0284399
763.300 .0284156
764.018 .0283913
764.736 .0283670
765.453 .0283426
766.170 .0283184
766.887 .0282944
767.603 .0282707
768.320 .0282474
769.036 .0282245
769.751 .0282023
770.467 .0281808
771.182 .0281601
771.897 .0281402
772.612 .0281213
773.327 .0281034
774.041 .0280865
774.755 .0280706
775.469 .0280559
776.183 .0280423
776.896 .0280299
777.609 .0280187
778.322 .0280088
779.035 .0280002
779.747 .0279928
780.459 .0279868
781.171 .0279819
781.882 .0279782
782.594 .0279755
783.305 .0279737
784.016 .0279727
784.726 .0279724
785.436 .0279727
786.147 .0279747
786.856 .0279758
787.566 .0279772
788.275 .0279787
788.984 .0279804
789.693 .0279821
790.401 .0279836
791.110 .0279849
791.818 .0279860
792.525 .0279867
793.233 .0279871
793.940 .0279870
794.647 .0279857
795.353 .0279851
796.060 .0279841
796.766 .0279827
797.472 .0279809
798.177 .0279786
798.883 .0279759
799.588 .0279727
800.292 .0279692
800.997 .0279652
801.701 .0279609
802.405 .0279562
803.109 .0279512
803.812 .0279458
804.515 .0279400
805.218 .0279338
805.921 .0279272
806.623 .0279203
807.325 .0279130
808.027 .0279053
808.728 .0278975
809.429 .0278894
810.130 .0278812
810.831 .0278729
811.531 .0278645
812.231 .0278559
812.931 .0278473
813.630 .0278387
814.330 .0278300
815.029 .0278214
815.727 .0278128
816.426 .0278044
817.124 .0277962
817.821 .0277882
818.519 .0277805
819.216 .0277730
819.913 .0277657
820.609 .0277588
821.306 .0277522
822.002 .0277459
822.697 .0277399
823.393 .0277343
824.088 .0277290
824.783 .0277239
825.477 .0277190
826.171 .0277141
826.865 .0277094
827.559 .0277046
828.252 .0276997
828.945 .0276948
829.638 .0276897
830.330 .0276844
831.023 .0276788
831.714 .0276729
832.406 .0276667
833.097 .0276600
833.788 .0276528
834.479 .0276451
835.169 .0276369
835.859 .0276281
836.548 .0276188
837.238 .0276088
837.927 .0275983
838.615 .0275872
839.304 .0275754
839.992 .0275630
840.680 .0275499
841.367 .0275363
842.054 .0275220
842.741 .0275071
843.428 .0274916
844.114 .0274755
844.800 .0274586
845.485 .0274411
846.170 .0274228
846.855 .0274037
847.540 .0273838
848.224 .0273630
848.908 .0273414
849.592 .0273189
850.275 .0272957
850.958 .0272717
851.641 .0272469
852.323 .0272215
853.005 .0271953
853.687 .0271686
854.368 .0271412
855.049 .0271133
855.730 .0270849
856.410 .0270562
857.090 .0270271
857.769 .0269978
858.449 .0269684
859.128 .0269391
859.806 .0269098
860.485 .0268807
861.163 .0268520
861.840 .0268236
862.518 .0267956
863.195 .0267683
863.871 .0267415
864.548 .0267154
865.224 .0266900
865.899 .0266653
866.574 .0266413
867.249 .0266181
867.924 .0265957
868.598 .0265741
869.272 .0265533
869.946 .0265332
870.619 .0265140
871.292 .0264954
871.964 .0264776
872.636 .0264605
873.308 .0264441
873.979 .0264282
874.651 .0264130
875.321 .0263983
875.992 .0263842
876.662 .0263705
877.331 .0263574
878.001 .0263447
878.670 .0263324
879.338 .0263206
880.007 .0263093
880.675 .0262985
881.342 .0262883
882.009 .0262787
882.676 .0262698
883.343 .0262617
884.009 .0262544
884.675 .0262478
885.340 .0262422
886.005 .0262373
886.670 .0262334
887.334 .0262304
887.998 .0262282
888.662 .0262271
889.325 .0262269
889.988 .0262276
890.650 .0262294
891.312 .0262320
891.974 .0262354
892.636 .0262396
893.297 .0262444
893.957 .0262497
894.618 .0262554
895.278 .0262615
895.937 .0262678
896.596 .0262742
897.255 .0262806
897.914 .0262869
898.572 .0262929
899.230 .0262985
899.887 .0263036
900.544 .0263081
901.201 .0263120
901.857 .0263143
902.513 .0263163
903.168 .0263177
903.823 .0263184
904.478 .0263184
905.132 .0263175
905.786 .0263159
906.440 .0263134
907.093 .0263102
907.746 .0263064
908.399 .0263020
909.051 .0262972
909.703 .0262920
910.354 .0262891
911.005 .0262839
911.656 .0262785
912.306 .0262731
912.956 .0262675
913.605 .0262619
914.254 .0262564
914.903 .0262510
915.551 .0262457
916.199 .0262406
916.847 .0262358
917.494 .0262312
918.141 .0262267
918.788 .0262225
919.434 .0262184
920.079 .0262145
920.725 .0262106
921.370 .0262068
922.014 .0262031
922.658 .0261995
923.302 .0261959
923.946 .0261923
924.589 .0261886
925.231 .0261848
925.873 .0261808
926.515 .0261765
927.157 .0261720
927.798 .0261672
928.439 .0261622
929.079 .0261569
929.719 .0261513
930.359 .0261456
930.998 .0261397
931.637 .0261337
932.275 .0261275
932.913 .0261213
933.551 .0261151
934.188 .0261089
934.825 .0261027
935.462 .0260967
936.098 .0260908
936.733 .0260850
937.369 .0260794
938.004 .0260739
938.638 .0260686
939.273 .0260634
939.907 .0260585
940.540 .0260537
941.173 .0260490
941.806 .0260445
942.438 .0260401
943.070 .0260358
943.702 .0260316
944.333 .0260274
944.964 .0260232
945.594 .0260189
946.224 .0260144
946.854 .0260098
947.483 .0260050
948.112 .0259999
948.741 .0259945
949.369 .0259887
949.996 .0259824
950.624 .0259756
951.251 .0259683
951.878 .0259605
952.504 .0259521
953.130 .0259432
953.755 .0259338
954.380 .0259238
955.005 .0259133
955.629 .0259023
956.253 .0258907
956.877 .0258786
957.500 .0258659
958.123 .0258527
958.746 .0258390
959.368 .0258249
959.990 .0258104
960.611 .0257956
961.232 .0257806
961.853 .0257653
962.473 .0257497
963.093 .0257339
963.712 .0257178
964.331 .0257013
964.950 .0256846
965.569 .0256676
966.187 .0256502
966.804 .0256326
967.422 .0256148
968.039 .0255966
968.655 .0255781
969.272 .0255593
969.887 .0255401
970.503 .0255204
971.118 .0255004
971.733 .0254798
972.347 .0254588
972.961 .0254373
973.575 .0254154
974.188 .0253930
974.801 .0253701
975.414 .0253468
976.026 .0253229
976.638 .0252986
977.250 .0252739
977.861 .0252487
978.472 .0252232
979.083 .0251973
979.693 .0251710
980.303 .0251444
980.912 .0251036
981.521 .0250765
982.130 .0250493
982.738 .0250220
983.346 .0249948
983.954 .0249676
984.562 .0249405
985.169 .0249135
985.775 .0248867
986.382 .0248601
986.988 .0248337
987.594 .0248076
988.199 .0247818
988.804 .0247565
989.409 .0247453
990.013 .0247211
990.617 .0246975
991.221 .0246748
991.824 .0246528
992.427 .0246315
993.030 .0246110
993.632 .0245911
994.234 .0245718
994.836 .0245530
995.438 .0245348
996.039 .0245172
996.640 .0245002
997.240 .0244838
997.840 .0244682
998.440 .0244532
999.040 .0244389
999.639 .0244251
1000.238 .0244119
1000.836 .0243991
1001.435 .0243867
1002.033 .0243746
1002.630 .0243628
1003.228 .0243514
1003.825 .0243404
1004.422 .0243297
1005.018 .0243194
1005.614 .0243096
1006.210 .0243001
1006.806 .0242910
1007.401 .0242821
1007.996 .0242735
1008.591 .0242649
1009.186 .0242565
1009.780 .0242483
1010.374 .0242403
1010.967 .0242326
1011.561 .0242253
1012.154 .0242184
1012.746 .0242121
1013.339 .0242063
1013.931 .0242012
1014.523 .0241966
1015.115 .0241925
1015.706 .0241889
1016.298 .0241858
1016.888 .0241834
1017.479 .0241816
1018.069 .0241805
1018.660 .0241802
1019.250 .0241807
1019.839 .0241822
1020.429 .0241846
1021.018 .0241879
1021.607 .0241921
1022.195 .0241970
1022.784 .0242026
1023.372 .0242089
1023.960 .0242158
1024.547 .0242233
1025.135 .0242315
1025.722 .0242404
1026.309 .0242501
1026.896 .0242604
1027.483 .0242715
1028.069 .0242833
1028.655 .0242956
1029.241 .0243084
1029.827 .0243215
1030.412 .0243348
1030.997 .0243483
1031.582 .0243620
1032.167 .0243758
1032.752 .0243899
1033.336 .0244042
1033.921 .0244188
1034.505 .0244336
1035.089 .0244486
1035.672 .0244637
1036.256 .0244789
1036.839 .0244939
1037.422 .0245088
1038.005 .0245234
1038.588 .0245379
1039.171 .0245521
1039.753 .0245661
1040.335 .0245801
1040.918 .0245940
1041.500 .0246079
1042.081 .0246219
1042.663 .0246358
1043.244 .0246497
1043.826 .0246635
1044.407 .0246773
1044.988 .0246909
1045.569 .0247044
1046.150 .0247179
1046.730 .0247312
1047.311 .0247445
1047.891 .0247579
1048.471 .0247713
1049.052 .0247849
1049.632 .0247985
1050.211 .0248122
1050.791 .0248261
1051.371 .0248401
1051.950 .0248542
1052.530 .0248684
1053.109 .0248827
1053.688 .0248972
1054.268 .0249119
1054.847 .0249270
1055.426 .0249423
1056.005 .0249578
1056.583 .0249735
1057.162 .0249892
1057.741 .0250050
1058.319 .0250207
1058.898 .0250363
1059.476 .0250518
1060.055 .0250670
1060.633 .0250821
1061.211 .0250970
1061.790 .0251117
1062.368 .0251263
1062.946 .0251407
1063.524 .0251549
1064.102 .0251688
1064.680 .0251826
1065.258 .0251962
1065.836 .0252097
1066.414 .0252232
1066.992 .0252368
1067.570 .0252504
1068.148 .0252641
1068.726 .0252779
1069.304 .0252919
1069.882 .0253060
1070.460 .0253201
1071.038 .0253342
1071.616 .0253484
1072.194 .0253626
1072.772 .0253770
1073.350 .0253917
1073.928 .0254066
1074.506 .0254218
1075.084 .0254372
1075.662 .0254528
1076.240 .0254687
1076.819 .0254847
1077.397 .0255010
1077.976 .0255176
1078.554 .0255346
1079.133 .0255519
1079.711 .0255698
1080.290 .0255882
1080.869 .0256072
1081.448 .0256265
1082.027 .0256461
1082.606 .0256659
1083.185 .0256857
1083.764 .0257055
1084.343 .0257253
1084.923 .0257448
1085.502 .0257643
1086.082 .0257835
1086.662 .0258026
1087.242 .0258217
1087.822 .0258407
1088.402 .0258597
1088.983 .0258786
1089.563 .0258975
1090.144 .0259164
1090.725 .0259353
1091.306 .0259542
1091.887 .0259731
1092.469 .0259919
1093.050 .0260107
1093.632 .0260294
1094.214 .0260479
1094.796 .0260665
1095.379 .0260849
1095.961 .0261033
1096.544 .0261216
1097.127 .0261398
1097.710 .0261580
1098.294 .0261759
1098.877 .0261936
1099.461 .0262110
1100.046 .0262282
1100.630 .0262449
1101.215 .0262615
1101.800 .0262779
1102.385 .0262945
1102.970 .0263114
1103.556 .0263288
1104.142 .0263472
1104.728 .0263665
1105.315 .0263867
1105.902 .0264080
1106.489 .0264300
1107.077 .0264528
1107.664 .0264763
1108.253 .0265004
1108.841 .0265251
1109.430 .0265506
1110.019 .0265771
1110.609 .0266046
1111.198 .0266333
1111.789 .0266630
1112.379 .0266936
1112.970 .0267249
1113.561 .0267567
1114.153 .0267885
1114.745 .0268203
1115.338 .0268522
1115.931 .0268843
1116.524 .0269170
1117.117 .0269507
1117.712 .0269856
1118.306 .0270221
1118.901 .0270606
1119.496 .0271009
1120.092 .0271430
1120.689 .0271867
1121.285 .0272315
1121.882 .0272771
1122.480 .0273233
1123.078 .0273699
1123.677 .0274171
1124.276 .0274652
1124.875 .0275144
1125.476 .0275652
1126.076 .0276177
1126.677 .0276721
1127.279 .0277283
1127.881 .0277861
1128.484 .0278451
1129.087 .0278688
1129.691 .0279291
1130.295 .0279902
1130.900 .0280523
1131.505 .0281160
1132.111 .0281815
1132.718 .0282487
1133.325 .0283177
1133.933 .0283879
1134.541 .0284678
1135.150 .0285455
1135.760 .0286084
1136.370 .0286759
1136.981 .0288390
1137.592 .0289115
1138.204 .0289738
1138.817 .0290352
1139.431 .0291014
1140.045 .0291717
1140.660 .0292354
1141.275 .0293027
1141.891 .0293631
1142.508 .0296668
1143.126 .0296546
1143.744 .0292962
1144.363 .0294964
1144.983 .0294476
