Measurement Sequence started on: 15-12-46-377
Integration time: 28
Scans to Average: 2 
>>>>>Begin Spectral Data<<<<<
432.689 .0000100
433.621 .0000100
434.552 .0000100
435.482 .0000100
436.410 .0000100
437.337 .0000100
438.262 .0288945
439.187 .0612632
440.110 .1015662
441.031 .1470156
441.952 .1180353
442.871 .1232701
443.789 .1281372
444.705 .1327116
445.621 .1370471
446.535 .1411843
447.447 .1436317
448.359 .1442301
449.269 .1425812
450.178 .1384286
451.086 .1318534
451.993 .1233564
452.898 .1137725
453.803 .1040494
454.706 .0949931
455.608 .0871073
456.508 .0805628
457.408 .0761046
458.306 .0726619
459.204 .0698492
460.100 .0674712
460.995 .0654195
461.888 .0636217
462.781 .0620275
463.673 .0605992
464.563 .0593108
465.452 .0581418
466.340 .0570757
467.228 .0561013
468.114 .0552090
468.999 .0543921
469.882 .0536442
470.765 .0529600
471.647 .0523355
472.528 .0517670
473.407 .0512509
474.286 .0507843
475.163 .0503645
476.040 .0499884
476.915 .0496532
477.790 .0493558
478.663 .0490942
479.535 .0488660
480.407 .0486695
481.277 .0485028
482.147 .0483635
483.015 .0482491
483.883 .0481575
484.749 .0480861
485.615 .0480326
486.479 .0479950
487.343 .0479723
488.206 .0479639
489.067 .0479699
489.928 .0479913
490.788 .0480300
491.647 .0480878
492.505 .0481667
493.362 .0482680
494.218 .0483932
495.073 .0485434
495.928 .0488628
496.781 .0490813
497.634 .0493276
498.486 .0496029
499.337 .0499091
500.187 .0502478
501.036 .0506218
501.884 .0510335
502.731 .0514867
503.578 .0519846
504.424 .0523283
505.268 .0529076
506.113 .0535448
506.956 .0542444
507.798 .0550116
508.640 .0558524
509.480 .0567746
510.320 .0577886
511.160 .0589065
511.998 .0601427
512.836 .0615147
513.672 .0630410
514.508 .0647434
515.344 .0666443
516.178 .0687672
517.012 .0711369
517.845 .0737755
518.677 .0767031
519.508 .0799343
520.339 .0834713
521.169 .0873130
521.998 .0914303
522.826 .0957801
523.654 .1002999
524.481 .1049145
525.307 .1095389
526.133 .1140775
526.958 .1184346
527.782 .1225172
528.605 .1262396
529.428 .1295316
530.250 .1323282
531.072 .1345906
531.892 .1362874
532.712 .1373991
533.532 .1379162
534.350 .1378364
535.168 .1371651
535.986 .1359109
536.802 .1340847
537.618 .1317061
538.434 .1287930
539.249 .1253899
540.063 .1215524
540.876 .1173514
541.689 .1128689
542.501 .1081940
543.313 .1034228
544.124 .0986511
544.934 .0939676
545.744 .0894519
546.553 .0851656
547.361 .0811619
548.169 .0774654
548.976 .0740902
549.783 .0710365
550.589 .0682920
551.395 .0658344
552.200 .0636365
553.004 .0616677
553.808 .0599001
554.611 .0583084
555.414 .0568720
556.216 .0555710
557.018 .0543872
557.819 .0533066
558.619 .0523159
559.419 .0514045
560.218 .0505644
561.017 .0497855
561.815 .0490609
562.613 .0483834
563.410 .0477455
564.207 .0471400
565.003 .0465610
565.799 .0460024
566.594 .0454594
567.388 .0449290
568.182 .0444093
568.976 .0438984
569.769 .0433964
570.562 .0429036
571.354 .0424204
572.145 .0419472
572.936 .0414842
573.727 .0410313
574.517 .0405888
575.307 .0401570
576.096 .0397360
576.885 .0393264
577.673 .0389293
578.461 .0385454
579.248 .0381756
580.035 .0378209
580.821 .0374821
581.607 .0371600
582.392 .0368553
583.177 .0365682
583.962 .0362985
584.746 .0360459
585.529 .0358101
586.313 .0355901
587.095 .0353851
587.878 .0351945
588.660 .0350175
589.441 .0348537
590.222 .0347025
591.003 .0345630
591.783 .0344346
592.563 .0343164
593.342 .0342074
594.121 .0341066
594.899 .0340130
595.678 .0339256
596.455 .0338436
597.233 .0337660
598.009 .0336922
598.786 .0336218
599.562 .0335544
600.338 .0334897
601.113 .0334274
601.888 .0333426
602.663 .0332864
603.437 .0332326
604.211 .0331812
604.984 .0331322
605.757 .0330854
606.530 .0330409
607.302 .0329986
608.074 .0329586
608.845 .0329208
609.616 .0328853
610.387 .0328731
611.158 .0328409
611.928 .0328109
612.697 .0327831
613.467 .0327574
614.236 .0327338
615.004 .0327120
615.773 .0326919
616.541 .0326732
617.308 .0326558
618.076 .0326395
618.843 .0326241
619.609 .0326095
620.375 .0325954
621.141 .0325816
621.907 .0325681
622.672 .0325545
623.437 .0325407
624.202 .0325265
624.966 .0325117
625.730 .0324962
626.493 .0324800
627.257 .0324628
628.020 .0324446
628.782 .0324255
629.545 .0324053
630.307 .0323840
631.068 .0323616
631.830 .0323381
632.591 .0323136
633.352 .0322881
634.112 .0322618
634.872 .0322348
635.632 .0322072
636.392 .0321791
637.151 .0321508
637.910 .0321223
638.668 .0320936
639.427 .0320648
640.185 .0320359
640.943 .0320070
641.700 .0319781
642.457 .0319493
643.214 .0319204
643.971 .0318918
644.727 .0318632
645.483 .0318347
646.239 .0318062
646.994 .0317777
647.750 .0317489
648.505 .0317199
649.259 .0316905
650.014 .0316606
650.768 .0316301
651.521 .0315988
652.275 .0315669
653.028 .0315341
653.781 .0315006
654.534 .0314662
655.286 .0314311
656.039 .0313953
656.791 .0313589
657.542 .0313220
658.294 .0312848
659.045 .0312473
659.796 .0312098
660.546 .0311721
661.297 .0311345
662.047 .0310970
662.796 .0310598
663.546 .0310230
664.295 .0309869
665.044 .0309514
665.793 .0309170
666.542 .0308836
667.290 .0308513
668.038 .0308202
668.786 .0307902
669.533 .0307612
670.281 .0307333
671.028 .0307063
671.774 .0306803
672.521 .0306552
673.267 .0306310
674.013 .0306078
674.759 .0305854
675.505 .0305639
676.250 .0305432
676.995 .0305231
677.740 .0305036
678.484 .0304846
679.229 .0304661
679.973 .0304481
680.717 .0304306
681.460 .0304135
682.204 .0303969
682.947 .0303807
683.690 .0303650
684.433 .0303497
685.175 .0303349
685.917 .0303204
686.659 .0303064
687.401 .0302929
688.142 .0302798
688.884 .0302671
689.625 .0302549
690.365 .0302431
691.106 .0302316
691.846 .0302205
692.586 .0302098
693.326 .0301993
694.066 .0301892
694.805 .0301793
695.545 .0301697
696.284 .0301604
697.022 .0301512
697.761 .0301420
698.499 .0301328
699.237 .0301236
699.975 .0301142
700.713 .0301047
701.450 .0300952
702.187 .0300855
702.924 .0300758
703.661 .0300661
704.397 .0300562
705.133 .0300462
705.869 .0300359
706.605 .0300255
707.341 .0300147
708.076 .0300037
708.811 .0299923
709.546 .0299806
710.281 .0299686
711.015 .0299563
711.749 .0299436
712.483 .0299306
713.217 .0299172
713.950 .0299034
714.684 .0298891
715.417 .0298743
716.150 .0298590
716.882 .0298431
717.615 .0298265
718.347 .0298092
719.079 .0297912
719.811 .0297726
720.542 .0297533
721.273 .0297333
722.005 .0297129
722.735 .0296919
723.466 .0296705
724.196 .0296488
724.927 .0296267
725.656 .0296042
726.386 .0295815
727.116 .0295586
727.845 .0295355
728.574 .0295122
729.303 .0294890
730.031 .0294657
730.760 .0294426
731.488 .0294197
732.216 .0293970
732.944 .0293745
733.671 .0293524
734.398 .0293306
735.125 .0293092
735.852 .0292882
736.579 .0292676
737.305 .0292473
738.031 .0292274
738.757 .0292077
739.483 .0291883
740.208 .0291691
740.933 .0291502
741.658 .0291314
742.383 .0291127
743.108 .0290941
743.832 .0290755
744.556 .0290569
745.280 .0290382
746.004 .0290193
746.727 .0290001
747.450 .0289807
748.173 .0289609
748.896 .0289408
749.618 .0289204
750.340 .0288995
751.062 .0288783
751.784 .0288566
752.506 .0288345
753.227 .0288119
753.948 .0287889
754.669 .0287656
755.389 .0287419
756.110 .0287178
756.830 .0286936
757.550 .0286691
758.269 .0286444
758.989 .0286197
759.708 .0285948
760.427 .0285700
761.146 .0285452
761.864 .0285206
762.582 .0284961
763.300 .0284721
764.018 .0284485
764.736 .0284254
765.453 .0284030
766.170 .0283813
766.887 .0283604
767.603 .0283405
768.320 .0283214
769.036 .0283034
769.751 .0282864
770.467 .0282705
771.182 .0282556
771.897 .0282418
772.612 .0282291
773.327 .0282174
774.041 .0282067
774.755 .0281969
775.469 .0281881
776.183 .0281802
776.896 .0281733
777.609 .0281672
778.322 .0281620
779.035 .0281575
779.747 .0281536
780.459 .0281503
781.171 .0281474
781.882 .0281450
782.594 .0281428
783.305 .0281409
784.016 .0281392
784.726 .0281377
785.436 .0281364
786.147 .0281350
786.856 .0281341
787.566 .0281334
788.275 .0281328
788.984 .0281324
789.693 .0281320
790.401 .0281318
791.110 .0281316
791.818 .0281316
792.525 .0281316
793.233 .0281318
793.940 .0281320
794.647 .0281323
795.353 .0281327
796.060 .0281330
796.766 .0281334
797.472 .0281338
798.177 .0281341
798.883 .0281342
799.588 .0281342
800.292 .0281340
800.997 .0281335
801.701 .0281326
802.405 .0281313
803.109 .0281296
803.812 .0281274
804.515 .0281247
805.218 .0281215
805.921 .0281178
806.623 .0281135
807.325 .0281087
808.027 .0281033
808.728 .0280975
809.429 .0280911
810.130 .0280843
810.831 .0280769
811.531 .0280692
812.231 .0280611
812.931 .0280527
813.630 .0280439
814.330 .0280350
815.029 .0280260
815.727 .0280170
816.426 .0280080
817.124 .0279991
817.821 .0279905
818.519 .0279821
819.216 .0279739
819.913 .0279662
820.609 .0279587
821.306 .0279516
822.002 .0279449
822.697 .0279385
823.393 .0279326
824.088 .0279270
824.783 .0279218
825.477 .0279170
826.171 .0279124
826.865 .0279080
827.559 .0279038
828.252 .0278997
828.945 .0278957
829.638 .0278917
830.330 .0278877
831.023 .0278835
831.714 .0278791
832.406 .0278743
833.097 .0278692
833.788 .0278636
834.479 .0278576
835.169 .0278510
835.859 .0278439
836.548 .0278364
837.238 .0278284
837.927 .0278199
838.615 .0278108
839.304 .0278012
839.992 .0277909
840.680 .0277799
841.367 .0277682
842.054 .0277557
842.741 .0277425
843.428 .0277285
844.114 .0277139
844.800 .0276987
845.485 .0276828
846.170 .0276663
846.855 .0276491
847.540 .0276313
848.224 .0276128
848.908 .0275936
849.592 .0275735
850.275 .0275528
850.958 .0275313
851.641 .0275090
852.323 .0274861
853.005 .0274625
853.687 .0274382
854.368 .0274133
855.049 .0273878
855.730 .0273617
856.410 .0273351
857.090 .0273080
857.769 .0272805
858.449 .0272525
859.128 .0272242
859.806 .0271957
860.485 .0271668
861.163 .0271377
861.840 .0271085
862.518 .0270792
863.195 .0270497
863.871 .0270203
864.548 .0269910
865.224 .0269618
865.899 .0269328
866.574 .0269040
867.249 .0268756
867.924 .0268476
868.598 .0268201
869.272 .0267930
869.946 .0267664
870.619 .0267405
871.292 .0267151
871.964 .0266904
872.636 .0266663
873.308 .0266429
873.979 .0266203
874.651 .0265985
875.321 .0265775
875.992 .0265572
876.662 .0265378
877.331 .0265191
878.001 .0265013
878.670 .0264842
879.338 .0264678
880.007 .0264522
880.675 .0264373
881.342 .0264232
882.009 .0264099
882.676 .0263973
883.343 .0263856
884.009 .0263746
884.675 .0263644
885.340 .0263548
886.005 .0263460
886.670 .0263377
887.334 .0263301
887.998 .0263230
888.662 .0263166
889.325 .0263107
889.988 .0263054
890.650 .0263007
891.312 .0262965
891.974 .0262927
892.636 .0262892
893.297 .0262861
893.957 .0262832
894.618 .0262804
895.278 .0262777
895.937 .0262750
896.596 .0262722
897.255 .0262693
897.914 .0262660
898.572 .0262625
899.230 .0262585
899.887 .0262540
900.544 .0262489
901.201 .0262433
901.857 .0262318
902.513 .0262245
903.168 .0262166
903.823 .0262082
904.478 .0261992
905.132 .0261896
905.786 .0261796
906.440 .0261690
907.093 .0261581
907.746 .0261469
908.399 .0261356
909.051 .0261243
909.703 .0261130
910.354 .0261079
911.005 .0260973
911.656 .0260869
912.306 .0260769
912.956 .0260672
913.605 .0260579
914.254 .0260491
914.903 .0260408
915.551 .0260329
916.199 .0260256
916.847 .0260189
917.494 .0260127
918.141 .0260071
918.788 .0260020
919.434 .0259974
920.079 .0259933
920.725 .0259896
921.370 .0259863
922.014 .0259833
922.658 .0259805
923.302 .0259780
923.946 .0259755
924.589 .0259731
925.231 .0259706
925.873 .0259679
926.515 .0259652
927.157 .0259622
927.798 .0259590
928.439 .0259556
929.079 .0259521
929.719 .0259484
930.359 .0259446
930.998 .0259408
931.637 .0259369
932.275 .0259330
932.913 .0259293
933.551 .0259257
934.188 .0259224
934.825 .0259195
935.462 .0259171
936.098 .0259152
936.733 .0259138
937.369 .0259130
938.004 .0259128
938.638 .0259131
939.273 .0259141
939.907 .0259156
940.540 .0259178
941.173 .0259206
941.806 .0259241
942.438 .0259282
943.070 .0259328
943.702 .0259380
944.333 .0259436
944.964 .0259496
945.594 .0259560
946.224 .0259626
946.854 .0259693
947.483 .0259762
948.112 .0259832
948.741 .0259902
949.369 .0259972
949.996 .0260041
950.624 .0260108
951.251 .0260173
951.878 .0260235
952.504 .0260292
953.130 .0260345
953.755 .0260392
954.380 .0260434
955.005 .0260471
955.629 .0260503
956.253 .0260529
956.877 .0260550
957.500 .0260565
958.123 .0260575
958.746 .0260579
959.368 .0260578
959.990 .0260572
960.611 .0260561
961.232 .0260547
961.853 .0260528
962.473 .0260506
963.093 .0260482
963.712 .0260455
964.331 .0260427
964.950 .0260396
965.569 .0260363
966.187 .0260328
966.804 .0260290
967.422 .0260249
968.039 .0260205
968.655 .0260157
969.272 .0260106
969.887 .0260053
970.503 .0259996
971.118 .0259937
971.733 .0259874
972.347 .0259807
972.961 .0259736
973.575 .0259659
974.188 .0259575
974.801 .0259485
975.414 .0259388
976.026 .0259283
976.638 .0259171
977.250 .0259051
977.861 .0258925
978.472 .0258793
979.083 .0258654
979.693 .0258508
980.303 .0258355
980.912 .0258095
981.521 .0257926
982.130 .0257752
982.738 .0257571
983.346 .0257385
983.954 .0257195
984.562 .0257002
985.169 .0256805
985.775 .0256607
986.382 .0256407
986.988 .0256206
987.594 .0256002
988.199 .0255797
988.804 .0255592
989.409 .0255496
990.013 .0255291
990.617 .0255089
991.221 .0254889
991.824 .0254692
992.427 .0254500
993.030 .0254313
993.632 .0254130
994.234 .0253951
994.836 .0253776
995.438 .0253604
996.039 .0253435
996.640 .0253270
997.240 .0253108
997.840 .0252949
998.440 .0252795
999.040 .0252645
999.639 .0252498
1000.238 .0252356
1000.836 .0252216
1001.435 .0252079
1002.033 .0251945
1002.630 .0251813
1003.228 .0251683
1003.825 .0251557
1004.422 .0251435
1005.018 .0251316
1005.614 .0251202
1006.210 .0251091
1006.806 .0250983
1007.401 .0250878
1007.996 .0250774
1008.591 .0250672
1009.186 .0250570
1009.780 .0250469
1010.374 .0250368
1010.967 .0250268
1011.561 .0250169
1012.154 .0250070
1012.746 .0249971
1013.339 .0249873
1013.931 .0249774
1014.523 .0249675
1015.115 .0249576
1015.706 .0249477
1016.298 .0249377
1016.888 .0249278
1017.479 .0249180
1018.069 .0249083
1018.660 .0248987
1019.250 .0248891
1019.839 .0248796
1020.429 .0248701
1021.018 .0248606
1021.607 .0248510
1022.195 .0248414
1022.784 .0248318
1023.372 .0248222
1023.960 .0248126
1024.547 .0248030
1025.135 .0247935
1025.722 .0247841
1026.309 .0247746
1026.896 .0247652
1027.483 .0247558
1028.069 .0247465
1028.655 .0247372
1029.241 .0247281
1029.827 .0247192
1030.412 .0247106
1030.997 .0247024
1031.582 .0246945
1032.167 .0246869
1032.752 .0246796
1033.336 .0246724
1033.921 .0246654
1034.505 .0246584
1035.089 .0246514
1035.672 .0246445
1036.256 .0246375
1036.839 .0246307
1037.422 .0246239
1038.005 .0246173
1038.588 .0246108
1039.171 .0246043
1039.753 .0245977
1040.335 .0245912
1040.918 .0245845
1041.500 .0245776
1042.081 .0245707
1042.663 .0245639
1043.244 .0245571
1043.826 .0245505
1044.407 .0245443
1044.988 .0245384
1045.569 .0245327
1046.150 .0245273
1046.730 .0245221
1047.311 .0245168
1047.891 .0245115
1048.471 .0245059
1049.052 .0245002
1049.632 .0244943
1050.211 .0244882
1050.791 .0244820
1051.371 .0244757
1051.950 .0244692
1052.530 .0244627
1053.109 .0244560
1053.688 .0244492
1054.268 .0244423
1054.847 .0244355
1055.426 .0244288
1056.005 .0244224
1056.583 .0244165
1057.162 .0244113
1057.741 .0244067
1058.319 .0244029
1058.898 .0243998
1059.476 .0243973
1060.055 .0243953
1060.633 .0243937
1061.211 .0243924
1061.790 .0243915
1062.368 .0243908
1062.946 .0243904
1063.524 .0243903
1064.102 .0243905
1064.680 .0243909
1065.258 .0243916
1065.836 .0243924
1066.414 .0243935
1066.992 .0243950
1067.570 .0243968
1068.148 .0243991
1068.726 .0244021
1069.304 .0244059
1069.882 .0244105
1070.460 .0244159
1071.038 .0244221
1071.616 .0244290
1072.194 .0244364
1072.772 .0244442
1073.350 .0244522
1073.928 .0244604
1074.506 .0244686
1075.084 .0244769
1075.662 .0244851
1076.240 .0244933
1076.819 .0245014
1077.397 .0245095
1077.976 .0245175
1078.554 .0245255
1079.133 .0245335
1079.711 .0245417
1080.290 .0245502
1080.869 .0245593
1081.448 .0245688
1082.027 .0245791
1082.606 .0245901
1083.185 .0246019
1083.764 .0246143
1084.343 .0246273
1084.923 .0246410
1085.502 .0246552
1086.082 .0246698
1086.662 .0246848
1087.242 .0247002
1087.822 .0247160
1088.402 .0247321
1088.983 .0247484
1089.563 .0247649
1090.144 .0247817
1090.725 .0247987
1091.306 .0248161
1091.887 .0248341
1092.469 .0248528
1093.050 .0248724
1093.632 .0248931
1094.214 .0249151
1094.796 .0249385
1095.379 .0249632
1095.961 .0249892
1096.544 .0250164
1097.127 .0250447
1097.710 .0250741
1098.294 .0251046
1098.877 .0251362
1099.461 .0251689
1100.046 .0252027
1100.630 .0252378
1101.215 .0252742
1101.800 .0253118
1102.385 .0253504
1102.970 .0253902
1103.556 .0254309
1104.142 .0254724
1104.728 .0255147
1105.315 .0255580
1105.902 .0256022
1106.489 .0256477
1107.077 .0256945
1107.664 .0257428
1108.253 .0257927
1108.841 .0258440
1109.430 .0258968
1110.019 .0259509
1110.609 .0260061
1111.198 .0260621
1111.789 .0261188
1112.379 .0261760
1112.970 .0262334
1113.561 .0262909
1114.153 .0263483
1114.745 .0264054
1115.338 .0264621
1115.931 .0265184
1116.524 .0265743
1117.117 .0266298
1117.712 .0266852
1118.306 .0267401
1118.901 .0267948
1119.496 .0268493
1120.092 .0269034
1120.689 .0269572
1121.285 .0270111
1121.882 .0270650
1122.480 .0271194
1123.078 .0271745
1123.677 .0272310
1124.276 .0272889
1124.875 .0273486
1125.476 .0274101
1126.076 .0274736
1126.677 .0275391
1127.279 .0276065
1127.881 .0276756
1128.484 .0277470
1129.087 .0277749
1129.691 .0278488
1130.295 .0279254
1130.900 .0280047
1131.505 .0280868
1132.111 .0281719
1132.718 .0282602
1133.325 .0283517
1133.933 .0284449
1134.541 .0285401
1135.150 .0286368
1135.760 .0287501
1136.370 .0288581
1136.981 .0289709
1137.592 .0290993
1138.204 .0292297
1138.817 .0293550
1139.431 .0294814
1140.045 .0296034
1140.660 .0297335
1141.275 .0298604
1141.891 .0299506
1142.508 .0300515
1143.126 .0301422
1143.744 .0306530
1144.363 .0305516
1144.983 .0295724
