Measurement Sequence started on: 15-12-46-377
Integration time: 28
Scans to Average: 2 
>>>>>Begin Spectral Data<<<<<
432.689 .0000100
433.621 .0000100
434.552 .0000100
435.482 .0000100
436.410 .0000100
437.337 .0000100
438.262 .0280304
439.187 .0593593
440.110 .0982258
441.031 .1420460
441.952 .1134189
442.871 .1184078
443.789 .1230502
444.705 .1274211
445.621 .1315718
446.535 .1355411
447.447 .1378848
448.359 .1384516
449.269 .1368639
450.178 .1328746
451.086 .1265637
451.993 .1184218
452.898 .1092570
453.803 .0999825
454.706 .0913765
455.608 .0839198
456.508 .0777721
457.408 .0736517
458.306 .0705131
459.204 .0679786
460.100 .0658617
460.995 .0640554
461.888 .0624856
462.781 .0611019
463.673 .0598674
464.563 .0587537
465.452 .0577407
466.340 .0568126
467.228 .0559588
468.114 .0551727
468.999 .0544485
469.882 .0537807
470.765 .0531650
471.647 .0525964
472.528 .0520710
473.407 .0515845
474.286 .0511338
475.163 .0507169
476.040 .0503325
476.915 .0499794
477.790 .0496570
478.663 .0493653
479.535 .0491039
480.407 .0488727
481.277 .0486700
482.147 .0484935
483.015 .0483409
483.883 .0482094
484.749 .0480971
485.615 .0480029
486.479 .0479263
487.343 .0478673
488.206 .0478271
489.067 .0478064
489.928 .0478059
490.788 .0478267
491.647 .0478693
492.505 .0479343
493.362 .0480217
494.218 .0481314
495.073 .0482632
495.928 .0485455
496.781 .0487366
497.634 .0489524
498.486 .0491938
499.337 .0494620
500.187 .0497579
501.036 .0500828
501.884 .0504392
502.731 .0508297
503.578 .0512576
504.424 .0515489
505.268 .0520499
506.113 .0526027
506.956 .0532132
507.798 .0538892
508.640 .0546394
509.480 .0554732
510.320 .0564020
511.160 .0574395
511.998 .0586011
512.836 .0599043
513.672 .0613658
514.508 .0630074
515.344 .0648513
516.178 .0669187
517.012 .0692347
517.845 .0718246
518.677 .0747124
519.508 .0779160
520.339 .0814449
521.169 .0853054
521.998 .0894733
522.826 .0939132
523.654 .0985646
524.481 .1033562
525.307 .1082022
526.133 .1130061
526.958 .1176647
527.782 .1220817
528.605 .1261661
529.428 .1298382
530.250 .1330267
531.072 .1356878
531.892 .1377816
532.712 .1392853
533.532 .1401871
534.350 .1404833
535.168 .1401743
535.986 .1392670
536.802 .1377660
537.618 .1356847
538.434 .1330341
539.249 .1298533
540.063 .1261909
540.876 .1221173
541.689 .1177123
542.501 .1130656
543.313 .1082759
544.124 .1034459
544.934 .0986675
545.744 .0940236
546.553 .0895837
547.361 .0854063
548.169 .0815211
548.976 .0779494
549.783 .0746940
550.589 .0717477
551.395 .0690909
552.200 .0666991
553.004 .0645414
553.808 .0625924
554.611 .0608263
555.414 .0592213
556.216 .0577579
557.018 .0564166
557.819 .0551815
558.619 .0540375
559.419 .0529730
560.218 .0519775
561.017 .0510417
561.815 .0501590
562.613 .0493242
563.410 .0485319
564.207 .0477767
565.003 .0470551
565.799 .0463634
566.594 .0456987
567.388 .0450585
568.182 .0444402
568.976 .0438420
569.769 .0432624
570.562 .0427012
571.354 .0421582
572.145 .0416342
572.936 .0411287
573.727 .0406421
574.517 .0401745
575.307 .0397260
576.096 .0392961
576.885 .0388851
577.673 .0384931
578.461 .0381196
579.248 .0377645
580.035 .0374279
580.821 .0371097
581.607 .0368098
582.392 .0365278
583.177 .0362634
583.962 .0360161
584.746 .0357854
585.529 .0355708
586.313 .0353717
587.095 .0351876
587.878 .0350180
588.660 .0348619
589.441 .0347187
590.222 .0345876
591.003 .0344676
591.783 .0343579
592.563 .0342575
593.342 .0341652
594.121 .0340803
594.899 .0340020
595.678 .0339296
596.455 .0338625
597.233 .0338001
598.009 .0337419
598.786 .0336876
599.562 .0336366
600.338 .0335885
601.113 .0335430
601.888 .0334823
602.663 .0334417
603.437 .0334025
604.211 .0333646
604.984 .0333277
605.757 .0332916
606.530 .0332564
607.302 .0332218
608.074 .0331878
608.845 .0331545
609.616 .0331218
610.387 .0331058
611.158 .0330738
611.928 .0330422
612.697 .0330111
613.467 .0329801
614.236 .0329495
615.004 .0329189
615.773 .0328885
616.541 .0328582
617.308 .0328280
618.076 .0327979
618.843 .0327679
619.609 .0327379
620.375 .0327078
621.141 .0326776
621.907 .0326472
622.672 .0326164
623.437 .0325852
624.202 .0325536
624.966 .0325216
625.730 .0324890
626.493 .0324558
627.257 .0324220
628.020 .0323875
628.782 .0323523
629.545 .0323164
630.307 .0322798
631.068 .0322427
631.830 .0322050
632.591 .0321669
633.352 .0321286
634.112 .0320901
634.872 .0320514
635.632 .0320129
636.392 .0319745
637.151 .0319363
637.910 .0318986
638.668 .0318616
639.427 .0318253
640.185 .0317902
640.943 .0317562
641.700 .0317235
642.457 .0316923
643.214 .0316626
643.971 .0316344
644.727 .0316078
645.483 .0315827
646.239 .0315590
646.994 .0315367
647.750 .0315157
648.505 .0314958
649.259 .0314768
650.014 .0314587
650.768 .0314412
651.521 .0314243
652.275 .0314077
653.028 .0313912
653.781 .0313748
654.534 .0313583
655.286 .0313417
656.039 .0313249
656.791 .0313079
657.542 .0312907
658.294 .0312733
659.045 .0312556
659.796 .0312376
660.546 .0312192
661.297 .0312005
662.047 .0311813
662.796 .0311618
663.546 .0311419
664.295 .0311217
665.044 .0311014
665.793 .0310811
666.542 .0310609
667.290 .0310408
668.038 .0310210
668.786 .0310015
669.533 .0309822
670.281 .0309633
671.028 .0309447
671.774 .0309265
672.521 .0309087
673.267 .0308914
674.013 .0308746
674.759 .0308583
675.505 .0308425
676.250 .0308272
676.995 .0308123
677.740 .0307976
678.484 .0307831
679.229 .0307687
679.973 .0307542
680.717 .0307397
681.460 .0307250
682.204 .0307101
682.947 .0306948
683.690 .0306790
684.433 .0306626
685.175 .0306455
685.917 .0306276
686.659 .0306088
687.401 .0305889
688.142 .0305679
688.884 .0305459
689.625 .0305227
690.365 .0304984
691.106 .0304730
691.846 .0304466
692.586 .0304192
693.326 .0303910
694.066 .0303620
694.805 .0303323
695.545 .0303022
696.284 .0302716
697.022 .0302407
697.761 .0302095
698.499 .0301782
699.237 .0301467
699.975 .0301153
700.713 .0300839
701.450 .0300527
702.187 .0300217
702.924 .0299912
703.661 .0299610
704.397 .0299314
705.133 .0299023
705.869 .0298738
706.605 .0298457
707.341 .0298181
708.076 .0297909
708.811 .0297640
709.546 .0297375
710.281 .0297112
711.015 .0296852
711.749 .0296594
712.483 .0296338
713.217 .0296085
713.950 .0295835
714.684 .0295587
715.417 .0295341
716.150 .0295097
716.882 .0294855
717.615 .0294614
718.347 .0294374
719.079 .0294134
719.811 .0293894
720.542 .0293654
721.273 .0293415
722.005 .0293177
722.735 .0292942
723.466 .0292711
724.196 .0292484
724.927 .0292263
725.656 .0292047
726.386 .0291838
727.116 .0291635
727.845 .0291439
728.574 .0291250
729.303 .0291067
730.031 .0290892
730.760 .0290725
731.488 .0290567
732.216 .0290418
732.944 .0290279
733.671 .0290149
734.398 .0290029
735.125 .0289919
735.852 .0289818
736.579 .0289726
737.305 .0289643
738.031 .0289567
738.757 .0289499
739.483 .0289438
740.208 .0289384
740.933 .0289335
741.658 .0289292
742.383 .0289252
743.108 .0289217
743.832 .0289184
744.556 .0289155
745.280 .0289128
746.004 .0289102
746.727 .0289078
747.450 .0289054
748.173 .0289030
748.896 .0289005
749.618 .0288980
750.340 .0288952
751.062 .0288923
751.784 .0288890
752.506 .0288855
753.227 .0288815
753.948 .0288772
754.669 .0288724
755.389 .0288673
756.110 .0288618
756.830 .0288559
757.550 .0288495
758.269 .0288427
758.989 .0288356
759.708 .0288280
760.427 .0288200
761.146 .0288116
761.864 .0288028
762.582 .0287935
763.300 .0287840
764.018 .0287740
764.736 .0287638
765.453 .0287533
766.170 .0287426
766.887 .0287317
767.603 .0287207
768.320 .0287096
769.036 .0286986
769.751 .0286876
770.467 .0286767
771.182 .0286659
771.897 .0286552
772.612 .0286447
773.327 .0286343
774.041 .0286241
774.755 .0286139
775.469 .0286039
776.183 .0285939
776.896 .0285841
777.609 .0285743
778.322 .0285647
779.035 .0285551
779.747 .0285454
780.459 .0285357
781.171 .0285259
781.882 .0285158
782.594 .0285055
783.305 .0284949
784.016 .0284839
784.726 .0284725
785.436 .0284606
786.147 .0284407
786.856 .0284274
787.566 .0284135
788.275 .0283989
788.984 .0283837
789.693 .0283678
790.401 .0283512
791.110 .0283339
791.818 .0283159
792.525 .0282971
793.233 .0282776
793.940 .0282575
794.647 .0282455
795.353 .0282244
796.060 .0282026
796.766 .0281803
797.472 .0281574
798.177 .0281340
798.883 .0281102
799.588 .0280861
800.292 .0280615
800.997 .0280367
801.701 .0280116
802.405 .0279862
803.109 .0279605
803.812 .0279346
804.515 .0279084
805.218 .0278819
805.921 .0278554
806.623 .0278286
807.325 .0278018
808.027 .0277749
808.728 .0277479
809.429 .0277209
810.130 .0276937
810.831 .0276666
811.531 .0276395
812.231 .0276124
812.931 .0275855
813.630 .0275588
814.330 .0275323
815.029 .0275063
815.727 .0274807
816.426 .0274556
817.124 .0274311
817.821 .0274073
818.519 .0273841
819.216 .0273619
819.913 .0273405
820.609 .0273202
821.306 .0273009
822.002 .0272828
822.697 .0272659
823.393 .0272502
824.088 .0272357
824.783 .0272225
825.477 .0272105
826.171 .0271997
826.865 .0271901
827.559 .0271816
828.252 .0271742
828.945 .0271678
829.638 .0271625
830.330 .0271580
831.023 .0271544
831.714 .0271516
832.406 .0271494
833.097 .0271478
833.788 .0271467
834.479 .0271460
835.169 .0271459
835.859 .0271461
836.548 .0271467
837.238 .0271477
837.927 .0271489
838.615 .0271504
839.304 .0271520
839.992 .0271537
840.680 .0271554
841.367 .0271570
842.054 .0271585
842.741 .0271598
843.428 .0271609
844.114 .0271619
844.800 .0271628
845.485 .0271635
846.170 .0271640
846.855 .0271643
847.540 .0271644
848.224 .0271642
848.908 .0271637
849.592 .0271628
850.275 .0271614
850.958 .0271595
851.641 .0271570
852.323 .0271540
853.005 .0271504
853.687 .0271463
854.368 .0271417
855.049 .0271366
855.730 .0271312
856.410 .0271254
857.090 .0271193
857.769 .0271129
858.449 .0271063
859.128 .0270994
859.806 .0270924
860.485 .0270853
861.163 .0270783
861.840 .0270713
862.518 .0270646
863.195 .0270581
863.871 .0270519
864.548 .0270460
865.224 .0270405
865.899 .0270354
866.574 .0270306
867.249 .0270263
867.924 .0270226
868.598 .0270194
869.272 .0270168
869.946 .0270149
870.619 .0270136
871.292 .0270128
871.964 .0270126
872.636 .0270127
873.308 .0270131
873.979 .0270139
874.651 .0270149
875.321 .0270164
875.992 .0270181
876.662 .0270201
877.331 .0270225
878.001 .0270250
878.670 .0270275
879.338 .0270300
880.007 .0270324
880.675 .0270345
881.342 .0270363
882.009 .0270379
882.676 .0270392
883.343 .0270404
884.009 .0270413
884.675 .0270420
885.340 .0270425
886.005 .0270427
886.670 .0270425
887.334 .0270419
887.998 .0270408
888.662 .0270393
889.325 .0270373
889.988 .0270350
890.650 .0270323
891.312 .0270292
891.974 .0270259
892.636 .0270222
893.297 .0270181
893.957 .0270135
894.618 .0270084
895.278 .0270028
895.937 .0269967
896.596 .0269900
897.255 .0269828
897.914 .0269750
898.572 .0269668
899.230 .0269580
899.887 .0269486
900.544 .0269385
901.201 .0269276
901.857 .0269072
902.513 .0268936
903.168 .0268790
903.823 .0268632
904.478 .0268464
905.132 .0268285
905.786 .0268096
906.440 .0267897
907.093 .0267687
907.746 .0267467
908.399 .0267236
909.051 .0266994
909.703 .0266742
910.354 .0266590
911.005 .0266325
911.656 .0266051
912.306 .0265770
912.956 .0265483
913.605 .0265190
914.254 .0264893
914.903 .0264590
915.551 .0264282
916.199 .0263970
916.847 .0263653
917.494 .0263331
918.141 .0263005
918.788 .0262676
919.434 .0262344
920.079 .0262012
920.725 .0261679
921.370 .0261345
922.014 .0261012
922.658 .0260678
923.302 .0260344
923.946 .0260010
924.589 .0259676
925.231 .0259341
925.873 .0259007
926.515 .0258674
927.157 .0258342
927.798 .0258012
928.439 .0257685
929.079 .0257360
929.719 .0257038
930.359 .0256718
930.998 .0256401
931.637 .0256087
932.275 .0255775
932.913 .0255466
933.551 .0255161
934.188 .0254860
934.825 .0254565
935.462 .0254276
936.098 .0253994
936.733 .0253719
937.369 .0253451
938.004 .0253191
938.638 .0252939
939.273 .0252694
939.907 .0252457
940.540 .0252229
941.173 .0252009
941.806 .0251797
942.438 .0251595
943.070 .0251400
943.702 .0251213
944.333 .0251034
944.964 .0250861
945.594 .0250693
946.224 .0250530
946.854 .0250370
947.483 .0250214
948.112 .0250061
948.741 .0249911
949.369 .0249764
949.996 .0249620
950.624 .0249480
951.251 .0249343
951.878 .0249209
952.504 .0249078
953.130 .0248950
953.755 .0248824
954.380 .0248699
955.005 .0248577
955.629 .0248456
956.253 .0248338
956.877 .0248223
957.500 .0248111
958.123 .0248002
958.746 .0247896
959.368 .0247793
959.990 .0247694
960.611 .0247598
961.232 .0247506
961.853 .0247419
962.473 .0247337
963.093 .0247261
963.712 .0247190
964.331 .0247126
964.950 .0247069
965.569 .0247018
966.187 .0246974
966.804 .0246935
967.422 .0246902
968.039 .0246874
968.655 .0246851
969.272 .0246832
969.887 .0246817
970.503 .0246806
971.118 .0246798
971.733 .0246793
972.347 .0246790
972.961 .0246789
973.575 .0246788
974.188 .0246789
974.801 .0246789
975.414 .0246790
976.026 .0246791
976.638 .0246793
977.250 .0246796
977.861 .0246799
978.472 .0246803
979.083 .0246807
979.693 .0246810
980.303 .0246814
980.912 .0246818
981.521 .0246821
982.130 .0246823
982.738 .0246824
983.346 .0246825
983.954 .0246826
984.562 .0246827
985.169 .0246828
985.775 .0246830
986.382 .0246834
986.988 .0246840
987.594 .0246850
988.199 .0246864
988.804 .0246884
989.409 .0246906
990.013 .0246936
990.617 .0246973
991.221 .0247016
991.824 .0247067
992.427 .0247124
993.030 .0247190
993.632 .0247262
994.234 .0247341
994.836 .0247427
995.438 .0247519
996.039 .0247618
996.640 .0247723
997.240 .0247833
997.840 .0247948
998.440 .0248069
999.040 .0248194
999.639 .0248325
1000.238 .0248461
1000.836 .0248601
1001.435 .0248747
1002.033 .0248898
1002.630 .0249054
1003.228 .0249213
1003.825 .0249376
1004.422 .0249541
1005.018 .0249708
1005.614 .0249875
1006.210 .0250043
1006.806 .0250210
1007.401 .0250376
1007.996 .0250540
1008.591 .0250702
1009.186 .0250861
1009.780 .0251017
1010.374 .0251170
1010.967 .0251319
1011.561 .0251465
1012.154 .0251608
1012.746 .0251748
1013.339 .0251886
1013.931 .0252023
1014.523 .0252160
1015.115 .0252297
1015.706 .0252434
1016.298 .0252573
1016.888 .0252714
1017.479 .0252857
1018.069 .0253002
1018.660 .0253148
1019.250 .0253296
1019.839 .0253445
1020.429 .0253595
1021.018 .0253746
1021.607 .0253896
1022.195 .0254046
1022.784 .0254196
1023.372 .0254345
1023.960 .0254492
1024.547 .0254639
1025.135 .0254784
1025.722 .0254928
1026.309 .0255070
1026.896 .0255209
1027.483 .0255347
1028.069 .0255482
1028.655 .0255614
1029.241 .0255744
1029.827 .0255870
1030.412 .0255993
1030.997 .0256112
1031.582 .0256226
1032.167 .0256336
1032.752 .0256440
1033.336 .0256538
1033.921 .0256630
1034.505 .0256716
1035.089 .0256795
1035.672 .0256867
1036.256 .0256933
1036.839 .0256991
1037.422 .0257043
1038.005 .0257088
1038.588 .0257125
1039.171 .0257156
1039.753 .0257181
1040.335 .0257198
1040.918 .0257210
1041.500 .0257215
1042.081 .0257214
1042.663 .0257208
1043.244 .0257196
1043.826 .0257179
1044.407 .0257158
1044.988 .0257133
1045.569 .0257105
1046.150 .0257073
1046.730 .0257038
1047.311 .0257001
1047.891 .0256961
1048.471 .0256919
1049.052 .0256876
1049.632 .0256831
1050.211 .0256784
1050.791 .0256735
1051.371 .0256683
1051.950 .0256630
1052.530 .0256574
1053.109 .0256515
1053.688 .0256453
1054.268 .0256389
1054.847 .0256322
1055.426 .0256253
1056.005 .0256183
1056.583 .0256113
1057.162 .0256043
1057.741 .0255973
1058.319 .0255904
1058.898 .0255836
1059.476 .0255770
1060.055 .0255705
1060.633 .0255641
1061.211 .0255580
1061.790 .0255521
1062.368 .0255464
1062.946 .0255410
1063.524 .0255356
1064.102 .0255305
1064.680 .0255253
1065.258 .0255200
1065.836 .0255145
1066.414 .0255086
1066.992 .0255025
1067.570 .0254960
1068.148 .0254892
1068.726 .0254823
1069.304 .0254752
1069.882 .0254680
1070.460 .0254607
1071.038 .0254534
1071.616 .0254460
1072.194 .0254385
1072.772 .0254308
1073.350 .0254228
1073.928 .0254145
1074.506 .0254060
1075.084 .0253971
1075.662 .0253881
1076.240 .0253789
1076.819 .0253694
1077.397 .0253597
1077.976 .0253496
1078.554 .0253391
1079.133 .0253282
1079.711 .0253168
1080.290 .0253050
1080.869 .0252927
1081.448 .0252802
1082.027 .0252676
1082.606 .0252550
1083.185 .0252427
1083.764 .0252306
1084.343 .0252189
1084.923 .0252074
1085.502 .0251962
1086.082 .0251851
1086.662 .0251741
1087.242 .0251633
1087.822 .0251526
1088.402 .0251421
1088.983 .0251319
1089.563 .0251221
1090.144 .0251127
1090.725 .0251039
1091.306 .0250957
1091.887 .0250879
1092.469 .0250807
1093.050 .0250739
1093.632 .0250676
1094.214 .0250617
1094.796 .0250561
1095.379 .0250510
1095.961 .0250464
1096.544 .0250422
1097.127 .0250385
1097.710 .0250353
1098.294 .0250325
1098.877 .0250301
1099.461 .0250279
1100.046 .0250261
1100.630 .0250244
1101.215 .0250229
1101.800 .0250217
1102.385 .0250207
1102.970 .0250202
1103.556 .0250203
1104.142 .0250213
1104.728 .0250233
1105.315 .0250266
1105.902 .0250315
1106.489 .0250379
1107.077 .0250463
1107.664 .0250564
1108.253 .0250685
1108.841 .0250826
1109.430 .0250987
1110.019 .0251169
1110.609 .0251371
1111.198 .0251594
1111.789 .0251837
1112.379 .0252099
1112.970 .0252380
1113.561 .0252677
1114.153 .0252991
1114.745 .0253321
1115.338 .0253666
1115.931 .0254029
1116.524 .0254408
1117.117 .0254804
1117.712 .0255216
1118.306 .0255645
1118.901 .0256086
1119.496 .0256540
1120.092 .0257003
1120.689 .0257474
1121.285 .0257950
1121.882 .0258432
1122.480 .0258919
1123.078 .0259413
1123.677 .0259912
1124.276 .0260416
1124.875 .0260924
1125.476 .0261435
1126.076 .0261945
1126.677 .0262452
1127.279 .0262959
1127.881 .0263465
1128.484 .0263974
1129.087 .0264216
1129.691 .0264733
1130.295 .0265266
1130.900 .0265823
1131.505 .0266410
1132.111 .0267034
1132.718 .0267697
1133.325 .0268410
1133.933 .0269172
1134.541 .0269984
1135.150 .0270856
1135.760 .0271739
1136.370 .0272827
1136.981 .0271400
1137.592 .0272221
1138.204 .0273219
1138.817 .0274365
1139.431 .0275702
1140.045 .0277194
1140.660 .0278792
1141.275 .0280657
1141.891 .0282550
1142.508 .0284437
1143.126 .0286600
1143.744 .0287401
1144.363 .0293568
1144.983 .0292323
