Measurement Sequence started on: 15-12-46-377
Integration time: 28
Scans to Average: 2 
>>>>>Begin Spectral Data<<<<<
432.689 .0000100
433.621 .0000100
434.552 .0000100
435.482 .0000100
436.410 .0000100
437.337 .0000100
438.262 .0301241
439.187 .0637603
440.110 .1055292
441.031 .1525986
441.952 .1217454
442.871 .1270843
443.789 .1320514
444.705 .1367266
445.621 .1411627
446.535 .1453992
447.447 .1478792
448.359 .1484393
449.269 .1466698
450.178 .1423067
451.086 .1354345
451.993 .1265823
452.898 .1166193
453.803 .1065307
454.706 .0971527
455.608 .0890032
456.508 .0822530
457.408 .0776744
458.306 .0741422
459.204 .0712525
460.100 .0688040
460.995 .0666849
461.888 .0648185
462.781 .0631557
463.673 .0616601
464.563 .0603067
465.452 .0590768
466.340 .0579556
467.228 .0569312
468.114 .0559958
468.999 .0551418
469.882 .0543623
470.765 .0536516
471.647 .0530046
472.528 .0524163
473.407 .0518826
474.286 .0514004
475.163 .0509664
476.040 .0505773
476.915 .0502304
477.790 .0499229
478.663 .0496520
479.535 .0494155
480.407 .0492110
481.277 .0490360
482.147 .0488882
483.015 .0487647
483.883 .0486637
484.749 .0485839
485.615 .0485243
486.479 .0484840
487.343 .0484629
488.206 .0484613
489.067 .0484793
489.928 .0485177
490.788 .0485774
491.647 .0486599
492.505 .0487661
493.362 .0488969
494.218 .0490528
495.073 .0492350
495.928 .0496047
496.781 .0498532
497.634 .0501272
498.486 .0504261
499.337 .0507512
500.187 .0511040
501.036 .0514861
501.884 .0519005
502.731 .0523507
503.578 .0528399
504.424 .0531633
505.268 .0537236
506.113 .0543331
506.956 .0549962
507.798 .0557183
508.640 .0565066
509.480 .0573709
510.320 .0583241
511.160 .0593804
511.998 .0605560
512.836 .0618701
513.672 .0633410
514.508 .0649912
515.344 .0668434
516.178 .0689214
517.012 .0712518
517.845 .0738579
518.677 .0767624
519.508 .0799829
520.339 .0835289
521.169 .0874021
521.998 .0915776
522.826 .0960197
523.654 .1006693
524.481 .1054536
525.307 .1102900
526.133 .1150844
526.958 .1197399
527.782 .1241615
528.605 .1282594
529.428 .1319554
530.250 .1351794
531.072 .1378835
531.892 .1400257
532.712 .1415792
533.532 .1425281
534.350 .1428617
535.168 .1425802
535.986 .1416872
536.802 .1401882
537.618 .1380956
538.434 .1354253
539.249 .1322184
540.063 .1285274
540.876 .1244209
541.689 .1199813
542.501 .1152978
543.313 .1104676
544.124 .1055866
544.934 .1007450
545.744 .0960240
546.553 .0914917
547.361 .0872055
548.169 .0832008
548.976 .0795022
549.783 .0761188
550.589 .0730464
551.395 .0702702
552.200 .0677667
553.004 .0655087
553.808 .0634702
554.611 .0616265
555.414 .0599565
556.216 .0584403
557.018 .0570585
557.819 .0557967
558.619 .0546405
559.419 .0535770
560.218 .0525946
561.017 .0516832
561.815 .0508335
562.613 .0500384
563.410 .0492904
564.207 .0485824
565.003 .0479087
565.799 .0472644
566.594 .0466443
567.388 .0460454
568.182 .0454650
568.976 .0449011
569.769 .0443521
570.562 .0438173
571.354 .0432960
572.145 .0427877
572.936 .0422923
573.727 .0418097
574.517 .0413396
575.307 .0408826
576.096 .0404388
576.885 .0400093
577.673 .0395950
578.461 .0391966
579.248 .0388150
580.035 .0384508
580.821 .0381042
581.607 .0377754
582.392 .0374641
583.177 .0371704
583.962 .0368945
584.746 .0366362
585.529 .0363957
586.313 .0361729
587.095 .0359674
587.878 .0357788
588.660 .0356066
589.441 .0354497
590.222 .0353071
591.003 .0351777
591.783 .0350604
592.563 .0349540
593.342 .0348572
594.121 .0347690
594.899 .0346882
595.678 .0346140
596.455 .0345454
597.233 .0344816
598.009 .0344218
598.786 .0343654
599.562 .0343116
600.338 .0342601
601.113 .0342103
601.888 .0341391
602.663 .0340921
603.437 .0340461
604.211 .0340009
604.984 .0339564
605.757 .0339126
606.530 .0338696
607.302 .0338274
608.074 .0337861
608.845 .0337457
609.616 .0337063
610.387 .0336891
611.158 .0336517
611.928 .0336155
612.697 .0335804
613.467 .0335466
614.236 .0335140
615.004 .0334827
615.773 .0334524
616.541 .0334232
617.308 .0333949
618.076 .0333674
618.843 .0333405
619.609 .0333141
620.375 .0332880
621.141 .0332621
621.907 .0332362
622.672 .0332103
623.437 .0331843
624.202 .0331579
624.966 .0331310
625.730 .0331035
626.493 .0330753
627.257 .0330463
628.020 .0330164
628.782 .0329855
629.545 .0329536
630.307 .0329207
631.068 .0328869
631.830 .0328522
632.591 .0328167
633.352 .0327805
634.112 .0327438
634.872 .0327067
635.632 .0326693
636.392 .0326319
637.151 .0325946
637.910 .0325578
638.668 .0325214
639.427 .0324856
640.185 .0324507
640.943 .0324166
641.700 .0323834
642.457 .0323513
643.214 .0323202
643.971 .0322900
644.727 .0322609
645.483 .0322328
646.239 .0322055
646.994 .0321791
647.750 .0321534
648.505 .0321284
649.259 .0321042
650.014 .0320806
650.768 .0320576
651.521 .0320351
652.275 .0320130
653.028 .0319913
653.781 .0319697
654.534 .0319483
655.286 .0319269
656.039 .0319054
656.791 .0318838
657.542 .0318621
658.294 .0318404
659.045 .0318186
659.796 .0317967
660.546 .0317747
661.297 .0317527
662.047 .0317304
662.796 .0317078
663.546 .0316851
664.295 .0316621
665.044 .0316389
665.793 .0316156
666.542 .0315922
667.290 .0315689
668.038 .0315457
668.786 .0315227
669.533 .0315001
670.281 .0314777
671.028 .0314557
671.774 .0314338
672.521 .0314121
673.267 .0313906
674.013 .0313692
674.759 .0313477
675.505 .0313263
676.250 .0313049
676.995 .0312836
677.740 .0312623
678.484 .0312411
679.229 .0312201
679.973 .0311993
680.717 .0311786
681.460 .0311579
682.204 .0311373
682.947 .0311167
683.690 .0310957
684.433 .0310746
685.175 .0310531
685.917 .0310314
686.659 .0310095
687.401 .0309874
688.142 .0309651
688.884 .0309429
689.625 .0309208
690.365 .0308987
691.106 .0308766
691.846 .0308545
692.586 .0308323
693.326 .0308100
694.066 .0307876
694.805 .0307650
695.545 .0307423
696.284 .0307195
697.022 .0306968
697.761 .0306742
698.499 .0306517
699.237 .0306294
699.975 .0306074
700.713 .0305855
701.450 .0305637
702.187 .0305420
702.924 .0305202
703.661 .0304982
704.397 .0304761
705.133 .0304538
705.869 .0304314
706.605 .0304088
707.341 .0303861
708.076 .0303634
708.811 .0303408
709.546 .0303182
710.281 .0302959
711.015 .0302737
711.749 .0302517
712.483 .0302299
713.217 .0302082
713.950 .0301866
714.684 .0301652
715.417 .0301440
716.150 .0301229
716.882 .0301020
717.615 .0300814
718.347 .0300611
719.079 .0300412
719.811 .0300217
720.542 .0300025
721.273 .0299837
722.005 .0299652
722.735 .0299469
723.466 .0299288
724.196 .0299108
724.927 .0298931
725.656 .0298756
726.386 .0298583
727.116 .0298413
727.845 .0298246
728.574 .0298082
729.303 .0297922
730.031 .0297767
730.760 .0297615
731.488 .0297468
732.216 .0297327
732.944 .0297190
733.671 .0297059
734.398 .0296935
735.125 .0296816
735.852 .0296705
736.579 .0296599
737.305 .0296500
738.031 .0296407
738.757 .0296320
739.483 .0296237
740.208 .0296160
740.933 .0296086
741.658 .0296016
742.383 .0295949
743.108 .0295885
743.832 .0295822
744.556 .0295760
745.280 .0295699
746.004 .0295636
746.727 .0295573
747.450 .0295506
748.173 .0295437
748.896 .0295364
749.618 .0295287
750.340 .0295205
751.062 .0295118
751.784 .0295026
752.506 .0294928
753.227 .0294824
753.948 .0294715
754.669 .0294601
755.389 .0294481
756.110 .0294357
756.830 .0294228
757.550 .0294095
758.269 .0293958
758.989 .0293818
759.708 .0293673
760.427 .0293525
761.146 .0293372
761.864 .0293214
762.582 .0293051
763.300 .0292884
764.018 .0292713
764.736 .0292538
765.453 .0292360
766.170 .0292179
766.887 .0291996
767.603 .0291810
768.320 .0291621
769.036 .0291430
769.751 .0291237
770.467 .0291043
771.182 .0290849
771.897 .0290656
772.612 .0290464
773.327 .0290276
774.041 .0290091
774.755 .0289911
775.469 .0289735
776.183 .0289564
776.896 .0289398
777.609 .0289237
778.322 .0289082
779.035 .0288934
779.747 .0288791
780.459 .0288654
781.171 .0288522
781.882 .0288395
782.594 .0288272
783.305 .0288151
784.016 .0288033
784.726 .0287916
785.436 .0287800
786.147 .0287622
786.856 .0287503
787.566 .0287383
788.275 .0287262
788.984 .0287138
789.693 .0287011
790.401 .0286880
791.110 .0286743
791.818 .0286601
792.525 .0286454
793.233 .0286300
793.940 .0286141
794.647 .0286048
795.353 .0285883
796.060 .0285714
796.766 .0285541
797.472 .0285365
798.177 .0285185
798.883 .0285002
799.588 .0284815
800.292 .0284626
800.997 .0284435
801.701 .0284242
802.405 .0284048
803.109 .0283854
803.812 .0283662
804.515 .0283471
805.218 .0283281
805.921 .0283094
806.623 .0282908
807.325 .0282725
808.027 .0282542
808.728 .0282362
809.429 .0282183
810.130 .0282007
810.831 .0281834
811.531 .0281664
812.231 .0281498
812.931 .0281335
813.630 .0281176
814.330 .0281022
815.029 .0280872
815.727 .0280727
816.426 .0280587
817.124 .0280454
817.821 .0280328
818.519 .0280210
819.216 .0280100
819.913 .0279998
820.609 .0279905
821.306 .0279821
822.002 .0279746
822.697 .0279680
823.393 .0279625
824.088 .0279580
824.783 .0279545
825.477 .0279521
826.171 .0279506
826.865 .0279501
827.559 .0279503
828.252 .0279513
828.945 .0279528
829.638 .0279548
830.330 .0279573
831.023 .0279603
831.714 .0279637
832.406 .0279676
833.097 .0279718
833.788 .0279764
834.479 .0279813
835.169 .0279863
835.859 .0279914
836.548 .0279965
837.238 .0280016
837.927 .0280064
838.615 .0280111
839.304 .0280155
839.992 .0280195
840.680 .0280231
841.367 .0280263
842.054 .0280289
842.741 .0280309
843.428 .0280324
844.114 .0280333
844.800 .0280336
845.485 .0280333
846.170 .0280323
846.855 .0280307
847.540 .0280282
848.224 .0280249
848.908 .0280208
849.592 .0280157
850.275 .0280096
850.958 .0280026
851.641 .0279947
852.323 .0279857
853.005 .0279758
853.687 .0279650
854.368 .0279532
855.049 .0279405
855.730 .0279269
856.410 .0279124
857.090 .0278971
857.769 .0278809
858.449 .0278639
859.128 .0278462
859.806 .0278280
860.485 .0278093
861.163 .0277902
861.840 .0277709
862.518 .0277515
863.195 .0277321
863.871 .0277128
864.548 .0276937
865.224 .0276747
865.899 .0276559
866.574 .0276373
867.249 .0276190
867.924 .0276008
868.598 .0275828
869.272 .0275651
869.946 .0275477
870.619 .0275305
871.292 .0275135
871.964 .0274969
872.636 .0274805
873.308 .0274643
873.979 .0274483
874.651 .0274325
875.321 .0274169
875.992 .0274014
876.662 .0273861
877.331 .0273708
878.001 .0273556
878.670 .0273404
879.338 .0273253
880.007 .0273102
880.675 .0272952
881.342 .0272803
882.009 .0272655
882.676 .0272509
883.343 .0272366
884.009 .0272226
884.675 .0272089
885.340 .0271956
886.005 .0271826
886.670 .0271699
887.334 .0271576
887.998 .0271457
888.662 .0271341
889.325 .0271228
889.988 .0271118
890.650 .0271011
891.312 .0270904
891.974 .0270799
892.636 .0270693
893.297 .0270587
893.957 .0270480
894.618 .0270370
895.278 .0270259
895.937 .0270144
896.596 .0270026
897.255 .0269903
897.914 .0269773
898.572 .0269636
899.230 .0269490
899.887 .0269336
900.544 .0269173
901.201 .0269001
901.857 .0268705
902.513 .0268513
903.168 .0268313
903.823 .0268106
904.478 .0267891
905.132 .0267670
905.786 .0267441
906.440 .0267207
907.093 .0266967
907.746 .0266724
908.399 .0266478
909.051 .0266231
909.703 .0265983
910.354 .0265862
911.005 .0265618
911.656 .0265376
912.306 .0265136
912.956 .0264899
913.605 .0264666
914.254 .0264437
914.903 .0264213
915.551 .0263996
916.199 .0263784
916.847 .0263579
917.494 .0263379
918.141 .0263185
918.788 .0262995
919.434 .0262810
920.079 .0262630
920.725 .0262454
921.370 .0262282
922.014 .0262114
922.658 .0261951
923.302 .0261791
923.946 .0261634
924.589 .0261480
925.231 .0261329
925.873 .0261180
926.515 .0261032
927.157 .0260886
927.798 .0260742
928.439 .0260601
929.079 .0260461
929.719 .0260324
930.359 .0260188
930.998 .0260055
931.637 .0259924
932.275 .0259795
932.913 .0259670
933.551 .0259549
934.188 .0259433
934.825 .0259324
935.462 .0259222
936.098 .0259127
936.733 .0259039
937.369 .0258959
938.004 .0258886
938.638 .0258821
939.273 .0258762
939.907 .0258712
940.540 .0258669
941.173 .0258635
941.806 .0258610
942.438 .0258594
943.070 .0258587
943.702 .0258588
944.333 .0258597
944.964 .0258612
945.594 .0258633
946.224 .0258658
946.854 .0258688
947.483 .0258722
948.112 .0258760
948.741 .0258803
949.369 .0258850
949.996 .0258901
950.624 .0258955
951.251 .0259011
951.878 .0259069
952.504 .0259127
953.130 .0259184
953.755 .0259240
954.380 .0259296
955.005 .0259351
955.629 .0259406
956.253 .0259461
956.877 .0259516
957.500 .0259570
958.123 .0259623
958.746 .0259674
959.368 .0259723
959.990 .0259769
960.611 .0259813
961.232 .0259855
961.853 .0259897
962.473 .0259938
963.093 .0259979
963.712 .0260021
964.331 .0260063
964.950 .0260104
965.569 .0260144
966.187 .0260182
966.804 .0260218
967.422 .0260251
968.039 .0260280
968.655 .0260305
969.272 .0260327
969.887 .0260346
970.503 .0260361
971.118 .0260373
971.733 .0260381
972.347 .0260385
972.961 .0260384
973.575 .0260377
974.188 .0260365
974.801 .0260348
975.414 .0260324
976.026 .0260295
976.638 .0260259
977.250 .0260218
977.861 .0260169
978.472 .0260114
979.083 .0260051
979.693 .0259979
980.303 .0259900
980.912 .0259747
981.521 .0259649
982.130 .0259545
982.738 .0259436
983.346 .0259321
983.954 .0259204
984.562 .0259083
985.169 .0258961
985.775 .0258837
986.382 .0258712
986.988 .0258587
987.594 .0258462
988.199 .0258338
988.804 .0258215
989.409 .0258163
990.013 .0258046
990.617 .0257932
991.221 .0257821
991.824 .0257714
992.427 .0257610
993.030 .0257509
993.632 .0257410
994.234 .0257313
994.836 .0257218
995.438 .0257125
996.039 .0257033
996.640 .0256944
997.240 .0256858
997.840 .0256775
998.440 .0256695
999.040 .0256619
999.639 .0256545
1000.238 .0256474
1000.836 .0256404
1001.435 .0256336
1002.033 .0256268
1002.630 .0256200
1003.228 .0256132
1003.825 .0256065
1004.422 .0255998
1005.018 .0255931
1005.614 .0255864
1006.210 .0255796
1006.806 .0255727
1007.401 .0255655
1007.996 .0255581
1008.591 .0255504
1009.186 .0255425
1009.780 .0255343
1010.374 .0255260
1010.967 .0255176
1011.561 .0255093
1012.154 .0255010
1012.746 .0254927
1013.339 .0254845
1013.931 .0254762
1014.523 .0254679
1015.115 .0254594
1015.706 .0254508
1016.298 .0254420
1016.888 .0254332
1017.479 .0254244
1018.069 .0254156
1018.660 .0254070
1019.250 .0253985
1019.839 .0253902
1020.429 .0253820
1021.018 .0253740
1021.607 .0253659
1022.195 .0253580
1022.784 .0253500
1023.372 .0253422
1023.960 .0253346
1024.547 .0253272
1025.135 .0253202
1025.722 .0253134
1026.309 .0253069
1026.896 .0253006
1027.483 .0252946
1028.069 .0252887
1028.655 .0252829
1029.241 .0252773
1029.827 .0252718
1030.412 .0252664
1030.997 .0252612
1031.582 .0252563
1032.167 .0252515
1032.752 .0252468
1033.336 .0252421
1033.921 .0252374
1034.505 .0252325
1035.089 .0252274
1035.672 .0252219
1036.256 .0252162
1036.839 .0252101
1037.422 .0252038
1038.005 .0251971
1038.588 .0251901
1039.171 .0251828
1039.753 .0251752
1040.335 .0251672
1040.918 .0251586
1041.500 .0251497
1042.081 .0251403
1042.663 .0251305
1043.244 .0251205
1043.826 .0251103
1044.407 .0251001
1044.988 .0250897
1045.569 .0250794
1046.150 .0250690
1046.730 .0250587
1047.311 .0250482
1047.891 .0250376
1048.471 .0250270
1049.052 .0250164
1049.632 .0250058
1050.211 .0249953
1050.791 .0249850
1051.371 .0249750
1051.950 .0249653
1052.530 .0249559
1053.109 .0249468
1053.688 .0249381
1054.268 .0249298
1054.847 .0249220
1055.426 .0249148
1056.005 .0249082
1056.583 .0249024
1057.162 .0248973
1057.741 .0248931
1058.319 .0248898
1058.898 .0248872
1059.476 .0248854
1060.055 .0248842
1060.633 .0248835
1061.211 .0248834
1061.790 .0248836
1062.368 .0248844
1062.946 .0248856
1063.524 .0248872
1064.102 .0248894
1064.680 .0248921
1065.258 .0248953
1065.836 .0248991
1066.414 .0249034
1066.992 .0249082
1067.570 .0249134
1068.148 .0249189
1068.726 .0249247
1069.304 .0249309
1069.882 .0249374
1070.460 .0249444
1071.038 .0249519
1071.616 .0249598
1072.194 .0249681
1072.772 .0249766
1073.350 .0249853
1073.928 .0249938
1074.506 .0250021
1075.084 .0250100
1075.662 .0250174
1076.240 .0250244
1076.819 .0250310
1077.397 .0250374
1077.976 .0250439
1078.554 .0250504
1079.133 .0250572
1079.711 .0250642
1080.290 .0250716
1080.869 .0250792
1081.448 .0250871
1082.027 .0250954
1082.606 .0251039
1083.185 .0251129
1083.764 .0251225
1084.343 .0251329
1084.923 .0251442
1085.502 .0251565
1086.082 .0251698
1086.662 .0251842
1087.242 .0251994
1087.822 .0252156
1088.402 .0252325
1088.983 .0252502
1089.563 .0252687
1090.144 .0252881
1090.725 .0253087
1091.306 .0253306
1091.887 .0253540
1092.469 .0253788
1093.050 .0254052
1093.632 .0254329
1094.214 .0254616
1094.796 .0254914
1095.379 .0255218
1095.961 .0255529
1096.544 .0255844
1097.127 .0256163
1097.710 .0256486
1098.294 .0256813
1098.877 .0257144
1099.461 .0257477
1100.046 .0257813
1100.630 .0258150
1101.215 .0258487
1101.800 .0258825
1102.385 .0259163
1102.970 .0259500
1103.556 .0259837
1104.142 .0260174
1104.728 .0260509
1105.315 .0260842
1105.902 .0261175
1106.489 .0261508
1107.077 .0261841
1107.664 .0262176
1108.253 .0262513
1108.841 .0262855
1109.430 .0263201
1110.019 .0263552
1110.609 .0263908
1111.198 .0264268
1111.789 .0264632
1112.379 .0264999
1112.970 .0265370
1113.561 .0265745
1114.153 .0266126
1114.745 .0266515
1115.338 .0266914
1115.931 .0267325
1116.524 .0267749
1117.117 .0268188
1117.712 .0268641
1118.306 .0269106
1118.901 .0269583
1119.496 .0270070
1120.092 .0270568
1120.689 .0271074
1121.285 .0271593
1121.882 .0272127
1122.480 .0272680
1123.078 .0273256
1123.677 .0273858
1124.276 .0274487
1124.875 .0275146
1125.476 .0275830
1126.076 .0276540
1126.677 .0277274
1127.279 .0278033
1127.881 .0278814
1128.484 .0279622
1129.087 .0279953
1129.691 .0280802
1130.295 .0281683
1130.900 .0282596
1131.505 .0283541
1132.111 .0284521
1132.718 .0285533
1133.325 .0286578
1133.933 .0287651
1134.541 .0288732
1135.150 .0289946
1135.760 .0291118
1136.370 .0292353
1136.981 .0293334
1137.592 .0294570
1138.204 .0295859
1138.817 .0297174
1139.431 .0298522
1140.045 .0299978
1140.660 .0301466
1141.275 .0303003
1141.891 .0304437
1142.508 .0305322
1143.126 .0309747
1143.744 .0309256
1144.363 .0311696
1144.983 .0308165
