Measurement Sequence started on: 15-12-46-377
Integration time: 28
Scans to Average: 2 
>>>>>Begin Spectral Data<<<<<
432.689 .0000100
433.621 .0000100
434.552 .0000100
435.482 .0000100
436.410 .0000100
437.337 .0000100
438.262 .0272553
439.187 .0575702
440.110 .0953276
441.031 .1378903
441.952 .1101302
442.871 .1149828
443.789 .1195038
444.705 .1237654
445.621 .1278161
446.535 .1316931
447.447 .1339903
448.359 .1345663
449.269 .1330469
450.178 .1291925
451.086 .1230816
451.993 .1151897
452.898 .1063010
453.803 .0973023
454.706 .0889495
455.608 .0817088
456.508 .0757342
457.408 .0717235
458.306 .0686555
459.204 .0661691
460.100 .0640789
460.995 .0622798
461.888 .0607021
462.781 .0592995
463.673 .0580386
464.563 .0568946
465.452 .0558515
466.340 .0548959
467.228 .0540183
468.114 .0532118
468.999 .0524715
469.882 .0517914
470.765 .0511666
471.647 .0505924
472.528 .0500656
473.407 .0495829
474.286 .0491424
475.163 .0487434
476.040 .0483856
476.915 .0480694
477.790 .0477940
478.663 .0475582
479.535 .0473603
480.407 .0471974
481.277 .0470660
482.147 .0469623
483.015 .0468829
483.883 .0468240
484.749 .0467835
485.615 .0467602
486.479 .0467541
487.343 .0467654
488.206 .0467955
489.067 .0468447
489.928 .0469136
490.788 .0470026
491.647 .0471111
492.505 .0472386
493.362 .0473849
494.218 .0475492
495.073 .0477313
495.928 .0480727
496.781 .0482997
497.634 .0485455
498.486 .0488100
499.337 .0490944
500.187 .0494003
501.036 .0497286
501.884 .0500819
502.731 .0504636
503.578 .0508769
504.424 .0511464
505.268 .0516229
506.113 .0521441
506.956 .0527140
507.798 .0533395
508.640 .0540284
509.480 .0547903
510.320 .0556379
511.160 .0565859
511.998 .0576517
512.836 .0588570
513.672 .0602234
514.508 .0617755
515.344 .0635375
516.178 .0655333
517.012 .0677858
517.845 .0703149
518.677 .0731379
519.508 .0762685
520.339 .0797122
521.169 .0834706
521.998 .0875192
522.826 .0918220
523.654 .0963228
524.481 .1009482
525.307 .1056146
526.133 .1102263
526.958 .1146835
527.782 .1188911
528.605 .1227589
529.428 .1262127
530.250 .1291848
531.072 .1316322
531.892 .1335187
532.712 .1348207
533.532 .1355260
534.350 .1356291
535.168 .1351345
535.986 .1340540
536.802 .1323986
537.618 .1301861
538.434 .1274351
539.249 .1241878
540.063 .1204959
540.876 .1164262
541.689 .1120611
542.501 .1074889
543.313 .1028049
544.124 .0981058
544.934 .0934792
545.744 .0890051
546.553 .0847462
547.361 .0807536
548.169 .0770539
548.976 .0736635
549.783 .0705846
550.589 .0678079
551.395 .0653173
552.200 .0630883
553.004 .0610919
553.808 .0593009
554.611 .0576887
555.414 .0562312
556.216 .0549068
557.018 .0536960
557.819 .0525826
558.619 .0515534
559.419 .0505970
560.218 .0497058
561.017 .0488726
561.815 .0480916
562.613 .0473578
563.410 .0466647
564.207 .0460066
565.003 .0453778
565.799 .0447730
566.594 .0441887
567.388 .0436224
568.182 .0430724
568.976 .0425376
569.769 .0420174
570.562 .0415119
571.354 .0410213
572.145 .0405468
572.936 .0400881
573.727 .0396444
574.517 .0392160
575.307 .0388024
576.096 .0384030
576.885 .0380182
577.673 .0376484
578.461 .0372940
579.248 .0369558
580.035 .0366344
580.821 .0363302
581.607 .0360439
582.392 .0357759
583.177 .0355260
583.962 .0352942
584.746 .0350801
585.529 .0348827
586.313 .0347014
587.095 .0345351
587.878 .0343823
588.660 .0342417
589.441 .0341121
590.222 .0339924
591.003 .0338816
591.783 .0337788
592.563 .0336835
593.342 .0335947
594.121 .0335116
594.899 .0334333
595.678 .0333591
596.455 .0332883
597.233 .0332203
598.009 .0331545
598.786 .0330906
599.562 .0330284
600.338 .0329678
601.113 .0329087
601.888 .0328249
602.663 .0327698
603.437 .0327164
604.211 .0326646
604.984 .0326142
605.757 .0325654
606.530 .0325182
607.302 .0324726
608.074 .0324286
608.845 .0323864
609.616 .0323457
610.387 .0323298
611.158 .0322914
611.928 .0322545
612.697 .0322191
613.467 .0321850
614.236 .0321521
615.004 .0321205
615.773 .0320900
616.541 .0320605
617.308 .0320320
618.076 .0320043
618.843 .0319775
619.609 .0319512
620.375 .0319254
621.141 .0319001
621.907 .0318752
622.672 .0318506
623.437 .0318263
624.202 .0318021
624.966 .0317779
625.730 .0317536
626.493 .0317290
627.257 .0317040
628.020 .0316787
628.782 .0316530
629.545 .0316269
630.307 .0316006
631.068 .0315741
631.830 .0315474
632.591 .0315207
633.352 .0314940
634.112 .0314673
634.872 .0314405
635.632 .0314137
636.392 .0313868
637.151 .0313599
637.910 .0313329
638.668 .0313060
639.427 .0312792
640.185 .0312525
640.943 .0312262
641.700 .0312004
642.457 .0311750
643.214 .0311502
643.971 .0311260
644.727 .0311024
645.483 .0310794
646.239 .0310569
646.994 .0310350
647.750 .0310136
648.505 .0309927
649.259 .0309723
650.014 .0309523
650.768 .0309327
651.521 .0309136
652.275 .0308949
653.028 .0308765
653.781 .0308583
654.534 .0308401
655.286 .0308219
656.039 .0308033
656.791 .0307844
657.542 .0307648
658.294 .0307447
659.045 .0307240
659.796 .0307028
660.546 .0306811
661.297 .0306589
662.047 .0306365
662.796 .0306138
663.546 .0305907
664.295 .0305675
665.044 .0305439
665.793 .0305202
666.542 .0304964
667.290 .0304725
668.038 .0304486
668.786 .0304248
669.533 .0304012
670.281 .0303778
671.028 .0303547
671.774 .0303319
672.521 .0303094
673.267 .0302873
674.013 .0302655
674.759 .0302441
675.505 .0302232
676.250 .0302026
676.995 .0301826
677.740 .0301629
678.484 .0301437
679.229 .0301248
679.973 .0301063
680.717 .0300881
681.460 .0300703
682.204 .0300528
682.947 .0300355
683.690 .0300183
684.433 .0300012
685.175 .0299841
685.917 .0299668
686.659 .0299493
687.401 .0299315
688.142 .0299133
688.884 .0298949
689.625 .0298762
690.365 .0298573
691.106 .0298381
691.846 .0298187
692.586 .0297990
693.326 .0297790
694.066 .0297586
694.805 .0297377
695.545 .0297165
696.284 .0296948
697.022 .0296729
697.761 .0296507
698.499 .0296285
699.237 .0296061
699.975 .0295837
700.713 .0295613
701.450 .0295389
702.187 .0295165
702.924 .0294940
703.661 .0294715
704.397 .0294490
705.133 .0294265
705.869 .0294041
706.605 .0293819
707.341 .0293599
708.076 .0293381
708.811 .0293166
709.546 .0292954
710.281 .0292745
711.015 .0292538
711.749 .0292335
712.483 .0292135
713.217 .0291938
713.950 .0291744
714.684 .0291552
715.417 .0291361
716.150 .0291172
716.882 .0290985
717.615 .0290798
718.347 .0290612
719.079 .0290427
719.811 .0290243
720.542 .0290060
721.273 .0289878
722.005 .0289697
722.735 .0289517
723.466 .0289338
724.196 .0289161
724.927 .0288987
725.656 .0288816
726.386 .0288648
727.116 .0288486
727.845 .0288328
728.574 .0288175
729.303 .0288028
730.031 .0287886
730.760 .0287751
731.488 .0287620
732.216 .0287495
732.944 .0287375
733.671 .0287259
734.398 .0287147
735.125 .0287039
735.852 .0286935
736.579 .0286834
737.305 .0286738
738.031 .0286646
738.757 .0286556
739.483 .0286469
740.208 .0286383
740.933 .0286298
741.658 .0286212
742.383 .0286124
743.108 .0286033
743.832 .0285939
744.556 .0285842
745.280 .0285741
746.004 .0285636
746.727 .0285527
747.450 .0285414
748.173 .0285297
748.896 .0285177
749.618 .0285053
750.340 .0284927
751.062 .0284797
751.784 .0284665
752.506 .0284532
753.227 .0284397
753.948 .0284262
754.669 .0284127
755.389 .0283992
756.110 .0283858
756.830 .0283725
757.550 .0283594
758.269 .0283464
758.989 .0283336
759.708 .0283209
760.427 .0283085
761.146 .0282961
761.864 .0282838
762.582 .0282716
763.300 .0282594
764.018 .0282471
764.736 .0282349
765.453 .0282225
766.170 .0282102
766.887 .0281978
767.603 .0281854
768.320 .0281731
769.036 .0281609
769.751 .0281487
770.467 .0281367
771.182 .0281249
771.897 .0281131
772.612 .0281015
773.327 .0280901
774.041 .0280787
774.755 .0280676
775.469 .0280566
776.183 .0280459
776.896 .0280354
777.609 .0280253
778.322 .0280155
779.035 .0280061
779.747 .0279970
780.459 .0279883
781.171 .0279800
781.882 .0279720
782.594 .0279643
783.305 .0279569
784.016 .0279497
784.726 .0279425
785.436 .0279353
786.147 .0279241
786.856 .0279163
787.566 .0279083
788.275 .0278999
788.984 .0278913
789.693 .0278822
790.401 .0278728
791.110 .0278630
791.818 .0278528
792.525 .0278422
793.233 .0278312
793.940 .0278197
794.647 .0278126
795.353 .0278006
796.060 .0277883
796.766 .0277757
797.472 .0277628
798.177 .0277496
798.883 .0277361
799.588 .0277223
800.292 .0277083
800.997 .0276940
801.701 .0276795
802.405 .0276646
803.109 .0276495
803.812 .0276342
804.515 .0276186
805.218 .0276027
805.921 .0275865
806.623 .0275701
807.325 .0275535
808.027 .0275367
808.728 .0275198
809.429 .0275028
810.130 .0274857
810.831 .0274686
811.531 .0274514
812.231 .0274341
812.931 .0274168
813.630 .0273995
814.330 .0273822
815.029 .0273650
815.727 .0273480
816.426 .0273312
817.124 .0273146
817.821 .0272982
818.519 .0272822
819.216 .0272665
819.913 .0272511
820.609 .0272360
821.306 .0272214
822.002 .0272073
822.697 .0271937
823.393 .0271807
824.088 .0271683
824.783 .0271564
825.477 .0271451
826.171 .0271342
826.865 .0271238
827.559 .0271137
828.252 .0271039
828.945 .0270945
829.638 .0270854
830.330 .0270767
831.023 .0270682
831.714 .0270600
832.406 .0270520
833.097 .0270440
833.788 .0270361
834.479 .0270281
835.169 .0270200
835.859 .0270119
836.548 .0270036
837.238 .0269953
837.927 .0269869
838.615 .0269784
839.304 .0269698
839.992 .0269611
840.680 .0269522
841.367 .0269431
842.054 .0269338
842.741 .0269243
843.428 .0269147
844.114 .0269049
844.800 .0268949
845.485 .0268849
846.170 .0268747
846.855 .0268643
847.540 .0268536
848.224 .0268426
848.908 .0268314
849.592 .0268198
850.275 .0268080
850.958 .0267959
851.641 .0267837
852.323 .0267715
853.005 .0267593
853.687 .0267471
854.368 .0267350
855.049 .0267231
855.730 .0267112
856.410 .0266996
857.090 .0266880
857.769 .0266767
858.449 .0266655
859.128 .0266546
859.806 .0266440
860.485 .0266338
861.163 .0266239
861.840 .0266145
862.518 .0266056
863.195 .0265971
863.871 .0265890
864.548 .0265813
865.224 .0265739
865.899 .0265669
866.574 .0265602
867.249 .0265538
867.924 .0265477
868.598 .0265418
869.272 .0265361
869.946 .0265307
870.619 .0265253
871.292 .0265202
871.964 .0265150
872.636 .0265100
873.308 .0265050
873.979 .0265000
874.651 .0264951
875.321 .0264902
875.992 .0264852
876.662 .0264802
877.331 .0264751
878.001 .0264698
878.670 .0264643
879.338 .0264586
880.007 .0264528
880.675 .0264469
881.342 .0264410
882.009 .0264353
882.676 .0264298
883.343 .0264247
884.009 .0264198
884.675 .0264154
885.340 .0264113
886.005 .0264075
886.670 .0264042
887.334 .0264012
887.998 .0263987
888.662 .0263966
889.325 .0263951
889.988 .0263942
890.650 .0263938
891.312 .0263939
891.974 .0263945
892.636 .0263955
893.297 .0263968
893.957 .0263984
894.618 .0264000
895.278 .0264017
895.937 .0264033
896.596 .0264046
897.255 .0264057
897.914 .0264063
898.572 .0264065
899.230 .0264060
899.887 .0264048
900.544 .0264029
901.201 .0264002
901.857 .0263918
902.513 .0263868
903.168 .0263809
903.823 .0263741
904.478 .0263666
905.132 .0263582
905.786 .0263490
906.440 .0263391
907.093 .0263284
907.746 .0263171
908.399 .0263050
909.051 .0262924
909.703 .0262793
910.354 .0262721
911.005 .0262587
911.656 .0262450
912.306 .0262311
912.956 .0262172
913.605 .0262033
914.254 .0261895
914.903 .0261758
915.551 .0261621
916.199 .0261485
916.847 .0261350
917.494 .0261216
918.141 .0261081
918.788 .0260947
919.434 .0260812
920.079 .0260676
920.725 .0260539
921.370 .0260399
922.014 .0260256
922.658 .0260110
923.302 .0259959
923.946 .0259803
924.589 .0259643
925.231 .0259477
925.873 .0259306
926.515 .0259130
927.157 .0258950
927.798 .0258765
928.439 .0258577
929.079 .0258385
929.719 .0258189
930.359 .0257991
930.998 .0257790
931.637 .0257587
932.275 .0257383
932.913 .0257179
933.551 .0256975
934.188 .0256773
934.825 .0256572
935.462 .0256375
936.098 .0256181
936.733 .0255991
937.369 .0255805
938.004 .0255624
938.638 .0255448
939.273 .0255277
939.907 .0255113
940.540 .0254953
941.173 .0254800
941.806 .0254653
942.438 .0254511
943.070 .0254374
943.702 .0254243
944.333 .0254115
944.964 .0253990
945.594 .0253868
946.224 .0253748
946.854 .0253628
947.483 .0253508
948.112 .0253387
948.741 .0253266
949.369 .0253143
949.996 .0253018
950.624 .0252892
951.251 .0252764
951.878 .0252634
952.504 .0252502
953.130 .0252369
953.755 .0252235
954.380 .0252100
955.005 .0251965
955.629 .0251829
956.253 .0251693
956.877 .0251557
957.500 .0251421
958.123 .0251285
958.746 .0251150
959.368 .0251016
959.990 .0250883
960.611 .0250752
961.232 .0250623
961.853 .0250495
962.473 .0250368
963.093 .0250243
963.712 .0250120
964.331 .0249997
964.950 .0249875
965.569 .0249753
966.187 .0249631
966.804 .0249508
967.422 .0249385
968.039 .0249262
968.655 .0249137
969.272 .0249011
969.887 .0248882
970.503 .0248751
971.118 .0248616
971.733 .0248479
972.347 .0248337
972.961 .0248192
973.575 .0248044
974.188 .0247892
974.801 .0247736
975.414 .0247577
976.026 .0247414
976.638 .0247248
977.250 .0247078
977.861 .0246906
978.472 .0246731
979.083 .0246554
979.693 .0246376
980.303 .0246197
980.912 .0245933
981.521 .0245757
982.130 .0245583
982.738 .0245410
983.346 .0245239
983.954 .0245072
984.562 .0244907
985.169 .0244747
985.775 .0244592
986.382 .0244443
986.988 .0244300
987.594 .0244164
988.199 .0244035
988.804 .0243913
989.409 .0243872
990.013 .0243761
990.617 .0243656
991.221 .0243557
991.824 .0243466
992.427 .0243382
993.030 .0243305
993.632 .0243234
994.234 .0243170
994.836 .0243112
995.438 .0243060
996.039 .0243012
996.640 .0242969
997.240 .0242930
997.840 .0242896
998.440 .0242865
999.040 .0242840
999.639 .0242818
1000.238 .0242801
1000.836 .0242788
1001.435 .0242779
1002.033 .0242773
1002.630 .0242770
1003.228 .0242769
1003.825 .0242769
1004.422 .0242771
1005.018 .0242775
1005.614 .0242780
1006.210 .0242786
1006.806 .0242793
1007.401 .0242801
1007.996 .0242810
1008.591 .0242818
1009.186 .0242826
1009.780 .0242834
1010.374 .0242840
1010.967 .0242846
1011.561 .0242851
1012.154 .0242857
1012.746 .0242863
1013.339 .0242871
1013.931 .0242880
1014.523 .0242891
1015.115 .0242904
1015.706 .0242920
1016.298 .0242938
1016.888 .0242959
1017.479 .0242983
1018.069 .0243010
1018.660 .0243041
1019.250 .0243077
1019.839 .0243118
1020.429 .0243164
1021.018 .0243216
1021.607 .0243273
1022.195 .0243335
1022.784 .0243403
1023.372 .0243476
1023.960 .0243555
1024.547 .0243638
1025.135 .0243727
1025.722 .0243820
1026.309 .0243919
1026.896 .0244023
1027.483 .0244132
1028.069 .0244246
1028.655 .0244364
1029.241 .0244486
1029.827 .0244611
1030.412 .0244737
1030.997 .0244864
1031.582 .0244993
1032.167 .0245121
1032.752 .0245249
1033.336 .0245378
1033.921 .0245505
1034.505 .0245633
1035.089 .0245759
1035.672 .0245885
1036.256 .0246008
1036.839 .0246130
1037.422 .0246250
1038.005 .0246366
1038.588 .0246480
1039.171 .0246592
1039.753 .0246701
1040.335 .0246808
1040.918 .0246914
1041.500 .0247018
1042.081 .0247122
1042.663 .0247224
1043.244 .0247325
1043.826 .0247425
1044.407 .0247523
1044.988 .0247619
1045.569 .0247713
1046.150 .0247805
1046.730 .0247896
1047.311 .0247986
1047.891 .0248077
1048.471 .0248168
1049.052 .0248259
1049.632 .0248351
1050.211 .0248444
1050.791 .0248539
1051.371 .0248635
1051.950 .0248731
1052.530 .0248829
1053.109 .0248928
1053.688 .0249026
1054.268 .0249125
1054.847 .0249225
1055.426 .0249325
1056.005 .0249425
1056.583 .0249524
1057.162 .0249623
1057.741 .0249720
1058.319 .0249814
1058.898 .0249906
1059.476 .0249995
1060.055 .0250080
1060.633 .0250161
1061.211 .0250238
1061.790 .0250311
1062.368 .0250381
1062.946 .0250448
1063.524 .0250512
1064.102 .0250574
1064.680 .0250632
1065.258 .0250687
1065.836 .0250739
1066.414 .0250787
1066.992 .0250830
1067.570 .0250871
1068.148 .0250908
1068.726 .0250945
1069.304 .0250980
1069.882 .0251015
1070.460 .0251050
1071.038 .0251086
1071.616 .0251122
1072.194 .0251159
1072.772 .0251197
1073.350 .0251237
1073.928 .0251279
1074.506 .0251325
1075.084 .0251375
1075.662 .0251430
1076.240 .0251491
1076.819 .0251556
1077.397 .0251626
1077.976 .0251700
1078.554 .0251777
1079.133 .0251858
1079.711 .0251943
1080.290 .0252031
1080.869 .0252123
1081.448 .0252219
1082.027 .0252321
1082.606 .0252427
1083.185 .0252538
1083.764 .0252654
1084.343 .0252775
1084.923 .0252900
1085.502 .0253029
1086.082 .0253164
1086.662 .0253304
1087.242 .0253451
1087.822 .0253604
1088.402 .0253761
1088.983 .0253923
1089.563 .0254088
1090.144 .0254254
1090.725 .0254420
1091.306 .0254587
1091.887 .0254752
1092.469 .0254916
1093.050 .0255081
1093.632 .0255249
1094.214 .0255421
1094.796 .0255598
1095.379 .0255780
1095.961 .0255968
1096.544 .0256160
1097.127 .0256354
1097.710 .0256552
1098.294 .0256753
1098.877 .0256958
1099.461 .0257168
1100.046 .0257387
1100.630 .0257613
1101.215 .0257848
1101.800 .0258091
1102.385 .0258339
1102.970 .0258589
1103.556 .0258837
1104.142 .0259081
1104.728 .0259321
1105.315 .0259557
1105.902 .0259789
1106.489 .0260021
1107.077 .0260255
1107.664 .0260493
1108.253 .0260735
1108.841 .0260982
1109.430 .0261232
1110.019 .0261485
1110.609 .0261738
1111.198 .0261990
1111.789 .0262242
1112.379 .0262496
1112.970 .0262751
1113.561 .0263010
1114.153 .0263273
1114.745 .0263541
1115.338 .0263816
1115.931 .0264097
1116.524 .0264383
1117.117 .0264676
1117.712 .0264976
1118.306 .0265285
1118.901 .0265603
1119.496 .0265933
1120.092 .0266275
1120.689 .0266633
1121.285 .0267008
1121.882 .0267403
1122.480 .0267820
1123.078 .0268263
1123.677 .0268732
1124.276 .0269230
1124.875 .0269759
1125.476 .0270322
1126.076 .0270921
1126.677 .0271559
1127.279 .0272236
1127.881 .0272952
1128.484 .0273707
1129.087 .0273988
1129.691 .0274799
1130.295 .0275646
1130.900 .0276530
1131.505 .0277451
1132.111 .0278408
1132.718 .0279395
1133.325 .0280408
1133.933 .0281426
1134.541 .0282557
1135.150 .0283666
1135.760 .0284627
1136.370 .0285631
1136.981 .0287461
1137.592 .0288785
1138.204 .0290089
1138.817 .0291399
1139.431 .0292738
1140.045 .0294076
1140.660 .0295281
1141.275 .0296414
1141.891 .0297013
1142.508 .0300664
1143.126 .0300607
1143.744 .0297120
1144.363 .0299000
1144.983 .0289604
