Measurement Sequence started on: 15-12-46-377
Integration time: 28
Scans to Average: 2 
>>>>>Begin Spectral Data<<<<<
432.689 .0000100
433.621 .0000100
434.552 .0000100
435.482 .0000100
436.410 .0000100
437.337 .0000100
438.262 .0285604
439.187 .0603756
440.110 .0999172
441.031 .1445242
441.952 .1156319
442.871 .1207228
443.789 .1254522
444.705 .1298963
445.621 .1341074
446.535 .1381264
447.447 .1404784
448.359 .1410146
449.269 .1393464
450.178 .1352213
451.086 .1287196
451.993 .1203393
452.898 .1109021
453.803 .1013406
454.706 .0924472
455.608 .0847143
456.508 .0783080
457.408 .0739645
458.306 .0706202
459.204 .0678978
460.100 .0656086
460.995 .0636452
461.888 .0619338
462.781 .0604249
463.673 .0590806
464.563 .0578754
465.452 .0567890
466.340 .0558050
467.228 .0549114
468.114 .0540988
468.999 .0533590
469.882 .0526845
470.765 .0520684
471.647 .0515045
472.528 .0509886
473.407 .0505166
474.286 .0500860
475.163 .0496946
476.040 .0493400
476.915 .0490204
477.790 .0487333
478.663 .0484759
479.535 .0482457
480.407 .0480400
481.277 .0478566
482.147 .0476933
483.015 .0475491
483.883 .0474231
484.749 .0473149
485.615 .0472244
486.479 .0471516
487.343 .0470960
488.206 .0470576
489.067 .0470359
489.928 .0470308
490.788 .0470427
491.647 .0470728
492.505 .0471222
493.362 .0471932
494.218 .0472876
495.073 .0474079
495.928 .0476936
496.781 .0478893
497.634 .0481151
498.486 .0483716
499.337 .0486593
500.187 .0489784
501.036 .0493302
501.884 .0497168
502.731 .0501410
503.578 .0506067
504.424 .0509260
505.268 .0514672
506.113 .0520625
506.956 .0527167
507.798 .0534357
508.640 .0542274
509.480 .0551008
510.320 .0560675
511.160 .0571404
511.998 .0583333
512.836 .0596633
513.672 .0611481
514.508 .0628093
515.344 .0646687
516.178 .0667492
517.012 .0690743
517.845 .0716671
518.677 .0745482
519.508 .0777325
520.339 .0812243
521.169 .0850217
521.998 .0890962
522.826 .0934068
523.654 .0978941
524.481 .1024888
525.307 .1071122
526.133 .1116796
526.958 .1160982
527.782 .1202807
528.605 .1241444
529.428 .1276184
530.250 .1306356
531.072 .1331490
531.892 .1351168
532.712 .1365116
533.532 .1373172
534.350 .1375285
535.168 .1371481
535.986 .1361881
536.802 .1346591
537.618 .1325795
538.434 .1299683
539.249 .1268692
540.063 .1233345
540.876 .1194315
541.689 .1152348
542.501 .1108250
543.313 .1062848
544.124 .1017047
544.934 .0971658
545.744 .0927419
546.553 .0884947
547.361 .0844785
548.169 .0807253
548.976 .0772595
549.783 .0740904
550.589 .0712141
551.395 .0686146
552.200 .0662687
553.004 .0641432
553.808 .0622111
554.611 .0604474
555.414 .0588306
556.216 .0573416
557.018 .0559651
557.819 .0546872
558.619 .0534973
559.419 .0523872
560.218 .0513504
561.017 .0503796
561.815 .0494693
562.613 .0486146
563.410 .0478100
564.207 .0470508
565.003 .0463328
565.799 .0456511
566.594 .0450019
567.388 .0443816
568.182 .0437871
568.976 .0432157
569.769 .0426664
570.562 .0421386
571.354 .0416316
572.145 .0411459
572.936 .0406808
573.727 .0402357
574.517 .0398105
575.307 .0394048
576.096 .0390175
576.885 .0386478
577.673 .0382950
578.461 .0379582
579.248 .0376367
580.035 .0373300
580.821 .0370375
581.607 .0367591
582.392 .0364949
583.177 .0362448
583.962 .0360088
584.746 .0357866
585.529 .0355777
586.313 .0353815
587.095 .0351972
587.878 .0350242
588.660 .0348616
589.441 .0347089
590.222 .0345657
591.003 .0344315
591.783 .0343059
592.563 .0341885
593.342 .0340788
594.121 .0339764
594.899 .0338807
595.678 .0337911
596.455 .0337070
597.233 .0336279
598.009 .0335534
598.786 .0334832
599.562 .0334169
600.338 .0333544
601.113 .0332954
601.888 .0332183
602.663 .0331669
603.437 .0331182
604.211 .0330720
604.984 .0330281
605.757 .0329864
606.530 .0329466
607.302 .0329088
608.074 .0328727
608.845 .0328385
609.616 .0328059
610.387 .0327926
611.158 .0327620
611.928 .0327328
612.697 .0327048
613.467 .0326779
614.236 .0326519
615.004 .0326267
615.773 .0326021
616.541 .0325780
617.308 .0325542
618.076 .0325305
618.843 .0325070
619.609 .0324834
620.375 .0324598
621.141 .0324360
621.907 .0324121
622.672 .0323880
623.437 .0323637
624.202 .0323391
624.966 .0323142
625.730 .0322890
626.493 .0322633
627.257 .0322371
628.020 .0322103
628.782 .0321828
629.545 .0321546
630.307 .0321257
631.068 .0320962
631.830 .0320660
632.591 .0320353
633.352 .0320041
634.112 .0319725
634.872 .0319408
635.632 .0319088
636.392 .0318769
637.151 .0318450
637.910 .0318133
638.668 .0317817
639.427 .0317505
640.185 .0317197
640.943 .0316892
641.700 .0316593
642.457 .0316300
643.214 .0316012
643.971 .0315732
644.727 .0315459
645.483 .0315192
646.239 .0314932
646.994 .0314677
647.750 .0314427
648.505 .0314181
649.259 .0313937
650.014 .0313696
650.768 .0313457
651.521 .0313220
652.275 .0312985
653.028 .0312751
653.781 .0312517
654.534 .0312283
655.286 .0312048
656.039 .0311812
656.791 .0311572
657.542 .0311329
658.294 .0311082
659.045 .0310832
659.796 .0310577
660.546 .0310320
661.297 .0310060
662.047 .0309798
662.796 .0309534
663.546 .0309270
664.295 .0309005
665.044 .0308742
665.793 .0308482
666.542 .0308226
667.290 .0307974
668.038 .0307729
668.786 .0307491
669.533 .0307259
670.281 .0307033
671.028 .0306814
671.774 .0306601
672.521 .0306394
673.267 .0306193
674.013 .0305997
674.759 .0305806
675.505 .0305621
676.250 .0305439
676.995 .0305261
677.740 .0305085
678.484 .0304912
679.229 .0304741
679.973 .0304572
680.717 .0304405
681.460 .0304240
682.204 .0304078
682.947 .0303916
683.690 .0303756
684.433 .0303597
685.175 .0303438
685.917 .0303278
686.659 .0303117
687.401 .0302956
688.142 .0302795
688.884 .0302632
689.625 .0302469
690.365 .0302305
691.106 .0302140
691.846 .0301973
692.586 .0301805
693.326 .0301635
694.066 .0301465
694.805 .0301294
695.545 .0301123
696.284 .0300951
697.022 .0300780
697.761 .0300608
698.499 .0300436
699.237 .0300264
699.975 .0300090
700.713 .0299914
701.450 .0299737
702.187 .0299558
702.924 .0299378
703.661 .0299195
704.397 .0299010
705.133 .0298823
705.869 .0298634
706.605 .0298444
707.341 .0298252
708.076 .0298058
708.811 .0297864
709.546 .0297669
710.281 .0297472
711.015 .0297275
711.749 .0297076
712.483 .0296876
713.217 .0296675
713.950 .0296472
714.684 .0296269
715.417 .0296065
716.150 .0295861
716.882 .0295657
717.615 .0295453
718.347 .0295249
719.079 .0295045
719.811 .0294840
720.542 .0294635
721.273 .0294430
722.005 .0294226
722.735 .0294023
723.466 .0293823
724.196 .0293625
724.927 .0293430
725.656 .0293238
726.386 .0293048
727.116 .0292862
727.845 .0292678
728.574 .0292496
729.303 .0292316
730.031 .0292138
730.760 .0291962
731.488 .0291787
732.216 .0291614
732.944 .0291441
733.671 .0291270
734.398 .0291099
735.125 .0290929
735.852 .0290760
736.579 .0290591
737.305 .0290424
738.031 .0290258
738.757 .0290092
739.483 .0289928
740.208 .0289764
740.933 .0289602
741.658 .0289441
742.383 .0289281
743.108 .0289124
743.832 .0288968
744.556 .0288814
745.280 .0288663
746.004 .0288513
746.727 .0288364
747.450 .0288216
748.173 .0288068
748.896 .0287921
749.618 .0287773
750.340 .0287626
751.062 .0287478
751.784 .0287331
752.506 .0287183
753.227 .0287035
753.948 .0286885
754.669 .0286733
755.389 .0286581
756.110 .0286426
756.830 .0286270
757.550 .0286113
758.269 .0285956
758.989 .0285799
759.708 .0285642
760.427 .0285485
761.146 .0285330
761.864 .0285177
762.582 .0285026
763.300 .0284878
764.018 .0284734
764.736 .0284594
765.453 .0284459
766.170 .0284328
766.887 .0284202
767.603 .0284081
768.320 .0283964
769.036 .0283853
769.751 .0283747
770.467 .0283647
771.182 .0283552
771.897 .0283463
772.612 .0283380
773.327 .0283300
774.041 .0283225
774.755 .0283153
775.469 .0283084
776.183 .0283018
776.896 .0282955
777.609 .0282895
778.322 .0282838
779.035 .0282785
779.747 .0282736
780.459 .0282690
781.171 .0282646
781.882 .0282606
782.594 .0282568
783.305 .0282533
784.016 .0282501
784.726 .0282472
785.436 .0282445
786.147 .0282415
786.856 .0282391
787.566 .0282367
788.275 .0282342
788.984 .0282317
789.693 .0282291
790.401 .0282264
791.110 .0282235
791.818 .0282205
792.525 .0282172
793.233 .0282135
793.940 .0282095
794.647 .0282061
795.353 .0282014
796.060 .0281964
796.766 .0281908
797.472 .0281848
798.177 .0281783
798.883 .0281713
799.588 .0281637
800.292 .0281556
800.997 .0281470
801.701 .0281377
802.405 .0281280
803.109 .0281176
803.812 .0281066
804.515 .0280951
805.218 .0280830
805.921 .0280703
806.623 .0280571
807.325 .0280433
808.027 .0280291
808.728 .0280144
809.429 .0279993
810.130 .0279839
810.831 .0279683
811.531 .0279526
812.231 .0279368
812.931 .0279210
813.630 .0279053
814.330 .0278896
815.029 .0278742
815.727 .0278589
816.426 .0278438
817.124 .0278291
817.821 .0278147
818.519 .0278006
819.216 .0277869
819.913 .0277735
820.609 .0277606
821.306 .0277482
822.002 .0277362
822.697 .0277248
823.393 .0277139
824.088 .0277036
824.783 .0276939
825.477 .0276847
826.171 .0276759
826.865 .0276674
827.559 .0276592
828.252 .0276512
828.945 .0276432
829.638 .0276352
830.330 .0276273
831.023 .0276194
831.714 .0276114
832.406 .0276033
833.097 .0275951
833.788 .0275868
834.479 .0275783
835.169 .0275695
835.859 .0275605
836.548 .0275511
837.238 .0275415
837.927 .0275316
838.615 .0275213
839.304 .0275108
839.992 .0274999
840.680 .0274887
841.367 .0274771
842.054 .0274652
842.741 .0274530
843.428 .0274405
844.114 .0274276
844.800 .0274143
845.485 .0274006
846.170 .0273865
846.855 .0273719
847.540 .0273567
848.224 .0273410
848.908 .0273248
849.592 .0273079
850.275 .0272906
850.958 .0272726
851.641 .0272542
852.323 .0272353
853.005 .0272159
853.687 .0271960
854.368 .0271756
855.049 .0271548
855.730 .0271337
856.410 .0271122
857.090 .0270905
857.769 .0270685
858.449 .0270464
859.128 .0270241
859.806 .0270018
860.485 .0269794
861.163 .0269571
861.840 .0269349
862.518 .0269128
863.195 .0268911
863.871 .0268697
864.548 .0268487
865.224 .0268281
865.899 .0268081
866.574 .0267885
867.249 .0267694
867.924 .0267508
868.598 .0267328
869.272 .0267154
869.946 .0266985
870.619 .0266822
871.292 .0266666
871.964 .0266517
872.636 .0266375
873.308 .0266239
873.979 .0266110
874.651 .0265988
875.321 .0265874
875.992 .0265766
876.662 .0265666
877.331 .0265573
878.001 .0265486
878.670 .0265405
879.338 .0265331
880.007 .0265262
880.675 .0265197
881.342 .0265138
882.009 .0265083
882.676 .0265033
883.343 .0264989
884.009 .0264950
884.675 .0264916
885.340 .0264889
886.005 .0264866
886.670 .0264850
887.334 .0264839
887.998 .0264833
888.662 .0264833
889.325 .0264838
889.988 .0264848
890.650 .0264864
891.312 .0264884
891.974 .0264909
892.636 .0264937
893.297 .0264968
893.957 .0265001
894.618 .0265037
895.278 .0265074
895.937 .0265111
896.596 .0265150
897.255 .0265188
897.914 .0265224
898.572 .0265258
899.230 .0265289
899.887 .0265315
900.544 .0265335
901.201 .0265348
901.857 .0265335
902.513 .0265329
903.168 .0265316
903.823 .0265296
904.478 .0265269
905.132 .0265234
905.786 .0265191
906.440 .0265139
907.093 .0265079
907.746 .0265011
908.399 .0264936
909.051 .0264854
909.703 .0264768
910.354 .0264713
911.005 .0264624
911.656 .0264533
912.306 .0264440
912.956 .0264347
913.605 .0264252
914.254 .0264158
914.903 .0264064
915.551 .0263970
916.199 .0263878
916.847 .0263786
917.494 .0263697
918.141 .0263609
918.788 .0263522
919.434 .0263436
920.079 .0263351
920.725 .0263265
921.370 .0263179
922.014 .0263092
922.658 .0263003
923.302 .0262912
923.946 .0262819
924.589 .0262724
925.231 .0262625
925.873 .0262524
926.515 .0262420
927.157 .0262313
927.798 .0262203
928.439 .0262089
929.079 .0261973
929.719 .0261855
930.359 .0261735
930.998 .0261613
931.637 .0261490
932.275 .0261367
932.913 .0261245
933.551 .0261124
934.188 .0261007
934.825 .0260895
935.462 .0260787
936.098 .0260686
936.733 .0260592
937.369 .0260505
938.004 .0260424
938.638 .0260349
939.273 .0260282
939.907 .0260221
940.540 .0260166
941.173 .0260119
941.806 .0260078
942.438 .0260044
943.070 .0260017
943.702 .0259995
944.333 .0259979
944.964 .0259965
945.594 .0259954
946.224 .0259944
946.854 .0259934
947.483 .0259923
948.112 .0259911
948.741 .0259897
949.369 .0259882
949.996 .0259863
950.624 .0259842
951.251 .0259815
951.878 .0259783
952.504 .0259745
953.130 .0259699
953.755 .0259645
954.380 .0259584
955.005 .0259516
955.629 .0259440
956.253 .0259358
956.877 .0259271
957.500 .0259178
958.123 .0259080
958.746 .0258977
959.368 .0258871
959.990 .0258762
960.611 .0258650
961.232 .0258536
961.853 .0258421
962.473 .0258306
963.093 .0258191
963.712 .0258077
964.331 .0257963
964.950 .0257849
965.569 .0257736
966.187 .0257624
966.804 .0257511
967.422 .0257398
968.039 .0257283
968.655 .0257167
969.272 .0257050
969.887 .0256931
970.503 .0256810
971.118 .0256686
971.733 .0256560
972.347 .0256432
972.961 .0256301
973.575 .0256167
974.188 .0256029
974.801 .0255887
975.414 .0255741
976.026 .0255588
976.638 .0255430
977.250 .0255265
977.861 .0255093
978.472 .0254915
979.083 .0254730
979.693 .0254540
980.303 .0254344
980.912 .0254029
981.521 .0253826
982.130 .0253618
982.738 .0253407
983.346 .0253193
983.954 .0252977
984.562 .0252759
985.169 .0252540
985.775 .0252322
986.382 .0252106
986.988 .0251894
987.594 .0251685
988.199 .0251480
988.804 .0251280
989.409 .0251198
990.013 .0251006
990.617 .0250818
991.221 .0250633
991.824 .0250452
992.427 .0250276
993.030 .0250105
993.632 .0249938
994.234 .0249777
994.836 .0249621
995.438 .0249469
996.039 .0249322
996.640 .0249178
997.240 .0249038
997.840 .0248901
998.440 .0248768
999.040 .0248638
999.639 .0248513
1000.238 .0248392
1000.836 .0248277
1001.435 .0248167
1002.033 .0248062
1002.630 .0247961
1003.228 .0247864
1003.825 .0247771
1004.422 .0247680
1005.018 .0247592
1005.614 .0247506
1006.210 .0247422
1006.806 .0247339
1007.401 .0247259
1007.996 .0247182
1008.591 .0247106
1009.186 .0247033
1009.780 .0246962
1010.374 .0246892
1010.967 .0246824
1011.561 .0246758
1012.154 .0246694
1012.746 .0246632
1013.339 .0246574
1013.931 .0246518
1014.523 .0246466
1015.115 .0246418
1015.706 .0246372
1016.298 .0246329
1016.888 .0246289
1017.479 .0246250
1018.069 .0246213
1018.660 .0246177
1019.250 .0246143
1019.839 .0246110
1020.429 .0246079
1021.018 .0246050
1021.607 .0246023
1022.195 .0245999
1022.784 .0245978
1023.372 .0245961
1023.960 .0245949
1024.547 .0245942
1025.135 .0245941
1025.722 .0245946
1026.309 .0245959
1026.896 .0245979
1027.483 .0246006
1028.069 .0246039
1028.655 .0246077
1029.241 .0246120
1029.827 .0246167
1030.412 .0246218
1030.997 .0246271
1031.582 .0246326
1032.167 .0246382
1032.752 .0246439
1033.336 .0246496
1033.921 .0246552
1034.505 .0246607
1035.089 .0246660
1035.672 .0246711
1036.256 .0246760
1036.839 .0246805
1037.422 .0246849
1038.005 .0246890
1038.588 .0246929
1039.171 .0246967
1039.753 .0247001
1040.335 .0247033
1040.918 .0247060
1041.500 .0247083
1042.081 .0247101
1042.663 .0247114
1043.244 .0247121
1043.826 .0247124
1044.407 .0247121
1044.988 .0247116
1045.569 .0247110
1046.150 .0247102
1046.730 .0247095
1047.311 .0247089
1047.891 .0247085
1048.471 .0247083
1049.052 .0247084
1049.632 .0247088
1050.211 .0247097
1050.791 .0247110
1051.371 .0247128
1051.950 .0247151
1052.530 .0247180
1053.109 .0247215
1053.688 .0247254
1054.268 .0247298
1054.847 .0247345
1055.426 .0247396
1056.005 .0247448
1056.583 .0247503
1057.162 .0247560
1057.741 .0247618
1058.319 .0247680
1058.898 .0247744
1059.476 .0247812
1060.055 .0247884
1060.633 .0247961
1061.211 .0248041
1061.790 .0248126
1062.368 .0248215
1062.946 .0248308
1063.524 .0248406
1064.102 .0248507
1064.680 .0248612
1065.258 .0248721
1065.836 .0248834
1066.414 .0248949
1066.992 .0249066
1067.570 .0249185
1068.148 .0249304
1068.726 .0249424
1069.304 .0249544
1069.882 .0249666
1070.460 .0249789
1071.038 .0249916
1071.616 .0250044
1072.194 .0250176
1072.772 .0250310
1073.350 .0250445
1073.928 .0250582
1074.506 .0250718
1075.084 .0250853
1075.662 .0250988
1076.240 .0251121
1076.819 .0251254
1077.397 .0251387
1077.976 .0251519
1078.554 .0251650
1079.133 .0251780
1079.711 .0251908
1080.290 .0252033
1080.869 .0252156
1081.448 .0252276
1082.027 .0252395
1082.606 .0252513
1083.185 .0252629
1083.764 .0252746
1084.343 .0252864
1084.923 .0252984
1085.502 .0253105
1086.082 .0253228
1086.662 .0253353
1087.242 .0253481
1087.822 .0253610
1088.402 .0253742
1088.983 .0253877
1089.563 .0254016
1090.144 .0254158
1090.725 .0254306
1091.306 .0254459
1091.887 .0254621
1092.469 .0254792
1093.050 .0254972
1093.632 .0255163
1094.214 .0255366
1094.796 .0255580
1095.379 .0255805
1095.961 .0256041
1096.544 .0256286
1097.127 .0256540
1097.710 .0256802
1098.294 .0257071
1098.877 .0257345
1099.461 .0257625
1100.046 .0257910
1100.630 .0258199
1101.215 .0258492
1101.800 .0258788
1102.385 .0259087
1102.970 .0259387
1103.556 .0259688
1104.142 .0259990
1104.728 .0260292
1105.315 .0260596
1105.902 .0260902
1106.489 .0261212
1107.077 .0261530
1107.664 .0261857
1108.253 .0262196
1108.841 .0262549
1109.430 .0262915
1110.019 .0263296
1110.609 .0263690
1111.198 .0264097
1111.789 .0264514
1112.379 .0264942
1112.970 .0265379
1113.561 .0265825
1114.153 .0266280
1114.745 .0266747
1115.338 .0267226
1115.931 .0267718
1116.524 .0268223
1117.117 .0268740
1117.712 .0269270
1118.306 .0269810
1118.901 .0270361
1119.496 .0270919
1120.092 .0271485
1120.689 .0272058
1121.285 .0272637
1121.882 .0273223
1122.480 .0273816
1123.078 .0274416
1123.677 .0275025
1124.276 .0275640
1124.875 .0276259
1125.476 .0276879
1126.076 .0277499
1126.677 .0278116
1127.279 .0278728
1127.881 .0279336
1128.484 .0279941
1129.087 .0280249
1129.691 .0280849
1130.295 .0281451
1130.900 .0282057
1131.505 .0282669
1132.111 .0283288
1132.718 .0283918
1133.325 .0284560
1133.933 .0285216
1134.541 .0285849
1135.150 .0286518
1135.760 .0287297
1136.370 .0288113
1136.981 .0288124
1137.592 .0288836
1138.204 .0289602
1138.817 .0290391
1139.431 .0291200
1140.045 .0292057
1140.660 .0293045
1141.275 .0294116
1141.891 .0295210
1142.508 .0295232
1143.126 .0296906
1143.744 .0300585
1144.363 .0302177
1144.983 .0300448
