Measurement Sequence started on: 15-12-46-377
Integration time: 28
Scans to Average: 2 
>>>>>Begin Spectral Data<<<<<
432.689 .0000100
433.621 .0000100
434.552 .0000100
435.482 .0000100
436.410 .0000100
437.337 .0000100
438.262 .0267889
439.187 .0568113
440.110 .0941101
441.031 .1361894
441.952 .1090890
442.871 .1138695
443.789 .1183012
444.705 .1224588
445.621 .1263924
446.535 .1301424
447.447 .1323293
448.359 .1328048
449.269 .1312051
450.178 .1272929
451.086 .1211407
451.993 .1132168
452.898 .1042936
453.803 .0952491
454.706 .0868321
455.608 .0795092
456.508 .0734398
457.408 .0693168
458.306 .0661485
459.204 .0635755
460.100 .0614191
460.995 .0595786
461.888 .0579820
462.781 .0565823
463.673 .0553420
464.563 .0542340
465.452 .0532391
466.340 .0523408
467.228 .0515272
468.114 .0507909
468.999 .0501252
469.882 .0495238
470.765 .0489819
471.647 .0484955
472.528 .0480606
473.407 .0476737
474.286 .0473322
475.163 .0470331
476.040 .0467736
476.915 .0465508
477.790 .0463608
478.663 .0462013
479.535 .0460689
480.407 .0459604
481.277 .0458734
482.147 .0458046
483.015 .0457517
483.883 .0457130
484.749 .0456870
485.615 .0456728
486.479 .0456700
487.343 .0456779
488.206 .0456963
489.067 .0457244
489.928 .0457623
490.788 .0458096
491.647 .0458671
492.505 .0459356
493.362 .0460159
494.218 .0461095
495.073 .0462181
495.928 .0464437
496.781 .0465979
497.634 .0467716
498.486 .0469657
499.337 .0471819
500.187 .0474224
501.036 .0476893
501.884 .0479863
502.731 .0483170
503.578 .0486854
504.424 .0489513
505.268 .0493924
506.113 .0498819
506.956 .0504234
507.798 .0510213
508.640 .0516792
509.480 .0524038
510.320 .0532040
511.160 .0540911
511.998 .0550778
512.836 .0561789
513.672 .0574106
514.508 .0587904
515.344 .0603354
516.178 .0620616
517.012 .0639857
517.845 .0661262
518.677 .0684979
519.508 .0711138
520.339 .0739824
521.169 .0771128
521.998 .0804922
522.826 .0841003
523.654 .0879007
524.481 .0918438
525.307 .0958675
526.133 .0998997
526.958 .1038556
527.782 .1076516
528.605 .1112051
529.428 .1144407
530.250 .1172889
531.072 .1197029
531.892 .1216422
532.712 .1230837
533.532 .1240167
534.350 .1244391
535.168 .1243514
535.986 .1237624
536.802 .1226791
537.618 .1211117
538.434 .1190665
539.249 .1165715
540.063 .1136603
540.876 .1103815
541.689 .1067926
542.501 .1029625
543.313 .0989671
544.124 .0948913
544.934 .0908152
545.744 .0868148
546.553 .0829563
547.361 .0792985
548.169 .0758746
548.976 .0727113
549.783 .0698166
550.589 .0671872
551.395 .0648079
552.200 .0626596
553.004 .0607159
553.808 .0589536
554.611 .0573509
555.414 .0558890
556.216 .0545488
557.018 .0533135
557.819 .0521682
558.619 .0511017
559.419 .0501035
560.218 .0491662
561.017 .0482827
561.815 .0474474
562.613 .0466556
563.410 .0459028
564.207 .0451844
565.003 .0444972
565.799 .0438370
566.594 .0432007
567.388 .0425861
568.182 .0419924
568.976 .0414183
569.769 .0408640
570.562 .0403302
571.354 .0398172
572.145 .0393252
572.936 .0388545
573.727 .0384049
574.517 .0379761
575.307 .0375674
576.096 .0371779
576.885 .0368069
577.673 .0364542
578.461 .0361194
579.248 .0358025
580.035 .0355036
580.821 .0352223
581.607 .0349585
582.392 .0347120
583.177 .0344830
583.962 .0342711
584.746 .0340758
585.529 .0338966
586.313 .0337323
587.095 .0335817
587.878 .0334435
588.660 .0333163
589.441 .0331990
590.222 .0330907
591.003 .0329904
591.783 .0328974
592.563 .0328111
593.342 .0327310
594.121 .0326565
594.899 .0325870
595.678 .0325217
596.455 .0324600
597.233 .0324013
598.009 .0323451
598.786 .0322912
599.562 .0322391
600.338 .0321886
601.113 .0321395
601.888 .0320691
602.663 .0320227
603.437 .0319774
604.211 .0319332
604.984 .0318897
605.757 .0318471
606.530 .0318053
607.302 .0317641
608.074 .0317238
608.845 .0316842
609.616 .0316456
610.387 .0316292
611.158 .0315920
611.928 .0315559
612.697 .0315209
613.467 .0314870
614.236 .0314542
615.004 .0314226
615.773 .0313919
616.541 .0313624
617.308 .0313338
618.076 .0313062
618.843 .0312795
619.609 .0312534
620.375 .0312281
621.141 .0312034
621.907 .0311792
622.672 .0311554
623.437 .0311320
624.202 .0311088
624.966 .0310856
625.730 .0310625
626.493 .0310394
627.257 .0310162
628.020 .0309929
628.782 .0309696
629.545 .0309461
630.307 .0309226
631.068 .0308989
631.830 .0308753
632.591 .0308515
633.352 .0308278
634.112 .0308041
634.872 .0307804
635.632 .0307569
636.392 .0307336
637.151 .0307106
637.910 .0306878
638.668 .0306653
639.427 .0306430
640.185 .0306209
640.943 .0305990
641.700 .0305773
642.457 .0305557
643.214 .0305344
643.971 .0305132
644.727 .0304923
645.483 .0304716
646.239 .0304512
646.994 .0304309
647.750 .0304106
648.505 .0303904
649.259 .0303701
650.014 .0303495
650.768 .0303288
651.521 .0303078
652.275 .0302865
653.028 .0302648
653.781 .0302428
654.534 .0302204
655.286 .0301975
656.039 .0301742
656.791 .0301504
657.542 .0301262
658.294 .0301014
659.045 .0300762
659.796 .0300507
660.546 .0300249
661.297 .0299990
662.047 .0299731
662.796 .0299473
663.546 .0299216
664.295 .0298961
665.044 .0298709
665.793 .0298461
666.542 .0298219
667.290 .0297982
668.038 .0297752
668.786 .0297529
669.533 .0297313
670.281 .0297105
671.028 .0296904
671.774 .0296711
672.521 .0296524
673.267 .0296344
674.013 .0296170
674.759 .0296002
675.505 .0295838
676.250 .0295679
676.995 .0295523
677.740 .0295369
678.484 .0295214
679.229 .0295059
679.973 .0294902
680.717 .0294743
681.460 .0294582
682.204 .0294418
682.947 .0294251
683.690 .0294081
684.433 .0293907
685.175 .0293730
685.917 .0293549
686.659 .0293364
687.401 .0293176
688.142 .0292985
688.884 .0292793
689.625 .0292601
690.365 .0292409
691.106 .0292219
691.846 .0292030
692.586 .0291844
693.326 .0291661
694.066 .0291480
694.805 .0291304
695.545 .0291131
696.284 .0290964
697.022 .0290801
697.761 .0290643
698.499 .0290491
699.237 .0290344
699.975 .0290201
700.713 .0290064
701.450 .0289931
702.187 .0289802
702.924 .0289676
703.661 .0289553
704.397 .0289434
705.133 .0289316
705.869 .0289200
706.605 .0289084
707.341 .0288968
708.076 .0288852
708.811 .0288735
709.546 .0288616
710.281 .0288497
711.015 .0288375
711.749 .0288252
712.483 .0288126
713.217 .0287998
713.950 .0287866
714.684 .0287730
715.417 .0287589
716.150 .0287444
716.882 .0287294
717.615 .0287139
718.347 .0286981
719.079 .0286819
719.811 .0286654
720.542 .0286486
721.273 .0286317
722.005 .0286145
722.735 .0285973
723.466 .0285799
724.196 .0285624
724.927 .0285449
725.656 .0285275
726.386 .0285101
727.116 .0284930
727.845 .0284762
728.574 .0284596
729.303 .0284435
730.031 .0284277
730.760 .0284125
731.488 .0283977
732.216 .0283833
732.944 .0283694
733.671 .0283559
734.398 .0283427
735.125 .0283299
735.852 .0283172
736.579 .0283048
737.305 .0282925
738.031 .0282804
738.757 .0282682
739.483 .0282561
740.208 .0282440
740.933 .0282318
741.658 .0282195
742.383 .0282070
743.108 .0281944
743.832 .0281814
744.556 .0281682
745.280 .0281546
746.004 .0281408
746.727 .0281265
747.450 .0281119
748.173 .0280970
748.896 .0280817
749.618 .0280661
750.340 .0280503
751.062 .0280343
751.784 .0280181
752.506 .0280017
753.227 .0279852
753.948 .0279686
754.669 .0279518
755.389 .0279349
756.110 .0279178
756.830 .0279005
757.550 .0278832
758.269 .0278657
758.989 .0278483
759.708 .0278308
760.427 .0278134
761.146 .0277960
761.864 .0277785
762.582 .0277611
763.300 .0277435
764.018 .0277259
764.736 .0277082
765.453 .0276906
766.170 .0276730
766.887 .0276554
767.603 .0276381
768.320 .0276209
769.036 .0276041
769.751 .0275876
770.467 .0275716
771.182 .0275561
771.897 .0275412
772.612 .0275268
773.327 .0275131
774.041 .0275000
774.755 .0274875
775.469 .0274757
776.183 .0274645
776.896 .0274540
777.609 .0274441
778.322 .0274348
779.035 .0274262
779.747 .0274182
780.459 .0274107
781.171 .0274038
781.882 .0273973
782.594 .0273912
783.305 .0273854
784.016 .0273798
784.726 .0273743
785.436 .0273690
786.147 .0273607
786.856 .0273554
787.566 .0273501
788.275 .0273448
788.984 .0273394
789.693 .0273340
790.401 .0273285
791.110 .0273228
791.818 .0273169
792.525 .0273108
793.233 .0273045
793.940 .0272979
794.647 .0272941
795.353 .0272871
796.060 .0272799
796.766 .0272724
797.472 .0272647
798.177 .0272569
798.883 .0272489
799.588 .0272409
800.292 .0272328
800.997 .0272246
801.701 .0272164
802.405 .0272082
803.109 .0272000
803.812 .0271918
804.515 .0271835
805.218 .0271752
805.921 .0271668
806.623 .0271584
807.325 .0271498
808.027 .0271412
808.728 .0271326
809.429 .0271240
810.130 .0271155
810.831 .0271069
811.531 .0270984
812.231 .0270899
812.931 .0270815
813.630 .0270730
814.330 .0270645
815.029 .0270561
815.727 .0270478
816.426 .0270397
817.124 .0270318
817.821 .0270240
818.519 .0270165
819.216 .0270091
819.913 .0270019
820.609 .0269947
821.306 .0269877
822.002 .0269808
822.697 .0269741
823.393 .0269676
824.088 .0269615
824.783 .0269556
825.477 .0269501
826.171 .0269448
826.865 .0269396
827.559 .0269346
828.252 .0269298
828.945 .0269250
829.638 .0269204
830.330 .0269160
831.023 .0269119
831.714 .0269079
832.406 .0269041
833.097 .0269005
833.788 .0268970
834.479 .0268934
835.169 .0268898
835.859 .0268860
836.548 .0268821
837.238 .0268781
837.927 .0268740
838.615 .0268697
839.304 .0268652
839.992 .0268604
840.680 .0268552
841.367 .0268495
842.054 .0268433
842.741 .0268365
843.428 .0268291
844.114 .0268211
844.800 .0268124
845.485 .0268031
846.170 .0267929
846.855 .0267820
847.540 .0267702
848.224 .0267576
848.908 .0267440
849.592 .0267295
850.275 .0267141
850.958 .0266978
851.641 .0266808
852.323 .0266630
853.005 .0266445
853.687 .0266254
854.368 .0266057
855.049 .0265855
855.730 .0265648
856.410 .0265436
857.090 .0265221
857.769 .0265003
858.449 .0264784
859.128 .0264564
859.806 .0264343
860.485 .0264124
861.163 .0263906
861.840 .0263691
862.518 .0263479
863.195 .0263270
863.871 .0263065
864.548 .0262864
865.224 .0262668
865.899 .0262475
866.574 .0262287
867.249 .0262102
867.924 .0261921
868.598 .0261744
869.272 .0261570
869.946 .0261400
870.619 .0261233
871.292 .0261070
871.964 .0260910
872.636 .0260753
873.308 .0260599
873.979 .0260449
874.651 .0260300
875.321 .0260154
875.992 .0260009
876.662 .0259866
877.331 .0259725
878.001 .0259585
878.670 .0259448
879.338 .0259313
880.007 .0259181
880.675 .0259052
881.342 .0258927
882.009 .0258805
882.676 .0258688
883.343 .0258574
884.009 .0258466
884.675 .0258361
885.340 .0258262
886.005 .0258169
886.670 .0258081
887.334 .0258000
887.998 .0257925
888.662 .0257856
889.325 .0257793
889.988 .0257736
890.650 .0257684
891.312 .0257638
891.974 .0257595
892.636 .0257557
893.297 .0257523
893.957 .0257492
894.618 .0257463
895.278 .0257437
895.937 .0257411
896.596 .0257385
897.255 .0257357
897.914 .0257326
898.572 .0257291
899.230 .0257252
899.887 .0257208
900.544 .0257158
901.201 .0257102
901.857 .0256983
902.513 .0256908
903.168 .0256827
903.823 .0256737
904.478 .0256640
905.132 .0256536
905.786 .0256424
906.440 .0256306
907.093 .0256182
907.746 .0256053
908.399 .0255920
909.051 .0255784
909.703 .0255645
910.354 .0255573
911.005 .0255435
911.656 .0255297
912.306 .0255158
912.956 .0255020
913.605 .0254884
914.254 .0254749
914.903 .0254616
915.551 .0254485
916.199 .0254356
916.847 .0254229
917.494 .0254104
918.141 .0253981
918.788 .0253860
919.434 .0253742
920.079 .0253626
920.725 .0253512
921.370 .0253401
922.014 .0253291
922.658 .0253182
923.302 .0253074
923.946 .0252964
924.589 .0252854
925.231 .0252743
925.873 .0252630
926.515 .0252516
927.157 .0252401
927.798 .0252286
928.439 .0252171
929.079 .0252056
929.719 .0251943
930.359 .0251830
930.998 .0251718
931.637 .0251609
932.275 .0251503
932.913 .0251401
933.551 .0251304
934.188 .0251214
934.825 .0251131
935.462 .0251056
936.098 .0250989
936.733 .0250928
937.369 .0250875
938.004 .0250828
938.638 .0250786
939.273 .0250750
939.907 .0250720
940.540 .0250696
941.173 .0250678
941.806 .0250667
942.438 .0250662
943.070 .0250662
943.702 .0250667
944.333 .0250675
944.964 .0250686
945.594 .0250699
946.224 .0250714
946.854 .0250729
947.483 .0250745
948.112 .0250763
948.741 .0250781
949.369 .0250800
949.996 .0250819
950.624 .0250837
951.251 .0250853
951.878 .0250867
952.504 .0250878
953.130 .0250885
953.755 .0250889
954.380 .0250889
955.005 .0250886
955.629 .0250880
956.253 .0250871
956.877 .0250861
957.500 .0250848
958.123 .0250832
958.746 .0250816
959.368 .0250797
959.990 .0250778
960.611 .0250758
961.232 .0250738
961.853 .0250717
962.473 .0250697
963.093 .0250676
963.712 .0250655
964.331 .0250634
964.950 .0250612
965.569 .0250588
966.187 .0250564
966.804 .0250538
967.422 .0250511
968.039 .0250482
968.655 .0250450
969.272 .0250417
969.887 .0250381
970.503 .0250343
971.118 .0250302
971.733 .0250259
972.347 .0250215
972.961 .0250168
973.575 .0250118
974.188 .0250066
974.801 .0250010
975.414 .0249950
976.026 .0249885
976.638 .0249814
977.250 .0249738
977.861 .0249657
978.472 .0249570
979.083 .0249479
979.693 .0249383
980.303 .0249284
980.912 .0249117
981.521 .0249009
982.130 .0248896
982.738 .0248779
983.346 .0248658
983.954 .0248534
984.562 .0248409
985.169 .0248284
985.775 .0248160
986.382 .0248040
986.988 .0247922
987.594 .0247809
988.199 .0247698
988.804 .0247591
989.409 .0247552
990.013 .0247450
990.617 .0247351
991.221 .0247255
991.824 .0247161
992.427 .0247072
993.030 .0246986
993.632 .0246904
994.234 .0246826
994.836 .0246752
995.438 .0246679
996.039 .0246609
996.640 .0246538
997.240 .0246469
997.840 .0246400
998.440 .0246333
999.040 .0246267
999.639 .0246204
1000.238 .0246143
1000.836 .0246085
1001.435 .0246028
1002.033 .0245974
1002.630 .0245920
1003.228 .0245867
1003.825 .0245814
1004.422 .0245759
1005.018 .0245703
1005.614 .0245647
1006.210 .0245589
1006.806 .0245529
1007.401 .0245469
1007.996 .0245408
1008.591 .0245345
1009.186 .0245282
1009.780 .0245216
1010.374 .0245149
1010.967 .0245081
1011.561 .0245010
1012.154 .0244938
1012.746 .0244865
1013.339 .0244792
1013.931 .0244719
1014.523 .0244647
1015.115 .0244577
1015.706 .0244509
1016.298 .0244444
1016.888 .0244381
1017.479 .0244321
1018.069 .0244264
1018.660 .0244209
1019.250 .0244158
1019.839 .0244110
1020.429 .0244064
1021.018 .0244022
1021.607 .0243982
1022.195 .0243945
1022.784 .0243910
1023.372 .0243877
1023.960 .0243845
1024.547 .0243816
1025.135 .0243788
1025.722 .0243763
1026.309 .0243740
1026.896 .0243719
1027.483 .0243701
1028.069 .0243685
1028.655 .0243670
1029.241 .0243657
1029.827 .0243646
1030.412 .0243636
1030.997 .0243626
1031.582 .0243618
1032.167 .0243611
1032.752 .0243604
1033.336 .0243597
1033.921 .0243590
1034.505 .0243581
1035.089 .0243570
1035.672 .0243555
1036.256 .0243538
1036.839 .0243516
1037.422 .0243490
1038.005 .0243461
1038.588 .0243429
1039.171 .0243393
1039.753 .0243356
1040.335 .0243316
1040.918 .0243275
1041.500 .0243231
1042.081 .0243186
1042.663 .0243140
1043.244 .0243092
1043.826 .0243042
1044.407 .0242993
1044.988 .0242943
1045.569 .0242895
1046.150 .0242848
1046.730 .0242802
1047.311 .0242758
1047.891 .0242716
1048.471 .0242674
1049.052 .0242634
1049.632 .0242594
1050.211 .0242557
1050.791 .0242521
1051.371 .0242487
1051.950 .0242456
1052.530 .0242429
1053.109 .0242403
1053.688 .0242381
1054.268 .0242360
1054.847 .0242343
1055.426 .0242327
1056.005 .0242315
1056.583 .0242306
1057.162 .0242300
1057.741 .0242298
1058.319 .0242299
1058.898 .0242301
1059.476 .0242305
1060.055 .0242310
1060.633 .0242314
1061.211 .0242317
1061.790 .0242320
1062.368 .0242322
1062.946 .0242325
1063.524 .0242328
1064.102 .0242332
1064.680 .0242337
1065.258 .0242342
1065.836 .0242347
1066.414 .0242351
1066.992 .0242353
1067.570 .0242352
1068.148 .0242349
1068.726 .0242344
1069.304 .0242336
1069.882 .0242328
1070.460 .0242320
1071.038 .0242314
1071.616 .0242309
1072.194 .0242307
1072.772 .0242307
1073.350 .0242308
1073.928 .0242310
1074.506 .0242313
1075.084 .0242317
1075.662 .0242323
1076.240 .0242333
1076.819 .0242348
1077.397 .0242369
1077.976 .0242397
1078.554 .0242434
1079.133 .0242479
1079.711 .0242529
1080.290 .0242586
1080.869 .0242646
1081.448 .0242708
1082.027 .0242771
1082.606 .0242836
1083.185 .0242901
1083.764 .0242967
1084.343 .0243036
1084.923 .0243108
1085.502 .0243184
1086.082 .0243265
1086.662 .0243349
1087.242 .0243439
1087.822 .0243536
1088.402 .0243638
1088.983 .0243748
1089.563 .0243866
1090.144 .0243994
1090.725 .0244133
1091.306 .0244284
1091.887 .0244449
1092.469 .0244627
1093.050 .0244819
1093.632 .0245023
1094.214 .0245238
1094.796 .0245462
1095.379 .0245693
1095.961 .0245927
1096.544 .0246164
1097.127 .0246401
1097.710 .0246640
1098.294 .0246882
1098.877 .0247128
1099.461 .0247380
1100.046 .0247639
1100.630 .0247908
1101.215 .0248186
1101.800 .0248475
1102.385 .0248773
1102.970 .0249080
1103.556 .0249395
1104.142 .0249717
1104.728 .0250046
1105.315 .0250380
1105.902 .0250721
1106.489 .0251068
1107.077 .0251421
1107.664 .0251779
1108.253 .0252139
1108.841 .0252499
1109.430 .0252856
1110.019 .0253207
1110.609 .0253551
1111.198 .0253887
1111.789 .0254215
1112.379 .0254537
1112.970 .0254855
1113.561 .0255171
1114.153 .0255488
1114.745 .0255809
1115.338 .0256136
1115.931 .0256470
1116.524 .0256812
1117.117 .0257162
1117.712 .0257520
1118.306 .0257888
1118.901 .0258266
1119.496 .0258655
1120.092 .0259055
1120.689 .0259467
1121.285 .0259890
1121.882 .0260324
1122.480 .0260770
1123.078 .0261227
1123.677 .0261695
1124.276 .0262175
1124.875 .0262667
1125.476 .0263175
1126.076 .0263701
1126.677 .0264248
1127.279 .0264819
1127.881 .0265417
1128.484 .0266044
1129.087 .0266289
1129.691 .0266964
1130.295 .0267674
1130.900 .0268421
1131.505 .0269210
1132.111 .0270043
1132.718 .0270924
1133.325 .0271860
1133.933 .0272855
1134.541 .0273912
1135.150 .0275033
1135.760 .0276202
1136.370 .0277484
1136.981 .0277209
1137.592 .0278283
1138.204 .0279436
1138.817 .0280655
1139.431 .0282016
1140.045 .0283528
1140.660 .0285205
1141.275 .0287097
1141.891 .0289182
1142.508 .0291400
1143.126 .0293721
1143.744 .0295652
1144.363 .0299493
1144.983 .0301916
