Measurement Sequence started on: 15-12-46-377
Integration time: 28
Scans to Average: 2 
>>>>>Begin Spectral Data<<<<<
432.689 .0000100
433.621 .0000100
434.552 .0000100
435.482 .0000100
436.410 .0000100
437.337 .0000100
438.262 .0267614
439.187 .0567622
440.110 .0940768
441.031 .1361890
441.952 .1095045
442.871 .1144070
443.789 .1189810
444.705 .1232957
445.621 .1273998
446.535 .1313282
447.447 .1336957
448.359 .1343495
449.269 .1329203
450.178 .1291686
451.086 .1231677
451.993 .1153821
452.898 .1065860
453.803 .0976593
454.706 .0893493
455.608 .0821223
456.508 .0761355
457.408 .0720783
458.306 .0689566
459.204 .0664094
460.100 .0642555
460.995 .0623938
461.888 .0607582
462.781 .0593035
463.673 .0579977
464.563 .0568213
465.452 .0557586
466.340 .0547962
467.228 .0539235
468.114 .0531312
468.999 .0524109
469.882 .0517540
470.765 .0511530
471.647 .0506025
472.528 .0500976
473.407 .0496344
474.286 .0492105
475.163 .0488241
476.040 .0484735
476.915 .0481563
477.790 .0478708
478.663 .0476147
479.535 .0473860
480.407 .0471825
481.277 .0470025
482.147 .0468446
483.015 .0467075
483.883 .0465898
484.749 .0464905
485.615 .0464090
486.479 .0463447
487.343 .0462974
488.206 .0462676
489.067 .0462555
489.928 .0462627
490.788 .0462901
491.647 .0463388
492.505 .0464093
493.362 .0465023
494.218 .0466175
495.073 .0467547
495.928 .0470381
496.781 .0472304
497.634 .0474459
498.486 .0476860
499.337 .0479533
500.187 .0482510
501.036 .0485824
501.884 .0489507
502.731 .0493599
503.578 .0498134
504.424 .0501338
505.268 .0506660
506.113 .0512520
506.956 .0518959
507.798 .0526037
508.640 .0533833
509.480 .0542449
510.320 .0551996
511.160 .0562603
511.998 .0574416
512.836 .0587599
513.672 .0602319
514.508 .0618753
515.344 .0637101
516.178 .0657576
517.012 .0680398
517.845 .0705772
518.677 .0733910
519.508 .0764967
520.339 .0799023
521.169 .0836085
521.998 .0875879
522.826 .0917993
523.654 .0961828
524.481 .1006660
525.307 .1051671
526.133 .1095933
526.958 .1138505
527.782 .1178474
528.605 .1215036
529.428 .1247473
530.250 .1275155
531.072 .1297684
531.892 .1314730
532.712 .1326087
533.532 .1331633
534.350 .1331337
535.168 .1325275
535.986 .1313534
536.802 .1296222
537.618 .1273468
538.434 .1245461
539.249 .1212644
540.063 .1175580
540.876 .1134971
541.689 .1091625
542.501 .1046404
543.313 .1000238
544.124 .0954038
544.934 .0908658
545.744 .0864820
546.553 .0823148
547.361 .0784146
548.169 .0748081
548.976 .0715139
549.783 .0685355
550.589 .0658654
551.395 .0634848
552.200 .0613648
553.004 .0594736
553.808 .0577813
554.611 .0562629
555.414 .0548949
556.216 .0536566
557.018 .0525280
557.819 .0514943
558.619 .0505422
559.419 .0496604
560.218 .0488406
561.017 .0480747
561.815 .0473571
562.613 .0466824
563.410 .0460443
564.207 .0454382
565.003 .0448588
565.799 .0443012
566.594 .0437606
567.388 .0432336
568.182 .0427175
568.976 .0422107
569.769 .0417131
570.562 .0412259
571.354 .0407503
572.145 .0402880
572.936 .0398397
573.727 .0394056
574.517 .0389858
575.307 .0385798
576.096 .0381866
576.885 .0378062
577.673 .0374385
578.461 .0370839
579.248 .0367430
580.035 .0364175
580.821 .0361083
581.607 .0358166
582.392 .0355433
583.177 .0352883
583.962 .0350516
584.746 .0348323
585.529 .0346291
586.313 .0344408
587.095 .0342663
587.878 .0341042
588.660 .0339536
589.441 .0338139
590.222 .0336847
591.003 .0335653
591.783 .0334557
592.563 .0333554
593.342 .0332635
594.121 .0331792
594.899 .0331017
595.678 .0330298
596.455 .0329626
597.233 .0328989
598.009 .0328381
598.786 .0327795
599.562 .0327228
600.338 .0326677
601.113 .0326143
601.888 .0325387
602.663 .0324891
603.437 .0324411
604.211 .0323945
604.984 .0323491
605.757 .0323050
606.530 .0322618
607.302 .0322196
608.074 .0321782
608.845 .0321376
609.616 .0320980
610.387 .0320810
611.158 .0320430
611.928 .0320061
612.697 .0319703
613.467 .0319357
614.236 .0319023
615.004 .0318701
615.773 .0318390
616.541 .0318091
617.308 .0317802
618.076 .0317522
618.843 .0317250
619.609 .0316984
620.375 .0316724
621.141 .0316467
621.907 .0316214
622.672 .0315963
623.437 .0315716
624.202 .0315470
624.966 .0315227
625.730 .0314984
626.493 .0314742
627.257 .0314499
628.020 .0314254
628.782 .0314008
629.545 .0313757
630.307 .0313504
631.068 .0313246
631.830 .0312984
632.591 .0312718
633.352 .0312448
634.112 .0312173
634.872 .0311894
635.632 .0311611
636.392 .0311324
637.151 .0311035
637.910 .0310744
638.668 .0310451
639.427 .0310157
640.185 .0309862
640.943 .0309568
641.700 .0309275
642.457 .0308983
643.214 .0308693
643.971 .0308406
644.727 .0308122
645.483 .0307842
646.239 .0307565
646.994 .0307291
647.750 .0307023
648.505 .0306759
649.259 .0306500
650.014 .0306246
650.768 .0305999
651.521 .0305758
652.275 .0305523
653.028 .0305295
653.781 .0305072
654.534 .0304854
655.286 .0304641
656.039 .0304430
656.791 .0304222
657.542 .0304016
658.294 .0303812
659.045 .0303608
659.796 .0303406
660.546 .0303204
661.297 .0303003
662.047 .0302801
662.796 .0302600
663.546 .0302399
664.295 .0302199
665.044 .0302000
665.793 .0301802
666.542 .0301605
667.290 .0301411
668.038 .0301218
668.786 .0301027
669.533 .0300838
670.281 .0300652
671.028 .0300467
671.774 .0300285
672.521 .0300105
673.267 .0299928
674.013 .0299753
674.759 .0299580
675.505 .0299409
676.250 .0299239
676.995 .0299069
677.740 .0298900
678.484 .0298730
679.229 .0298561
679.973 .0298391
680.717 .0298221
681.460 .0298049
682.204 .0297876
682.947 .0297701
683.690 .0297525
684.433 .0297346
685.175 .0297166
685.917 .0296984
686.659 .0296800
687.401 .0296615
688.142 .0296429
688.884 .0296243
689.625 .0296056
690.365 .0295868
691.106 .0295680
691.846 .0295491
692.586 .0295302
693.326 .0295113
694.066 .0294925
694.805 .0294738
695.545 .0294552
696.284 .0294368
697.022 .0294185
697.761 .0294005
698.499 .0293827
699.237 .0293651
699.975 .0293477
700.713 .0293305
701.450 .0293134
702.187 .0292965
702.924 .0292796
703.661 .0292628
704.397 .0292459
705.133 .0292289
705.869 .0292118
706.605 .0291946
707.341 .0291771
708.076 .0291595
708.811 .0291417
709.546 .0291237
710.281 .0291055
711.015 .0290871
711.749 .0290685
712.483 .0290497
713.217 .0290307
713.950 .0290113
714.684 .0289916
715.417 .0289717
716.150 .0289515
716.882 .0289311
717.615 .0289106
718.347 .0288900
719.079 .0288693
719.811 .0288487
720.542 .0288281
721.273 .0288075
722.005 .0287872
722.735 .0287670
723.466 .0287471
724.196 .0287274
724.927 .0287082
725.656 .0286894
726.386 .0286710
727.116 .0286531
727.845 .0286358
728.574 .0286189
729.303 .0286026
730.031 .0285868
730.760 .0285715
731.488 .0285569
732.216 .0285427
732.944 .0285291
733.671 .0285161
734.398 .0285034
735.125 .0284911
735.852 .0284792
736.579 .0284674
737.305 .0284558
738.031 .0284443
738.757 .0284330
739.483 .0284217
740.208 .0284106
740.933 .0283996
741.658 .0283886
742.383 .0283776
743.108 .0283665
743.832 .0283552
744.556 .0283437
745.280 .0283320
746.004 .0283200
746.727 .0283078
747.450 .0282954
748.173 .0282828
748.896 .0282700
749.618 .0282571
750.340 .0282440
751.062 .0282308
751.784 .0282173
752.506 .0282037
753.227 .0281899
753.948 .0281759
754.669 .0281617
755.389 .0281473
756.110 .0281327
756.830 .0281178
757.550 .0281028
758.269 .0280876
758.989 .0280723
759.708 .0280569
760.427 .0280414
761.146 .0280259
761.864 .0280104
762.582 .0279950
763.300 .0279796
764.018 .0279644
764.736 .0279492
765.453 .0279341
766.170 .0279191
766.887 .0279043
767.603 .0278895
768.320 .0278749
769.036 .0278604
769.751 .0278460
770.467 .0278319
771.182 .0278180
771.897 .0278044
772.612 .0277911
773.327 .0277781
774.041 .0277653
774.755 .0277527
775.469 .0277404
776.183 .0277282
776.896 .0277163
777.609 .0277045
778.322 .0276930
779.035 .0276817
779.747 .0276706
780.459 .0276598
781.171 .0276492
781.882 .0276389
782.594 .0276289
783.305 .0276192
784.016 .0276097
784.726 .0276004
785.436 .0275914
786.147 .0275790
786.856 .0275703
787.566 .0275617
788.275 .0275531
788.984 .0275444
789.693 .0275357
790.401 .0275268
791.110 .0275178
791.818 .0275087
792.525 .0274995
793.233 .0274903
793.940 .0274810
794.647 .0274754
795.353 .0274661
796.060 .0274567
796.766 .0274472
797.472 .0274375
798.177 .0274278
798.883 .0274178
799.588 .0274077
800.292 .0273974
800.997 .0273871
801.701 .0273766
802.405 .0273661
803.109 .0273555
803.812 .0273447
804.515 .0273338
805.218 .0273226
805.921 .0273112
806.623 .0272994
807.325 .0272874
808.027 .0272750
808.728 .0272623
809.429 .0272492
810.130 .0272358
810.831 .0272220
811.531 .0272079
812.231 .0271935
812.931 .0271787
813.630 .0271636
814.330 .0271484
815.029 .0271331
815.727 .0271177
816.426 .0271023
817.124 .0270870
817.821 .0270719
818.519 .0270569
819.216 .0270422
819.913 .0270279
820.609 .0270140
821.306 .0270006
822.002 .0269879
822.697 .0269759
823.393 .0269646
824.088 .0269542
824.783 .0269446
825.477 .0269359
826.171 .0269279
826.865 .0269208
827.559 .0269144
828.252 .0269087
828.945 .0269037
829.638 .0268992
830.330 .0268951
831.023 .0268915
831.714 .0268880
832.406 .0268847
833.097 .0268815
833.788 .0268782
834.479 .0268748
835.169 .0268712
835.859 .0268673
836.548 .0268631
837.238 .0268586
837.927 .0268538
838.615 .0268485
839.304 .0268429
839.992 .0268369
840.680 .0268305
841.367 .0268238
842.054 .0268167
842.741 .0268093
843.428 .0268016
844.114 .0267936
844.800 .0267853
845.485 .0267767
846.170 .0267678
846.855 .0267586
847.540 .0267492
848.224 .0267396
848.908 .0267298
849.592 .0267197
850.275 .0267096
850.958 .0266993
851.641 .0266889
852.323 .0266784
853.005 .0266678
853.687 .0266573
854.368 .0266467
855.049 .0266361
855.730 .0266256
856.410 .0266151
857.090 .0266046
857.769 .0265942
858.449 .0265838
859.128 .0265734
859.806 .0265631
860.485 .0265528
861.163 .0265426
861.840 .0265325
862.518 .0265225
863.195 .0265126
863.871 .0265027
864.548 .0264930
865.224 .0264834
865.899 .0264739
866.574 .0264646
867.249 .0264554
867.924 .0264465
868.598 .0264378
869.272 .0264293
869.946 .0264210
870.619 .0264129
871.292 .0264049
871.964 .0263969
872.636 .0263891
873.308 .0263813
873.979 .0263735
874.651 .0263659
875.321 .0263582
875.992 .0263507
876.662 .0263431
877.331 .0263356
878.001 .0263282
878.670 .0263208
879.338 .0263135
880.007 .0263063
880.675 .0262992
881.342 .0262924
882.009 .0262858
882.676 .0262794
883.343 .0262732
884.009 .0262672
884.675 .0262614
885.340 .0262556
886.005 .0262501
886.670 .0262448
887.334 .0262397
887.998 .0262348
888.662 .0262303
889.325 .0262260
889.988 .0262219
890.650 .0262180
891.312 .0262142
891.974 .0262106
892.636 .0262070
893.297 .0262035
893.957 .0262002
894.618 .0261971
895.278 .0261940
895.937 .0261911
896.596 .0261882
897.255 .0261852
897.914 .0261820
898.572 .0261786
899.230 .0261747
899.887 .0261703
900.544 .0261655
901.201 .0261601
901.857 .0261492
902.513 .0261423
903.168 .0261348
903.823 .0261265
904.478 .0261175
905.132 .0261078
905.786 .0260973
906.440 .0260860
907.093 .0260740
907.746 .0260615
908.399 .0260484
909.051 .0260350
909.703 .0260211
910.354 .0260130
911.005 .0259988
911.656 .0259842
912.306 .0259693
912.956 .0259540
913.605 .0259384
914.254 .0259225
914.903 .0259064
915.551 .0258901
916.199 .0258737
916.847 .0258572
917.494 .0258407
918.141 .0258240
918.788 .0258073
919.434 .0257904
920.079 .0257733
920.725 .0257559
921.370 .0257384
922.014 .0257208
922.658 .0257029
923.302 .0256850
923.946 .0256670
924.589 .0256489
925.231 .0256306
925.873 .0256123
926.515 .0255939
927.157 .0255753
927.798 .0255566
928.439 .0255378
929.079 .0255190
929.719 .0255001
930.359 .0254813
930.998 .0254624
931.637 .0254437
932.275 .0254250
932.913 .0254065
933.551 .0253881
934.188 .0253700
934.825 .0253522
935.462 .0253347
936.098 .0253176
936.733 .0253008
937.369 .0252843
938.004 .0252683
938.638 .0252527
939.273 .0252375
939.907 .0252229
940.540 .0252087
941.173 .0251950
941.806 .0251817
942.438 .0251690
943.070 .0251566
943.702 .0251445
944.333 .0251328
944.964 .0251214
945.594 .0251102
946.224 .0250993
946.854 .0250886
947.483 .0250782
948.112 .0250679
948.741 .0250577
949.369 .0250476
949.996 .0250375
950.624 .0250274
951.251 .0250171
951.878 .0250068
952.504 .0249964
953.130 .0249860
953.755 .0249756
954.380 .0249652
955.005 .0249548
955.629 .0249445
956.253 .0249343
956.877 .0249241
957.500 .0249140
958.123 .0249039
958.746 .0248939
959.368 .0248839
959.990 .0248742
960.611 .0248645
961.232 .0248550
961.853 .0248457
962.473 .0248364
963.093 .0248272
963.712 .0248178
964.331 .0248084
964.950 .0247989
965.569 .0247892
966.187 .0247795
966.804 .0247696
967.422 .0247597
968.039 .0247497
968.655 .0247396
969.272 .0247294
969.887 .0247191
970.503 .0247085
971.118 .0246976
971.733 .0246865
972.347 .0246751
972.961 .0246634
973.575 .0246515
974.188 .0246394
974.801 .0246271
975.414 .0246146
976.026 .0246019
976.638 .0245891
977.250 .0245760
977.861 .0245627
978.472 .0245492
979.083 .0245355
979.693 .0245216
980.303 .0245077
980.912 .0244875
981.521 .0244740
982.130 .0244607
982.738 .0244476
983.346 .0244349
983.954 .0244224
984.562 .0244103
985.169 .0243986
985.775 .0243873
986.382 .0243765
986.988 .0243662
987.594 .0243565
988.199 .0243473
988.804 .0243386
989.409 .0243355
990.013 .0243275
990.617 .0243200
991.221 .0243129
991.824 .0243062
992.427 .0243000
993.030 .0242941
993.632 .0242886
994.234 .0242834
994.836 .0242785
995.438 .0242740
996.039 .0242699
996.640 .0242661
997.240 .0242628
997.840 .0242599
998.440 .0242575
999.040 .0242555
999.639 .0242540
1000.238 .0242528
1000.836 .0242520
1001.435 .0242514
1002.033 .0242511
1002.630 .0242509
1003.228 .0242510
1003.825 .0242512
1004.422 .0242515
1005.018 .0242521
1005.614 .0242530
1006.210 .0242540
1006.806 .0242552
1007.401 .0242564
1007.996 .0242578
1008.591 .0242591
1009.186 .0242603
1009.780 .0242616
1010.374 .0242629
1010.967 .0242643
1011.561 .0242659
1012.154 .0242677
1012.746 .0242699
1013.339 .0242725
1013.931 .0242754
1014.523 .0242786
1015.115 .0242821
1015.706 .0242859
1016.298 .0242898
1016.888 .0242939
1017.479 .0242984
1018.069 .0243031
1018.660 .0243082
1019.250 .0243137
1019.839 .0243195
1020.429 .0243258
1021.018 .0243323
1021.607 .0243392
1022.195 .0243461
1022.784 .0243532
1023.372 .0243604
1023.960 .0243677
1024.547 .0243750
1025.135 .0243826
1025.722 .0243903
1026.309 .0243982
1026.896 .0244064
1027.483 .0244147
1028.069 .0244232
1028.655 .0244317
1029.241 .0244401
1029.827 .0244486
1030.412 .0244569
1030.997 .0244653
1031.582 .0244736
1032.167 .0244821
1032.752 .0244905
1033.336 .0244991
1033.921 .0245077
1034.505 .0245162
1035.089 .0245245
1035.672 .0245326
1036.256 .0245404
1036.839 .0245479
1037.422 .0245550
1038.005 .0245618
1038.588 .0245683
1039.171 .0245746
1039.753 .0245807
1040.335 .0245867
1040.918 .0245925
1041.500 .0245981
1042.081 .0246034
1042.663 .0246084
1043.244 .0246132
1043.826 .0246176
1044.407 .0246218
1044.988 .0246258
1045.569 .0246296
1046.150 .0246333
1046.730 .0246370
1047.311 .0246405
1047.891 .0246438
1048.471 .0246468
1049.052 .0246495
1049.632 .0246517
1050.211 .0246534
1050.791 .0246546
1051.371 .0246552
1051.950 .0246554
1052.530 .0246553
1053.109 .0246550
1053.688 .0246546
1054.268 .0246542
1054.847 .0246538
1055.426 .0246534
1056.005 .0246532
1056.583 .0246531
1057.162 .0246531
1057.741 .0246533
1058.319 .0246538
1058.898 .0246546
1059.476 .0246559
1060.055 .0246576
1060.633 .0246599
1061.211 .0246626
1061.790 .0246658
1062.368 .0246693
1062.946 .0246731
1063.524 .0246769
1064.102 .0246806
1064.680 .0246841
1065.258 .0246875
1065.836 .0246907
1066.414 .0246938
1066.992 .0246970
1067.570 .0247002
1068.148 .0247037
1068.726 .0247075
1069.304 .0247116
1069.882 .0247160
1070.460 .0247206
1071.038 .0247256
1071.616 .0247308
1072.194 .0247366
1072.772 .0247430
1073.350 .0247500
1073.928 .0247578
1074.506 .0247663
1075.084 .0247755
1075.662 .0247853
1076.240 .0247954
1076.819 .0248058
1077.397 .0248163
1077.976 .0248268
1078.554 .0248373
1079.133 .0248477
1079.711 .0248581
1080.290 .0248686
1080.869 .0248791
1081.448 .0248895
1082.027 .0248996
1082.606 .0249094
1083.185 .0249189
1083.764 .0249280
1084.343 .0249368
1084.923 .0249453
1085.502 .0249536
1086.082 .0249621
1086.662 .0249707
1087.242 .0249795
1087.822 .0249885
1088.402 .0249977
1088.983 .0250070
1089.563 .0250163
1090.144 .0250256
1090.725 .0250348
1091.306 .0250442
1091.887 .0250538
1092.469 .0250637
1093.050 .0250740
1093.632 .0250847
1094.214 .0250959
1094.796 .0251075
1095.379 .0251194
1095.961 .0251315
1096.544 .0251439
1097.127 .0251567
1097.710 .0251699
1098.294 .0251840
1098.877 .0251991
1099.461 .0252154
1100.046 .0252331
1100.630 .0252522
1101.215 .0252728
1101.800 .0252947
1102.385 .0253177
1102.970 .0253417
1103.556 .0253665
1104.142 .0253921
1104.728 .0254186
1105.315 .0254458
1105.902 .0254740
1106.489 .0255031
1107.077 .0255332
1107.664 .0255641
1108.253 .0255957
1108.841 .0256278
1109.430 .0256604
1110.019 .0256932
1110.609 .0257262
1111.198 .0257595
1111.789 .0257934
1112.379 .0258279
1112.970 .0258634
1113.561 .0258999
1114.153 .0259373
1114.745 .0259758
1115.338 .0260151
1115.931 .0260549
1116.524 .0260951
1117.117 .0261356
1117.712 .0261764
1118.306 .0262175
1118.901 .0262592
1119.496 .0263015
1120.092 .0263447
1120.689 .0263887
1121.285 .0264335
1121.882 .0264791
1122.480 .0265255
1123.078 .0265728
1123.677 .0266209
1124.276 .0266703
1124.875 .0267212
1125.476 .0267741
1126.076 .0268291
1126.677 .0268865
1127.279 .0269465
1127.881 .0270090
1128.484 .0270739
1129.087 .0270998
1129.691 .0271683
1130.295 .0272394
1130.900 .0273135
1131.505 .0273910
1132.111 .0274719
1132.718 .0275565
1133.325 .0276456
1133.933 .0277393
1134.541 .0278407
1135.150 .0279359
1135.760 .0280364
1136.370 .0281564
1136.981 .0281920
1137.592 .0283059
1138.204 .0284248
1138.817 .0285536
1139.431 .0286930
1140.045 .0288334
1140.660 .0289791
1141.275 .0291412
1141.891 .0293043
1142.508 .0295535
1143.126 .0294197
1143.744 .0296095
1144.363 .0302016
1144.983 .0302091
