Measurement Sequence started on: 15-12-46-377
Integration time: 28
Scans to Average: 2 
>>>>>Begin Spectral Data<<<<<
432.689 .0000100
433.621 .0000100
434.552 .0000100
435.482 .0000100
436.410 .0000100
437.337 .0000100
438.262 .0275311
439.187 .0583861
440.110 .0966092
441.031 .1397790
441.952 .1118012
442.871 .1167545
443.789 .1213701
444.705 .1257197
445.621 .1298488
446.535 .1337946
447.447 .1361358
448.359 .1367185
449.269 .1351727
450.178 .1312521
451.086 .1250373
451.993 .1170126
452.898 .1079707
453.803 .0988122
454.706 .0903018
455.608 .0829131
456.508 .0768027
457.408 .0726746
458.306 .0695050
459.204 .0669191
460.100 .0647382
460.995 .0628584
461.888 .0612101
462.781 .0597503
463.673 .0584439
464.563 .0572657
465.452 .0561961
466.340 .0552199
467.228 .0543252
468.114 .0535031
468.999 .0527462
469.882 .0520486
470.765 .0514059
471.647 .0508140
472.528 .0502701
473.407 .0497706
474.286 .0493135
475.163 .0488969
476.040 .0485187
476.915 .0481780
477.790 .0478733
478.663 .0476041
479.535 .0473696
480.407 .0471692
481.277 .0470015
482.147 .0468651
483.015 .0467570
483.883 .0466747
484.749 .0466153
485.615 .0465766
486.479 .0465563
487.343 .0465535
488.206 .0465688
489.067 .0466020
489.928 .0466542
490.788 .0467266
491.647 .0468192
492.505 .0469325
493.362 .0470652
494.218 .0472164
495.073 .0473860
495.928 .0477076
496.781 .0479263
497.634 .0481661
498.486 .0484289
499.337 .0487175
500.187 .0490343
501.036 .0493809
501.884 .0497596
502.731 .0501720
503.578 .0506190
504.424 .0509151
505.268 .0514187
506.113 .0519622
506.956 .0525489
507.798 .0531833
508.640 .0538728
509.480 .0546271
510.320 .0554582
511.160 .0563799
511.998 .0574097
512.836 .0585683
513.672 .0598771
514.508 .0613603
515.344 .0630438
516.178 .0649510
517.012 .0671081
517.845 .0695396
518.677 .0722684
519.508 .0753141
520.339 .0786882
521.169 .0823963
521.998 .0864181
522.826 .0907181
523.654 .0952398
524.481 .0999100
525.307 .1046469
526.133 .1093526
526.958 .1139238
527.782 .1182609
528.605 .1222734
529.428 .1258784
530.250 .1290030
531.072 .1315985
531.892 .1336249
532.712 .1350564
533.532 .1358822
534.350 .1360979
535.168 .1357099
535.986 .1347301
536.802 .1331684
537.618 .1310360
538.434 .1283496
539.249 .1251474
540.063 .1214808
540.876 .1174188
541.689 .1130446
542.501 .1084464
543.313 .1037252
544.124 .0989836
544.934 .0943162
545.744 .0898045
546.553 .0855184
547.361 .0815128
548.169 .0778164
548.976 .0744462
549.783 .0714021
550.589 .0686709
551.395 .0662312
552.200 .0640517
553.004 .0620983
553.808 .0603404
554.611 .0587548
555.414 .0573171
556.216 .0560079
557.018 .0548080
557.819 .0537015
558.619 .0526736
559.419 .0517129
560.218 .0508089
561.017 .0499519
561.815 .0491358
562.613 .0483554
563.410 .0476056
564.207 .0468836
565.003 .0461863
565.799 .0455118
566.594 .0448582
567.388 .0442253
568.182 .0436112
568.976 .0430154
569.769 .0424376
570.562 .0418779
571.354 .0413361
572.145 .0408133
572.936 .0403095
573.727 .0398251
574.517 .0393606
575.307 .0389157
576.096 .0384900
576.885 .0380837
577.673 .0376967
578.461 .0373288
579.248 .0369800
580.035 .0366505
580.821 .0363402
581.607 .0360488
582.392 .0357761
583.177 .0355216
583.962 .0352845
584.746 .0350643
585.529 .0348596
586.313 .0346698
587.095 .0344938
587.878 .0343309
588.660 .0341801
589.441 .0340408
590.222 .0339123
591.003 .0337937
591.783 .0336844
592.563 .0335835
593.342 .0334899
594.121 .0334030
594.899 .0333219
595.678 .0332458
596.455 .0331738
597.233 .0331056
598.009 .0330408
598.786 .0329790
599.562 .0329200
600.338 .0328635
601.113 .0328095
601.888 .0327355
602.663 .0326861
603.437 .0326382
604.211 .0325919
604.984 .0325468
605.757 .0325030
606.530 .0324605
607.302 .0324191
608.074 .0323790
608.845 .0323400
609.616 .0323023
610.387 .0322859
611.158 .0322500
611.928 .0322155
612.697 .0321821
613.467 .0321501
614.236 .0321193
615.004 .0320897
615.773 .0320611
616.541 .0320336
617.308 .0320069
618.076 .0319808
618.843 .0319555
619.609 .0319307
620.375 .0319066
621.141 .0318830
621.907 .0318600
622.672 .0318373
623.437 .0318149
624.202 .0317926
624.966 .0317701
625.730 .0317473
626.493 .0317241
627.257 .0317006
628.020 .0316765
628.782 .0316520
629.545 .0316271
630.307 .0316018
631.068 .0315760
631.830 .0315497
632.591 .0315229
633.352 .0314956
634.112 .0314678
634.872 .0314396
635.632 .0314112
636.392 .0313826
637.151 .0313541
637.910 .0313255
638.668 .0312970
639.427 .0312686
640.185 .0312403
640.943 .0312122
641.700 .0311845
642.457 .0311573
643.214 .0311307
643.971 .0311048
644.727 .0310797
645.483 .0310554
646.239 .0310316
646.994 .0310084
647.750 .0309855
648.505 .0309629
649.259 .0309405
650.014 .0309182
650.768 .0308960
651.521 .0308740
652.275 .0308521
653.028 .0308302
653.781 .0308084
654.534 .0307866
655.286 .0307648
656.039 .0307428
656.791 .0307207
657.542 .0306984
658.294 .0306760
659.045 .0306534
659.796 .0306305
660.546 .0306076
661.297 .0305843
662.047 .0305609
662.796 .0305372
663.546 .0305133
664.295 .0304892
665.044 .0304648
665.793 .0304403
666.542 .0304159
667.290 .0303914
668.038 .0303670
668.786 .0303428
669.533 .0303186
670.281 .0302946
671.028 .0302707
671.774 .0302470
672.521 .0302236
673.267 .0302004
674.013 .0301777
674.759 .0301554
675.505 .0301337
676.250 .0301126
676.995 .0300920
677.740 .0300720
678.484 .0300523
679.229 .0300331
679.973 .0300143
680.717 .0299958
681.460 .0299776
682.204 .0299599
682.947 .0299425
683.690 .0299255
684.433 .0299088
685.175 .0298924
685.917 .0298762
686.659 .0298602
687.401 .0298444
688.142 .0298285
688.884 .0298128
689.625 .0297971
690.365 .0297816
691.106 .0297661
691.846 .0297507
692.586 .0297353
693.326 .0297199
694.066 .0297045
694.805 .0296890
695.545 .0296733
696.284 .0296576
697.022 .0296418
697.761 .0296259
698.499 .0296099
699.237 .0295939
699.975 .0295780
700.713 .0295621
701.450 .0295464
702.187 .0295307
702.924 .0295151
703.661 .0294997
704.397 .0294844
705.133 .0294693
705.869 .0294542
706.605 .0294393
707.341 .0294243
708.076 .0294094
708.811 .0293944
709.546 .0293795
710.281 .0293646
711.015 .0293496
711.749 .0293346
712.483 .0293196
713.217 .0293045
713.950 .0292893
714.684 .0292740
715.417 .0292586
716.150 .0292431
716.882 .0292274
717.615 .0292115
718.347 .0291954
719.079 .0291792
719.811 .0291628
720.542 .0291462
721.273 .0291295
722.005 .0291126
722.735 .0290956
723.466 .0290784
724.196 .0290611
724.927 .0290438
725.656 .0290264
726.386 .0290090
727.116 .0289917
727.845 .0289745
728.574 .0289575
729.303 .0289406
730.031 .0289240
730.760 .0289077
731.488 .0288916
732.216 .0288758
732.944 .0288602
733.671 .0288448
734.398 .0288297
735.125 .0288147
735.852 .0287998
736.579 .0287852
737.305 .0287706
738.031 .0287562
738.757 .0287418
739.483 .0287275
740.208 .0287133
740.933 .0286991
741.658 .0286847
742.383 .0286703
743.108 .0286557
743.832 .0286408
744.556 .0286257
745.280 .0286103
746.004 .0285946
746.727 .0285787
747.450 .0285625
748.173 .0285462
748.896 .0285297
749.618 .0285130
750.340 .0284963
751.062 .0284794
751.784 .0284625
752.506 .0284454
753.227 .0284283
753.948 .0284111
754.669 .0283937
755.389 .0283764
756.110 .0283589
756.830 .0283415
757.550 .0283240
758.269 .0283066
758.989 .0282893
759.708 .0282720
760.427 .0282548
761.146 .0282376
761.864 .0282203
762.582 .0282031
763.300 .0281857
764.018 .0281682
764.736 .0281506
765.453 .0281329
766.170 .0281152
766.887 .0280974
767.603 .0280796
768.320 .0280620
769.036 .0280446
769.751 .0280274
770.467 .0280106
771.182 .0279943
771.897 .0279785
772.612 .0279632
773.327 .0279486
774.041 .0279345
774.755 .0279210
775.469 .0279082
776.183 .0278961
776.896 .0278847
777.609 .0278741
778.322 .0278644
779.035 .0278555
779.747 .0278475
780.459 .0278405
781.171 .0278342
781.882 .0278287
782.594 .0278239
783.305 .0278196
784.016 .0278158
784.726 .0278123
785.436 .0278091
786.147 .0278046
786.856 .0278015
787.566 .0277984
788.275 .0277953
788.984 .0277922
789.693 .0277889
790.401 .0277856
791.110 .0277821
791.818 .0277783
792.525 .0277744
793.233 .0277701
793.940 .0277655
794.647 .0277622
795.353 .0277572
796.060 .0277520
796.766 .0277465
797.472 .0277408
798.177 .0277349
798.883 .0277289
799.588 .0277226
800.292 .0277163
800.997 .0277098
801.701 .0277032
802.405 .0276964
803.109 .0276895
803.812 .0276825
804.515 .0276753
805.218 .0276679
805.921 .0276604
806.623 .0276526
807.325 .0276446
808.027 .0276365
808.728 .0276282
809.429 .0276199
810.130 .0276115
810.831 .0276031
811.531 .0275947
812.231 .0275864
812.931 .0275782
813.630 .0275699
814.330 .0275617
815.029 .0275535
815.727 .0275454
816.426 .0275374
817.124 .0275295
817.821 .0275220
818.519 .0275147
819.216 .0275077
819.913 .0275012
820.609 .0274951
821.306 .0274893
822.002 .0274841
822.697 .0274792
823.393 .0274747
824.088 .0274706
824.783 .0274669
825.477 .0274635
826.171 .0274603
826.865 .0274573
827.559 .0274544
828.252 .0274516
828.945 .0274487
829.638 .0274460
830.330 .0274433
831.023 .0274406
831.714 .0274379
832.406 .0274351
833.097 .0274322
833.788 .0274291
834.479 .0274257
835.169 .0274219
835.859 .0274178
836.548 .0274132
837.238 .0274083
837.927 .0274029
838.615 .0273971
839.304 .0273909
839.992 .0273842
840.680 .0273771
841.367 .0273694
842.054 .0273611
842.741 .0273523
843.428 .0273428
844.114 .0273327
844.800 .0273219
845.485 .0273105
846.170 .0272983
846.855 .0272852
847.540 .0272713
848.224 .0272566
848.908 .0272410
849.592 .0272246
850.275 .0272076
850.958 .0271899
851.641 .0271716
852.323 .0271529
853.005 .0271338
853.687 .0271142
854.368 .0270942
855.049 .0270738
855.730 .0270529
856.410 .0270317
857.090 .0270101
857.769 .0269882
858.449 .0269661
859.128 .0269439
859.806 .0269217
860.485 .0268995
861.163 .0268773
861.840 .0268553
862.518 .0268334
863.195 .0268117
863.871 .0267901
864.548 .0267686
865.224 .0267473
865.899 .0267261
866.574 .0267049
867.249 .0266839
867.924 .0266629
868.598 .0266421
869.272 .0266214
869.946 .0266009
870.619 .0265806
871.292 .0265606
871.964 .0265408
872.636 .0265213
873.308 .0265022
873.979 .0264834
874.651 .0264648
875.321 .0264466
875.992 .0264288
876.662 .0264113
877.331 .0263942
878.001 .0263775
878.670 .0263612
879.338 .0263453
880.007 .0263300
880.675 .0263152
881.342 .0263011
882.009 .0262877
882.676 .0262750
883.343 .0262630
884.009 .0262518
884.675 .0262413
885.340 .0262314
886.005 .0262221
886.670 .0262134
887.334 .0262052
887.998 .0261976
888.662 .0261906
889.325 .0261842
889.988 .0261783
890.650 .0261730
891.312 .0261682
891.974 .0261638
892.636 .0261597
893.297 .0261559
893.957 .0261523
894.618 .0261487
895.278 .0261452
895.937 .0261416
896.596 .0261379
897.255 .0261340
897.914 .0261298
898.572 .0261252
899.230 .0261201
899.887 .0261145
900.544 .0261084
901.201 .0261016
901.857 .0260885
902.513 .0260801
903.168 .0260711
903.823 .0260616
904.478 .0260514
905.132 .0260406
905.786 .0260291
906.440 .0260169
907.093 .0260042
907.746 .0259910
908.399 .0259774
909.051 .0259637
909.703 .0259498
910.354 .0259429
911.005 .0259294
911.656 .0259161
912.306 .0259030
912.956 .0258902
913.605 .0258776
914.254 .0258655
914.903 .0258538
915.551 .0258426
916.199 .0258320
916.847 .0258221
917.494 .0258129
918.141 .0258043
918.788 .0257962
919.434 .0257887
920.079 .0257815
920.725 .0257745
921.370 .0257678
922.014 .0257613
922.658 .0257549
923.302 .0257487
923.946 .0257427
924.589 .0257368
925.231 .0257311
925.873 .0257256
926.515 .0257201
927.157 .0257146
927.798 .0257092
928.439 .0257037
929.079 .0256983
929.719 .0256929
930.359 .0256876
930.998 .0256825
931.637 .0256775
932.275 .0256727
932.913 .0256680
933.551 .0256636
934.188 .0256593
934.825 .0256552
935.462 .0256513
936.098 .0256476
936.733 .0256443
937.369 .0256413
938.004 .0256388
938.638 .0256367
939.273 .0256351
939.907 .0256341
940.540 .0256336
941.173 .0256336
941.806 .0256341
942.438 .0256350
943.070 .0256364
943.702 .0256382
944.333 .0256404
944.964 .0256428
945.594 .0256454
946.224 .0256482
946.854 .0256511
947.483 .0256539
948.112 .0256566
948.741 .0256591
949.369 .0256615
949.996 .0256636
950.624 .0256655
951.251 .0256671
951.878 .0256684
952.504 .0256694
953.130 .0256702
953.755 .0256706
954.380 .0256707
955.005 .0256705
955.629 .0256701
956.253 .0256694
956.877 .0256685
957.500 .0256673
958.123 .0256660
958.746 .0256645
959.368 .0256627
959.990 .0256608
960.611 .0256586
961.232 .0256563
961.853 .0256539
962.473 .0256513
963.093 .0256486
963.712 .0256458
964.331 .0256428
964.950 .0256398
965.569 .0256366
966.187 .0256331
966.804 .0256293
967.422 .0256251
968.039 .0256206
968.655 .0256155
969.272 .0256100
969.887 .0256040
970.503 .0255975
971.118 .0255906
971.733 .0255832
972.347 .0255754
972.961 .0255672
973.575 .0255585
974.188 .0255493
974.801 .0255396
975.414 .0255296
976.026 .0255191
976.638 .0255083
977.250 .0254971
977.861 .0254855
978.472 .0254736
979.083 .0254614
979.693 .0254488
980.303 .0254360
980.912 .0254165
981.521 .0254034
982.130 .0253902
982.738 .0253769
983.346 .0253636
983.954 .0253503
984.562 .0253371
985.169 .0253240
985.775 .0253111
986.382 .0252985
986.988 .0252862
987.594 .0252744
988.199 .0252630
988.804 .0252521
989.409 .0252474
990.013 .0252369
990.617 .0252267
991.221 .0252167
991.824 .0252067
992.427 .0251968
993.030 .0251868
993.632 .0251768
994.234 .0251668
994.836 .0251568
995.438 .0251468
996.039 .0251367
996.640 .0251266
997.240 .0251165
997.840 .0251063
998.440 .0250962
999.040 .0250860
999.639 .0250759
1000.238 .0250659
1000.836 .0250560
1001.435 .0250464
1002.033 .0250370
1002.630 .0250278
1003.228 .0250189
1003.825 .0250102
1004.422 .0250015
1005.018 .0249930
1005.614 .0249844
1006.210 .0249758
1006.806 .0249672
1007.401 .0249586
1007.996 .0249500
1008.591 .0249414
1009.186 .0249328
1009.780 .0249243
1010.374 .0249159
1010.967 .0249075
1011.561 .0248990
1012.154 .0248905
1012.746 .0248821
1013.339 .0248736
1013.931 .0248651
1014.523 .0248566
1015.115 .0248482
1015.706 .0248398
1016.298 .0248315
1016.888 .0248233
1017.479 .0248152
1018.069 .0248071
1018.660 .0247990
1019.250 .0247909
1019.839 .0247828
1020.429 .0247747
1021.018 .0247666
1021.607 .0247585
1022.195 .0247504
1022.784 .0247423
1023.372 .0247343
1023.960 .0247264
1024.547 .0247186
1025.135 .0247110
1025.722 .0247036
1026.309 .0246964
1026.896 .0246895
1027.483 .0246828
1028.069 .0246765
1028.655 .0246704
1029.241 .0246647
1029.827 .0246592
1030.412 .0246541
1030.997 .0246493
1031.582 .0246449
1032.167 .0246409
1032.752 .0246373
1033.336 .0246341
1033.921 .0246311
1034.505 .0246284
1035.089 .0246259
1035.672 .0246236
1036.256 .0246213
1036.839 .0246190
1037.422 .0246168
1038.005 .0246144
1038.588 .0246120
1039.171 .0246094
1039.753 .0246066
1040.335 .0246036
1040.918 .0246005
1041.500 .0245971
1042.081 .0245936
1042.663 .0245901
1043.244 .0245865
1043.826 .0245829
1044.407 .0245793
1044.988 .0245756
1045.569 .0245719
1046.150 .0245681
1046.730 .0245641
1047.311 .0245599
1047.891 .0245554
1048.471 .0245506
1049.052 .0245457
1049.632 .0245404
1050.211 .0245350
1050.791 .0245295
1051.371 .0245237
1051.950 .0245178
1052.530 .0245117
1053.109 .0245053
1053.688 .0244988
1054.268 .0244922
1054.847 .0244854
1055.426 .0244788
1056.005 .0244724
1056.583 .0244665
1057.162 .0244611
1057.741 .0244563
1058.319 .0244521
1058.898 .0244487
1059.476 .0244457
1060.055 .0244433
1060.633 .0244412
1061.211 .0244396
1061.790 .0244383
1062.368 .0244374
1062.946 .0244370
1063.524 .0244371
1064.102 .0244378
1064.680 .0244391
1065.258 .0244408
1065.836 .0244431
1066.414 .0244457
1066.992 .0244487
1067.570 .0244520
1068.148 .0244556
1068.726 .0244594
1069.304 .0244635
1069.882 .0244680
1070.460 .0244729
1071.038 .0244781
1071.616 .0244838
1072.194 .0244899
1072.772 .0244963
1073.350 .0245029
1073.928 .0245096
1074.506 .0245164
1075.084 .0245232
1075.662 .0245300
1076.240 .0245368
1076.819 .0245437
1077.397 .0245508
1077.976 .0245581
1078.554 .0245659
1079.133 .0245742
1079.711 .0245830
1080.290 .0245925
1080.869 .0246025
1081.448 .0246130
1082.027 .0246240
1082.606 .0246355
1083.185 .0246474
1083.764 .0246597
1084.343 .0246726
1084.923 .0246861
1085.502 .0247001
1086.082 .0247148
1086.662 .0247300
1087.242 .0247456
1087.822 .0247617
1088.402 .0247780
1088.983 .0247944
1089.563 .0248108
1090.144 .0248273
1090.725 .0248439
1091.306 .0248605
1091.887 .0248774
1092.469 .0248947
1093.050 .0249124
1093.632 .0249306
1094.214 .0249494
1094.796 .0249688
1095.379 .0249887
1095.961 .0250091
1096.544 .0250299
1097.127 .0250511
1097.710 .0250727
1098.294 .0250949
1098.877 .0251179
1099.461 .0251418
1100.046 .0251668
1100.630 .0251928
1101.215 .0252199
1101.800 .0252478
1102.385 .0252764
1102.970 .0253057
1103.556 .0253355
1104.142 .0253656
1104.728 .0253963
1105.315 .0254278
1105.902 .0254602
1106.489 .0254940
1107.077 .0255291
1107.664 .0255659
1108.253 .0256043
1108.841 .0256440
1109.430 .0256850
1110.019 .0257271
1110.609 .0257699
1111.198 .0258135
1111.789 .0258578
1112.379 .0259031
1112.970 .0259493
1113.561 .0259969
1114.153 .0260459
1114.745 .0260964
1115.338 .0261481
1115.931 .0262008
1116.524 .0262544
1117.117 .0263085
1117.712 .0263630
1118.306 .0264180
1118.901 .0264737
1119.496 .0265303
1120.092 .0265880
1120.689 .0266470
1121.285 .0267076
1121.882 .0267697
1122.480 .0268333
1123.078 .0268984
1123.677 .0269646
1124.276 .0270321
1124.875 .0271008
1125.476 .0271706
1126.076 .0272417
1126.677 .0273143
1127.279 .0273884
1127.881 .0274642
1128.484 .0275419
1129.087 .0275783
1129.691 .0276582
1130.295 .0277398
1130.900 .0278229
1131.505 .0279074
1132.111 .0279936
1132.718 .0280816
1133.325 .0281716
1133.933 .0282641
1134.541 .0283576
1135.150 .0284577
1135.760 .0285549
1136.370 .0286582
1136.981 .0287176
1137.592 .0288199
1138.204 .0289297
1138.817 .0290442
1139.431 .0291605
1140.045 .0292854
1140.660 .0294141
1141.275 .0295460
1141.891 .0296860
1142.508 .0297816
1143.126 .0300312
1143.744 .0300137
1144.363 .0302531
1144.983 .0305060
