Measurement Sequence started on: 15-12-46-377
Integration time: 28
Scans to Average: 2 
>>>>>Begin Spectral Data<<<<<
432.689 .0000100
433.621 .0000100
434.552 .0000100
435.482 .0000100
436.410 .0000100
437.337 .0000100
438.262 .0281907
439.187 .0598119
440.110 .0990938
441.031 .1433843
441.952 .1147185
442.871 .1197947
443.789 .1245247
444.705 .1289805
445.621 .1332111
446.535 .1372533
447.447 .1396515
448.359 .1402472
449.269 .1386565
450.178 .1346305
451.086 .1282521
451.993 .1200153
452.898 .1107372
453.803 .1013422
454.706 .0926161
455.608 .0850450
456.508 .0787905
457.408 .0745725
458.306 .0713416
459.204 .0687148
460.100 .0665021
460.995 .0645980
461.888 .0629335
462.781 .0614621
463.673 .0601498
464.563 .0589711
465.452 .0579057
466.340 .0569358
467.228 .0560491
468.114 .0552342
468.999 .0544831
469.882 .0537886
470.765 .0531459
471.647 .0525521
472.528 .0520051
473.407 .0515025
474.286 .0510435
475.163 .0506272
476.040 .0502516
476.915 .0499147
477.790 .0496142
478.663 .0493476
479.535 .0491129
480.407 .0489081
481.277 .0487314
482.147 .0485810
483.015 .0484561
483.883 .0483550
484.749 .0482768
485.615 .0482200
486.479 .0481833
487.343 .0481654
488.206 .0481651
489.067 .0481816
489.928 .0482141
490.788 .0482628
491.647 .0483275
492.505 .0484088
493.362 .0485074
494.218 .0486249
495.073 .0487626
495.928 .0490491
496.781 .0492471
497.634 .0494696
498.486 .0497183
499.337 .0499948
500.187 .0503010
501.036 .0506401
501.884 .0510156
502.731 .0514306
503.578 .0518898
504.424 .0522148
505.268 .0527526
506.113 .0533440
506.956 .0539921
507.798 .0547008
508.640 .0554756
509.480 .0563237
510.320 .0572551
511.160 .0582803
511.998 .0594138
512.836 .0606709
513.672 .0620685
514.508 .0636239
515.344 .0653562
516.178 .0672838
517.012 .0694242
517.845 .0717955
518.677 .0744163
519.508 .0773002
520.339 .0804576
521.169 .0838962
521.998 .0876005
522.826 .0915419
523.654 .0956733
524.481 .0999323
525.307 .1042447
526.133 .1085234
526.958 .1126776
527.782 .1166165
528.605 .1202590
529.428 .1235308
530.250 .1263659
531.072 .1287247
531.892 .1305732
532.712 .1318905
533.532 .1326666
534.350 .1329006
535.168 .1325972
535.986 .1317607
536.802 .1303990
537.618 .1285194
538.434 .1261286
539.249 .1232565
540.063 .1199427
540.876 .1162452
541.689 .1122365
542.501 .1079998
543.313 .1036259
544.124 .0992082
544.934 .0948342
545.744 .0905787
546.553 .0865057
547.361 .0826685
548.169 .0790910
548.976 .0757919
549.783 .0727755
550.589 .0700349
551.395 .0675543
552.200 .0653124
553.004 .0632854
553.808 .0614496
554.611 .0597843
555.414 .0582705
556.216 .0568893
557.018 .0556242
557.819 .0544588
558.619 .0533790
559.419 .0523718
560.218 .0514274
561.017 .0505369
561.815 .0496941
562.613 .0488946
563.410 .0481338
564.207 .0474081
565.003 .0467152
565.799 .0460520
566.594 .0454152
567.388 .0448026
568.182 .0442118
568.976 .0436399
569.769 .0430856
570.562 .0425482
571.354 .0420277
572.145 .0415246
572.936 .0410404
573.727 .0405763
574.517 .0401332
575.307 .0397116
576.096 .0393109
576.885 .0389304
577.673 .0385692
578.461 .0382258
579.248 .0378990
580.035 .0375881
580.821 .0372926
581.607 .0370123
582.392 .0367473
583.177 .0364976
583.962 .0362630
584.746 .0360431
585.529 .0358376
586.313 .0356453
587.095 .0354655
587.878 .0352976
588.660 .0351409
589.441 .0349947
590.222 .0348586
591.003 .0347323
591.783 .0346152
592.563 .0345070
593.342 .0344071
594.121 .0343148
594.899 .0342295
595.678 .0341506
596.455 .0340774
597.233 .0340095
598.009 .0339462
598.786 .0338870
599.562 .0338314
600.338 .0337789
601.113 .0337288
601.888 .0336594
602.663 .0336132
603.437 .0335682
604.211 .0335243
604.984 .0334813
605.757 .0334392
606.530 .0333981
607.302 .0333579
608.074 .0333188
608.845 .0332807
609.616 .0332435
610.387 .0332266
611.158 .0331907
611.928 .0331556
612.697 .0331212
613.467 .0330874
614.236 .0330544
615.004 .0330221
615.773 .0329905
616.541 .0329598
617.308 .0329298
618.076 .0329004
618.843 .0328717
619.609 .0328434
620.375 .0328154
621.141 .0327877
621.907 .0327600
622.672 .0327323
623.437 .0327045
624.202 .0326765
624.966 .0326483
625.730 .0326196
626.493 .0325906
627.257 .0325611
628.020 .0325311
628.782 .0325005
629.545 .0324694
630.307 .0324377
631.068 .0324054
631.830 .0323726
632.591 .0323393
633.352 .0323055
634.112 .0322712
634.872 .0322366
635.632 .0322017
636.392 .0321668
637.151 .0321319
637.910 .0320973
638.668 .0320631
639.427 .0320293
640.185 .0319961
640.943 .0319636
641.700 .0319318
642.457 .0319009
643.214 .0318709
643.971 .0318420
644.727 .0318141
645.483 .0317873
646.239 .0317615
646.994 .0317367
647.750 .0317129
648.505 .0316899
649.259 .0316676
650.014 .0316458
650.768 .0316244
651.521 .0316034
652.275 .0315826
653.028 .0315620
653.781 .0315415
654.534 .0315211
655.286 .0315006
656.039 .0314801
656.791 .0314594
657.542 .0314385
658.294 .0314174
659.045 .0313959
659.796 .0313740
660.546 .0313518
661.297 .0313292
662.047 .0313063
662.796 .0312831
663.546 .0312596
664.295 .0312360
665.044 .0312123
665.793 .0311886
666.542 .0311650
667.290 .0311416
668.038 .0311185
668.786 .0310956
669.533 .0310729
670.281 .0310505
671.028 .0310283
671.774 .0310062
672.521 .0309844
673.267 .0309628
674.013 .0309414
674.759 .0309203
675.505 .0308994
676.250 .0308788
676.995 .0308584
677.740 .0308382
678.484 .0308181
679.229 .0307980
679.973 .0307778
680.717 .0307575
681.460 .0307371
682.204 .0307165
682.947 .0306958
683.690 .0306750
684.433 .0306541
685.175 .0306330
685.917 .0306119
686.659 .0305907
687.401 .0305694
688.142 .0305482
688.884 .0305269
689.625 .0305056
690.365 .0304843
691.106 .0304630
691.846 .0304416
692.586 .0304201
693.326 .0303986
694.066 .0303770
694.805 .0303553
695.545 .0303338
696.284 .0303123
697.022 .0302909
697.761 .0302697
698.499 .0302486
699.237 .0302277
699.975 .0302069
700.713 .0301862
701.450 .0301657
702.187 .0301453
702.924 .0301251
703.661 .0301050
704.397 .0300852
705.133 .0300655
705.869 .0300461
706.605 .0300268
707.341 .0300077
708.076 .0299889
708.811 .0299703
709.546 .0299519
710.281 .0299338
711.015 .0299159
711.749 .0298981
712.483 .0298804
713.217 .0298628
713.950 .0298451
714.684 .0298274
715.417 .0298097
716.150 .0297919
716.882 .0297741
717.615 .0297564
718.347 .0297386
719.079 .0297208
719.811 .0297030
720.542 .0296852
721.273 .0296673
722.005 .0296495
722.735 .0296317
723.466 .0296142
724.196 .0295969
724.927 .0295799
725.656 .0295633
726.386 .0295471
727.116 .0295313
727.845 .0295159
728.574 .0295008
729.303 .0294862
730.031 .0294719
730.760 .0294581
731.488 .0294448
732.216 .0294319
732.944 .0294194
733.671 .0294073
734.398 .0293955
735.125 .0293839
735.852 .0293725
736.579 .0293613
737.305 .0293502
738.031 .0293392
738.757 .0293283
739.483 .0293175
740.208 .0293068
740.933 .0292960
741.658 .0292852
742.383 .0292743
743.108 .0292632
743.832 .0292519
744.556 .0292405
745.280 .0292289
746.004 .0292172
746.727 .0292055
747.450 .0291936
748.173 .0291815
748.896 .0291694
749.618 .0291571
750.340 .0291446
751.062 .0291320
751.784 .0291193
752.506 .0291064
753.227 .0290934
753.948 .0290802
754.669 .0290667
755.389 .0290530
756.110 .0290390
756.830 .0290247
757.550 .0290103
758.269 .0289956
758.989 .0289807
759.708 .0289657
760.427 .0289506
761.146 .0289352
761.864 .0289195
762.582 .0289036
763.300 .0288874
764.018 .0288710
764.736 .0288544
765.453 .0288376
766.170 .0288208
766.887 .0288041
767.603 .0287875
768.320 .0287711
769.036 .0287549
769.751 .0287388
770.467 .0287231
771.182 .0287076
771.897 .0286924
772.612 .0286777
773.327 .0286633
774.041 .0286493
774.755 .0286356
775.469 .0286224
776.183 .0286095
776.896 .0285969
777.609 .0285847
778.322 .0285729
779.035 .0285614
779.747 .0285503
780.459 .0285396
781.171 .0285293
781.882 .0285193
782.594 .0285096
783.305 .0285001
784.016 .0284906
784.726 .0284812
785.436 .0284718
786.147 .0284576
786.856 .0284480
787.566 .0284383
788.275 .0284286
788.984 .0284189
789.693 .0284090
790.401 .0283990
791.110 .0283889
791.818 .0283787
792.525 .0283683
793.233 .0283577
793.940 .0283470
794.647 .0283411
795.353 .0283302
796.060 .0283193
796.766 .0283082
797.472 .0282970
798.177 .0282856
798.883 .0282741
799.588 .0282625
800.292 .0282507
800.997 .0282390
801.701 .0282271
802.405 .0282153
803.109 .0282034
803.812 .0281915
804.515 .0281795
805.218 .0281674
805.921 .0281552
806.623 .0281429
807.325 .0281305
808.027 .0281180
808.728 .0281054
809.429 .0280928
810.130 .0280802
810.831 .0280675
811.531 .0280548
812.231 .0280421
812.931 .0280295
813.630 .0280168
814.330 .0280043
815.029 .0279919
815.727 .0279797
816.426 .0279677
817.124 .0279560
817.821 .0279445
818.519 .0279333
819.216 .0279224
819.913 .0279117
820.609 .0279014
821.306 .0278914
822.002 .0278818
822.697 .0278727
823.393 .0278639
824.088 .0278556
824.783 .0278477
825.477 .0278401
826.171 .0278329
826.865 .0278261
827.559 .0278197
828.252 .0278136
828.945 .0278080
829.638 .0278027
830.330 .0277978
831.023 .0277932
831.714 .0277889
832.406 .0277847
833.097 .0277806
833.788 .0277765
834.479 .0277726
835.169 .0277687
835.859 .0277648
836.548 .0277610
837.238 .0277572
837.927 .0277533
838.615 .0277492
839.304 .0277449
839.992 .0277404
840.680 .0277354
841.367 .0277302
842.054 .0277245
842.741 .0277186
843.428 .0277124
844.114 .0277059
844.800 .0276990
845.485 .0276919
846.170 .0276844
846.855 .0276765
847.540 .0276682
848.224 .0276594
848.908 .0276503
849.592 .0276407
850.275 .0276307
850.958 .0276203
851.641 .0276096
852.323 .0275985
853.005 .0275870
853.687 .0275752
854.368 .0275631
855.049 .0275509
855.730 .0275386
856.410 .0275262
857.090 .0275139
857.769 .0275015
858.449 .0274891
859.128 .0274766
859.806 .0274640
860.485 .0274513
861.163 .0274384
861.840 .0274255
862.518 .0274125
863.195 .0273994
863.871 .0273862
864.548 .0273730
865.224 .0273598
865.899 .0273464
866.574 .0273329
867.249 .0273192
867.924 .0273054
868.598 .0272914
869.272 .0272773
869.946 .0272630
870.619 .0272487
871.292 .0272344
871.964 .0272200
872.636 .0272057
873.308 .0271915
873.979 .0271773
874.651 .0271632
875.321 .0271493
875.992 .0271355
876.662 .0271219
877.331 .0271084
878.001 .0270950
878.670 .0270818
879.338 .0270686
880.007 .0270556
880.675 .0270427
881.342 .0270300
882.009 .0270176
882.676 .0270054
883.343 .0269936
884.009 .0269822
884.675 .0269712
885.340 .0269605
886.005 .0269502
886.670 .0269401
887.334 .0269302
887.998 .0269206
888.662 .0269112
889.325 .0269019
889.988 .0268927
890.650 .0268837
891.312 .0268748
891.974 .0268659
892.636 .0268571
893.297 .0268482
893.957 .0268394
894.618 .0268305
895.278 .0268216
895.937 .0268126
896.596 .0268035
897.255 .0267943
897.914 .0267849
898.572 .0267753
899.230 .0267654
899.887 .0267552
900.544 .0267446
901.201 .0267337
901.857 .0267158
902.513 .0267041
903.168 .0266920
903.823 .0266796
904.478 .0266668
905.132 .0266535
905.786 .0266397
906.440 .0266254
907.093 .0266105
907.746 .0265951
908.399 .0265793
909.051 .0265631
909.703 .0265467
910.354 .0265375
911.005 .0265209
911.656 .0265041
912.306 .0264872
912.956 .0264703
913.605 .0264534
914.254 .0264364
914.903 .0264195
915.551 .0264025
916.199 .0263855
916.847 .0263685
917.494 .0263514
918.141 .0263343
918.788 .0263172
919.434 .0263000
920.079 .0262827
920.725 .0262653
921.370 .0262479
922.014 .0262304
922.658 .0262128
923.302 .0261951
923.946 .0261774
924.589 .0261597
925.231 .0261420
925.873 .0261243
926.515 .0261068
927.157 .0260895
927.798 .0260725
928.439 .0260556
929.079 .0260390
929.719 .0260227
930.359 .0260066
930.998 .0259908
931.637 .0259752
932.275 .0259600
932.913 .0259452
933.551 .0259309
934.188 .0259172
934.825 .0259042
935.462 .0258919
936.098 .0258804
936.733 .0258696
937.369 .0258595
938.004 .0258501
938.638 .0258414
939.273 .0258333
939.907 .0258258
940.540 .0258191
941.173 .0258131
941.806 .0258078
942.438 .0258032
943.070 .0257991
943.702 .0257955
944.333 .0257923
944.964 .0257892
945.594 .0257862
946.224 .0257833
946.854 .0257804
947.483 .0257775
948.112 .0257745
948.741 .0257715
949.369 .0257684
949.996 .0257652
950.624 .0257618
951.251 .0257581
951.878 .0257542
952.504 .0257499
953.130 .0257453
953.755 .0257404
954.380 .0257352
955.005 .0257298
955.629 .0257243
956.253 .0257187
956.877 .0257129
957.500 .0257069
958.123 .0257009
958.746 .0256947
959.368 .0256884
959.990 .0256819
960.611 .0256755
961.232 .0256691
961.853 .0256628
962.473 .0256568
963.093 .0256511
963.712 .0256457
964.331 .0256407
964.950 .0256360
965.569 .0256318
966.187 .0256279
966.804 .0256243
967.422 .0256209
968.039 .0256176
968.655 .0256145
969.272 .0256115
969.887 .0256086
970.503 .0256057
971.118 .0256028
971.733 .0256000
972.347 .0255972
972.961 .0255943
973.575 .0255914
974.188 .0255883
974.801 .0255851
975.414 .0255816
976.026 .0255779
976.638 .0255739
977.250 .0255697
977.861 .0255652
978.472 .0255603
979.083 .0255552
979.693 .0255498
980.303 .0255440
980.912 .0255335
981.521 .0255268
982.130 .0255198
982.738 .0255126
983.346 .0255052
983.954 .0254978
984.562 .0254904
985.169 .0254832
985.775 .0254763
986.382 .0254697
986.988 .0254633
987.594 .0254574
988.199 .0254517
988.804 .0254465
989.409 .0254459
990.013 .0254416
990.617 .0254379
991.221 .0254349
991.824 .0254324
992.427 .0254305
993.030 .0254292
993.632 .0254283
994.234 .0254277
994.836 .0254274
995.438 .0254273
996.039 .0254273
996.640 .0254275
997.240 .0254279
997.840 .0254285
998.440 .0254292
999.040 .0254301
999.639 .0254311
1000.238 .0254322
1000.836 .0254333
1001.435 .0254343
1002.033 .0254352
1002.630 .0254360
1003.228 .0254366
1003.825 .0254370
1004.422 .0254372
1005.018 .0254372
1005.614 .0254370
1006.210 .0254364
1006.806 .0254354
1007.401 .0254339
1007.996 .0254321
1008.591 .0254298
1009.186 .0254273
1009.780 .0254245
1010.374 .0254216
1010.967 .0254187
1011.561 .0254160
1012.154 .0254134
1012.746 .0254111
1013.339 .0254089
1013.931 .0254069
1014.523 .0254049
1015.115 .0254030
1015.706 .0254013
1016.298 .0253996
1016.888 .0253982
1017.479 .0253970
1018.069 .0253960
1018.660 .0253954
1019.250 .0253951
1019.839 .0253950
1020.429 .0253950
1021.018 .0253952
1021.607 .0253954
1022.195 .0253958
1022.784 .0253962
1023.372 .0253968
1023.960 .0253977
1024.547 .0253990
1025.135 .0254006
1025.722 .0254024
1026.309 .0254045
1026.896 .0254065
1027.483 .0254084
1028.069 .0254101
1028.655 .0254113
1029.241 .0254121
1029.827 .0254125
1030.412 .0254125
1030.997 .0254122
1031.582 .0254115
1032.167 .0254106
1032.752 .0254093
1033.336 .0254077
1033.921 .0254055
1034.505 .0254028
1035.089 .0253994
1035.672 .0253955
1036.256 .0253910
1036.839 .0253860
1037.422 .0253807
1038.005 .0253751
1038.588 .0253694
1039.171 .0253634
1039.753 .0253573
1040.335 .0253509
1040.918 .0253442
1041.500 .0253372
1042.081 .0253299
1042.663 .0253223
1043.244 .0253146
1043.826 .0253069
1044.407 .0252994
1044.988 .0252922
1045.569 .0252852
1046.150 .0252786
1046.730 .0252722
1047.311 .0252661
1047.891 .0252603
1048.471 .0252547
1049.052 .0252494
1049.632 .0252442
1050.211 .0252393
1050.791 .0252347
1051.371 .0252302
1051.950 .0252260
1052.530 .0252219
1053.109 .0252179
1053.688 .0252139
1054.268 .0252097
1054.847 .0252055
1055.426 .0252012
1056.005 .0251968
1056.583 .0251923
1057.162 .0251878
1057.741 .0251833
1058.319 .0251788
1058.898 .0251744
1059.476 .0251699
1060.055 .0251655
1060.633 .0251610
1061.211 .0251564
1061.790 .0251516
1062.368 .0251466
1062.946 .0251415
1063.524 .0251360
1064.102 .0251304
1064.680 .0251244
1065.258 .0251182
1065.836 .0251117
1066.414 .0251052
1066.992 .0250987
1067.570 .0250923
1068.148 .0250859
1068.726 .0250797
1069.304 .0250736
1069.882 .0250677
1070.460 .0250619
1071.038 .0250561
1071.616 .0250505
1072.194 .0250449
1072.772 .0250395
1073.350 .0250342
1073.928 .0250290
1074.506 .0250240
1075.084 .0250191
1075.662 .0250142
1076.240 .0250093
1076.819 .0250042
1077.397 .0249990
1077.976 .0249936
1078.554 .0249882
1079.133 .0249828
1079.711 .0249777
1080.290 .0249730
1080.869 .0249689
1081.448 .0249655
1082.027 .0249628
1082.606 .0249610
1083.185 .0249602
1083.764 .0249603
1084.343 .0249615
1084.923 .0249638
1085.502 .0249673
1086.082 .0249722
1086.662 .0249784
1087.242 .0249861
1087.822 .0249952
1088.402 .0250057
1088.983 .0250175
1089.563 .0250305
1090.144 .0250446
1090.725 .0250596
1091.306 .0250754
1091.887 .0250920
1092.469 .0251092
1093.050 .0251271
1093.632 .0251455
1094.214 .0251645
1094.796 .0251839
1095.379 .0252039
1095.961 .0252242
1096.544 .0252449
1097.127 .0252658
1097.710 .0252868
1098.294 .0253078
1098.877 .0253287
1099.461 .0253494
1100.046 .0253700
1100.630 .0253904
1101.215 .0254108
1101.800 .0254311
1102.385 .0254514
1102.970 .0254718
1103.556 .0254921
1104.142 .0255125
1104.728 .0255328
1105.315 .0255531
1105.902 .0255735
1106.489 .0255943
1107.077 .0256156
1107.664 .0256379
1108.253 .0256614
1108.841 .0256865
1109.430 .0257136
1110.019 .0257425
1110.609 .0257735
1111.198 .0258067
1111.789 .0258419
1112.379 .0258791
1112.970 .0259183
1113.561 .0259595
1114.153 .0260027
1114.745 .0260479
1115.338 .0260951
1115.931 .0261442
1116.524 .0261953
1117.117 .0262481
1117.712 .0263025
1118.306 .0263583
1118.901 .0264153
1119.496 .0264734
1120.092 .0265326
1120.689 .0265926
1121.285 .0266536
1121.882 .0267158
1122.480 .0267793
1123.078 .0268444
1123.677 .0269112
1124.276 .0269800
1124.875 .0270508
1125.476 .0271238
1126.076 .0271990
1126.677 .0272762
1127.279 .0273555
1127.881 .0274367
1128.484 .0275200
1129.087 .0275559
1129.691 .0276419
1130.295 .0277303
1130.900 .0278213
1131.505 .0279152
1132.111 .0280119
1132.718 .0281116
1133.325 .0282146
1133.933 .0283217
1134.541 .0284334
1135.150 .0285420
1135.760 .0286562
1136.370 .0287781
1136.981 .0288627
1137.592 .0289886
1138.204 .0291216
1138.817 .0292586
1139.431 .0294058
1140.045 .0295535
1140.660 .0297072
1141.275 .0298654
1141.891 .0300498
1142.508 .0302423
1143.126 .0302262
1143.744 .0304456
1144.363 .0307244
1144.983 .0314920
