Measurement Sequence started on: 15-12-46-377
Integration time: 28
Scans to Average: 2 
>>>>>Begin Spectral Data<<<<<
432.689 .0000100
433.621 .0000100
434.552 .0000100
435.482 .0000100
436.410 .0000100
437.337 .0000100
438.262 .0278915
439.187 .0589732
440.110 .0976317
441.031 .1412331
441.952 .1134528
442.871 .1185168
443.789 .1232247
444.705 .1276453
445.621 .1318297
446.535 .1358162
447.447 .1381656
448.359 .1387317
449.269 .1371336
450.178 .1331260
451.086 .1267890
451.993 .1186047
452.898 .1093754
453.803 .1000091
454.706 .0912797
455.608 .0836683
456.508 .0773374
457.408 .0730084
458.306 .0696456
459.204 .0668849
460.100 .0645449
460.995 .0625238
461.888 .0607556
462.781 .0591921
463.673 .0577982
464.563 .0565488
465.452 .0554245
466.340 .0544099
467.228 .0534917
468.114 .0526591
468.999 .0519022
469.882 .0512120
470.765 .0505808
471.647 .0500019
472.528 .0494709
473.407 .0489840
474.286 .0485391
475.163 .0481355
476.040 .0477725
476.915 .0474493
477.790 .0471648
478.663 .0469169
479.535 .0467031
480.407 .0465203
481.277 .0463655
482.147 .0462360
483.015 .0461298
483.883 .0460460
484.749 .0459844
485.615 .0459456
486.479 .0459296
487.343 .0459358
488.206 .0459637
489.067 .0460113
489.928 .0460765
490.788 .0461571
491.647 .0462512
492.505 .0463575
493.362 .0464758
494.218 .0466066
495.073 .0467517
495.928 .0470295
496.781 .0472245
497.634 .0474410
498.486 .0476803
499.337 .0479434
500.187 .0482313
501.036 .0485453
501.884 .0488875
502.731 .0492609
503.578 .0496692
504.424 .0499560
505.268 .0504318
506.113 .0509542
506.956 .0515291
507.798 .0521630
508.640 .0528641
509.480 .0536418
510.320 .0545081
511.160 .0554759
511.998 .0565614
512.836 .0577814
513.672 .0591535
514.508 .0606975
515.344 .0624333
516.178 .0643800
517.012 .0665595
517.845 .0689915
518.677 .0716958
519.508 .0746915
520.339 .0779910
521.169 .0816011
521.998 .0855017
522.826 .0896609
523.654 .0940238
524.481 .0985189
525.307 .1030628
526.133 .1075600
526.958 .1119137
527.782 .1160284
528.605 .1198186
529.428 .1232119
530.250 .1261450
531.072 .1285787
531.892 .1304773
532.712 .1318213
533.532 .1325999
534.350 .1328077
535.168 .1324485
535.986 .1315283
536.802 .1300509
537.618 .1280226
538.434 .1254530
539.249 .1223791
540.063 .1188482
540.876 .1149271
541.689 .1106966
542.501 .1062479
543.313 .1016782
544.124 .0970843
544.934 .0925566
545.744 .0881729
546.553 .0839933
547.361 .0800682
548.169 .0764218
548.976 .0730725
549.783 .0700225
550.589 .0672657
551.395 .0647872
552.200 .0625645
553.004 .0605703
553.808 .0587793
554.611 .0571693
555.414 .0557197
556.216 .0544077
557.018 .0532140
557.819 .0521217
558.619 .0511159
559.419 .0501834
560.218 .0493149
561.017 .0485016
561.815 .0477367
562.613 .0470143
563.410 .0463290
564.207 .0456753
565.003 .0450488
565.799 .0444455
566.594 .0438620
567.388 .0432960
568.182 .0427452
568.976 .0422081
569.769 .0416850
570.562 .0411758
571.354 .0406811
572.145 .0402020
572.936 .0397399
573.727 .0392955
574.517 .0388686
575.307 .0384602
576.096 .0380693
576.885 .0376956
577.673 .0373388
578.461 .0369982
579.248 .0366735
580.035 .0363649
580.821 .0360721
581.607 .0357950
582.392 .0355337
583.177 .0352881
583.962 .0350575
584.746 .0348419
585.529 .0346405
586.313 .0344526
587.095 .0342777
587.878 .0341153
588.660 .0339646
589.441 .0338254
590.222 .0336969
591.003 .0335788
591.783 .0334702
592.563 .0333705
593.342 .0332789
594.121 .0331945
594.899 .0331165
595.678 .0330440
596.455 .0329763
597.233 .0329127
598.009 .0328527
598.786 .0327957
599.562 .0327413
600.338 .0326891
601.113 .0326387
601.888 .0325667
602.663 .0325193
603.437 .0324731
604.211 .0324279
604.984 .0323837
605.757 .0323404
606.530 .0322981
607.302 .0322570
608.074 .0322170
608.845 .0321783
609.616 .0321411
610.387 .0321264
611.158 .0320919
611.928 .0320592
612.697 .0320284
613.467 .0319994
614.236 .0319723
615.004 .0319469
615.773 .0319231
616.541 .0319009
617.308 .0318801
618.076 .0318605
618.843 .0318421
619.609 .0318247
620.375 .0318080
621.141 .0317919
621.907 .0317762
622.672 .0317607
623.437 .0317453
624.202 .0317299
624.966 .0317141
625.730 .0316981
626.493 .0316814
627.257 .0316640
628.020 .0316457
628.782 .0316263
629.545 .0316056
630.307 .0315837
631.068 .0315603
631.830 .0315357
632.591 .0315098
633.352 .0314829
634.112 .0314551
634.872 .0314265
635.632 .0313972
636.392 .0313674
637.151 .0313369
637.910 .0313061
638.668 .0312748
639.427 .0312432
640.185 .0312115
640.943 .0311798
641.700 .0311482
642.457 .0311170
643.214 .0310862
643.971 .0310559
644.727 .0310262
645.483 .0309970
646.239 .0309684
646.994 .0309402
647.750 .0309125
648.505 .0308853
649.259 .0308584
650.014 .0308320
650.768 .0308058
651.521 .0307800
652.275 .0307543
653.028 .0307289
653.781 .0307036
654.534 .0306783
655.286 .0306531
656.039 .0306278
656.791 .0306025
657.542 .0305771
658.294 .0305516
659.045 .0305260
659.796 .0305002
660.546 .0304744
661.297 .0304485
662.047 .0304224
662.796 .0303961
663.546 .0303696
664.295 .0303429
665.044 .0303162
665.793 .0302894
666.542 .0302626
667.290 .0302359
668.038 .0302093
668.786 .0301827
669.533 .0301563
670.281 .0301301
671.028 .0301040
671.774 .0300783
672.521 .0300529
673.267 .0300279
674.013 .0300035
674.759 .0299797
675.505 .0299565
676.250 .0299340
676.995 .0299120
677.740 .0298905
678.484 .0298696
679.229 .0298494
679.973 .0298299
680.717 .0298114
681.460 .0297937
682.204 .0297770
682.947 .0297612
683.690 .0297462
684.433 .0297319
685.175 .0297182
685.917 .0297048
686.659 .0296917
687.401 .0296789
688.142 .0296662
688.884 .0296537
689.625 .0296414
690.365 .0296292
691.106 .0296171
691.846 .0296050
692.586 .0295927
693.326 .0295803
694.066 .0295677
694.805 .0295549
695.545 .0295419
696.284 .0295287
697.022 .0295153
697.761 .0295017
698.499 .0294881
699.237 .0294745
699.975 .0294609
700.713 .0294474
701.450 .0294342
702.187 .0294211
702.924 .0294084
703.661 .0293960
704.397 .0293839
705.133 .0293721
705.869 .0293604
706.605 .0293488
707.341 .0293372
708.076 .0293255
708.811 .0293139
709.546 .0293022
710.281 .0292904
711.015 .0292785
711.749 .0292665
712.483 .0292545
713.217 .0292423
713.950 .0292298
714.684 .0292172
715.417 .0292042
716.150 .0291908
716.882 .0291770
717.615 .0291627
718.347 .0291479
719.079 .0291327
719.811 .0291171
720.542 .0291012
721.273 .0290851
722.005 .0290689
722.735 .0290528
723.466 .0290367
724.196 .0290207
724.927 .0290049
725.656 .0289891
726.386 .0289733
727.116 .0289576
727.845 .0289420
728.574 .0289266
729.303 .0289113
730.031 .0288962
730.760 .0288815
731.488 .0288670
732.216 .0288527
732.944 .0288387
733.671 .0288248
734.398 .0288110
735.125 .0287973
735.852 .0287836
736.579 .0287698
737.305 .0287560
738.031 .0287421
738.757 .0287281
739.483 .0287138
740.208 .0286993
740.933 .0286845
741.658 .0286696
742.383 .0286544
743.108 .0286391
743.832 .0286237
744.556 .0286081
745.280 .0285923
746.004 .0285762
746.727 .0285597
747.450 .0285427
748.173 .0285252
748.896 .0285073
749.618 .0284889
750.340 .0284701
751.062 .0284510
751.784 .0284316
752.506 .0284120
753.227 .0283921
753.948 .0283721
754.669 .0283518
755.389 .0283313
756.110 .0283107
756.830 .0282900
757.550 .0282692
758.269 .0282485
758.989 .0282277
759.708 .0282071
760.427 .0281865
761.146 .0281660
761.864 .0281456
762.582 .0281252
763.300 .0281050
764.018 .0280849
764.736 .0280650
765.453 .0280452
766.170 .0280256
766.887 .0280063
767.603 .0279872
768.320 .0279684
769.036 .0279500
769.751 .0279320
770.467 .0279144
771.182 .0278974
771.897 .0278810
772.612 .0278652
773.327 .0278500
774.041 .0278354
774.755 .0278214
775.469 .0278080
776.183 .0277953
776.896 .0277831
777.609 .0277714
778.322 .0277603
779.035 .0277497
779.747 .0277396
780.459 .0277299
781.171 .0277207
781.882 .0277118
782.594 .0277032
783.305 .0276949
784.016 .0276869
784.726 .0276791
785.436 .0276716
786.147 .0276606
786.856 .0276536
787.566 .0276468
788.275 .0276402
788.984 .0276338
789.693 .0276277
790.401 .0276217
791.110 .0276160
791.818 .0276104
792.525 .0276050
793.233 .0275997
793.940 .0275946
794.647 .0275928
795.353 .0275879
796.060 .0275831
796.766 .0275782
797.472 .0275734
798.177 .0275686
798.883 .0275638
799.588 .0275589
800.292 .0275541
800.997 .0275491
801.701 .0275441
802.405 .0275391
803.109 .0275339
803.812 .0275286
804.515 .0275232
805.218 .0275176
805.921 .0275119
806.623 .0275060
807.325 .0275000
808.027 .0274938
808.728 .0274874
809.429 .0274809
810.130 .0274742
810.831 .0274675
811.531 .0274607
812.231 .0274539
812.931 .0274472
813.630 .0274406
814.330 .0274342
815.029 .0274281
815.727 .0274223
816.426 .0274168
817.124 .0274117
817.821 .0274070
818.519 .0274026
819.216 .0273986
819.913 .0273951
820.609 .0273920
821.306 .0273894
822.002 .0273873
822.697 .0273857
823.393 .0273846
824.088 .0273840
824.783 .0273837
825.477 .0273838
826.171 .0273841
826.865 .0273847
827.559 .0273855
828.252 .0273865
828.945 .0273877
829.638 .0273890
830.330 .0273905
831.023 .0273922
831.714 .0273938
832.406 .0273956
833.097 .0273973
833.788 .0273990
834.479 .0274006
835.169 .0274022
835.859 .0274037
836.548 .0274050
837.238 .0274062
837.927 .0274072
838.615 .0274079
839.304 .0274083
839.992 .0274082
840.680 .0274076
841.367 .0274065
842.054 .0274049
842.741 .0274027
843.428 .0273998
844.114 .0273964
844.800 .0273923
845.485 .0273874
846.170 .0273818
846.855 .0273755
847.540 .0273683
848.224 .0273604
848.908 .0273517
849.592 .0273421
850.275 .0273318
850.958 .0273208
851.641 .0273089
852.323 .0272963
853.005 .0272829
853.687 .0272688
854.368 .0272541
855.049 .0272388
855.730 .0272229
856.410 .0272065
857.090 .0271896
857.769 .0271722
858.449 .0271544
859.128 .0271361
859.806 .0271175
860.485 .0270986
861.163 .0270795
861.840 .0270602
862.518 .0270410
863.195 .0270218
863.871 .0270028
864.548 .0269839
865.224 .0269652
865.899 .0269466
866.574 .0269281
867.249 .0269097
867.924 .0268915
868.598 .0268735
869.272 .0268558
869.946 .0268383
870.619 .0268211
871.292 .0268041
871.964 .0267874
872.636 .0267709
873.308 .0267546
873.979 .0267384
874.651 .0267223
875.321 .0267064
875.992 .0266906
876.662 .0266750
877.331 .0266596
878.001 .0266443
878.670 .0266291
879.338 .0266140
880.007 .0265988
880.675 .0265836
881.342 .0265684
882.009 .0265532
882.676 .0265381
883.343 .0265231
884.009 .0265084
884.675 .0264939
885.340 .0264797
886.005 .0264658
886.670 .0264521
887.334 .0264386
887.998 .0264252
888.662 .0264121
889.325 .0263991
889.988 .0263863
890.650 .0263737
891.312 .0263613
891.974 .0263492
892.636 .0263372
893.297 .0263254
893.957 .0263136
894.618 .0263017
895.278 .0262898
895.937 .0262776
896.596 .0262652
897.255 .0262524
897.914 .0262393
898.572 .0262257
899.230 .0262117
899.887 .0261971
900.544 .0261819
901.201 .0261661
901.857 .0261393
902.513 .0261219
903.168 .0261038
903.823 .0260850
904.478 .0260656
905.132 .0260454
905.786 .0260247
906.440 .0260033
907.093 .0259814
907.746 .0259591
908.399 .0259364
909.051 .0259134
909.703 .0258903
910.354 .0258788
911.005 .0258558
911.656 .0258327
912.306 .0258098
912.956 .0257871
913.605 .0257647
914.254 .0257426
914.903 .0257209
915.551 .0256996
916.199 .0256788
916.847 .0256583
917.494 .0256382
918.141 .0256185
918.788 .0255991
919.434 .0255801
920.079 .0255613
920.725 .0255429
921.370 .0255248
922.014 .0255070
922.658 .0254895
923.302 .0254722
923.946 .0254551
924.589 .0254382
925.231 .0254214
925.873 .0254046
926.515 .0253880
927.157 .0253714
927.798 .0253550
928.439 .0253387
929.079 .0253226
929.719 .0253067
930.359 .0252909
930.998 .0252753
931.637 .0252599
932.275 .0252448
932.913 .0252299
933.551 .0252154
934.188 .0252013
934.825 .0251878
935.462 .0251748
936.098 .0251625
936.733 .0251507
937.369 .0251396
938.004 .0251290
938.638 .0251191
939.273 .0251099
939.907 .0251014
940.540 .0250938
941.173 .0250870
941.806 .0250810
942.438 .0250759
943.070 .0250715
943.702 .0250679
944.333 .0250650
944.964 .0250626
945.594 .0250606
946.224 .0250591
946.854 .0250580
947.483 .0250572
948.112 .0250569
948.741 .0250568
949.369 .0250571
949.996 .0250575
950.624 .0250580
951.251 .0250585
951.878 .0250588
952.504 .0250590
953.130 .0250590
953.755 .0250588
954.380 .0250585
955.005 .0250581
955.629 .0250577
956.253 .0250573
956.877 .0250569
957.500 .0250564
958.123 .0250560
958.746 .0250557
959.368 .0250555
959.990 .0250555
960.611 .0250558
961.232 .0250564
961.853 .0250575
962.473 .0250590
963.093 .0250610
963.712 .0250635
964.331 .0250664
964.950 .0250697
965.569 .0250733
966.187 .0250773
966.804 .0250816
967.422 .0250862
968.039 .0250911
968.655 .0250963
969.272 .0251018
969.887 .0251076
970.503 .0251135
971.118 .0251197
971.733 .0251260
972.347 .0251323
972.961 .0251386
973.575 .0251447
974.188 .0251506
974.801 .0251562
975.414 .0251615
976.026 .0251665
976.638 .0251710
977.250 .0251750
977.861 .0251786
978.472 .0251817
979.083 .0251842
979.693 .0251861
980.303 .0251874
980.912 .0251868
981.521 .0251866
982.130 .0251858
982.738 .0251847
983.346 .0251833
983.954 .0251819
984.562 .0251804
985.169 .0251791
985.775 .0251779
986.382 .0251771
986.988 .0251764
987.594 .0251761
988.199 .0251761
988.804 .0251765
989.409 .0251782
990.013 .0251794
990.617 .0251812
991.221 .0251836
991.824 .0251867
992.427 .0251903
993.030 .0251946
993.632 .0251992
994.234 .0252043
994.836 .0252096
995.438 .0252152
996.039 .0252210
996.640 .0252271
997.240 .0252335
997.840 .0252403
998.440 .0252475
999.040 .0252552
999.639 .0252632
1000.238 .0252715
1000.836 .0252799
1001.435 .0252884
1002.033 .0252968
1002.630 .0253052
1003.228 .0253133
1003.825 .0253214
1004.422 .0253292
1005.018 .0253369
1005.614 .0253445
1006.210 .0253520
1006.806 .0253594
1007.401 .0253665
1007.996 .0253734
1008.591 .0253800
1009.186 .0253863
1009.780 .0253924
1010.374 .0253983
1010.967 .0254041
1011.561 .0254099
1012.154 .0254157
1012.746 .0254216
1013.339 .0254278
1013.931 .0254342
1014.523 .0254408
1015.115 .0254477
1015.706 .0254548
1016.298 .0254621
1016.888 .0254696
1017.479 .0254774
1018.069 .0254853
1018.660 .0254935
1019.250 .0255020
1019.839 .0255106
1020.429 .0255194
1021.018 .0255284
1021.607 .0255375
1022.195 .0255466
1022.784 .0255558
1023.372 .0255649
1023.960 .0255739
1024.547 .0255828
1025.135 .0255916
1025.722 .0256003
1026.309 .0256087
1026.896 .0256170
1027.483 .0256251
1028.069 .0256329
1028.655 .0256405
1029.241 .0256478
1029.827 .0256547
1030.412 .0256612
1030.997 .0256673
1031.582 .0256728
1032.167 .0256779
1032.752 .0256825
1033.336 .0256865
1033.921 .0256900
1034.505 .0256930
1035.089 .0256953
1035.672 .0256971
1036.256 .0256981
1036.839 .0256985
1037.422 .0256982
1038.005 .0256972
1038.588 .0256957
1039.171 .0256935
1039.753 .0256909
1040.335 .0256878
1040.918 .0256843
1041.500 .0256803
1042.081 .0256759
1042.663 .0256711
1043.244 .0256659
1043.826 .0256603
1044.407 .0256543
1044.988 .0256481
1045.569 .0256415
1046.150 .0256347
1046.730 .0256275
1047.311 .0256200
1047.891 .0256122
1048.471 .0256040
1049.052 .0255955
1049.632 .0255866
1050.211 .0255775
1050.791 .0255683
1051.371 .0255589
1051.950 .0255495
1052.530 .0255401
1053.109 .0255309
1053.688 .0255219
1054.268 .0255130
1054.847 .0255044
1055.426 .0254960
1056.005 .0254879
1056.583 .0254800
1057.162 .0254722
1057.741 .0254645
1058.319 .0254568
1058.898 .0254491
1059.476 .0254411
1060.055 .0254329
1060.633 .0254243
1061.211 .0254153
1061.790 .0254058
1062.368 .0253957
1062.946 .0253849
1063.524 .0253734
1064.102 .0253612
1064.680 .0253482
1065.258 .0253345
1065.836 .0253202
1066.414 .0253054
1066.992 .0252902
1067.570 .0252749
1068.148 .0252595
1068.726 .0252440
1069.304 .0252286
1069.882 .0252132
1070.460 .0251979
1071.038 .0251826
1071.616 .0251675
1072.194 .0251525
1072.772 .0251379
1073.350 .0251236
1073.928 .0251099
1074.506 .0250970
1075.084 .0250847
1075.662 .0250734
1076.240 .0250627
1076.819 .0250529
1077.397 .0250439
1077.976 .0250356
1078.554 .0250283
1079.133 .0250219
1079.711 .0250167
1080.290 .0250128
1080.869 .0250102
1081.448 .0250088
1082.027 .0250086
1082.606 .0250093
1083.185 .0250108
1083.764 .0250128
1084.343 .0250152
1084.923 .0250179
1085.502 .0250209
1086.082 .0250244
1086.662 .0250283
1087.242 .0250326
1087.822 .0250374
1088.402 .0250424
1088.983 .0250476
1089.563 .0250527
1090.144 .0250576
1090.725 .0250621
1091.306 .0250664
1091.887 .0250703
1092.469 .0250741
1093.050 .0250779
1093.632 .0250817
1094.214 .0250857
1094.796 .0250897
1095.379 .0250937
1095.961 .0250975
1096.544 .0251010
1097.127 .0251040
1097.710 .0251066
1098.294 .0251088
1098.877 .0251108
1099.461 .0251125
1100.046 .0251142
1100.630 .0251159
1101.215 .0251178
1101.800 .0251198
1102.385 .0251220
1102.970 .0251245
1103.556 .0251272
1104.142 .0251305
1104.728 .0251344
1105.315 .0251390
1105.902 .0251448
1106.489 .0251521
1107.077 .0251609
1107.664 .0251717
1108.253 .0251845
1108.841 .0251995
1109.430 .0252168
1110.019 .0252361
1110.609 .0252575
1111.198 .0252808
1111.789 .0253059
1112.379 .0253325
1112.970 .0253608
1113.561 .0253906
1114.153 .0254221
1114.745 .0254551
1115.338 .0254898
1115.931 .0255259
1116.524 .0255634
1117.117 .0256023
1117.712 .0256423
1118.306 .0256832
1118.901 .0257249
1119.496 .0257671
1120.092 .0258097
1120.689 .0258526
1121.285 .0258960
1121.882 .0259398
1122.480 .0259842
1123.078 .0260294
1123.677 .0260754
1124.276 .0261223
1124.875 .0261703
1125.476 .0262193
1126.076 .0262694
1126.677 .0263204
1127.279 .0263726
1127.881 .0264259
1128.484 .0264806
1129.087 .0265018
1129.691 .0265581
1130.295 .0266163
1130.900 .0266768
1131.505 .0267395
1132.111 .0268042
1132.718 .0268709
1133.325 .0269393
1133.933 .0270082
1134.541 .0270816
1135.150 .0271543
1135.760 .0272246
1136.370 .0272947
1136.981 .0274163
1137.592 .0275132
1138.204 .0276128
1138.817 .0277149
1139.431 .0278173
1140.045 .0279144
1140.660 .0280055
1141.275 .0280864
1141.891 .0281312
1142.508 .0282919
1143.126 .0283037
1143.744 .0282607
1144.363 .0282799
1144.983 .0276148
